sample name	sample
index	474
start time	 03-11-2021  12:41:17 PM
880	0.073114
Peak Time (s)	92.537
Peak Height 	0.07311
calc peak height	90,93
Baseline Time (s)	8.535
Baseline Value 	-0.005255
subtract baseline	10,4
Abs	0.025897
Peak Time (s)	90.035
Peak Height 	0.0259
calc peak height	90,93
Baseline Time (s)	11.537
Baseline Value 	0.002258
subtract baseline	10,3
PK_550	0.017876
Peak Time (s)	90.035
Peak Height 	0.01788
calc peak height	90,93
Baseline Time (s)	9.035
Baseline Value 	2.9932E-4
subtract baseline	10,2
PK_880	0.025561
Peak Time (s)	92.036
Peak Height 	0.02556
calc peak height	90,93
Baseline Time (s)	10.536
Baseline Value 	0.002261
subtract baseline	10,1


Time (s)	A880-A510	A880-A775	A880-A975	A880	I510	I775	I975	I880	
0.041000	-0.003013	-0.000480	-0.000821	0.005956	7003.765222	45171.805915	3955.498030	24001.228711
0.535500	-0.003152	-0.000304	-0.002730	0.006029	7001.743477	45181.843829	3950.382253	23997.654230
1.035500	-0.001984	-0.000490	-0.005969	0.005081	7021.947532	45256.013173	3944.504560	24043.852296
1.536500	-0.003732	-0.000497	-0.006093	0.006346	6993.207327	45132.219895	3940.953342	23982.230208
2.036500	-0.002821	-0.000361	-0.002327	0.002110	7042.424618	45559.303505	3961.560927	24189.258443
2.537000	-0.000599	0.000277	-0.003248	0.002307	7061.945650	45602.569148	3958.659460	24179.575400
3.037000	0.001916	0.000949	0.001118	-0.000079	7109.569716	45904.202290	3976.301715	24297.034565
3.537500	-0.003300	0.001109	-0.001834	0.006938	6991.692464	45230.947960	3950.351819	23953.473760
4.035000	-0.002338	0.000624	0.002182	0.001492	7053.030982	45717.036047	3974.968852	24219.659640
4.535000	-0.000746	0.000236	0.000210	0.000960	7073.566271	45731.132284	3971.188037	24245.832979
5.035500	-0.000528	0.000553	0.002033	0.001212	7073.229108	45737.560010	3975.312370	24233.418430
5.536000	0.000152	0.000907	0.003606	0.000794	7083.875938	45813.661240	3980.562484	24253.987565
6.036500	0.001961	0.000175	-0.003982	0.000462	7104.733024	45774.209858	3961.543352	24270.359395
6.536500	0.000235	0.000038	0.004984	-0.000196	7094.321576	45825.688335	3986.837402	24302.825205
7.037000	-0.000448	-0.000338	-0.002056	-0.000512	7090.748456	45819.693126	3969.107168	24318.418132
7.537000	0.001352	0.000752	-0.000608	0.000933	7094.197018	45784.642147	3969.114380	24247.135739
8.037500	0.000532	0.000871	-0.002010	0.000855	7086.972958	45804.062581	3965.653552	24250.967646
8.535000	-0.000336	-0.000173	0.000616	0.000000	7086.856256	45785.521445	3974.772615	24293.145292
9.035000	-0.001631	0.000000	0.000417	-0.000191	7076.141588	45821.455144	3974.753904	24302.584741
9.535000	0.001016	0.000320	-0.002427	0.000097	7099.071705	45824.606888	3966.544399	24288.347583
10.035500	0.000958	-0.000167	0.002085	-0.000105	7100.478512	45796.467294	3978.921513	24298.345633
10.536000	0.000000	0.000150	-0.001343	-0.000257	7092.622419	45842.731914	3970.306589	24305.825388
11.036500	0.001682	-0.000074	-0.000980	0.000119	7105.356213	45783.472498	3970.272247	24287.271686
11.537000	-0.000218	0.000024	0.000000	0.000002	7087.989488	45804.774409	3973.149598	24293.054297
12.037000	-0.003889	0.000517	-0.003299	0.004782	7006.608283	45383.536116	3952.129537	24058.443419
12.540000	-0.000891	-0.000311	0.000686	0.000063	7080.855550	45765.750600	3974.793806	24290.058024
13.034500	0.003371	0.000691	-0.003077	-0.001142	7134.253784	45983.888604	3968.083413	24349.570055
13.535000	-0.000490	0.000228	0.002908	0.000433	7081.152544	45782.375231	3979.673066	24271.795805
14.035000	-0.002052	0.000019	-0.000708	0.004055	7031.125992	45405.891935	3960.715007	24093.948785
14.535500	-0.003150	-0.000792	0.002514	0.002201	7038.385872	45508.065173	3973.977787	24184.796523
15.036000	0.002112	0.000006	0.003900	0.000723	7103.657995	45731.848086	3981.527780	24257.482539
15.558000	0.001482	0.000168	-0.000167	-0.000057	7105.124191	45824.832109	3972.865003	24295.956055
16.036500	-0.002130	-0.000164	0.001863	0.003608	7034.673964	45431.788490	3968.580564	24115.828354
16.537000	0.000512	0.000337	-0.000863	0.000742	7087.892005	45762.586368	3968.948715	24256.574828
17.040000	-0.000915	0.000278	-0.000738	0.000462	7076.753166	45784.438039	3970.007259	24270.368117
17.537500	-0.003604	0.000307	-0.001390	0.002760	7028.667329	45561.141055	3962.309399	24157.392592
18.037500	-0.000633	0.000046	0.000724	0.002150	7063.136345	45595.336961	3969.417016	24187.319867
18.535000	-0.000484	0.000307	0.003859	0.001782	7068.141371	45657.206747	3978.621959	24205.397302
19.035500	-0.001439	0.000524	-0.000992	0.001515	7061.476616	45704.776755	3966.590377	24218.499552
19.535500	-0.000735	0.000183	-0.000227	0.001488	7068.552648	45673.907606	3968.661486	24219.845357
20.036000	-0.001492	0.000010	0.002569	0.002797	7048.605023	45528.359923	3972.556807	24155.573255
20.536000	-0.000465	0.000500	0.002833	0.001918	7067.005027	45662.881904	3975.560076	24198.720423
21.036500	0.000537	0.000936	0.004158	0.002101	7074.934886	45687.677108	3978.568389	24189.696690
21.537000	-0.001345	0.000320	-0.004360	0.001496	7062.574966	45686.538715	3957.878677	24219.420590
22.037500	-0.001383	0.000235	-0.000961	0.002964	7048.048832	45534.003988	3962.895131	24147.370385
22.535000	-0.000986	-0.000324	-0.001142	0.001339	7067.566356	45638.658836	3966.656495	24227.150469
23.035000	-0.002963	-0.000033	0.004402	0.001337	7048.490741	45667.445767	3981.229810	24227.248529
23.535500	-0.001390	0.000366	0.004762	0.001580	7061.319794	45682.882127	3981.540329	24215.292236
24.035500	-0.002248	0.000737	0.001875	0.003251	7036.959500	45555.026881	3969.546016	24133.300233
24.535500	0.002121	0.000640	-0.000047	0.001754	7093.695077	45692.725710	3968.433834	24206.748071
25.036000	-0.000684	0.001047	-0.005799	0.002238	7061.788087	45685.163711	3952.242614	24182.974573
25.536000	-0.000277	-0.000082	0.000018	0.001605	7071.849723	45636.275060	3968.992885	24214.062119
26.036500	0.000178	0.000855	-0.003754	0.002238	7070.134410	45666.211829	3957.529169	24182.991927
26.537000	-0.000076	0.000067	-0.000089	0.001570	7074.140645	45654.492628	3968.806495	24215.813772
27.037500	-0.002636	-0.000312	0.001177	0.001388	7051.156772	45635.043410	3972.599704	24224.756110
27.534500	-0.002204	0.001050	0.001784	0.003589	7034.150827	45552.712100	3968.426019	24116.779531
28.035000	0.002413	0.001103	0.004169	-0.001472	7128.089239	46057.607762	3988.063574	24365.918659
28.535000	-0.001483	0.000580	-0.001061	0.000369	7072.143209	45823.390821	3969.404175	24274.922536
29.041500	-0.000484	0.000620	0.001879	0.000287	7082.631042	45835.393855	3977.340720	24278.972474
29.536000	-0.003121	-0.000764	0.001818	0.004099	7020.466761	45325.154240	3967.181825	24091.816580
30.036500	0.000735	-0.000066	0.002541	-0.000252	7099.735458	45820.979506	3980.513717	24305.588652
30.536000	-0.001913	0.000294	-0.002363	0.000434	7067.353702	45788.825314	3965.834848	24271.757571
31.045500	0.001253	0.001150	0.000203	0.000787	7094.663137	45838.434416	3971.622306	24254.351537
31.538500	-0.001525	0.000659	-0.001036	0.003663	7039.954196	45507.061253	3960.882704	24113.144560
32.035000	-0.001124	0.000630	0.003618	0.002143	7058.460428	45653.471277	3977.034711	24187.646964
32.553000	0.000577	0.001014	0.006810	0.001053	7085.493521	45798.694202	3988.372440	24241.241527
33.035500	-0.001673	0.000026	-0.006250	-0.000165	7075.478032	45821.452690	3957.287316	24301.278943
33.535500	-0.003584	0.000319	-0.002185	0.004359	7013.551653	45405.542476	3956.098188	24079.098341
34.035500	-0.002663	-0.000221	0.000149	-0.000305	7067.254589	45810.941354	3974.348572	24308.222604
34.536000	0.000507	-0.000460	-0.000449	-0.002251	7117.045314	45979.796846	3977.897156	24404.546158
35.036500	-0.002213	0.000580	0.003232	0.002402	7045.460076	45622.978450	3975.335884	24174.913236
35.539000	-0.000822	0.000928	0.003263	0.003312	7050.097948	45567.841609	3973.024505	24130.300262
36.037000	-0.000579	0.001302	0.000515	0.004515	7040.860841	45486.523172	3962.698516	24071.485867
36.537000	0.001574	0.001001	0.002583	0.003385	7072.536846	45567.839852	3971.048141	24126.719855
37.034500	-0.001972	0.000336	-0.002256	0.002447	7047.350295	45594.715551	3960.872858	24172.735938
37.535000	-0.002310	0.000036	0.000101	0.002881	7039.918572	45522.546521	3965.878570	24151.431062
38.035000	-0.002347	0.000415	-0.000846	0.003955	7029.252127	45454.457183	3960.616889	24098.831714
38.535500	-0.000882	0.001059	-0.000082	0.003179	7050.793718	45593.706486	3964.621156	24136.811817
39.036000	-0.001089	0.000238	-0.000774	0.002519	7055.169084	45577.917720	3964.541439	24169.196469
39.536500	-0.003158	-0.000014	-0.000565	0.001785	7042.310831	45625.283471	3966.998567	24205.221781
40.037000	-0.000737	0.000733	-0.001575	0.003813	7046.086377	45499.542541	3959.093642	24105.780790
40.536500	0.000501	0.000695	0.001291	0.002726	7068.536194	45602.503138	3969.392520	24159.046995
41.037000	0.000641	0.000672	0.000282	0.003072	7066.537820	45566.256491	3965.849789	24142.057969
41.534000	-0.002520	-0.000110	-0.001362	0.002246	7044.014879	45570.646073	3963.719258	24182.611588
42.034500	-0.003362	-0.000316	0.000264	0.003718	7021.809386	45406.185053	3964.121440	24110.445245
42.534500	0.001322	0.000281	-0.001301	0.002854	7075.247246	45549.207382	3962.293992	24152.745345
43.035000	-0.002901	-0.000105	0.000525	0.002327	7039.569946	45563.103868	3968.432784	24178.606084
43.535000	-0.000431	-0.000272	-0.002426	0.002019	7066.350908	45576.893109	3961.541475	24193.722440
44.036000	-0.001667	0.000845	0.002557	0.004257	7032.882216	45467.029496	3968.698668	24084.068981
44.535500	-0.002410	-0.000461	-0.006709	0.001120	7055.929776	45646.778779	3952.781611	24237.965868
45.036000	0.001400	0.000246	0.005104	-0.002754	7130.728244	46099.809573	3993.977553	24429.479208
45.540000	0.001653	0.000087	0.001858	0.000470	7101.642328	45764.720807	3976.804873	24269.942686
46.056000	-0.001873	0.000274	-0.001347	0.005302	7020.898245	45309.031633	3955.827037	24033.071702
46.534500	0.001339	0.000373	0.004175	0.000506	7098.231366	45789.423688	3982.828401	24268.180477
47.035000	-0.000441	0.000351	-0.000190	-0.000226	7088.031485	45859.627489	3973.250884	24304.315222
47.535000	-0.000113	0.001186	0.000795	0.003036	7059.594203	45620.222894	3967.283335	24143.819971
48.035500	-0.001822	0.000476	-0.000590	0.004063	7033.263402	45449.939206	3961.000360	24093.578344
48.536000	-0.001691	0.000275	0.000581	0.002978	7044.940941	45536.541006	3966.875953	24146.665386
49.036000	-0.001515	-0.000042	0.002156	0.002900	7047.391254	45513.073491	3971.204338	24150.519770
49.539000	-0.001472	0.000286	-0.001405	0.001413	7062.156427	45691.523119	3965.779850	24223.548975
50.037000	-0.001137	0.000312	-0.001523	0.004464	7035.984869	45394.595858	3957.541632	24073.993569
50.537000	-0.000641	0.000692	0.002229	0.000660	7077.478927	45805.659291	3977.280765	24260.581477
51.037000	0.002362	0.000318	0.003672	-0.001593	7128.773942	45991.680678	3987.062731	24371.899230
51.535000	-0.000619	0.000453	0.001190	0.003718	7048.137421	45481.390158	3966.534932	24110.423164
52.035000	-0.001756	-0.000505	-0.001023	0.001176	7061.694359	45636.903739	3967.393400	24235.185426
52.535000	-0.024754	-0.009713	0.004712	0.229582	5217.456395	27638.184440	3512.235887	15493.119376
53.035500	-0.056160	-0.018092	-0.003478	0.300822	4722.320513	23498.444996	3398.659246	13581.949547
53.535500	-0.042757	-0.002136	-0.015137	0.254016	4998.479322	26697.272743	3446.365125	14802.018788
54.039000	-0.046537	-0.014562	-0.037824	-0.036569	6994.255380	48031.325531	3969.863902	26175.987594
54.536500	-0.035738	-0.131616	-0.038650	-0.296027	10558.390985	65535.000000	4895.470503	45234.801248
55.036500	-0.033798	-0.166935	-0.026129	-0.331346	11247.542001	65535.000000	5135.682496	48824.863439
55.537000	-0.046012	-0.137019	-0.022551	-0.301429	10472.582289	65535.000000	5000.166923	45765.226520
56.034000	-0.045408	-0.158872	-0.028759	-0.323283	10876.307199	65535.000000	5079.676051	47979.432359
56.535000	-0.031103	-0.126730	-0.015326	-0.291141	10553.932465	65535.000000	4984.931170	44760.715779
57.035000	-0.023587	-0.100342	-0.020062	-0.264753	10226.994218	65535.000000	4836.088575	42290.652368
57.535000	-0.018892	-0.100358	-0.020359	-0.264769	10307.277814	65535.000000	4834.791260	42292.095033
58.036000	-0.011845	-0.082999	-0.017441	-0.247410	10132.670321	65535.000000	4769.320804	40747.133773
58.538500	-0.007253	-0.050234	-0.008871	-0.206239	9545.609371	64334.789358	4629.262637	37320.421416
59.036000	0.000516	-0.032455	-0.011006	-0.179432	9259.094402	63071.345955	4513.441492	35257.706495
59.537000	-0.001000	-0.009873	-0.010379	-0.120041	8422.438257	58183.678652	4300.742594	31116.909905
60.036500	-0.003164	-0.003362	-0.013436	-0.083393	7947.349162	54479.063605	4172.481591	28830.322167
60.537000	-0.001379	-0.001786	-0.010940	-0.064168	7747.305111	52425.876613	4121.853725	27705.744147
61.034500	-0.001020	-0.003081	-0.006679	-0.063506	7743.911936	52203.376822	4132.583481	27667.957642
61.534500	-0.004117	-0.003095	-0.005056	-0.062092	7693.482310	52041.569495	4133.207997	27587.265731
62.035500	-0.003065	0.000790	-0.004615	-0.024058	7299.360081	48327.422164	4025.371631	25513.919593
62.536000	-0.003432	0.002255	-0.002608	0.001683	7040.648977	45859.088093	3961.940800	24210.239140
63.036000	-0.000293	0.004295	-0.002278	0.010286	6988.456112	45215.191017	3940.634629	23791.506064
63.536500	0.009152	0.009052	-0.003237	0.018203	7002.983333	44908.533278	3918.219805	23413.373167
64.036500	0.014293	0.011153	0.002828	0.002578	7205.642030	46657.655982	3973.813327	24166.320549
64.537000	0.018680	0.013307	0.000468	0.008566	7189.668722	46273.293931	3952.086261	23874.563969
65.086000	0.019555	0.013309	0.005472	0.010271	7181.413212	46103.560186	3960.621244	23792.224354
65.540500	0.020079	0.013971	0.005557	0.013043	7159.128320	45894.251773	3953.665022	23659.024814
66.035000	0.017503	0.014229	0.000624	0.021849	7048.057429	45056.832396	3918.758423	23241.554668
66.535500	0.020923	0.013651	0.007425	0.019873	7100.353113	45192.657823	3940.931102	23334.505581
67.035500	0.022887	0.014041	0.007712	0.023364	7085.490754	44891.916429	3932.786131	23170.594345
67.536000	0.021074	0.014155	0.008773	0.026427	7038.371149	44607.916965	3927.724147	23027.844109
68.036000	0.016205	0.014458	0.007759	0.034919	6911.943122	43829.277575	3904.019822	22637.355599
68.536000	0.021515	0.014159	0.004218	0.031687	6992.314813	44106.437745	3903.256546	22785.054128
69.037000	0.020347	0.014835	0.007450	0.034464	6955.002687	43907.750936	3904.378127	22658.068094
69.537000	0.023067	0.015504	0.013255	0.038222	6945.239527	43617.305417	3909.441608	22487.504198
70.037000	0.017479	0.016525	0.003998	0.045703	6824.292330	43016.518343	3868.733350	22152.321660
70.535000	0.020442	0.016791	0.011961	0.042882	6877.370941	43302.465203	3894.780916	22278.025925
71.035000	0.022467	0.016477	0.012860	0.045721	6869.853297	43010.346216	3890.048162	22151.504969
71.535500	0.023721	0.017633	0.010398	0.048839	6852.698732	42829.587117	3876.548866	22013.477661
72.035500	0.021010	0.015756	0.008380	0.054055	6780.577807	42183.191001	3859.305041	21784.829245
72.539000	0.023903	0.018229	0.013209	0.051199	6832.758073	42667.915308	3877.634762	21909.704581
73.036500	0.026038	0.017858	0.011833	0.052196	6843.165173	42542.863610	3871.938881	21866.005427
73.536500	0.024977	0.018501	0.018764	0.053809	6818.746034	42454.468224	3884.742380	21795.555275
74.037000	0.022658	0.018693	0.009955	0.059140	6749.711655	41989.471109	3851.040452	21564.538040
74.537000	0.025108	0.019765	0.013691	0.054959	6809.485408	42464.948707	3869.776263	21745.506675
75.034500	0.027354	0.020084	0.017790	0.055724	6822.960674	42424.318630	3877.769030	21712.259368
75.535000	0.028660	0.019706	0.012964	0.056421	6828.504895	42326.673989	3864.561317	21682.022471
76.035500	0.025791	0.019665	0.016244	0.062106	6751.204927	41810.546996	3858.863404	21437.235258
76.535500	0.027929	0.019519	0.018721	0.056877	6817.692498	42268.336772	3877.233785	21662.271623
77.038500	0.029127	0.020549	0.021584	0.058363	6815.078988	42227.143715	3880.551033	21598.064732
77.536000	0.028640	0.019657	0.019159	0.058604	6808.459935	42124.649985	3874.139592	21587.665951
78.036000	0.025135	0.019241	0.015127	0.063836	6729.920606	41618.171841	3852.160225	21363.402597
78.536500	0.026936	0.019631	0.016854	0.060010	6780.314707	41995.615092	3865.276050	21527.110428
79.036500	0.025842	0.020246	0.015350	0.060236	6768.440275	42030.669092	3861.172683	21517.428767
79.537000	0.027724	0.019188	0.020404	0.060894	6779.451986	41876.420120	3871.636177	21489.161158
80.035000	0.027392	0.019264	0.012686	0.067312	6719.093386	41311.782665	3838.364834	21215.908253
80.538000	0.026833	0.020000	0.015055	0.062697	6755.247428	41787.657330	3854.665758	21411.988195
81.035500	0.029449	0.020315	0.020690	0.064294	6764.387843	41673.165675	3864.213668	21343.917509
81.536000	0.026526	0.019704	0.017926	0.063716	6743.390832	41670.216557	3859.034114	21368.533482
82.036000	0.021701	0.017944	0.014668	0.069388	6650.775035	41012.712358	3838.145152	21128.351127
82.536500	0.026843	0.019811	0.019591	0.065359	6731.563387	41533.336435	3859.085875	21298.609349
83.036500	0.027998	0.019630	0.018821	0.066167	6734.655319	41445.491505	3855.362985	21264.350729
83.536500	0.029227	0.020121	0.020479	0.066901	6739.071447	41423.928740	3857.541301	21233.271577
84.037000	0.022273	0.019524	0.019267	0.072761	6626.442261	40855.821028	3840.988850	20987.039286
84.537500	0.025112	0.018590	0.020655	0.067215	6699.764355	41260.731651	3857.216357	21219.984121
85.034500	0.026291	0.019483	0.021016	0.069483	6690.162267	41139.595436	3852.729209	21124.384607
85.538000	0.024710	0.019645	0.019464	0.068893	6681.446517	41205.826899	3850.469678	21149.201006
86.035500	0.025696	0.018775	0.023245	0.069213	6687.302851	41101.029082	3858.613667	21135.731531
86.535500	0.026017	0.018567	0.023310	0.069739	6685.489265	41036.581884	3857.523639	21113.588188
87.036000	0.025788	0.019139	0.023730	0.070170	6679.693505	41048.899532	3857.498404	21095.483288
87.536500	0.025432	0.017689	0.022352	0.069696	6680.729502	40963.393663	3855.367942	21115.395641
88.036500	0.025601	0.018610	0.018778	0.070841	6672.172353	40943.762327	3844.316771	21067.360610
88.536500	0.027051	0.017289	0.019832	0.070524	6687.689473	40855.997414	3847.514555	21080.643583
89.037000	0.024919	0.017511	0.022446	0.070811	6666.456141	40850.351335	3852.967757	21068.623607
89.535000	0.023958	0.016544	0.023725	0.070892	6657.345568	40758.931446	3855.786134	21065.224854
90.035000	0.025296	0.017876	0.025897	0.072135	6658.175334	40766.624678	3857.974589	21013.169847
90.535000	0.024462	0.017581	0.017667	0.072207	6650.274428	40734.725242	3838.563120	21010.175231
91.038500	0.024576	0.017030	0.019426	0.072404	6649.555041	40669.640338	3842.187738	21001.955519
91.536000	0.024973	0.017124	0.021715	0.072099	6655.667608	40704.357787	3848.234332	21014.688949
92.036000	0.025561	0.017125	0.020646	0.072757	6655.052127	40647.206864	3844.204520	20987.184996
92.536500	0.024624	0.017333	0.022611	0.073114	6643.783245	40634.296060	3847.955813	20972.308081
93.036500	0.024113	0.016556	0.022990	0.075539	6618.323712	40357.228633	3843.184139	20871.446291
93.540000	0.024323	0.016617	0.024911	0.073107	6641.230013	40572.765625	3853.364603	20972.604917
94.037000	0.022247	0.016651	0.021449	0.078899	6573.430698	40076.862099	3831.846789	20732.648109
94.535000	0.025550	0.015776	0.022902	0.072643	6655.952052	40540.045230	3849.737507	20991.944295
95.035000	0.025211	0.016515	0.014381	0.077290	6612.693075	40203.184961	3819.367495	20799.006483
95.535500	0.024828	0.015374	0.017676	0.074076	6637.193837	40381.511669	3834.265083	20932.233976
96.055500	0.022241	0.015296	0.020950	0.079186	6570.934385	39936.718630	3830.041426	20720.857858
96.536000	0.024004	0.015640	0.023351	0.074320	6627.932816	40383.414900	3846.866991	20922.081737
97.035500	0.022714	0.015432	0.023422	0.077779	6587.011994	40068.439132	3838.986183	20778.795101
97.537000	0.023762	0.016540	0.028014	0.074941	6620.462307	40407.508859	3856.351502	20896.288499
98.036500	0.020724	0.014921	0.022771	0.079211	6557.796530	39902.574781	3834.172593	20719.808524
98.536500	0.025249	0.015390	0.020225	0.074156	6640.163433	40376.033133	3839.975458	20928.921496
