sample name	sample
index	5
start time	 02-11-2021  11:18:19 AM


Wavelength (nm)	Absorbance
494.344910	-0.066726
494.563924	-0.066726
494.782919	-0.066726
495.001897	-0.157685
495.220856	-0.075851
495.439797	-0.044253
495.658719	-0.055770
495.877624	-0.072392
496.096510	-0.090705
496.315378	-0.099435
496.534227	-0.108788
496.753059	-0.088932
496.971872	-0.071341
497.190667	-0.015418
497.409444	-0.010216
497.628203	0.000083
497.846943	0.006105
498.065665	0.011271
498.284369	0.010790
498.503055	0.010478
498.721723	0.009213
498.940372	0.009453
499.159003	0.008538
499.377616	0.009012
499.596210	0.007547
499.814787	0.004388
500.033345	0.002810
500.251885	0.003289
500.470406	0.003669
500.688910	0.004138
500.907395	0.003447
501.125862	0.004879
501.344311	0.004651
501.562742	0.006849
501.781154	0.007164
501.999548	0.008523
502.217924	0.009349
502.436282	0.008132
502.654621	0.007727
502.872942	0.006992
503.091245	0.007094
503.309530	0.006196
503.527797	0.006195
503.746045	0.008234
503.964275	0.006974
504.182487	0.006438
504.400681	0.005755
504.618856	0.004258
504.837013	0.004305
505.055152	0.003179
505.273273	0.003511
505.491376	0.002287
505.709460	0.002114
505.927526	0.002630
506.145574	0.000856
506.363604	0.001482
506.581615	0.003506
506.799608	0.004798
507.017583	0.005578
507.235540	0.005240
507.453478	0.005780
507.671399	0.005031
507.889301	0.003752
508.107185	0.004159
508.325050	0.004097
508.542898	0.002943
508.760727	0.001923
508.978538	0.001040
509.196330	0.000659
509.414105	-0.000081
509.631861	0.001128
509.849599	0.002209
510.067319	0.003305
510.285021	0.003438
510.502704	0.003845
510.720369	0.004650
510.938016	0.004032
511.155645	0.004167
511.373255	0.003901
511.590848	0.003031
511.808422	0.003231
512.025977	0.002864
512.243515	0.002215
512.461034	0.001144
512.678536	0.000337
512.896018	0.000726
513.113483	0.002044
513.330930	0.001887
513.548358	0.002772
513.765768	0.003121
513.983160	0.003095
514.200533	0.002892
514.417889	0.002786
514.635226	0.003325
514.852545	0.002817
515.069845	0.002502
515.287128	0.002460
515.504392	0.001448
515.721638	-0.001090
515.938866	-0.002248
516.156075	-0.001099
516.373267	-0.000333
516.590440	-0.000320
516.807594	0.001194
517.024731	0.000159
517.241850	-0.000005
517.458950	0.000233
517.676032	0.001930
517.893095	0.002870
518.110141	0.002826
518.327168	0.002261
518.544177	0.001513
518.761168	0.000053
518.978141	-0.000430
519.195095	0.000159
519.412031	0.000265
519.628949	0.000407
519.845849	0.000832
520.062731	0.000390
520.279594	0.001886
520.496439	0.002133
520.713266	0.003232
520.930074	0.005313
521.146865	0.005534
521.363637	0.005545
521.580391	0.005063
521.797127	0.004186
522.013844	0.002736
522.230543	0.002675
522.447224	0.002541
522.663887	0.002014
522.880532	0.001334
523.097158	0.001032
523.313766	0.001298
523.530356	0.001116
523.746928	0.001628
523.963481	0.003351
524.180017	0.003240
524.396534	0.003511
524.613032	0.003616
524.829513	0.004218
525.045975	0.003611
525.262420	0.003837
525.478845	0.003374
525.695253	0.003795
525.911643	0.003789
526.128014	0.004223
526.344367	0.005245
526.560702	0.005683
526.777018	0.004649
526.993316	0.004720
527.209597	0.004986
527.425858	0.006093
527.642102	0.005662
527.858328	0.004437
528.074535	0.003420
528.290724	0.001960
528.506894	0.001785
528.723047	0.002668
528.939181	0.002843
529.155297	0.002806
529.371395	0.002635
529.587475	0.003070
529.803536	0.002963
530.019579	0.003327
530.235604	0.004635
530.451611	0.004789
530.667600	0.003633
530.883570	0.003280
531.099522	0.002270
531.315456	0.002744
531.531372	0.002331
531.747269	0.002678
531.963148	0.002634
532.179009	0.001181
532.394852	0.001049
532.610676	0.000844
532.826482	0.001352
533.042271	0.002008
533.258040	0.001270
533.473792	0.001625
533.689525	0.002513
533.905240	0.002263
534.120937	0.002483
534.336616	0.001400
534.552277	0.002879
534.767919	0.002789
534.983543	0.002386
535.199149	0.001536
535.414736	0.001412
535.630306	0.000532
535.845857	0.000998
536.061390	0.001847
536.276904	0.003143
536.492401	0.002789
536.707879	0.003089
536.923339	0.003297
537.138781	0.005068
537.354204	0.004713
537.569610	0.005842
537.784997	0.006014
538.000366	0.005882
538.215716	0.005891
538.431049	0.006233
538.646363	0.005941
538.861659	0.006018
539.076937	0.005820
539.292196	0.006696
539.507438	0.006337
539.722661	0.006277
539.937866	0.005956
540.153052	0.005766
540.368221	0.005334
540.583371	0.005759
540.798503	0.005801
541.013617	0.005830
541.228712	0.005922
541.443789	0.006453
541.658848	0.006623
541.873889	0.006046
542.088912	0.006358
542.303916	0.006227
542.518902	0.006347
542.733870	0.006285
542.948820	0.006573
543.163752	0.006238
543.378665	0.005563
543.593560	0.005847
543.808437	0.006990
544.023295	0.006491
544.238136	0.006791
544.452958	0.007333
544.667762	0.007692
544.882548	0.007079
545.097315	0.007000
545.312064	0.006717
545.526795	0.006204
545.741508	0.006209
545.956203	0.006359
546.170879	0.005737
546.385537	0.004323
546.600177	0.004276
546.814799	0.004777
547.029402	0.004716
547.243988	0.005389
547.458555	0.004882
547.673103	0.004160
547.887634	0.003846
548.102146	0.004063
548.316640	0.005045
548.531116	0.005146
548.745574	0.005128
548.960013	0.004545
549.174435	0.004484
549.388838	0.005099
549.603222	0.005203
549.817589	0.005140
550.031937	0.005223
550.246267	0.005305
550.460579	0.005034
550.674873	0.004579
550.889148	0.005204
551.103405	0.004523
551.317644	0.005158
551.531865	0.005810
551.746068	0.006504
551.960252	0.006802
552.174418	0.006499
552.388566	0.006524
552.602696	0.006773
552.816807	0.006150
553.030900	0.006959
553.244975	0.005992
553.459032	0.005575
553.673070	0.005944
553.887091	0.005568
554.101093	0.005566
554.315077	0.005062
554.529042	0.004255
554.742990	0.004975
554.956919	0.004220
555.170830	0.004387
555.384722	0.004188
555.598597	0.002967
555.812453	0.003729
556.026291	0.003766
556.240111	0.003932
556.453913	0.004966
556.667696	0.004857
556.881461	0.005703
557.095208	0.005441
557.308937	0.005922
557.522647	0.006146
557.736339	0.005028
557.950013	0.004496
558.163669	0.004094
558.377307	0.003601
558.590926	0.003470
558.804527	0.003600
559.018110	0.003767
559.231675	0.003096
559.445221	0.003249
559.658749	0.004461
559.872259	0.005137
560.085751	0.005688
560.299225	0.006174
560.512680	0.005946
560.726117	0.005547
560.939536	0.005680
561.152937	0.005920
561.366319	0.006695
561.579683	0.005972
561.793029	0.005586
562.006357	0.005744
562.219667	0.005877
562.432958	0.005830
562.646231	0.006140
562.859486	0.005990
563.072723	0.006505
563.285941	0.005935
563.499141	0.005695
563.712323	0.005805
563.925487	0.005806
564.138632	0.005645
564.351760	0.005473
564.564869	0.005099
564.777960	0.004553
564.991032	0.004074
565.204087	0.004150
565.417123	0.004444
565.630141	0.004292
565.843140	0.003697
566.056122	0.003481
566.269085	0.003738
566.482030	0.003651
566.694957	0.004093
566.907866	0.004335
567.120756	0.004690
567.333628	0.004453
567.546482	0.004738
567.759318	0.004967
567.972135	0.004500
568.184935	0.004402
568.397716	0.004700
568.610478	0.004967
568.823223	0.004740
569.035949	0.003884
569.248657	0.004336
569.461347	0.003970
569.674019	0.004262
569.886672	0.004855
570.099308	0.005178
570.311925	0.004982
570.524523	0.004920
570.737104	0.005025
570.949666	0.005375
571.162210	0.005282
571.374736	0.005226
571.587244	0.005601
571.799733	0.005310
572.012205	0.005386
572.224658	0.005529
572.437092	0.005556
572.649509	0.005128
572.861907	0.005254
573.074287	0.004987
573.286649	0.005064
573.498993	0.004350
573.711318	0.004480
573.923625	0.004151
574.135914	0.003813
574.348185	0.003576
574.560438	0.003849
574.772672	0.003546
574.984888	0.003435
575.197086	0.003573
575.409266	0.003476
575.621427	0.003338
575.833570	0.003471
576.045695	0.003428
576.257802	0.003865
576.469890	0.004016
576.681961	0.003945
576.894013	0.003622
577.106046	0.003074
577.318062	0.003337
577.530059	0.003123
577.742039	0.002699
577.954000	0.002712
578.165942	0.002053
578.377867	0.001532
578.589773	0.001475
578.801661	0.002016
579.013531	0.002635
579.225382	0.002826
579.437216	0.003458
579.649031	0.004012
579.860828	0.003583
580.072606	0.003947
580.284367	0.004423
580.496109	0.004185
580.707833	0.004475
580.919539	0.004094
581.131227	0.003801
581.342896	0.003373
581.554547	0.002924
581.766180	0.003423
581.977795	0.003552
582.189391	0.003688
582.400969	0.004200
582.612529	0.003792
582.824071	0.004052
583.035595	0.004045
583.247100	0.003534
583.458587	0.003582
583.670056	0.003189
583.881506	0.003323
584.092939	0.002969
584.304353	0.002958
584.515749	0.002781
584.727127	0.002740
584.938486	0.003291
585.149828	0.004403
585.361151	0.004368
585.572456	0.004747
585.783742	0.004703
585.995011	0.004935
586.206261	0.004590
586.417493	0.004667
586.628706	0.005019
586.839902	0.004571
587.051079	0.003984
587.262238	0.004633
587.473379	0.004666
587.684502	0.004454
587.895606	0.004656
588.106692	0.005280
588.317760	0.005330
588.528810	0.005391
588.739841	0.005259
588.950855	0.005172
589.161850	0.004406
589.372827	0.004465
589.583785	0.004210
589.794726	0.004030
590.005648	0.003608
590.216552	0.003234
590.427437	0.002437
590.638305	0.002457
590.849154	0.002870
591.059985	0.003617
591.270798	0.003417
591.481592	0.003551
591.692369	0.003778
591.903127	0.003619
592.113867	0.003975
592.324588	0.004453
592.535292	0.004908
592.745977	0.004585
592.956644	0.004193
593.167293	0.004131
593.377923	0.003940
593.588536	0.003480
593.799130	0.003513
594.009706	0.003855
594.220263	0.004093
594.430803	0.003641
594.641324	0.003666
594.851827	0.003424
595.062312	0.003730
595.272778	0.003913
595.483227	0.003877
595.693657	0.004002
595.904069	0.003877
596.114462	0.003563
596.324838	0.003611
596.535195	0.003966
596.745534	0.003965
596.955855	0.003849
597.166157	0.004371
597.376441	0.004861
597.586707	0.005023
597.796955	0.004827
598.007185	0.004682
598.217396	0.005136
598.427589	0.004944
598.637764	0.005378
598.847921	0.005411
599.058060	0.005144
599.268180	0.005214
599.478282	0.005148
599.688366	0.005165
599.898431	0.005563
600.108479	0.004771
600.318508	0.004781
600.528519	0.004832
600.738511	0.004895
600.948486	0.004969
601.158442	0.004859
601.368380	0.004750
601.578300	0.004880
601.788202	0.004832
601.998085	0.005283
602.207950	0.005206
602.417797	0.005095
602.627626	0.005187
602.837436	0.005245
603.047228	0.005093
603.257002	0.005567
603.466758	0.005471
603.676496	0.005173
603.886215	0.005312
604.095916	0.005277
604.305599	0.005134
604.515264	0.005472
604.724910	0.005470
604.934538	0.005449
605.144148	0.004993
605.353740	0.005543
605.563314	0.006056
605.772869	0.006042
605.982406	0.006150
606.191925	0.006113
606.401425	0.005623
606.610908	0.005194
606.820372	0.005160
607.029818	0.005237
607.239246	0.004609
607.448655	0.004022
607.658047	0.003591
607.867420	0.003632
608.076775	0.003780
608.286111	0.003213
608.495430	0.003215
608.704730	0.003467
608.914012	0.003772
609.123275	0.003761
609.332521	0.004471
609.541748	0.004498
609.750957	0.003972
609.960148	0.004080
610.169321	0.004032
610.378475	0.003972
610.587611	0.003840
610.796729	0.003294
611.005829	0.003091
611.214910	0.002827
611.423974	0.003259
611.633019	0.003408
611.842045	0.003040
612.051054	0.003591
612.260044	0.003548
612.469017	0.003439
612.677970	0.003429
612.886906	0.003253
613.095824	0.003235
613.304723	0.002655
613.513604	0.002852
613.722467	0.002867
613.931311	0.002739
614.140138	0.002713
614.348946	0.002662
614.557736	0.002476
614.766507	0.002962
614.975261	0.002854
615.183996	0.003153
615.392713	0.002991
615.601412	0.002900
615.810092	0.002909
616.018754	0.002776
616.227399	0.002795
616.436024	0.003084
616.644632	0.002910
616.853222	0.002649
617.061793	0.002344
617.270346	0.002672
617.478880	0.002825
617.687397	0.002851
617.895895	0.003184
618.104375	0.003308
618.312837	0.003171
618.521281	0.003462
618.729706	0.003726
618.938113	0.004102
619.146502	0.003438
619.354873	0.003648
619.563226	0.003333
619.771560	0.003306
619.979876	0.003044
620.188174	0.003506
620.396453	0.003368
620.604715	0.003054
620.812958	0.002997
621.021183	0.003161
621.229390	0.002922
621.437578	0.003266
621.645748	0.002991
621.853900	0.002964
622.062034	0.002787
622.270150	0.003092
622.478247	0.003373
622.686326	0.003182
622.894387	0.003122
623.102430	0.003095
623.310454	0.003083
623.518461	0.003741
623.726449	0.003864
623.934418	0.003382
624.142370	0.003049
624.350303	0.003071
624.558218	0.003415
624.766115	0.003749
624.973994	0.003888
625.181855	0.004184
625.389697	0.003889
625.597521	0.003603
625.805327	0.004105
626.013114	0.003688
626.220883	0.003807
626.428634	0.003718
626.636367	0.003829
626.844082	0.003729
627.051778	0.003104
627.259457	0.002857
627.467117	0.002795
627.674758	0.002598
627.882382	0.002597
628.089987	0.002252
628.297574	0.002232
628.505143	0.001932
628.712694	0.001857
628.920226	0.001642
629.127740	0.001726
629.335236	0.002161
629.542714	0.002119
629.750174	0.002340
629.957615	0.002234
630.165038	0.002096
630.372443	0.002040
630.579829	0.002163
630.787198	0.002829
630.994548	0.003174
631.201880	0.003274
631.409194	0.003010
631.616489	0.003195
631.823766	0.003476
632.031025	0.003547
632.238266	0.004008
632.445489	0.004127
632.652693	0.004060
632.859879	0.003904
633.067047	0.003336
633.274197	0.003748
633.481329	0.003642
633.688442	0.003892
633.895537	0.003833
634.102614	0.003600
634.309672	0.003571
634.516713	0.003386
634.723735	0.003304
634.930739	0.003724
635.137724	0.003717
635.344692	0.003920
635.551641	0.003727
635.758572	0.003947
635.965485	0.004246
636.172379	0.004331
636.379256	0.004588
636.586114	0.004665
636.792954	0.004896
636.999775	0.005147
637.206579	0.004998
637.413364	0.005091
637.620131	0.004962
637.826880	0.004741
638.033610	0.004782
638.240323	0.004647
638.447017	0.004408
638.653692	0.003949
638.860350	0.004049
639.066990	0.004168
639.273611	0.003822
639.480214	0.004064
639.686798	0.004326
639.893365	0.004321
640.099913	0.004380
640.306443	0.004472
640.512955	0.004648
640.719449	0.004434
640.925924	0.004525
641.132381	0.004822
641.338820	0.004612
641.545241	0.004389
641.751644	0.004136
641.958028	0.004364
642.164394	0.004592
642.370742	0.004883
642.577071	0.004903
642.783383	0.004929
642.989676	0.004747
643.195951	0.004718
643.402207	0.004584
643.608446	0.004585
643.814666	0.004622
644.020868	0.004448
644.227052	0.004386
644.433218	0.004279
644.639365	0.004121
644.845494	0.004013
645.051605	0.004007
645.257698	0.003972
645.463772	0.004102
645.669828	0.003679
645.875866	0.003951
646.081886	0.003853
646.287888	0.003762
646.493871	0.003479
646.699836	0.003714
646.905783	0.003661
647.111712	0.003695
647.317622	0.003679
647.523514	0.003738
647.729388	0.003771
647.935244	0.003865
648.141082	0.003721
648.346901	0.003983
648.552702	0.003828
648.758485	0.003661
648.964250	0.003461
649.169996	0.003502
649.375724	0.003439
649.581434	0.002783
649.787126	0.002659
649.992800	0.002598
650.198455	0.002581
650.404092	0.002822
650.609711	0.003133
650.815311	0.003420
651.020894	0.003543
651.226458	0.003530
651.432004	0.003987
651.637532	0.003815
651.843041	0.004462
652.048532	0.004584
652.254006	0.004336
652.459460	0.004166
652.664897	0.004130
652.870315	0.003944
653.075716	0.004306
653.281097	0.004307
653.486461	0.004601
653.691807	0.004252
653.897134	0.004021
654.102443	0.003946
654.307734	0.004138
654.513006	0.004194
654.718261	0.004113
654.923497	0.004064
655.128715	0.003852
655.333915	0.003475
655.539096	0.003494
655.744259	0.003546
655.949404	0.003702
656.154531	0.003724
656.359640	0.003803
656.564730	0.003899
656.769802	0.003627
656.974856	0.003794
657.179892	0.003957
657.384909	0.003491
657.589908	0.003442
657.794889	0.003264
657.999852	0.003170
658.204797	0.002686
658.409723	0.002830
658.614631	0.002973
658.819521	0.002919
659.024393	0.002938
659.229246	0.003429
659.434081	0.003605
659.638898	0.003961
659.843697	0.004021
660.048478	0.004502
660.253240	0.004341
660.457984	0.004423
660.662710	0.004448
660.867417	0.004569
661.072107	0.004495
661.276778	0.004676
661.481431	0.004285
661.686066	0.004607
661.890682	0.004442
662.095281	0.004148
662.299861	0.004011
662.504422	0.003995
662.708966	0.004024
662.913491	0.004187
663.117999	0.003953
663.322488	0.004156
663.526958	0.003833
663.731411	0.003806
663.935845	0.004348
664.140261	0.004656
664.344659	0.004973
664.549038	0.004774
664.753400	0.004780
664.957743	0.004769
665.162068	0.004854
665.366375	0.004767
665.570663	0.004732
665.774933	0.004561
665.979185	0.004337
666.183419	0.004162
666.387635	0.004560
666.591832	0.004688
666.796011	0.004895
667.000172	0.004822
667.204315	0.005314
667.408439	0.005553
667.612545	0.005663
667.816634	0.005660
668.020703	0.005663
668.224755	0.005459
668.428788	0.005262
668.632803	0.005207
668.836800	0.005349
669.040779	0.005117
669.244739	0.005002
669.448681	0.004992
669.652605	0.004965
669.856511	0.005005
670.060399	0.004786
670.264268	0.004659
670.468119	0.004649
670.671952	0.004718
670.875767	0.004628
671.079563	0.004680
671.283341	0.004675
671.487101	0.004792
671.690843	0.004652
671.894567	0.005077
672.098272	0.005341
672.301959	0.005366
672.505628	0.005072
672.709278	0.005123
672.912911	0.005339
673.116525	0.005462
673.320121	0.005455
673.523699	0.005513
673.727258	0.005416
673.930799	0.005108
674.134322	0.005173
674.337827	0.005169
674.541314	0.005137
674.744782	0.004867
674.948232	0.004788
675.151664	0.004861
675.355078	0.005070
675.558474	0.005044
675.761851	0.005165
675.965210	0.005123
676.168551	0.005529
676.371873	0.005528
676.575178	0.005567
676.778464	0.005419
676.981732	0.005165
677.184981	0.004957
677.388213	0.004832
677.591426	0.004904
677.794621	0.004595
677.997798	0.004322
678.200956	0.004587
678.404097	0.004717
678.607219	0.005101
678.810323	0.005200
679.013408	0.005372
679.216476	0.005487
679.419525	0.005680
679.622556	0.006028
679.825569	0.006315
680.028563	0.006302
680.231540	0.006392
680.434498	0.006096
680.637438	0.006193
680.840359	0.006237
681.043263	0.006276
681.246148	0.006208
681.449015	0.006080
681.651864	0.006118
681.854694	0.005682
682.057506	0.005598
682.260301	0.005735
682.463076	0.005868
682.665834	0.005673
682.868573	0.005654
683.071295	0.005588
683.273998	0.005652
683.476682	0.005493
683.679349	0.005563
683.881997	0.005684
684.084627	0.005435
684.287239	0.005315
684.489833	0.005408
684.692408	0.005291
684.894965	0.005215
685.097504	0.005205
685.300025	0.005472
685.502527	0.005543
685.705012	0.005282
685.907478	0.005392
686.109925	0.005520
686.312355	0.005881
686.514766	0.006135
686.717159	0.006357
686.919534	0.006414
687.121891	0.006183
687.324230	0.006151
687.526550	0.006062
687.728852	0.006705
687.931136	0.006778
688.133401	0.006234
688.335649	0.006152
688.537878	0.006157
688.740089	0.006050
688.942281	0.006294
689.144456	0.006253
689.346612	0.006516
689.548750	0.006187
689.750870	0.005917
689.952971	0.006284
690.155055	0.006514
690.357120	0.006507
690.559167	0.006456
690.761195	0.006287
690.963206	0.006695
691.165198	0.006881
691.367172	0.006627
691.569128	0.006865
691.771065	0.006908
691.972984	0.006710
692.174885	0.006940
692.376768	0.007348
692.578633	0.007302
692.780479	0.007000
692.982308	0.007110
693.184118	0.007522
693.385909	0.007467
693.587683	0.007252
693.789438	0.007368
693.991175	0.007078
694.192894	0.006719
694.394595	0.006757
694.596277	0.006808
694.797941	0.006712
694.999587	0.006763
695.201215	0.007037
695.402824	0.007331
695.604416	0.007247
695.805989	0.007531
696.007543	0.008086
696.209080	0.008286
696.410598	0.008433
696.612099	0.008188
696.813580	0.007832
697.015044	0.007857
697.216490	0.007457
697.417917	0.007468
697.619326	0.007001
697.820717	0.006822
698.022089	0.006431
698.223444	0.006393
698.424780	0.006623
698.626098	0.006734
698.827397	0.006262
699.028679	0.006543
699.229942	0.006272
699.431187	0.006410
699.632414	0.006254
699.833622	0.006394
700.034813	0.006103
700.235985	0.006100
700.437139	0.005817
700.638274	0.006076
700.839392	0.006165
701.040491	0.006398
701.241572	0.006552
701.442635	0.006411
701.643679	0.006439
701.844706	0.006863
702.045714	0.006710
702.246704	0.006743
702.447675	0.006681
702.648629	0.006074
702.849564	0.006053
703.050481	0.005619
703.251380	0.005728
703.452260	0.005763
703.653122	0.005800
703.853966	0.006040
704.054792	0.006206
704.255600	0.006449
704.456389	0.006880
704.657160	0.006873
704.857913	0.007475
705.058648	0.007674
705.259365	0.007808
705.460063	0.007571
705.660743	0.007292
705.861405	0.007162
706.062048	0.007148
706.262674	0.007335
706.463281	0.007816
706.663870	0.007544
706.864441	0.007566
707.064993	0.007394
707.265527	0.007684
707.466043	0.007916
707.666541	0.008153
707.867021	0.007952
708.067482	0.007844
708.267925	0.007443
708.468350	0.007556
708.668757	0.007310
708.869145	0.007517
709.069516	0.007152
709.269868	0.006733
709.470201	0.006400
709.670517	0.006378
709.870814	0.006627
710.071093	0.006686
710.271354	0.006625
710.471597	0.006467
710.671821	0.006313
710.872028	0.006629
711.072216	0.006885
711.272385	0.006901
711.472537	0.007003
711.672670	0.006474
711.872785	0.006200
712.072882	0.006163
712.272961	0.006324
712.473021	0.006390
712.673063	0.006026
712.873087	0.005945
713.073093	0.006095
713.273081	0.005994
713.473050	0.006219
713.673001	0.006266
713.872934	0.006149
714.072849	0.006034
714.272745	0.005847
714.472623	0.005957
714.672483	0.006103
714.872325	0.006174
715.072148	0.006213
715.271954	0.005860
715.471741	0.006012
715.671509	0.006150
715.871260	0.006245
716.070992	0.006167
716.270707	0.006112
716.470403	0.006048
716.670080	0.005900
716.869740	0.005735
717.069381	0.006077
717.269004	0.005911
717.468609	0.005831
717.668195	0.005810
717.867764	0.005751
718.067314	0.005653
718.266846	0.005247
718.466360	0.005170
718.665855	0.004862
718.865332	0.004969
719.064791	0.004921
719.264232	0.004757
719.463655	0.004771
719.663059	0.004937
719.862445	0.004969
720.061813	0.004981
720.261163	0.005107
720.460494	0.005452
720.659807	0.005198
720.859102	0.005236
721.058379	0.005321
721.257638	0.005071
721.456878	0.004759
721.656100	0.004985
721.855304	0.004935
722.054490	0.004504
722.253657	0.004502
722.452806	0.004610
722.651937	0.004536
722.851050	0.004602
723.050145	0.004698
723.249221	0.005086
723.448279	0.004801
723.647319	0.005013
723.846340	0.005271
724.045344	0.004965
724.244329	0.004709
724.443296	0.004279
724.642245	0.004191
724.841175	0.003931
725.040088	0.003455
725.238982	0.003039
725.437857	0.002846
725.636715	0.002537
725.835554	0.002335
726.034376	0.001864
726.233179	0.002066
726.431963	0.001684
726.630730	0.001530
726.829478	0.001595
727.028208	0.001603
727.226920	0.001484
727.425614	0.001566
727.624289	0.001488
727.822946	0.001661
728.021585	0.001716
728.220206	0.001841
728.418808	0.001978
728.617392	0.001730
728.815958	0.001894
729.014506	0.002001
729.213036	0.002241
729.411547	0.002527
729.610040	0.002666
729.808515	0.002540
730.006972	0.002476
730.205410	0.002584
730.403831	0.002968
730.602233	0.002753
730.800616	0.002596
730.998982	0.002252
731.197329	0.002317
731.395658	0.002134
731.593969	0.002361
731.792262	0.002495
731.990536	0.002154
732.188793	0.001841
732.387031	0.002160
732.585250	0.001997
732.783452	0.001983
732.981635	0.001833
733.179800	0.002096
733.377947	0.002088
733.576076	0.001956
733.774186	0.002142
733.972278	0.002133
734.170352	0.001906
734.368408	0.002073
734.566446	0.002119
734.764465	0.002003
734.962466	0.001681
735.160449	0.001532
735.358413	0.001633
735.556360	0.001780
735.754288	0.001947
735.952198	0.002065
736.150090	0.002355
736.347963	0.002677
736.545818	0.002622
736.743655	0.003231
736.941474	0.003225
737.139275	0.003521
737.337057	0.003436
737.534821	0.003543
737.732567	0.003502
737.930295	0.003687
738.128005	0.003473
738.325696	0.003501
738.523369	0.003054
738.721024	0.003198
738.918660	0.002778
739.116279	0.002738
739.313879	0.002630
739.511461	0.002500
739.709024	0.001944
739.906570	0.001842
740.104097	0.001954
740.301606	0.001911
740.499097	0.001685
740.696569	0.001460
740.894024	0.001692
741.091460	0.001484
741.288878	0.001681
741.486277	0.001884
741.683659	0.001789
741.881022	0.001534
742.078367	0.001248
742.275694	0.001445
742.473002	0.001683
742.670293	0.001403
742.867565	0.001344
743.064819	0.001385
743.262054	0.001161
743.459272	0.001244
743.656471	0.001419
743.853652	0.001515
744.050815	0.001247
744.247959	0.001306
744.445085	0.001331
744.642194	0.001604
744.839283	0.001969
745.036355	0.002000
745.233408	0.002014
745.430444	0.001873
745.627461	0.002127
745.824459	0.002296
746.021440	0.002196
746.218402	0.002097
746.415346	0.002061
746.612272	0.001632
746.809180	0.001614
747.006069	0.001295
747.202940	0.001512
747.399793	0.001527
747.596628	0.001251
747.793444	0.001133
747.990243	0.000903
748.187023	0.000606
748.383784	0.000469
748.580528	0.000606
748.777253	0.001073
748.973960	0.001136
749.170649	0.000851
749.367320	0.000952
749.563973	0.001112
749.760607	0.001712
749.957223	0.002100
750.153821	0.002154
750.350400	0.001961
750.546962	0.001591
750.743505	0.001564
750.940030	0.001754
751.136536	0.001728
751.333025	0.001854
751.529495	0.001537
751.725947	0.001225
751.922381	0.001225
752.118796	0.001389
752.315194	0.001699
752.511573	0.001665
752.707934	0.001903
752.904276	0.002029
753.100601	0.001851
753.296907	0.001680
753.493195	0.001877
753.689465	0.001906
753.885716	0.001994
754.081949	0.002042
754.278164	0.001850
754.474361	0.001853
754.670540	0.001804
754.866700	0.001913
755.062843	0.002263
755.258967	0.002267
755.455072	0.002069
755.651160	0.001898
755.847229	0.001854
756.043280	0.002168
756.239313	0.002006
756.435328	0.001872
756.631324	0.001586
756.827302	0.001368
757.023262	0.001319
757.219204	0.001397
757.415127	0.001564
757.611033	0.001471
757.806920	0.001112
758.002788	0.000965
758.198639	0.000974
758.394471	0.001228
758.590286	0.001409
758.786081	0.001562
758.981859	0.001881
759.177619	0.001873
759.373360	0.001795
759.569083	0.001915
759.764788	0.001932
759.960474	0.002093
760.156143	0.001936
760.351793	0.001890
760.547425	0.001618
760.743038	0.001621
760.938634	0.001914
761.134211	0.002007
761.329770	0.001932
761.525311	0.002005
761.720833	0.002024
761.916338	0.001912
762.111824	0.001849
762.307292	0.001959
762.502741	0.001488
762.698173	0.001467
762.893586	0.001463
763.088981	0.001709
763.284358	0.001772
763.479716	0.001670
763.675057	0.002111
763.870379	0.002504
764.065683	0.002562
764.260968	0.002825
764.456236	0.002371
764.651485	0.002270
764.846716	0.002261
765.041929	0.002125
765.237123	0.002176
765.432299	0.002092
765.627457	0.001792
765.822597	0.001392
766.017719	0.001470
766.212822	0.001430
766.407907	0.001590
766.602974	0.001628
766.798023	0.001547
766.993054	0.001578
767.188066	0.001323
767.383060	0.000999
767.578036	0.001231
767.772993	0.001207
767.967933	0.001425
768.162854	0.001269
768.357757	0.000977
768.552642	0.001282
768.747508	0.001317
768.942356	0.001485
769.137186	0.001600
769.331998	0.001830
769.526792	0.001842
769.721567	0.001999
769.916324	0.001897
770.111063	0.002185
770.305784	0.001679
770.500486	0.001462
770.695171	0.001532
770.889837	0.001662
771.084484	0.001550
771.279114	0.001240
771.473725	0.000967
771.668318	0.000893
771.862893	0.000729
772.057450	0.001091
772.251988	0.001183
772.446509	0.000929
772.641011	0.000837
772.835494	0.000571
773.029960	0.000671
773.224407	0.000501
773.418836	0.000671
773.613247	0.000592
773.807640	0.000509
774.002014	0.000522
774.196370	0.000616
774.390708	0.000726
774.585028	0.000725
774.779330	0.000525
774.973613	0.000786
775.167878	0.001070
775.362125	0.001193
775.556354	0.001122
775.750564	0.000688
775.944756	0.000506
776.138930	0.000441
776.333086	0.000704
776.527223	0.000925
776.721343	0.000870
776.915444	0.000497
777.109526	0.000362
777.303591	0.000518
777.497637	0.000941
777.691666	0.001272
777.885676	0.001131
778.079667	0.000921
778.273641	0.000915
778.467596	0.001070
778.661533	0.000657
778.855452	0.000795
779.049352	0.000744
779.243235	0.000850
779.437099	0.000641
779.630945	0.000898
779.824773	0.001210
780.018582	0.001337
780.212373	0.001042
780.406146	0.001686
780.599901	0.001590
780.793638	0.001458
780.987356	0.001554
781.181056	0.001803
781.374738	0.001854
781.568402	0.001917
781.762047	0.001672
781.955674	0.001946
782.149283	0.001929
782.342874	0.001975
782.536447	0.002135
782.730001	0.001974
782.923537	0.001845
783.117055	0.001684
783.310555	0.001341
783.504036	0.001362
783.697499	0.001422
783.890944	0.001004
784.084371	0.001011
784.277780	0.000998
784.471170	0.000815
784.664542	0.000836
784.857896	0.000779
785.051231	0.000876
785.244549	0.000980
785.437848	0.000772
785.631129	0.000947
785.824392	0.000776
786.017636	0.000713
786.210863	0.000886
786.404071	0.000694
786.597260	0.000920
786.790432	0.001155
786.983585	0.001264
787.176721	0.001090
787.369838	0.001338
787.562936	0.001689
787.756017	0.001621
787.949079	0.001273
788.142123	0.001675
788.335149	0.001266
788.528156	0.001098
788.721146	0.001177
788.914117	0.001315
789.107070	0.001500
789.300005	0.001505
789.492921	0.001509
789.685819	0.001682
789.878699	0.001426
790.071561	0.001692
790.264405	0.001579
790.457230	0.001335
790.650037	0.001297
790.842826	0.001112
791.035597	0.000830
791.228349	0.000763
791.421084	0.000884
791.613800	0.001055
791.806497	0.000927
791.999177	0.000820
792.191838	0.001138
792.384481	0.001144
792.577106	0.000913
792.769713	0.001132
792.962301	0.001238
793.154871	0.001292
793.347423	0.001273
793.539957	0.001372
793.732473	0.001556
793.924970	0.001132
794.117449	0.001303
794.309910	0.001710
794.502353	0.001563
794.694777	0.001536
794.887183	0.001477
795.079571	0.001246
795.271941	0.001227
795.464293	0.001122
795.656626	0.001491
795.848941	0.001708
796.041238	0.001419
796.233516	0.001350
796.425777	0.001508
796.618019	0.001667
796.810243	0.001762
797.002449	0.001788
797.194636	0.001860
797.386805	0.001659
797.578956	0.001463
797.771089	0.001677
797.963204	0.002061
798.155300	0.002081
798.347378	0.002118
798.539438	0.002384
798.731480	0.002792
798.923503	0.003017
799.115509	0.003299
799.307496	0.003247
799.499465	0.003162
799.691415	0.002914
799.883348	0.002774
800.075262	0.002586
800.267158	0.002364
800.459035	0.002053
800.650895	0.002042
800.842736	0.001940
801.034559	0.001848
801.226364	0.001808
801.418150	0.001840
801.609919	0.002032
801.801669	0.002327
801.993401	0.002820
802.185114	0.002807
802.376810	0.002773
802.568487	0.002572
802.760146	0.002265
802.951787	0.002207
803.143409	0.002145
803.335014	0.002187
803.526600	0.001932
803.718168	0.001482
803.909717	0.001634
804.101249	0.001822
804.292762	0.002137
804.484257	0.002488
804.675734	0.002777
804.867192	0.002681
805.058632	0.002540
805.250054	0.002580
805.441458	0.002319
805.632844	0.002028
805.824211	0.001777
806.015561	0.001650
806.206891	0.001667
806.398204	0.001128
806.589499	0.001640
806.780775	0.001520
806.972033	0.001613
807.163273	0.001404
807.354495	0.001573
807.545698	0.001560
807.736883	0.001581
807.928050	0.001538
808.119199	0.001977
808.310329	0.002087
808.501441	0.002213
808.692535	0.002395
808.883611	0.002902
809.074669	0.002975
809.265708	0.002855
809.456729	0.002960
809.647732	0.003250
809.838717	0.003201
810.029683	0.002581
810.220632	0.002915
810.411562	0.002491
810.602474	0.002515
810.793367	0.002508
810.984242	0.002591
811.175100	0.002727
811.365938	0.002360
811.556759	0.002397
811.747562	0.002714
811.938346	0.002504
812.129112	0.002380
812.319860	0.002555
812.510589	0.002183
812.701300	0.002331
812.891994	0.002193
813.082668	0.002642
813.273325	0.002846
813.463964	0.002901
813.654584	0.002982
813.845186	0.003431
814.035769	0.003183
814.226335	0.003405
814.416882	0.003350
814.607411	0.003120
814.797922	0.002693
814.988415	0.002264
815.178889	0.002325
815.369345	0.002263
815.559783	0.002154
815.750203	0.002336
815.940605	0.002302
816.130988	0.002319
816.321353	0.002499
816.511700	0.002462
816.702028	0.002617
816.892339	0.002681
817.082631	0.002725
817.272905	0.003095
817.463161	0.003022
817.653398	0.003169
817.843617	0.003187
818.033819	0.003336
818.224001	0.003780
818.414166	0.003725
818.604312	0.003587
818.794440	0.003608
818.984550	0.002972
819.174642	0.002526
819.364716	0.002629
819.554771	0.002526
819.744808	0.002299
819.934827	0.002459
820.124827	0.002588
820.314810	0.002418
820.504774	0.002149
820.694720	0.002466
820.884647	0.002991
821.074557	0.002928
821.264448	0.003097
821.454321	0.003105
821.644176	0.002739
821.834012	0.002863
822.023831	0.002811
822.213631	0.003248
822.403413	0.003406
822.593176	0.002987
822.782922	0.003347
822.972649	0.003445
823.162358	0.003547
823.352049	0.003484
823.541721	0.003118
823.731376	0.003163
823.921012	0.002736
824.110629	0.002390
824.300229	0.002653
824.489811	0.002315
824.679374	0.001773
824.868919	0.001887
825.058445	0.002110
825.247954	0.002331
825.437444	0.002576
825.626916	0.003083
825.816370	0.003364
826.005806	0.003376
826.195223	0.003145
826.384622	0.003562
826.574003	0.003529
826.763366	0.003321
826.952711	0.003077
827.142037	0.002989
827.331345	0.002409
827.520635	0.002213
827.709906	0.002747
827.899160	0.002636
828.088395	0.002615
828.277612	0.002573
828.466810	0.002815
828.655991	0.003154
828.845153	0.002995
829.034297	0.003616
829.223423	0.003693
829.412531	0.003486
829.601620	0.003800
829.790691	0.003854
829.979744	0.003829
830.168779	0.003707
830.357795	0.003717
830.546793	0.003891
830.735773	0.003795
830.924735	0.003650
831.113679	0.003521
831.302604	0.003602
831.491511	0.003540
831.680400	0.003773
831.869271	0.003738
832.058123	0.003645
832.246957	0.003673
832.435773	0.003676
832.624571	0.003696
832.813351	0.003189
833.002112	0.003157
833.190855	0.003246
833.379580	0.003023
833.568287	0.002756
833.756975	0.002800
833.945645	0.002634
834.134297	0.001973
834.322931	0.002110
834.511547	0.002587
834.700144	0.002311
834.888723	0.002435
835.077284	0.002305
835.265826	0.002471
835.454351	0.002340
835.642857	0.002351
835.831345	0.002922
836.019815	0.003059
836.208266	0.002770
836.396699	0.002869
836.585114	0.002543
836.773511	0.002671
836.961890	0.002757
837.150250	0.002770
837.338592	0.002448
837.526916	0.002357
837.715222	0.002143
837.903510	0.002125
838.091779	0.002046
838.280030	0.001923
838.468263	0.002067
838.656477	0.002102
838.844674	0.002270
839.032852	0.002454
839.221012	0.002441
839.409153	0.002713
839.597277	0.002722
839.785382	0.003210
839.973469	0.003202
840.161538	0.002839
840.349589	0.003005
840.537621	0.003119
840.725635	0.003733
840.913631	0.003657
841.101609	0.003388
841.289568	0.003504
841.477509	0.003370
841.665432	0.003619
841.853337	0.003618
842.041224	0.003351
842.229092	0.003065
842.416942	0.002805
842.604774	0.003182
842.792588	0.003603
842.980383	0.004103
843.168160	0.004136
843.355919	0.004531
843.543660	0.004869
843.731382	0.005034
843.919087	0.005209
844.106773	0.005259
844.294441	0.004859
844.482090	0.004657
844.669722	0.004334
844.857335	0.004011
845.044930	0.003794
845.232507	0.003467
845.420065	0.003828
845.607605	0.004239
845.795127	0.004294
845.982631	0.004754
846.170117	0.004927
846.357584	0.005447
846.545033	0.006324
846.732464	0.006668
846.919877	0.007147
847.107272	0.007160
847.294648	0.006876
847.482006	0.006494
847.669346	0.006489
847.856667	0.006517
848.043971	0.006510
848.231256	0.006599
848.418523	0.006732
848.605771	0.006568
848.793002	0.006313
848.980214	0.006397
849.167408	0.006591
849.354584	0.006436
849.541742	0.006510
849.728881	0.006177
849.916002	0.005477
850.103105	0.005067
850.290190	0.005367
850.477256	0.005144
850.664304	0.005218
850.851334	0.005418
851.038346	0.005245
851.225340	0.005075
851.412315	0.005099
851.599272	0.005587
851.786211	0.005852
851.973132	0.005975
852.160034	0.006481
852.346918	0.006542
852.533784	0.007049
852.720632	0.007312
852.907462	0.007589
853.094273	0.007539
853.281066	0.007308
853.467841	0.007392
853.654598	0.007470
853.841336	0.007351
854.028056	0.007514
854.214758	0.006865
854.401442	0.007268
854.588107	0.007303
854.774755	0.007741
854.961384	0.007915
855.147995	0.007383
855.334587	0.007353
855.521162	0.007560
855.707718	0.007316
855.894256	0.007746
856.080775	0.007358
856.267277	0.007567
856.453760	0.007140
856.640225	0.007531
856.826672	0.007895
857.013101	0.007885
857.199511	0.008066
857.385903	0.008371
857.572277	0.008238
857.758633	0.008065
857.944970	0.007671
858.131290	0.007975
858.317591	0.007799
858.503873	0.007976
858.690138	0.007926
858.876384	0.007730
859.062612	0.007557
859.248822	0.007662
859.435014	0.008076
859.621188	0.008498
859.807343	0.008291
859.993480	0.008266
860.179599	0.008170
860.365699	0.008336
860.551781	0.008664
860.737846	0.008486
860.923891	0.008514
861.109919	0.008550
861.295929	0.008576
861.481920	0.008811
861.667893	0.008720
861.853848	0.009010
862.039784	0.009165
862.225702	0.008942
862.411603	0.009358
862.597484	0.009717
862.783348	0.009663
862.969193	0.009222
863.155021	0.009626
863.340830	0.009774
863.526620	0.009386
863.712393	0.008981
863.898147	0.009069
864.083883	0.009057
864.269601	0.008674
864.455301	0.008401
864.640982	0.008822
864.826645	0.008230
865.012290	0.007784
865.197917	0.008003
865.383526	0.008285
865.569116	0.008206
865.754688	0.008219
865.940242	0.008634
866.125777	0.009201
866.311295	0.009151
866.496794	0.009270
866.682275	0.009681
866.867737	0.009301
867.053182	0.009243
867.238608	0.009398
867.424016	0.008904
867.609406	0.008173
867.794778	0.008249
867.980131	0.008373
868.165466	0.008641
868.350783	0.008635
868.536082	0.008945
868.721362	0.008705
868.906625	0.008774
869.091869	0.009117
869.277094	0.009410
869.462302	0.009237
869.647491	0.009329
869.832662	0.009671
870.017815	0.009915
870.202950	0.010269
870.388066	0.010380
870.573165	0.009795
870.758245	0.010057
870.943306	0.010276
871.128350	0.010338
871.313375	0.010276
871.498382	0.009867
871.683371	0.009777
871.868342	0.009290
872.053294	0.009359
872.238229	0.009901
872.423144	0.009622
872.608042	0.009435
872.792922	0.009181
872.977783	0.009037
873.162626	0.009203
873.347451	0.008839
873.532258	0.008974
873.717046	0.009141
873.901816	0.008823
874.086568	0.009119
874.271302	0.009208
874.456017	0.009245
874.640715	0.009612
874.825394	0.009727
875.010055	0.010277
875.194697	0.010775
875.379322	0.010314
875.563928	0.010443
875.748516	0.010373
875.933085	0.010153
876.117637	0.010179
876.302170	0.009762
876.486685	0.009447
876.671182	0.009146
876.855661	0.008256
877.040121	0.008709
877.224563	0.008712
877.408987	0.008653
877.593393	0.008897
877.777780	0.008841
877.962150	0.008895
878.146501	0.008889
878.330833	0.008922
878.515148	0.009337
878.699444	0.009408
878.883722	0.009193
879.067982	0.008681
879.252224	0.008792
879.436447	0.008942
879.620653	0.008948
879.804840	0.008554
879.989008	0.009017
880.173159	0.009210
880.357291	0.009522
880.541405	0.010084
880.725501	0.010661
880.909579	0.010623
881.093638	0.010489
881.277680	0.010895
881.461703	0.011614
881.645707	0.010879
881.829694	0.010903
882.013662	0.010851
882.197612	0.010284
882.381544	0.010311
882.565458	0.010352
882.749353	0.010911
882.933230	0.010806
883.117089	0.010303
883.300930	0.010519
883.484753	0.010679
883.668557	0.010455
883.852343	0.010582
884.036111	0.010299
884.219861	0.009857
884.403592	0.009012
884.587305	0.008903
884.771000	0.009920
884.954677	0.010073
885.138335	0.010442
885.321976	0.010135
885.505598	0.010574
885.689201	0.011270
885.872787	0.011840
886.056354	0.011724
886.239904	0.011729
886.423434	0.011154
886.606947	0.011271
886.790442	0.010876
886.973918	0.010967
887.157376	0.010821
887.340816	0.010622
887.524237	0.010446
887.707641	0.011471
887.891026	0.011691
888.074393	0.011255
888.257741	0.011005
888.441072	0.011175
888.624384	0.011366
888.807678	0.011128
888.990954	0.010698
889.174211	0.011281
889.357451	0.010662
889.540672	0.010211
889.723875	0.010765
889.907059	0.011023
890.090226	0.010584
890.273374	0.010724
890.456504	0.010691
890.639616	0.010903
890.822709	0.010550
891.005785	0.010331
891.188842	0.010576
891.371881	0.009983
891.554901	0.009717
891.737904	0.010088
891.920888	0.010407
892.103854	0.010346
892.286802	0.010328
892.469731	0.010050
892.652643	0.010513
892.835536	0.010616
893.018410	0.010852
893.201267	0.011003
893.384106	0.011126
893.566926	0.010287
893.749728	0.010822
893.932511	0.010292
894.115277	0.010743
894.298024	0.010697
894.480753	0.009875
894.663464	0.009546
894.846157	0.009573
895.028831	0.009898
895.211487	0.011096
895.394125	0.011103
895.576745	0.011597
895.759346	0.010979
895.941930	0.011248
896.124495	0.011879
896.307041	0.011888
896.489570	0.011714
896.672080	0.010793
896.854573	0.010230
897.037046	0.009848
897.219502	0.010008
897.401940	0.010914
897.584359	0.010509
897.766760	0.010318
897.949143	0.010754
898.131507	0.009943
898.313854	0.009724
898.496182	0.008809
898.678492	0.008767
898.860783	0.008771
899.043057	0.007832
899.225312	0.007957
899.407549	0.008035
899.589768	0.007807
899.771968	0.008817
899.954151	0.009306
900.136315	0.009611
900.318461	0.009079
900.500588	0.008796
900.682698	0.009018
900.864789	0.009094
901.046862	0.009153
901.228917	0.009301
901.410953	0.008618
901.592971	0.008657
901.774972	0.008383
901.956953	0.008797
902.138917	0.008558
902.320862	0.008050
902.502790	0.008257
902.684699	0.008104
902.866589	0.007480
903.048462	0.008080
903.230316	0.007599
903.412152	0.007817
903.593970	0.007867
903.775770	0.008415
903.957551	0.009074
904.139314	0.009705
904.321059	0.009211
904.502786	0.009452
904.684494	0.009167
904.866185	0.009593
905.047857	0.009471
905.229510	0.009256
905.411146	0.009090
905.592763	0.008855
905.774363	0.008023
905.955943	0.008035
906.137506	0.008044
906.319051	0.007885
906.500577	0.007659
906.682085	0.008208
906.863575	0.008938
907.045046	0.009468
907.226500	0.009058
907.407935	0.008675
907.589352	0.009091
907.770750	0.008996
907.952131	0.009370
908.133493	0.008683
908.314837	0.008638
908.496163	0.008152
908.677470	0.007488
908.858760	0.007490
909.040031	0.007339
909.221284	0.007321
909.402518	0.007085
909.583735	0.006406
909.764933	0.006781
909.946113	0.006540
910.127275	0.006562
910.308418	0.006764
910.489544	0.006943
910.670651	0.007296
910.851740	0.007741
911.032810	0.008064
911.213863	0.008489
911.394897	0.009332
911.575913	0.009167
911.756911	0.008790
911.937890	0.007733
912.118851	0.007896
912.299794	0.007682
912.480719	0.007276
912.661626	0.007261
912.842514	0.007306
913.023384	0.006352
913.204236	0.006668
913.385070	0.006395
913.565886	0.006906
913.746683	0.006904
913.927462	0.006878
914.108223	0.006652
914.288965	0.006037
914.469690	0.005419
914.650396	0.005367
914.831084	0.004756
915.011754	0.004522
915.192405	0.005124
915.373038	0.005366
915.553653	0.005659
915.734250	0.006220
915.914829	0.006914
916.095389	0.007494
916.275931	0.007992
916.456455	0.008663
916.636961	0.009418
916.817448	0.009008
916.997917	0.008117
917.178368	0.007328
917.358801	0.006507
917.539216	0.006259
917.719612	0.006228
917.899990	0.005315
918.080350	0.005009
918.260692	0.004726
918.441015	0.004566
918.621320	0.004798
918.801607	0.003778
918.981876	0.003790
919.162127	0.003045
919.342359	0.002832
919.522573	0.004266
919.702769	0.004072
919.882947	0.004230
920.063106	0.004129
920.243247	0.003681
920.423370	0.004798
920.603475	0.004925
920.783562	0.005644
920.963630	0.005870
921.143680	0.004703
921.323712	0.003271
921.503725	0.002813
921.683721	0.002005
921.863698	0.003060
922.043657	0.002845
922.223598	0.002925
922.403520	0.002898
922.583424	0.002118
922.763311	0.001846
922.943178	0.003122
923.123028	0.002725
923.302859	0.003496
923.482673	0.003045
923.662467	0.003984
923.842244	0.002792
924.022003	0.001481
924.201743	0.001552
924.381465	0.000963
924.561169	0.000203
924.740854	0.000543
924.920522	0.000294
925.100171	-0.000779
925.279802	-0.002113
925.459414	-0.002043
925.639009	-0.001234
925.818585	-0.001575
925.998143	-0.000943
926.177683	-0.000755
926.357205	-0.001404
926.536708	-0.002350
926.716193	-0.002093
926.895660	-0.001934
927.075109	-0.001637
927.254539	-0.002319
927.433951	-0.003822
927.613345	-0.003580
927.792721	-0.003384
927.972079	-0.003132
928.151418	-0.003615
928.330739	-0.003992
928.510042	-0.004084
928.689327	-0.004707
928.868593	-0.004233
929.047841	-0.002320
929.227071	-0.004002
929.406283	-0.005253
929.585476	-0.005891
929.764652	-0.004823
929.943809	-0.005220
930.122948	-0.005666
930.302068	-0.004406
930.481171	-0.004932
930.660255	-0.006625
930.839321	-0.006180
931.018369	-0.005396
931.197398	-0.003648
931.376409	-0.003392
931.555402	-0.003351
931.734377	-0.003820
931.913334	-0.005079
932.092272	-0.005001
932.271192	-0.005404
932.450094	-0.005391
932.628978	-0.005759
932.807844	-0.006515
932.986691	-0.007692
933.165520	-0.006194
933.344331	-0.006571
933.523123	-0.005405
933.701898	-0.006232
933.880654	-0.005416
934.059392	-0.006077
934.238111	-0.006724
934.416813	-0.008129
934.595496	-0.008071
934.774161	-0.010052
934.952808	-0.008748
935.131437	-0.010803
935.310047	-0.010736
935.488639	-0.011271
935.667213	-0.010883
935.845769	-0.010462
936.024306	-0.010210
936.202825	-0.010860
936.381326	-0.010606
936.559809	-0.010794
936.738274	-0.010382
936.916720	-0.009869
937.095148	-0.009887
937.273558	-0.009516
937.451950	-0.008931
937.630323	-0.009672
937.808678	-0.010126
937.987015	-0.010844
938.165334	-0.011273
938.343635	-0.011675
938.521917	-0.010387
938.700181	-0.009599
938.878427	-0.009458
939.056655	-0.011228
939.234864	-0.010558
939.413055	-0.009668
939.591228	-0.009181
939.769383	-0.010358
939.947519	-0.011949
940.125638	-0.013486
940.303738	-0.013710
940.481820	-0.013809
940.659883	-0.014110
940.837929	-0.015190
941.015956	-0.016198
941.193965	-0.016664
941.371955	-0.017224
941.549928	-0.013838
941.727882	-0.014484
941.905818	-0.014204
942.083736	-0.015726
942.261636	-0.013397
942.439517	-0.011966
942.617380	-0.010418
942.795225	-0.011640
942.973052	-0.011377
943.150860	-0.014499
943.328651	-0.014344
943.506423	-0.016050
943.684176	-0.015470
943.861912	-0.018854
944.039629	-0.019401
944.217328	-0.020138
944.395009	-0.019125
944.572672	-0.019246
944.750317	-0.017431
944.927943	-0.017219
945.105551	-0.016532
945.283141	-0.014902
945.460712	-0.013912
945.638265	-0.015108
945.815801	-0.016412
945.993317	-0.017964
946.170816	-0.016751
946.348297	-0.017221
946.525759	-0.018986
946.703203	-0.018947
946.880629	-0.020910
947.058036	-0.020008
947.235425	-0.018486
947.412797	-0.017434
947.590149	-0.016930
947.767484	-0.017608
947.944800	-0.018286
948.122099	-0.015409
948.299379	-0.015611
948.476640	-0.015936
948.653884	-0.017588
948.831109	-0.018714
949.008316	-0.018953
949.185505	-0.014871
949.362676	-0.015355
949.539828	-0.016531
949.716962	-0.019812
949.894078	-0.019681
950.071176	-0.020046
950.248256	-0.016975
950.425317	-0.017014
950.602360	-0.016519
950.779385	-0.018652
950.956391	-0.018626
951.133380	-0.016707
951.310350	-0.015748
951.487302	-0.015643
951.664235	-0.015269
951.841151	-0.015610
952.018048	-0.016632
952.194927	-0.016915
952.371788	-0.018576
952.548631	-0.018066
952.725455	-0.018242
952.902261	-0.017350
953.079049	-0.015654
953.255819	-0.014025
953.432570	-0.014774
953.609303	-0.013325
953.786018	-0.011978
953.962715	-0.010574
954.139394	-0.012052
954.316054	-0.008816
954.492696	-0.008409
954.669320	-0.007203
954.845926	-0.007239
955.022513	-0.004470
955.199083	-0.005811
955.375634	-0.010222
955.552166	-0.010345
955.728681	-0.007597
955.905177	-0.010172
956.081655	-0.011669
956.258115	-0.017325
956.434557	-0.015171
956.610980	-0.015382
956.787385	-0.009169
956.963772	-0.007345
957.140141	-0.009282
957.316492	-0.007167
957.492824	-0.008230
957.669138	-0.005330
957.845434	-0.001736
958.021712	-0.002121
958.197971	-0.005633
958.374212	-0.010325
958.550435	-0.008307
958.726640	-0.005228
958.902826	-0.007038
959.078995	-0.008346
959.255145	-0.008333
959.431277	-0.006198
959.607390	-0.010673
959.783486	-0.011616
959.959563	-0.009715
960.135622	-0.012641
960.311662	-0.010727
960.487685	-0.010994
960.663689	-0.007633
960.839675	-0.008368
961.015643	-0.009246
961.191593	-0.003779
961.367524	-0.001124
961.543437	-0.004173
961.719332	-0.000220
961.895209	-0.001424
962.071067	-0.001566
962.246907	-0.001948
962.422730	-0.003807
962.598533	-0.003540
962.774319	-0.008149
962.950086	-0.008192
963.125835	-0.008299
963.301566	-0.008554
963.477279	-0.008075
963.652973	-0.008831
963.828650	-0.007955
964.004308	-0.006245
964.179947	-0.004563
964.355569	-0.005710
964.531172	-0.011100
964.706757	-0.006848
964.882324	-0.005578
965.057873	-0.004010
965.233403	-0.003211
965.408916	-0.001618
965.584410	-0.002192
965.759885	-0.007491
965.935343	-0.004022
966.110782	0.002245
966.286203	0.001482
966.461606	0.000817
966.636991	-0.002456
966.812357	-0.000820
966.987705	-0.003934
967.163035	-0.002247
967.338347	0.001710
967.513641	-0.001485
967.688916	-0.006415
967.864173	-0.007049
968.039412	-0.009674
968.214632	-0.007001
968.389835	-0.012848
968.565019	-0.014098
968.740185	-0.010343
968.915333	-0.013794
969.090462	-0.008944
969.265573	-0.006584
969.440667	-0.006686
969.615741	-0.008581
969.790798	-0.010566
969.965836	-0.007061
970.140856	-0.004617
970.315858	-0.005541
970.490842	-0.002133
970.665808	-0.002839
970.840755	-0.001176
971.015684	-0.000504
971.190595	0.003148
971.365487	0.002006
971.540362	0.001576
971.715218	0.004231
971.890056	-0.001154
972.064875	-0.004048
972.239677	-0.004824
972.414460	-0.004710
972.589225	-0.000380
972.763972	-0.002234
972.938700	0.002817
973.113411	0.004071
973.288103	-0.002562
973.462777	0.000577
973.637432	-0.001046
973.812070	0.001431
973.986689	0.000744
974.161290	-0.005353
974.335873	-0.001703
974.510437	-0.003581
974.684984	-0.004153
974.859512	0.000593
975.034022	0.000068
975.208513	0.005601
975.382987	0.001972
975.557442	0.000564
975.731879	0.002281
975.906298	-0.005114
976.080698	-0.008253
976.255080	-0.008432
976.429445	-0.009211
976.603790	-0.008332
976.778118	-0.012021
976.952427	-0.006564
977.126719	-0.004319
977.300992	-0.006330
977.475246	0.000233
977.649483	0.002061
977.823701	0.001752
977.997901	-0.000164
978.172083	-0.002062
978.346247	0.000754
978.520392	-0.005734
978.694519	-0.001969
978.868628	-0.001001
979.042719	-0.001358
979.216791	-0.004364
979.390845	-0.005317
979.564882	-0.006173
979.738899	-0.001527
979.912899	-0.004762
980.086880	-0.002579
980.260843	-0.009917
980.434788	-0.011268
980.608715	-0.010193
980.782623	-0.008448
980.956514	-0.005455
981.130386	-0.004370
981.304240	-0.008365
981.478075	-0.004438
981.651892	-0.005010
981.825692	0.002874
981.999472	0.009495
982.173235	0.008293
982.346980	0.015475
982.520706	0.015531
982.694414	0.012753
982.868104	0.012403
983.041775	0.007784
983.215428	0.005760
983.389064	0.001755
983.562680	-0.000735
983.736279	-0.002047
983.909860	-0.006155
984.083422	-0.005941
984.256966	-0.003171
984.430491	-0.005747
984.603999	-0.002489
984.777488	-0.004838
984.950959	-0.006377
985.124412	-0.009181
985.297847	-0.006514
985.471263	-0.009192
985.644661	-0.014376
985.818041	-0.017236
985.991403	-0.017209
986.164747	-0.018948
986.338072	-0.013939
986.511379	-0.014991
986.684668	-0.014725
986.857938	-0.015061
987.031191	-0.018140
987.204425	-0.015852
987.377641	-0.013477
987.550839	-0.013248
987.724018	-0.009310
987.897179	-0.010783
988.070322	-0.007632
988.243447	-0.009816
988.416554	-0.014193
988.589642	-0.007083
988.762712	-0.003954
988.935764	-0.001772
989.108798	0.002363
989.281813	-0.001558
989.454811	0.002153
989.627790	0.003596
989.800751	0.007387
989.973693	0.007673
990.146617	0.002352
990.319524	0.003778
990.492412	0.005713
990.665281	0.002625
990.838133	0.000357
991.010966	0.001403
991.183781	-0.005034
991.356578	-0.005395
991.529356	-0.001205
991.702117	-0.001533
991.874859	-0.003766
992.047583	-0.007700
992.220288	-0.008813
992.392976	-0.005607
992.565645	-0.008975
992.738296	-0.001171
992.910929	-0.000825
993.083543	-0.003001
993.256139	-0.002665
993.428718	-0.000735
993.601277	0.001458
993.773819	0.003795
993.946342	0.008490
994.118848	0.008688
994.291335	0.003846
994.463803	0.000833
994.636254	0.001645
994.808686	0.004078
994.981100	0.004209
995.153496	0.002309
995.325874	0.002672
995.498233	-0.006540
995.670574	-0.006481
995.842897	-0.005350
996.015202	-0.003244
996.187488	-0.004070
996.359757	-0.003122
996.532007	-0.006141
996.704239	-0.006861
996.876452	-0.006456
997.048648	-0.000679
997.220825	0.000000
997.392984	0.001841
997.565124	-0.001059
997.737247	0.001307
997.909351	-0.003367
998.081437	-0.000599
998.253505	0.007594
998.425554	0.009411
998.597586	0.008942
998.769599	0.010413
998.941594	0.009360
999.113571	0.008904
999.285529	0.007240
999.457469	0.014385
999.629391	0.014230
999.801295	0.006407
999.973181	0.006771
1000.145048	0.007761
1000.316897	0.006117
1000.488728	0.005860
1000.660541	0.007531
1000.832335	0.005409
1001.004111	0.004767
1001.175869	0.002173
1001.347609	0.001877
1001.519331	-0.001608
1001.691034	-0.005323
1001.862719	-0.004080
1002.034386	-0.004566
1002.206035	-0.003077
1002.377665	-0.000492
1002.549277	-0.001675
1002.720871	-0.000924
1002.892447	-0.001800
1003.064004	-0.000424
1003.235544	0.001491
1003.407065	-0.002772
1003.578568	-0.005031
1003.750052	-0.006325
1003.921519	-0.003258
1004.092967	-0.005791
1004.264397	-0.006630
1004.435809	-0.004444
1004.607202	-0.002448
1004.778577	0.000969
1004.949934	0.003505
1005.121273	0.006551
1005.292594	0.004866
1005.463896	-0.001113
1005.635180	0.000149
1005.806446	0.002102
1005.977694	0.000064
1006.148923	-0.003827
1006.320135	-0.008160
1006.491328	-0.010354
1006.662503	-0.010931
1006.833659	-0.007826
1007.004798	-0.005572
1007.175918	-0.004813
1007.347020	-0.006808
1007.518103	-0.005715
1007.689169	-0.003478
1007.860216	-0.000742
1008.031245	0.002674
1008.202256	0.004193
1008.373248	0.002103
1008.544223	0.001736
1008.715179	0.003703
1008.886117	0.004460
1009.057036	0.003540
1009.227938	0.000912
1009.398821	0.001703
1009.569686	0.000268
1009.740533	-0.000904
1009.911361	0.001756
1010.082172	0.003279
1010.252964	0.002435
1010.423738	0.002353
1010.594493	0.003597
1010.765231	0.004477
1010.935950	-0.000222
1011.106651	-0.002283
1011.277334	-0.005571
1011.447998	-0.009440
1011.618645	-0.010775
1011.789273	-0.009138
1011.959882	-0.007488
1012.130474	-0.007060
1012.301048	-0.001768
1012.471603	0.001145
1012.642140	0.003468
1012.812658	0.005851
1012.983159	0.009985
1013.153641	0.009435
1013.324105	0.005998
1013.494551	0.005613
1013.664979	0.007413
1013.835388	0.000627
1014.005779	-0.001993
1014.176152	-0.003964
1014.346507	-0.002202
1014.516843	-0.004808
1014.687162	-0.005000
1014.857462	-0.007434
1015.027744	-0.006927
1015.198007	-0.009696
1015.368252	-0.009904
1015.538480	-0.011603
1015.708689	-0.009759
1015.878879	-0.012529
1016.049052	-0.009820
1016.219206	-0.008416
1016.389342	-0.007369
1016.559460	-0.009370
1016.729559	-0.007016
1016.899641	-0.004160
1017.069704	-0.001851
1017.239749	-0.003680
1017.409775	-0.001948
1017.579784	-0.006003
1017.749774	-0.006186
1017.919746	-0.004048
1018.089700	-0.004816
1018.259635	-0.004704
1018.429553	-0.006049
1018.599452	-0.004902
1018.769333	-0.007803
1018.939195	-0.008277
1019.109040	-0.007117
1019.278866	-0.004858
1019.448674	-0.006202
1019.618464	-0.004986
1019.788235	-0.007211
1019.957989	-0.009500
1020.127724	-0.007610
1020.297441	-0.004319
1020.467139	-0.003900
1020.636820	-0.000468
1020.806482	-0.000757
1020.976126	-0.003089
1021.145752	-0.004007
1021.315359	-0.003550
1021.484948	0.001867
1021.654519	-0.000885
1021.824072	0.002150
1021.993607	0.001769
1022.163123	0.000447
1022.332621	-0.002281
1022.502101	-0.002780
1022.671563	-0.000145
1022.841007	0.001268
1023.010432	-0.000416
1023.179839	-0.000303
1023.349228	-0.001474
1023.518598	-0.002472
1023.687951	-0.005816
1023.857285	-0.004147
1024.026601	0.000475
1024.195899	-0.001248
1024.365178	-0.002009
1024.534439	-0.001685
1024.703682	-0.001718
1024.872907	0.000100
1025.042114	0.001084
1025.211302	0.007984
1025.380472	0.005102
1025.549624	0.003818
1025.718758	0.003446
1025.887873	0.001705
1026.056970	0.002043
1026.226049	0.002200
1026.395110	-0.000950
1026.564153	-0.000550
1026.733177	-0.002784
1026.902183	-0.003629
1027.071171	-0.004967
1027.240141	-0.007150
1027.409092	-0.006195
1027.578026	-0.008908
1027.746940	-0.007517
1027.915837	-0.009128
1028.084716	-0.008692
1028.253576	-0.009398
1028.422418	-0.005388
1028.591242	-0.003443
1028.760048	-0.001742
1028.928835	-0.000331
1029.097604	0.002677
1029.266355	0.001749
1029.435088	0.004796
1029.603803	0.005503
1029.772499	0.005859
1029.941177	0.003593
1030.109837	0.002703
1030.278478	0.001063
1030.447102	-0.001755
1030.615707	-0.005292
1030.784294	-0.008247
1030.952863	-0.009717
1031.121413	-0.008603
1031.289945	-0.008968
1031.458460	-0.008378
1031.626955	-0.006193
1031.795433	-0.003621
1031.963892	-0.003328
1032.132334	-0.003372
1032.300756	-0.000423
1032.469161	0.000412
1032.637548	-0.004020
1032.805916	-0.003754
1032.974266	-0.004481
1033.142598	-0.005763
1033.310911	-0.005566
1033.479207	-0.001922
1033.647484	0.001468
1033.815743	0.003450
1033.983983	0.001262
1034.152206	0.001075
1034.320410	-0.003063
1034.488596	-0.001387
1034.656764	-0.003572
1034.824914	-0.004120
1034.993045	-0.008199
1035.161158	-0.006970
1035.329253	-0.008908
1035.497330	-0.009211
1035.665388	-0.009294
1035.833428	-0.004667
1036.001450	-0.005864
1036.169454	-0.005066
1036.337440	-0.007217
1036.505407	-0.009113
1036.673356	-0.012253
1036.841287	-0.011445
1037.009200	-0.006860
1037.177094	-0.003918
1037.344970	-0.006444
1037.512828	-0.004005
1037.680668	-0.004449
1037.848489	-0.003481
1038.016293	-0.001756
1038.184078	-0.002068
1038.351845	-0.005378
1038.519593	-0.004763
1038.687324	-0.002183
1038.855036	-0.003143
1039.022730	-0.002354
1039.190406	-0.000915
1039.358063	0.001813
1039.525702	0.008969
1039.693323	0.012412
1039.860926	0.013845
1040.028511	0.012832
1040.196077	0.008624
1040.363625	0.010063
1040.531155	0.005554
1040.698667	0.005040
1040.866161	0.000199
1041.033636	-0.002955
1041.201093	-0.005955
1041.368532	-0.002866
1041.535952	-0.003462
1041.703355	0.000989
1041.870739	0.003050
1042.038105	0.006489
1042.205452	0.003160
1042.372782	0.004700
1042.540093	0.002166
1042.707386	0.001143
1042.874661	-0.001282
1043.041918	-0.000442
1043.209156	-0.004099
1043.376376	-0.009952
1043.543578	-0.011651
1043.710762	-0.012144
1043.877927	-0.009709
1044.045074	-0.009528
1044.212203	-0.005886
1044.379314	-0.004733
1044.546407	-0.009571
1044.713481	-0.012914
1044.880537	-0.011131
1045.047575	-0.009607
1045.214595	-0.005127
1045.381596	-0.003858
1045.548579	-0.002479
1045.715544	-0.001723
1045.882491	-0.001964
1046.049420	0.000501
1046.216330	0.006155
1046.383222	0.005791
1046.550096	0.003758
1046.716951	0.000753
1046.883789	-0.002171
1047.050608	-0.000383
1047.217409	-0.004892
1047.384192	-0.006925
1047.550956	-0.011792
1047.717703	-0.015297
1047.884431	-0.010692
1048.051140	-0.010849
1048.217832	-0.012191
1048.384505	-0.012404
1048.551161	-0.014403
1048.717798	-0.012462
1048.884416	-0.008305
1049.051017	-0.003470
1049.217599	-0.002456
1049.384163	-0.002559
1049.550709	-0.002203
1049.717237	0.001054
1049.883746	0.003805
1050.050237	0.002787
1050.216710	0.005293
1050.383165	0.001294
1050.549601	0.002211
1050.716019	0.001793
1050.882420	-0.000558
1051.048801	-0.001711
1051.215165	-0.005777
1051.381510	-0.005048
1051.547837	-0.005419
1051.714146	-0.009212
1051.880437	-0.008250
1052.046709	-0.011455
1052.212964	-0.010607
1052.379200	-0.009822
1052.545417	-0.007192
1052.711617	-0.003070
1052.877798	-0.006269
1053.043961	-0.006462
1053.210106	-0.003182
1053.376233	-0.000634
1053.542341	0.001042
1053.708432	0.000078
1053.874504	-0.000249
1054.040557	0.002083
1054.206593	0.003059
1054.372610	0.001407
1054.538609	0.002217
1054.704590	-0.000642
1054.870553	-0.001730
1055.036497	-0.001802
1055.202424	-0.003165
1055.368331	-0.001174
1055.534221	-0.008526
1055.700093	-0.010206
1055.865946	-0.010618
1056.031781	-0.008729
1056.197598	-0.006826
1056.363397	-0.007515
1056.529177	-0.008194
1056.694939	-0.006829
1056.860683	-0.011281
1057.026409	-0.012160
1057.192116	-0.010458
1057.357806	-0.006445
1057.523477	-0.015045
1057.689130	-0.018411
1057.854764	-0.019683
1058.020381	-0.016567
1058.185979	-0.014832
1058.351559	-0.014250
1058.517120	-0.007715
1058.682664	-0.006037
1058.848189	-0.008226
1059.013696	-0.003686
1059.179185	-0.002951
1059.344656	0.001501
1059.510108	-0.002373
1059.675542	-0.004109
1059.840958	-0.002147
1060.006356	-0.006037
1060.171735	-0.007791
1060.337096	-0.009862
1060.502439	-0.006171
1060.667764	-0.002434
1060.833071	-0.006720
1060.998359	-0.002543
1061.163629	-0.001812
1061.328881	-0.001480
1061.494115	0.001908
1061.659330	-0.002798
1061.824527	0.002841
1061.989706	0.005893
1062.154867	0.003145
1062.320010	0.004509
1062.485134	-0.000824
1062.650240	-0.001727
1062.815328	-0.000724
1062.980398	0.001359
1063.145449	0.006521
1063.310482	0.005080
1063.475497	-0.000236
1063.640494	-0.001202
1063.805473	-0.001979
1063.970433	0.002533
1064.135375	0.004968
1064.300299	-0.000388
1064.465204	-0.003222
1064.630092	-0.003534
1064.794961	-0.005665
1064.959812	-0.005856
1065.124645	-0.006547
1065.289459	-0.008693
1065.454256	-0.011200
1065.619034	-0.013657
1065.783793	-0.012771
1065.948535	-0.010098
1066.113258	-0.015644
1066.277964	-0.015364
1066.442651	-0.017274
1066.607319	-0.016698
1066.771970	-0.014885
1066.936602	-0.011127
1067.101216	-0.009595
1067.265812	-0.012169
1067.430389	-0.019729
1067.594949	-0.015399
1067.759490	-0.019042
1067.924013	-0.018822
1068.088518	-0.015134
1068.253004	-0.011669
1068.417472	-0.013040
1068.581922	-0.009321
1068.746354	-0.002242
1068.910768	0.002261
1069.075163	-0.000255
1069.239540	0.002819
1069.403899	0.004517
1069.568240	-0.001672
1069.732562	-0.006894
1069.896866	-0.002822
1070.061152	-0.008678
1070.225420	-0.010865
1070.389670	-0.011953
1070.553901	-0.008643
1070.718114	-0.006497
1070.882309	-0.005940
1071.046486	-0.001516
1071.210644	0.001874
1071.374784	-0.004321
1071.538906	-0.004624
1071.703010	-0.006819
1071.867096	-0.003492
1072.031163	-0.005428
1072.195212	-0.008390
1072.359243	-0.016086
1072.523256	-0.016382
1072.687250	-0.017824
1072.851226	-0.021086
1073.015184	-0.020870
1073.179124	-0.021531
1073.343045	-0.020719
1073.506949	-0.021798
1073.670834	-0.022127
1073.834701	-0.012758
1073.998549	-0.017369
1074.162380	-0.020072
1074.326192	-0.018457
1074.489986	-0.017445
1074.653761	-0.012896
1074.817519	-0.016749
1074.981258	-0.016529
1075.144979	-0.016371
1075.308682	-0.017902
1075.472367	-0.016740
1075.636033	-0.021371
1075.799681	-0.014214
1075.963311	-0.015373
1076.126923	-0.017553
1076.290516	-0.021727
1076.454092	-0.019778
1076.617649	-0.015437
1076.781187	-0.017336
1076.944708	-0.017118
1077.108210	-0.008593
1077.271695	-0.014494
1077.435160	-0.017242
1077.598608	-0.020885
1077.762038	-0.019524
1077.925449	-0.018544
1078.088842	-0.021807
1078.252217	-0.017909
1078.415573	-0.012875
1078.578912	-0.008104
1078.742232	-0.007711
1078.905534	-0.002614
1079.068817	-0.002194
1079.232083	0.001480
1079.395330	0.000865
1079.558559	0.001044
1079.721770	-0.000039
1079.884962	-0.005843
1080.048136	-0.013154
1080.211293	-0.012355
1080.374430	-0.017320
1080.537550	-0.015538
1080.700651	-0.015291
1080.863735	-0.012900
1081.026800	-0.009599
1081.189846	-0.009194
1081.352875	-0.003406
1081.515885	-0.001397
1081.678877	-0.003553
1081.841851	-0.002906
1082.004807	0.000401
1082.167744	0.003080
1082.330663	-0.000109
1082.493564	0.001154
1082.656447	0.001117
1082.819312	-0.000472
1082.982158	-0.000557
1083.144986	-0.004206
1083.307796	0.001354
1083.470587	0.003505
1083.633361	-0.000050
1083.796116	-0.000608
1083.958853	-0.003246
1084.121571	-0.002697
1084.284272	-0.002821
1084.446954	-0.004648
1084.609618	-0.002339
1084.772264	-0.005356
1084.934892	-0.009874
1085.097501	-0.009171
1085.260092	-0.008963
1085.422665	-0.006510
1085.585220	-0.007597
1085.747756	-0.006944
1085.910274	-0.004223
1086.072774	0.002392
1086.235256	0.003360
1086.397720	0.008260
1086.560165	0.013295
1086.722592	0.009468
1086.885001	0.000069
1087.047392	-0.005205
1087.209764	-0.011878
1087.372119	-0.013693
1087.534455	-0.010457
1087.696772	-0.010199
1087.859072	-0.012602
1088.021353	-0.017458
1088.183616	-0.013152
1088.345861	-0.007282
1088.508088	0.001734
1088.670296	0.003785
1088.832486	-0.001407
1088.994658	-0.006008
1089.156812	-0.010214
1089.318948	-0.010633
1089.481065	-0.016596
1089.643164	-0.015476
1089.805245	-0.013298
1089.967308	-0.017461
1090.129352	-0.008684
1090.291378	-0.002210
1090.453386	-0.001832
1090.615376	-0.000434
1090.777347	-0.001567
1090.939301	-0.002048
1091.101236	-0.007573
1091.263153	-0.012602
1091.425051	-0.013516
1091.586932	-0.022418
1091.748794	-0.022023
1091.910638	-0.021770
1092.072463	-0.021639
1092.234271	-0.019097
1092.396060	-0.017233
1092.557831	-0.012338
1092.719584	-0.019987
1092.881319	-0.018408
1093.043035	-0.019916
1093.204733	-0.024826
1093.366413	-0.023094
1093.528075	-0.023714
1093.689718	-0.031272
1093.851343	-0.028931
1094.012950	-0.033487
1094.174539	-0.023612
1094.336110	-0.016765
1094.497662	-0.010326
1094.659196	-0.006448
1094.820712	-0.010606
1094.982210	-0.011880
1095.143689	-0.008549
1095.305151	-0.008117
1095.466594	-0.013904
1095.628018	-0.011225
1095.789425	-0.022360
1095.950813	-0.026488
1096.112183	-0.025847
1096.273535	-0.027682
1096.434869	-0.024542
1096.596184	-0.028328
1096.757482	-0.029720
1096.918761	-0.023486
1097.080021	-0.030788
1097.241264	-0.027523
1097.402488	-0.027673
1097.563694	-0.026806
1097.724882	-0.028914
1097.886052	-0.024773
1098.047203	-0.017417
1098.208336	-0.012176
1098.369451	-0.011155
1098.530548	-0.009340
1098.691627	-0.016217
1098.852687	-0.012429
1099.013729	-0.012880
1099.174753	-0.003971
1099.335758	-0.007412
1099.496746	-0.007501
1099.657715	-0.004873
1099.818666	-0.000352
1099.979599	-0.005539
1100.140513	-0.002576
1100.301409	-0.012087
1100.462287	-0.012845
1100.623147	-0.022089
1100.783989	-0.024641
1100.944812	-0.027400
1101.105617	-0.029264
1101.266404	-0.027706
1101.427173	-0.018139
1101.587923	-0.011954
1101.748656	-0.001576
1101.909370	-0.012699
1102.070066	-0.011256
1102.230743	-0.002579
1102.391403	-0.003777
1102.552044	-0.011023
1102.712667	-0.012865
1102.873271	-0.014843
1103.033858	-0.020778
1103.194426	-0.026359
1103.354976	-0.015042
1103.515508	-0.013733
1103.676021	-0.019771
1103.836517	-0.024116
1103.996994	-0.019707
1104.157453	-0.027536
1104.317893	-0.024531
1104.478316	-0.015511
1104.638720	-0.013414
1104.799106	-0.006378
1104.959474	-0.010004
1105.119823	-0.013876
1105.280155	-0.017019
1105.440468	-0.017857
1105.600763	-0.012531
1105.761039	-0.010615
1105.921298	-0.008526
1106.081538	0.001077
1106.241760	-0.005258
1106.401964	-0.001663
1106.562149	-0.002111
1106.722316	-0.000057
1106.882465	0.000308
1107.042596	-0.012138
1107.202709	-0.004215
1107.362803	-0.007042
1107.522879	-0.016503
1107.682937	-0.022920
1107.842977	-0.032849
1108.002999	-0.028673
1108.163002	-0.013474
1108.322987	-0.005947
1108.482954	0.007045
1108.642902	-0.010910
1108.802833	-0.023259
1108.962745	-0.026816
1109.122639	-0.021487
1109.282515	-0.008483
1109.442372	-0.001386
1109.602211	-0.005574
1109.762032	-0.017889
1109.921835	-0.025373
1110.081620	-0.022985
1110.241386	-0.020367
1110.401134	-0.016095
1110.560864	-0.021246
1110.720576	-0.022079
1110.880269	-0.031066
1111.039945	-0.032788
1111.199602	-0.030156
1111.359240	-0.029812
1111.518861	-0.027352
1111.678463	-0.028900
1111.838047	-0.024547
1111.997613	-0.010558
1112.157161	-0.017612
1112.316690	-0.016439
1112.476202	-0.014764
1112.635695	-0.013082
1112.795169	-0.005845
1112.954626	-0.010178
1113.114064	-0.008005
1113.273484	-0.007161
1113.432886	-0.017873
1113.592270	-0.014306
1113.751635	-0.009585
1113.910983	-0.010333
1114.070312	-0.014409
1114.229622	-0.016774
1114.388915	-0.012272
1114.548189	-0.009321
1114.707445	-0.019106
1114.866683	-0.014941
1115.025903	-0.007761
1115.185104	-0.012191
1115.344287	-0.003866
1115.503452	-0.002801
1115.662599	0.007453
1115.821727	0.013074
1115.980838	0.002498
1116.139930	0.011680
1116.299004	0.007539
1116.458059	-0.003032
1116.617097	-0.004085
1116.776116	-0.017535
1116.935117	-0.006809
1117.094099	-0.007262
1117.253064	-0.015419
1117.412010	-0.005319
1117.570938	-0.019393
1117.729848	-0.019568
1117.888740	-0.009702
1118.047613	-0.008137
1118.206468	-0.010609
1118.365305	-0.020610
1118.524124	-0.027680
1118.682924	-0.018819
1118.841707	-0.007468
1119.000471	0.007126
1119.159216	0.020188
1119.317944	0.007228
1119.476653	0.003956
1119.635344	0.014568
1119.794017	0.018465
1119.952672	0.026071
1120.111308	0.015229
1120.269927	-0.002936
1120.428527	-0.006138
1120.587108	-0.013803
1120.745672	-0.000290
1120.904217	0.007596
1121.062744	0.000860
1121.221253	0.004917
1121.379744	0.012116
1121.538216	0.009507
1121.696671	0.025914
1121.855107	0.022420
1122.013524	0.025936
1122.171924	0.016035
1122.330305	0.012949
1122.488668	0.014568
1122.647013	0.015383
1122.805340	-0.002634
1122.963648	0.009179
1123.121938	-0.001419
1123.280210	-0.004639
1123.438464	-0.020622
1123.596700	-0.011480
1123.754917	-0.014275
1123.913116	-0.025160
1124.071297	-0.031168
1124.229459	-0.026968
1124.387604	-0.041649
1124.545730	-0.034748
1124.703838	-0.035060
1124.861928	-0.035704
1125.019999	-0.035409
1125.178052	-0.035223
1125.336088	-0.018295
1125.494104	-0.022787
1125.652103	-0.013861
1125.810083	-0.007364
1125.968045	-0.000025
1126.125989	0.000923
1126.283915	0.008497
1126.441823	-0.001369
1126.599712	-0.004528
1126.757583	-0.006601
1126.915436	-0.009399
1127.073270	-0.027185
1127.231087	-0.028778
1127.388885	-0.049555
1127.546665	-0.044942
1127.704426	-0.050579
1127.862170	-0.048093
1128.019895	-0.046654
1128.177602	-0.054860
1128.335291	-0.042355
1128.492961	-0.039923
1128.650614	-0.039194
1128.808248	-0.037721
1128.965864	-0.026136
1129.123461	-0.018524
1129.281041	-0.019034
1129.438602	-0.023209
1129.596145	-0.024261
1129.753670	-0.032091
1129.911176	-0.031881
1130.068665	-0.029624
1130.226135	-0.024450
1130.383587	-0.032427
1130.541020	-0.029613
1130.698436	-0.031245
1130.855833	-0.024234
1131.013212	-0.027027
1131.170573	-0.019109
1131.327915	-0.024316
1131.485239	-0.024920
1131.642545	-0.013269
1131.799833	-0.009432
1131.957103	-0.012009
1132.114354	-0.005233
1132.271588	-0.016521
1132.428803	-0.008696
1132.585999	-0.007437
1132.743178	-0.004619
1132.900338	-0.010566
1133.057480	-0.033323
1133.214604	-0.039923
1133.371710	-0.047669
1133.528797	-0.046346
1133.685866	-0.048889
1133.842917	-0.051220
1133.999950	-0.067123
1134.156964	-0.067263
1134.313960	-0.057728
1134.470938	-0.048311
1134.627898	-0.042430
1134.784840	-0.034385
1134.941763	-0.049122
1135.098668	-0.035621
1135.255555	-0.031901
1135.412424	-0.016123
1135.569274	-0.014441
1135.726107	-0.003924
1135.882921	0.003468
1136.039716	0.002000
1136.196494	-0.003951
1136.353253	0.005058
1136.509995	0.002218
1136.666717	0.001999
1136.823422	-0.011342
1136.980109	0.006827
1137.136777	-0.009397
1137.293427	-0.013379
1137.450059	-0.028673
1137.606672	-0.026091
1137.763267	-0.020475
1137.919844	-0.032830
1138.076403	-0.035960
1138.232944	-0.028430
1138.389466	-0.033871
1138.545971	-0.030692
1138.702457	-0.039853
1138.858924	-0.024169
1139.015374	-0.030010
1139.171805	-0.024993
1139.328218	-0.008301
1139.484613	0.002320
1139.640990	0.008715
1139.797348	0.005621
1139.953688	-0.007262
1140.110010	-0.006572
1140.266314	-0.002975
1140.422600	0.011603
1140.578867	-0.005789
1140.735116	-0.008609
1140.891347	-0.032796
1141.047559	-0.039829
1141.203754	-0.049660
1141.359930	-0.035090
1141.516088	-0.006105
1141.672228	-0.029034
1141.828349	-0.044489
1141.984452	-0.029289
1142.140537	-0.047768
1142.296604	-0.029070
1142.452653	-0.030433
1142.608683	-0.019671
1142.764695	-0.016970
1142.920689	-0.033742
1143.076665	-0.011678
1143.232622	0.013045
1143.388562	0.004999
1143.544483	0.017032
1143.700385	-0.001390
1143.856270	0.006341
1144.012136	0.008535
1144.167985	-0.005998
1144.323814	-0.014822
1144.479626	-0.028935
1144.635420	-0.056778
1144.791195	-0.058410
1144.946952	-0.053782
1145.102691	-0.043567
1145.258411	-0.049269
1145.414113	-0.055427
1145.569798	-0.042330
1145.725463	-0.039029
1145.881111	-0.033142
1146.036741	-0.013996
1146.192352	-0.000630
1146.347945	0.013168
1146.503519	0.021111
1146.659076	0.022342
1146.814614	0.022338
1146.970134	0.028819
1147.125636	0.034548
1147.281120	0.026560
1147.436585	0.024821
1147.592032	-0.004808
1147.747461	-0.015482
1147.902872	-0.013516
1148.058265	-0.012596
1148.213639	-0.006674
1148.368995	-0.016780
1148.524333	-0.010517
1148.679653	-0.011697
1148.834954	-0.007248
1148.990237	0.016488
1149.145502	0.015489
1149.300749	0.018370
1149.455977	0.005456
1149.611188	-0.004212
1149.766380	0.005364
1149.921553	-0.014622
1150.076709	-0.011060
1150.231846	-0.023214
1150.386966	-0.021410
1150.542066	-0.010271
1150.697149	-0.031126
1150.852214	-0.015782
1151.007260	-0.022339
1151.162288	-0.045537
1151.317298	-0.027231
1151.472289	-0.013053
1151.627263	-0.013508
1151.782218	-0.029854
1151.937155	-0.048348
1152.092073	-0.041905
1152.246974	-0.045320
1152.401856	-0.032946
1152.556720	-0.021256
1152.711566	-0.020623
1152.866393	-0.019067
1153.021203	-0.022870
1153.175994	-0.006353
1153.330767	0.012659
1153.485521	0.026722
1153.640258	0.034489
1153.794976	0.024029
1153.949676	0.003673
1154.104358	-0.013096
1154.259021	-0.044487
1154.413667	-0.051670
1154.568294	-0.070633
1154.722903	-0.083603
1154.877493	-0.095569
1155.032066	-0.107001
1155.186620	-0.091699
1155.341156	-0.075802
1155.495674	-0.068237
1155.650173	-0.054458
1155.804654	-0.048902
1155.959118	-0.033832
1156.113562	-0.029609
1156.267989	-0.033936
1156.422397	-0.014242
1156.576788	-0.024145
1156.731160	-0.020518
1156.885513	-0.044308
1157.039849	-0.043258
1157.194166	-0.059975
1157.348465	-0.069691
1157.502746	-0.069612
1157.657009	-0.074389
1157.811253	-0.076114
1157.965479	-0.077566
1158.119687	-0.106038
1158.273877	-0.071699
1158.428048	-0.053126
1158.582201	-0.021750
1158.736337	-0.031412
1158.890453	-0.037738
1159.044552	-0.007094
1159.198632	-0.035488
1159.352694	-0.026741
1159.506738	0.009107
1159.660764	-0.001405
1159.814771	-0.029255
1159.968761	-0.039561
1160.122732	-0.025356
1160.276685	-0.021457
1160.430619	-0.037703
1160.584535	-0.020568
1160.738434	-0.017157
1160.892313	-0.020108
1161.046175	-0.037405
1161.200019	-0.030068
1161.353844	-0.030983
1161.507651	-0.036574
1161.661440	-0.031118
1161.815210	-0.040434
1161.968962	-0.038032
1162.122697	-0.076055
1162.276412	-0.083072
1162.430110	-0.066219
1162.583789	-0.056083
1162.737451	-0.047071
1162.891094	-0.029641
1163.044718	-0.037032
1163.198325	-0.025780
1163.351913	-0.033646
1163.505483	-0.028540
1163.659035	-0.013571
1163.812569	-0.027242
1163.966084	-0.054046
1164.119581	-0.050065
1164.273060	-0.051094
1164.426521	-0.041977
1164.579964	-0.054092
1164.733388	-0.063859
1164.886794	-0.042173
1165.040182	-0.043514
1165.193551	-0.033166
1165.346903	-0.019879
1165.500236	-0.034690
1165.653551	-0.027448
1165.806848	-0.026981
1165.960126	-0.018893
1166.113386	-0.019757
1166.266628	-0.039031
1166.419852	-0.047442
1166.573058	-0.068477
1166.726245	-0.068912
1166.879414	-0.060565
1167.032565	-0.088882
1167.185698	-0.100935
1167.338812	-0.097571
1167.491909	-0.080685
1167.644987	-0.047772
1167.798046	-0.045066
1167.951088	-0.043269
1168.104111	-0.029617
1168.257117	-0.019048
1168.410103	0.029686
1168.563072	0.003283
1168.716023	0.014054
1168.868955	0.002061
1169.021869	-0.013218
1169.174765	-0.006905
1169.327642	0.020106
1169.480501	0.030544
1169.633343	0.015026
1169.786165	-0.023407
1169.938970	0.030895
1170.091757	0.018580
1170.244525	0.009946
1170.397275	-0.004890
1170.550007	-0.015735
1170.702720	-0.020616
1170.855415	-0.050277
1171.008092	-0.028061
1171.160751	-0.004122
1171.313392	-0.002511
1171.466014	-0.128716
1171.618619	0.184431
1171.771205	0.184431
1171.923772	0.184431
