sample name	sample
index	425
start time	 03-08-2021  11:50:46 AM
880	-0.040230
Peak Time (s)	92.536
Peak Height 	-0.04023
calc peak height	90,93
Baseline Time (s)	9.036
Baseline Value 	-0.003612
subtract baseline	10,4
Abs	-0.015768
Peak Time (s)	92.035
Peak Height 	-0.01577
calc peak height	90,93
Baseline Time (s)	9.536
Baseline Value 	0.002378
subtract baseline	10,3
PK_550	-0.004891
Peak Time (s)	92.536
Peak Height 	-0.004891
calc peak height	90,93
Baseline Time (s)	9.036
Baseline Value 	2.2951E-4
subtract baseline	10,2
PK_880	-0.008843
Peak Time (s)	90.035
Peak Height 	-0.008843
calc peak height	90,93
Baseline Time (s)	10.536
Baseline Value 	9.8819E-4
subtract baseline	10,1


Time (s)	A880-A510	A880-A775	A880-A975	A880	I510	I775	I975	I880	
0.035000	-0.002499	-0.000858	-0.002430	0.000742	6949.307177	46987.736869	3990.165099	24765.046872
0.536000	-0.003075	-0.000920	0.002221	0.003752	6915.842437	46677.020440	3994.476959	24613.863048
1.039000	-0.001891	-0.000602	-0.002581	0.003737	6926.999853	46710.574483	3981.942822	24614.612238
1.536000	-0.000528	-0.000326	-0.004238	0.000856	6966.739664	47030.098019	3985.133704	24759.287876
2.036500	-0.001735	-0.000598	-0.003413	-0.000293	6966.198296	47119.301876	3990.301398	24817.279324
2.537000	0.000829	-0.000010	-0.001768	-0.000075	6988.328737	47156.985289	3994.048182	24806.259344
3.040000	-0.001346	0.000530	-0.001258	0.002828	6940.571071	46916.903621	3987.771077	24660.151268
3.534500	-0.000549	-0.000393	-0.004139	0.000177	6972.939733	47092.430901	3987.168217	24793.580363
4.035000	0.001813	0.000485	0.001167	0.000569	6991.545277	47141.820385	4000.095000	24773.764084
4.535500	-0.000946	-0.000506	-0.003169	-0.000552	6976.068474	47155.066495	3991.620868	24830.364130
5.038000	-0.000570	-0.000114	0.000442	0.000042	6974.013774	47134.602883	3999.572012	24800.375487
5.538500	-0.000461	-0.000789	-0.001131	-0.001046	6985.315908	47176.655902	3998.291066	24855.397585
6.036000	0.001996	0.000516	0.000826	0.000347	6995.389501	47167.720840	3999.781400	24785.003623
6.536000	0.001167	-0.000018	0.002045	-0.000039	6991.189190	47152.549326	4004.034423	24804.443260
7.036500	0.000270	0.000619	-0.000721	0.000830	6974.500695	47128.890977	3994.421961	24760.598724
7.537000	-0.002182	-0.000213	0.002147	0.000186	6957.498851	47109.873177	4003.707602	24793.126565
8.036000	-0.000282	-0.000293	-0.000689	-0.000194	6978.955904	47140.367781	3997.209008	24812.301100
8.534500	-0.000019	0.000486	-0.000409	0.000697	6973.035635	47129.009411	3995.596732	24767.331220
9.035500	0.000210	0.000000	0.003823	0.000000	6981.768332	47150.444916	4008.661088	24802.494786
9.535500	-0.000070	-0.000403	0.000000	-0.000555	6984.374084	47165.928005	3999.983128	24830.557485
10.036000	0.002266	0.000167	-0.003930	0.000242	6998.941771	47142.796381	3987.545233	24790.265868
10.536000	0.000000	0.000038	0.003714	0.000092	6978.922059	47144.918973	4008.124414	24797.862371
11.036000	0.000440	-0.000312	-0.001251	-0.000258	6986.381896	47144.959403	3995.895615	24815.540182
11.536500	-0.000605	-0.000298	0.000408	-0.000242	6976.364184	47144.767525	4000.232865	24814.728760
12.036500	-0.000096	-0.000086	0.000500	-0.000328	6981.978318	47175.033338	4000.703284	24819.044609
12.537000	-0.000007	-0.000183	0.000425	0.000074	6979.020382	47124.207435	3999.440825	24798.740691
13.037000	-0.000722	-0.000976	0.000584	-0.002942	7000.796713	47351.173549	4007.868067	24951.564873
13.537500	0.000075	-0.000333	-0.001551	-0.001154	6991.400312	47234.163462	3997.466268	24860.834899
14.034500	0.000676	-0.000452	0.002624	-0.001374	6999.189061	47244.489787	4009.125929	24871.982122
14.535000	-0.001458	0.000222	-0.000525	0.002475	6942.821033	46921.486582	3990.614620	24677.852488
15.038500	-0.000910	0.000140	-0.003068	0.000121	6970.068015	47152.446291	3990.121153	24796.401444
15.566500	-0.000949	-0.000143	0.001895	-0.001324	6983.326922	47270.869268	4007.049570	24869.437087
16.036000	0.000018	0.000020	0.000757	-0.001140	6990.735373	47268.804226	4003.539527	24860.145182
16.537000	-0.001786	-0.000619	0.001516	-0.001965	6981.477958	47287.720402	4007.747777	24901.923144
17.037000	-0.001402	-0.000265	-0.002952	0.004495	6924.496772	46668.133645	3979.007995	24576.682192
17.537500	0.002261	-0.000253	-0.001552	-0.003143	7031.130488	47445.936144	4002.726366	24961.804768
18.035000	0.002764	-0.000081	-0.000820	0.000620	7000.075646	47079.018713	3994.716042	24771.202208
18.534500	-0.000019	0.000011	-0.001731	0.000565	6974.283890	47094.019151	3992.463706	24773.988309
19.035500	0.000271	0.000143	-0.004052	0.000867	6974.163976	47076.790542	3985.591108	24758.769044
19.535000	-0.000915	-0.000283	0.005658	0.000173	6969.526005	47103.976845	4013.098419	24793.758503
20.036000	-0.000401	0.000354	0.002543	0.001123	6965.430587	47072.133129	4002.273695	24745.858590
20.536000	-0.000811	-0.000852	0.002919	0.000074	6971.446363	47056.232759	4006.055492	24798.762772
21.036500	0.000412	-0.000329	0.000653	0.000318	6980.683273	47084.659245	3999.400321	24786.464068
21.536500	-0.001532	0.000260	-0.004020	0.001159	6954.462158	47058.956710	3984.912662	24744.056460
22.037000	0.000245	-0.000706	-0.003009	0.000313	6979.143854	47046.734076	3989.771490	24786.681251
22.537000	-0.000203	-0.000218	-0.000693	0.000639	6971.854427	47063.293887	3995.001463	24770.268148
23.035000	0.001613	-0.000276	0.002366	0.001057	6985.039814	47014.801132	4001.979322	24749.181929
23.535000	0.002905	0.000265	-0.000219	0.000930	6998.474614	47082.789523	3995.484033	24755.601764
24.035500	0.000079	-0.000123	-0.000483	0.000779	6973.181094	47058.631622	3995.183429	24763.173148
24.538500	-0.001046	-0.000221	-0.000738	0.000262	6967.460336	47101.196149	3995.876301	24789.260274
25.036000	0.000888	0.000235	0.001357	0.001037	6978.380148	47068.785058	3999.361556	24750.185866
25.536500	0.001675	-0.000377	-0.001269	0.000328	6992.524354	47078.704612	3994.304150	24785.941594
26.036500	0.000351	0.000336	-0.000076	0.001130	6972.443574	47069.630389	3995.332725	24745.523160
26.536500	0.000904	-0.000149	-0.003534	0.000660	6982.091068	47068.073359	3987.486998	24769.194870
27.037500	0.001631	0.000573	-0.001760	0.001136	6984.469245	47093.158970	3990.889610	24745.214471
27.537500	0.001322	0.000259	-0.001015	-0.001864	7009.970874	47367.313973	4000.761053	24896.820930
28.035000	0.000656	0.000748	-0.000733	-0.001417	6999.406952	47371.597316	4000.323926	24874.182218
28.535500	0.002508	0.000156	0.003351	-0.000952	7012.582852	47263.471680	4009.941569	24850.620872
29.036000	-0.001823	0.000403	-0.000579	0.004875	6917.042766	46697.187473	3984.195743	24557.698094
29.535500	0.000528	0.000493	0.000471	-0.000829	6992.613092	47285.351275	4001.953175	24844.382119
30.038500	-0.000105	-0.000281	0.002114	-0.001209	6990.223106	47245.132053	4007.328846	24863.638566
30.536500	0.001075	0.000498	-0.001753	-0.000823	6997.742134	47285.245329	3996.059180	24844.070335
31.053500	-0.001150	-0.000651	-0.002411	0.003605	6935.149284	46718.966029	3982.730507	24621.226366
31.537500	-0.001664	0.000271	-0.003648	0.002813	6937.743573	46892.225880	3981.571142	24660.903102
32.037500	0.002778	0.000376	-0.003457	-0.000595	7011.753827	47249.491532	3990.977658	24832.547439
32.548000	-0.000308	0.000271	0.000512	0.000054	6976.376486	47172.624696	3999.726178	24799.775498
33.038000	-0.001589	-0.000075	0.002369	0.004422	6923.433008	46694.566372	3993.102405	24580.305852
33.535500	0.000870	0.000101	0.000923	-0.000625	6993.919600	47224.407020	4002.612841	24834.067985
34.038500	0.000793	-0.000320	0.000391	-0.001665	7003.060262	47287.712986	4003.959750	24886.735705
34.536000	0.001558	-0.000284	0.001592	-0.002059	7014.081361	47331.735427	4008.201205	24906.726810
35.036000	-0.001990	-0.000528	0.000432	0.002837	6934.470807	46808.899933	3992.178732	24659.695431
35.537000	-0.001976	0.000065	-0.000735	0.001560	6946.547715	46998.407948	3992.467682	24723.864264
36.037000	-0.001701	0.000021	-0.000978	0.001513	6949.562520	46998.724722	3991.954453	24726.241087
36.536500	-0.001968	0.000109	0.002819	0.001788	6944.484813	46979.709467	4001.242349	24712.389409
37.034500	-0.001731	0.000526	-0.003524	0.003668	6929.136028	46831.401377	3979.669158	24618.033065
37.535000	-0.000295	0.000360	0.004763	0.001738	6960.639104	47010.245966	4006.534086	24714.900991
38.035000	0.000310	0.000723	0.002009	0.002296	6961.080124	46990.388584	3997.754547	24686.836818
38.538500	-0.001320	0.000128	-0.000888	0.001641	6951.923651	46996.475329	3991.852651	24719.764398
39.035500	-0.000816	0.000338	0.003395	0.002670	6947.012697	46913.488679	4000.432648	24668.090090
39.536000	0.000807	0.000650	0.004722	0.002465	6964.168547	46965.882469	4004.493411	24678.378056
40.036000	-0.001490	-0.000361	0.001221	0.001488	6951.777204	46962.424406	3997.810664	24727.492621
40.536500	-0.000289	-0.000011	0.003310	0.001767	6960.427537	46969.735933	4002.600068	24713.466957
41.037000	-0.000507	0.000214	-0.004526	0.001630	6959.659236	47006.400119	3982.364679	24720.335266
41.537000	0.001616	0.000124	-0.001870	0.001906	6977.045625	46969.179728	3988.581828	24706.443971
42.037500	-0.001344	-0.000541	0.000804	0.001036	6957.390498	46990.104256	3997.903309	24750.265434
42.534500	-0.000142	-0.000186	-0.000448	0.001505	6964.271416	46978.513450	3993.366654	24726.640077
43.035500	-0.001995	0.000063	0.000395	0.001793	6944.186485	46974.578669	3994.827604	24712.145663
43.535500	-0.001585	-0.001145	-0.001355	0.001046	6955.022302	46927.724224	3992.186994	24749.729395
44.036000	0.000136	0.000294	0.003411	0.001719	6964.869653	47005.446664	4002.991888	24715.835929
44.536500	-0.001406	-0.000396	0.003333	0.000741	6959.569312	47034.730529	4005.384413	24765.112357
45.037000	0.000454	-0.000034	0.002164	-0.000671	6990.415157	47215.314321	4006.028518	24836.384104
45.537000	0.000792	-0.000215	-0.001795	-0.001079	6997.493659	47238.601970	3996.625307	24857.054997
46.064000	-0.001088	-0.000465	-0.000232	-0.001131	6980.189682	47218.320862	4000.891258	24859.659559
46.535000	0.000114	-0.000318	0.001832	-0.000911	6989.479954	47210.905091	4005.785011	24848.557191
47.037000	0.000335	-0.000520	0.003135	-0.001206	6994.365264	47220.444699	4010.041960	24863.498813
47.535500	-0.000337	0.000260	-0.000414	-0.000844	6984.575325	47263.092997	3999.650437	24845.142169
48.038000	0.001008	0.000154	0.003636	-0.000634	6995.316278	47230.851133	4009.851713	24834.534025
48.536000	0.000993	0.000675	-0.002309	0.002546	6965.147625	46960.206983	3985.759097	24674.290037
49.036000	-0.000621	0.000573	-0.000618	0.002657	6948.958155	46938.574015	3989.894929	24668.728069
49.536500	-0.000260	0.000201	0.002675	-0.000497	6982.023280	47221.640423	4006.926285	24827.605823
50.036500	0.000854	0.000096	0.003825	-0.000984	6997.174925	47260.636473	4011.292454	24852.245947
50.539500	0.000392	-0.000004	0.005263	0.000106	6982.485743	47139.265148	4012.220276	24797.142929
51.037500	-0.000194	0.000226	0.005066	-0.002517	7001.778656	47430.786658	4018.724946	24929.955522
51.534500	0.002283	0.000442	0.002825	-0.000587	7006.974400	47255.428605	4007.566413	24832.172485
52.035000	-0.002384	-0.001475	0.003502	0.003723	6922.534762	46623.997513	3997.930506	24615.281654
52.535000	-0.024224	-0.010641	-0.008731	0.303609	4807.141435	24362.221532	3410.042436	13772.033184
53.035500	-0.045610	-0.025354	-0.018038	-0.014507	6696.433237	46059.008877	3989.223093	25547.461178
53.535500	-0.050506	-0.025561	-0.018215	-0.063410	7103.438424	51179.875249	4124.359327	28250.166242
54.035500	-0.032389	-0.062374	-0.004646	-0.201104	8926.175954	63804.043504	4654.878792	37718.303626
54.536000	-0.023556	-0.030181	0.001522	-0.118297	7979.231448	57104.050163	4363.067680	31669.041962
55.037000	-0.037301	-0.026043	-0.014879	-0.105553	7677.507273	56040.631384	4264.928847	30836.319643
55.537000	-0.034792	-0.032049	-0.022290	-0.154202	8277.280524	61523.182691	4405.762907	34151.079026
56.034500	-0.020266	-0.043317	-0.018415	-0.180201	8805.160919	63545.710776	4516.468653	36080.812973
56.534500	-0.011688	-0.037024	-0.012644	-0.172277	8814.089768	63318.365485	4508.232622	35480.370819
57.035000	-0.008049	-0.031095	-0.016202	-0.162997	8737.516302	62853.986941	4459.962871	34790.999963
57.538500	-0.004955	-0.022036	-0.011310	-0.146261	8556.371231	61803.505554	4416.675679	33584.305712
58.035500	-0.007954	-0.017498	-0.010189	-0.131056	8323.350546	60374.378783	4366.721302	32527.635880
58.536000	-0.007954	-0.013343	-0.014312	-0.112746	8098.622328	58531.337680	4290.419220	31303.304123
59.036000	-0.013716	-0.011276	-0.018933	-0.093332	7804.705825	56353.079436	4212.925308	30060.362504
59.536500	-0.011751	-0.010355	-0.011896	-0.086713	7752.201785	55656.347575	4214.238323	29649.102446
60.036500	-0.011865	-0.008410	-0.021914	-0.075981	7632.031684	54599.688824	4150.638522	28995.512912
60.537000	-0.012821	-0.008786	-0.022380	-0.065441	7507.887119	53316.434256	4118.116478	28369.104625
61.036500	-0.015815	-0.009804	-0.022219	-0.068644	7510.115539	53570.689122	4127.970277	28557.877889
61.535000	-0.013309	-0.009037	-0.015412	-0.078242	7640.980840	54794.614089	4177.126210	29131.874713
62.036000	-0.016787	-0.008031	-0.021564	-0.058105	7389.000748	52558.123712	4099.238136	27942.013162
62.535000	-0.018644	-0.010482	-0.019010	-0.069530	7489.450948	53594.944948	4140.067288	28610.307552
63.038000	-0.018315	-0.010927	-0.021693	-0.081690	7623.930625	54980.991179	4168.504366	29341.176266
63.536000	-0.015991	-0.009432	-0.021932	-0.089443	7735.288827	56101.974757	4191.496368	29817.946844
64.036500	-0.008009	-0.008891	-0.020459	-0.101060	7959.424193	57612.378399	4232.512736	30548.469689
64.536500	-0.010887	-0.008021	-0.021067	-0.094504	7850.278798	56900.693380	4209.912417	30133.810434
65.071500	-0.013646	-0.007580	-0.022584	-0.088115	7746.676487	56166.239727	4185.399354	29735.696330
65.534000	-0.011684	-0.007599	-0.018290	-0.085237	7736.423789	55812.067114	4189.758776	29558.266111
66.035000	-0.011613	-0.006865	-0.018109	-0.078689	7664.533404	55108.456517	4170.274338	29158.913289
66.537500	-0.013457	-0.005944	-0.024295	-0.072232	7573.937572	54447.097628	4132.421878	28770.931574
67.035000	-0.016520	-0.006293	-0.018954	-0.067008	7485.227167	53789.967169	4132.770113	28461.301896
67.535000	-0.013435	-0.005892	-0.022053	-0.064652	7492.954797	53561.262620	4116.767848	28322.808852
68.036000	-0.015948	-0.006117	-0.020279	-0.061949	7437.893426	53220.968641	4114.066991	28164.933086
68.536500	-0.016154	-0.006556	-0.018637	-0.059297	7407.998150	52864.169746	4111.133661	28010.961900
69.036000	-0.016944	-0.006758	-0.021118	-0.058767	7394.256572	52779.987757	4102.428347	27980.298580
69.536500	-0.016046	-0.005614	-0.017741	-0.056962	7384.836555	52704.078863	4106.963573	27876.141610
70.037000	-0.016768	-0.006349	-0.019908	-0.057007	7377.816256	52624.982225	4100.843424	27878.732784
70.534500	-0.016559	-0.005730	-0.017156	-0.055522	7364.621778	52526.016670	4104.493897	27793.377978
71.034500	-0.016928	-0.005559	-0.019739	-0.054400	7349.251056	52417.446121	4093.847163	27729.073331
71.538000	-0.016235	-0.006750	-0.017970	-0.055951	7372.398323	52458.443473	4103.381629	27817.970427
72.035500	-0.016491	-0.005524	-0.022763	-0.055612	7366.244796	52559.772113	4088.669846	27798.519899
72.536000	-0.014711	-0.006135	-0.017728	-0.055266	7381.091691	52450.464211	4102.106708	27778.682570
73.036000	-0.016459	-0.005584	-0.019716	-0.053897	7348.895414	52357.235739	4092.472230	27700.274525
73.536000	-0.014370	-0.006619	-0.021089	-0.057017	7402.821676	52595.192966	4097.476962	27879.298901
74.037000	-0.014313	-0.005491	-0.019711	-0.056878	7401.974321	52708.581184	4101.038318	27871.318843
74.537000	-0.011076	-0.005676	-0.018235	-0.058010	7447.690875	52817.208826	4108.565779	27936.536743
75.037500	-0.014020	-0.005266	-0.020390	-0.056352	7399.539720	52674.029373	4097.575011	27841.021480
75.534500	-0.012570	-0.005641	-0.015715	-0.058813	7440.423138	52913.641226	4118.224598	27982.911956
76.035000	-0.010023	-0.005604	-0.018708	-0.059428	7473.754723	52988.905897	4111.306694	28018.539119
76.535500	-0.012380	-0.005599	-0.020760	-0.058825	7442.555854	52919.939019	4103.626408	27983.626250
77.036000	-0.012056	-0.004431	-0.016324	-0.057717	7434.321293	52926.838665	4113.261937	27919.660785
77.535500	-0.011630	-0.005385	-0.019812	-0.059935	7462.127382	53072.564053	4109.574127	28047.873751
78.035500	-0.010715	-0.006120	-0.019400	-0.060330	7475.985761	53033.394326	4111.915940	28070.830441
78.537000	-0.011151	-0.005322	-0.018331	-0.058659	7453.734813	52932.793811	4110.169862	27974.054083
79.036500	-0.009750	-0.005429	-0.018186	-0.058623	7468.132139	52916.259854	4110.486165	27971.943836
79.537000	-0.008915	-0.005651	-0.017468	-0.059707	7488.454824	53015.629324	4115.721561	28034.696866
80.037500	-0.009348	-0.004595	-0.016416	-0.059018	7476.555243	53057.885353	4116.778297	27994.776177
80.534500	-0.009717	-0.005174	-0.016923	-0.058349	7465.585529	52913.971715	4113.355252	27956.103196
81.038500	-0.008305	-0.005398	-0.014542	-0.058607	7483.255474	52918.010978	4121.050634	27971.029054
81.535500	-0.009128	-0.005074	-0.013545	-0.058276	7471.037801	52917.127689	4123.000472	27951.916154
82.035500	-0.008422	-0.005611	-0.021979	-0.057665	7472.040249	52785.090046	4096.781233	27916.631699
82.536000	-0.008606	-0.005013	-0.018603	-0.056048	7453.041217	52668.239554	4101.837278	27823.567620
83.036500	-0.009166	-0.005267	-0.018546	-0.055935	7445.953130	52626.168555	4101.677844	27817.074929
83.536500	-0.007784	-0.005488	-0.020571	-0.056353	7464.918614	52648.701786	4097.057496	27841.077257
84.037000	-0.008646	-0.004597	-0.019077	-0.054423	7435.536593	52529.834538	4095.807208	27730.357951
84.534500	-0.011637	-0.004541	-0.022393	-0.053160	7391.141320	52392.176908	4082.753456	27658.215826
85.034500	-0.009509	-0.005086	-0.016277	-0.051883	7399.977972	52184.960692	4096.553804	27585.414239
85.535000	-0.009976	-0.005034	-0.014283	-0.052237	7398.806251	52231.073242	4103.305148	27605.574273
86.038000	-0.007451	-0.004255	-0.020942	-0.050504	7407.062947	52122.865702	4079.342066	27507.088972
86.535000	-0.009753	-0.004666	-0.019880	-0.050460	7382.667030	52071.172368	4082.221516	27504.560816
87.035500	-0.010877	-0.004992	-0.013929	-0.048386	7349.630809	51800.276227	4093.262325	27387.225074
87.536000	-0.011158	-0.005189	-0.017456	-0.048502	7347.938965	51791.214656	4083.546633	27393.784181
88.036000	-0.009408	-0.004387	-0.016977	-0.047130	7351.828843	51727.012126	4081.012180	27316.425891
88.537000	-0.011397	-0.005212	-0.017962	-0.046983	7329.885858	51617.889016	4077.811004	27308.158413
89.037500	-0.010795	-0.005163	-0.017861	-0.044815	7313.869169	51380.708015	4071.987259	27186.469038
89.535000	-0.011563	-0.004939	-0.017721	-0.044462	7302.434225	51366.336348	4071.389735	27166.719061
90.034500	-0.008843	-0.005620	-0.021242	-0.044218	7327.726462	51263.216833	4060.854718	27153.080473
90.538000	-0.012621	-0.005039	-0.019287	-0.043128	7278.146562	51206.575532	4063.266023	27092.210066
91.038500	-0.013640	-0.005884	-0.016756	-0.042547	7261.961588	51048.140318	4068.719965	27059.795184
91.536000	-0.010770	-0.005135	-0.018141	-0.041713	7282.554636	51038.782096	4062.514091	27013.391934
92.035500	-0.011509	-0.005257	-0.015768	-0.041036	7268.228260	50950.204519	4067.254350	26975.775718
92.536000	-0.012310	-0.004891	-0.017555	-0.040230	7252.020064	50901.645790	4060.017062	26931.113504
93.036500	-0.010086	-0.004865	-0.016897	-0.038541	7257.402423	50718.189455	4057.149627	26837.698834
93.537000	-0.010141	-0.004234	-0.012780	-0.038216	7253.582409	50751.960444	4067.726334	26819.802457
94.036500	-0.011172	-0.004887	-0.016876	-0.038169	7242.731671	50674.815450	4056.174931	26817.183154
94.535000	-0.012316	-0.004859	-0.018497	-0.036334	7212.915597	50476.407237	4046.623320	26716.229292
95.035500	-0.010937	-0.004708	-0.016821	-0.036443	7227.783489	50504.964663	4051.546166	26722.213110
95.538000	-0.011167	-0.004754	-0.015975	-0.036293	7223.987932	50483.531190	4053.473764	26714.006245
96.065000	-0.012861	-0.004159	-0.016650	-0.035080	7194.997523	50415.816818	4048.256029	26647.472709
96.536000	-0.012417	-0.004329	-0.012256	-0.033278	7181.531941	50200.566132	4055.423378	26549.057193
97.036000	-0.014425	-0.005520	-0.013248	-0.034654	7175.272582	50220.711468	4056.489134	26624.161664
97.536000	-0.011803	-0.004427	-0.016558	-0.033902	7193.809447	50257.797384	4045.265980	26583.059465
98.037000	-0.010662	-0.004244	-0.014651	-0.033349	7199.656690	50217.484741	4048.994139	26552.898372
98.537000	-0.013296	-0.004181	-0.019571	-0.031679	7157.055982	50042.803762	4030.953677	26462.006083
