sample name	sample
index	515
start time	 03-11-2021  03:30:51 PM
880	0.237308
Peak Time (s)	92.037
Peak Height 	0.2373
calc peak height	90,93
Baseline Time (s)	9.536
Baseline Value 	-0.008945
subtract baseline	10,4
Abs	0.140686
Peak Time (s)	91.537
Peak Height 	0.1407
calc peak height	90,93
Baseline Time (s)	9.036
Baseline Value 	0.002313
subtract baseline	10,3
PK_550	0.082224
Peak Time (s)	91.037
Peak Height 	0.08222
calc peak height	90,93
Baseline Time (s)	10.036
Baseline Value 	-4.0073E-4
subtract baseline	10,2
PK_880	0.140570
Peak Time (s)	92.537
Peak Height 	0.1406
calc peak height	90,93
Baseline Time (s)	11.037
Baseline Value 	8.8395E-4
subtract baseline	10,1


Time (s)	A880-A510	A880-A775	A880-A975	A880	I510	I775	I975	I880	
0.036000	-0.003303	0.000995	-0.004167	0.011965	6865.348827	43905.664306	3940.664753	23327.448577
0.536000	-0.001710	0.000703	-0.004100	0.009873	6899.020885	44075.633197	3945.958521	23426.007934
1.036500	0.000367	0.000975	-0.005901	0.008003	6935.401662	44278.794880	3946.128404	23514.498073
1.537000	0.001705	0.000128	0.000963	0.003410	6990.686903	44636.499274	3974.670055	23733.437546
2.037000	-0.001644	0.000982	-0.003288	0.008102	6915.909632	44269.968400	3952.324052	23509.767201
2.534500	0.002102	0.000970	-0.001496	0.002985	6998.409691	44758.202425	3969.547289	23753.823791
3.035000	0.003114	0.001322	0.000215	0.000962	7027.058145	44987.293548	3978.970435	23851.106884
3.537500	0.001537	0.000525	-0.002329	0.002446	6998.174804	44767.226147	3968.811074	23779.722398
4.035500	-0.001709	0.000328	-0.000684	0.005741	6937.114307	44432.598133	3964.673520	23622.012102
4.536000	0.002012	0.001263	-0.002045	0.001888	7007.897053	44892.070769	3970.925148	23806.530616
5.036000	0.002124	0.000850	-0.000766	0.001574	7011.908377	44882.556340	3974.939933	23821.620408
5.536500	-0.000059	0.001035	-0.005064	0.001453	6992.502269	44912.102963	3964.445868	23827.471398
6.037000	-0.000116	0.000777	-0.001892	0.005228	6956.675657	44524.495912	3962.936375	23646.484167
6.537500	0.000444	0.000802	0.004093	0.001051	7001.007736	44928.419883	3988.612865	23846.806561
7.037500	-0.000381	0.000465	-0.003044	0.000243	7000.852347	44974.011275	3972.551850	23885.817225
7.535000	0.000964	0.000203	0.000867	-0.000147	7017.211238	44986.269871	3983.440058	23904.630973
8.038000	-0.002408	0.000957	-0.006337	0.004043	6946.380022	44655.301667	3954.827020	23703.121356
8.535500	-0.000644	0.000374	0.001191	0.000395	6996.950018	44950.423533	3982.887307	23878.463622
9.036000	0.000166	0.000776	0.000000	0.000396	7004.556943	44989.157832	3979.858337	23878.388452
9.536000	0.001622	-0.000028	0.000773	0.000000	7022.039136	44949.719798	3982.829159	23897.530076
10.036000	-0.000522	0.000000	-0.001309	0.003046	6973.243101	44659.121641	3969.864436	23750.891589
10.537000	0.002231	-0.000284	-0.002658	-0.000722	7034.640959	44994.719408	3975.959711	23932.414975
11.037000	0.000000	-0.000011	-0.003599	-0.000964	7015.820489	45044.609872	3974.194698	23944.142659
11.537000	-0.000576	0.000494	0.000825	-0.000415	7005.209777	45040.373367	3984.016031	23917.596205
12.037500	-0.002755	-0.000210	-0.003468	0.002579	6956.773238	44683.834007	3965.619434	23773.324338
12.537500	0.002027	0.001007	-0.000046	-0.000321	7028.916397	45081.054732	3981.564601	23913.060223
13.035500	0.000306	0.000256	0.000465	-0.002569	7033.908182	45226.361611	3988.593998	24021.996525
13.535500	0.001271	-0.000067	-0.000385	-0.002614	7043.501475	45199.302438	3986.536196	24024.181644
14.035500	-0.001226	0.000951	-0.002300	0.001942	6976.982926	44856.804714	3970.149186	23803.933752
14.536500	0.000273	-0.000161	-0.001179	0.000176	7007.639833	44919.890403	3977.428029	23889.007937
15.036500	0.001143	-0.000140	0.000375	-0.002675	7042.865638	45198.108436	3988.633366	24027.150781
15.537000	-0.000941	-0.000698	-0.001750	-0.002924	7025.457756	45168.098662	3983.848335	24039.239647
16.037000	-0.003077	0.000119	-0.003726	0.002093	6958.304011	44762.165643	3966.192705	23796.691208
16.537500	0.002830	0.000374	0.000238	-0.002596	7058.179343	45240.391345	3988.080546	24023.282686
17.040500	0.002343	0.000621	0.008296	-0.004779	7074.391244	45477.517743	4014.559593	24129.642700
17.535000	0.000681	-0.000145	0.001025	-0.001888	7031.010920	45121.209519	3988.284082	23988.941976
18.035500	0.001550	0.000955	0.000307	0.000219	7019.288567	45023.602452	3981.087435	23886.931983
18.535500	-0.000323	0.000561	0.000994	-0.000883	7012.011394	45092.221701	3985.640994	23940.237652
19.036000	0.001025	0.000523	0.000375	-0.001358	7029.241554	45134.634084	3985.270432	23963.214468
19.536500	0.001117	0.000779	-0.001990	-0.000815	7024.979383	45106.831443	3977.886793	23936.946650
20.037000	0.000057	0.000141	-0.000873	-0.001148	7018.104296	45077.229046	3981.564153	23953.079704
20.537000	-0.001441	-0.000195	0.002538	-0.001908	7011.134838	45118.385078	3992.210440	23989.912711
21.037000	-0.000027	-0.000172	-0.004070	-0.001570	7021.288325	45087.776143	3974.535048	23973.495636
21.540500	-0.000854	0.000514	-0.002443	-0.001278	7010.726082	45126.000728	3977.910307	23959.344357
22.035000	0.000552	0.000470	0.000901	-0.000985	7021.242523	45093.288737	3985.662924	23945.185104
22.535500	-0.001545	0.000163	-0.000577	-0.001492	7006.227640	45112.722080	3983.190389	23969.720333
23.036000	0.001353	0.001129	0.001342	-0.001061	7029.532668	45164.615971	3986.980982	23948.823955
23.536000	0.001388	0.000498	-0.000445	-0.001396	7033.050846	45135.904644	3983.281829	23965.088277
24.036000	-0.000236	-0.000607	-0.004966	-0.002178	7025.066243	45104.513714	3973.807835	24002.981418
24.536000	-0.001619	-0.000303	0.000579	-0.002343	7013.560448	45150.124424	3988.306925	24011.033223
25.037000	-0.000069	0.000622	0.000123	-0.001675	7021.895159	45175.047784	3985.439868	23978.618846
25.537000	0.000418	0.000711	-0.001602	-0.001539	7025.207551	45170.399399	3980.702001	23971.980865
26.040500	-0.000568	0.000929	-0.001222	-0.001523	7015.734271	45190.086747	3981.628688	23971.231224
26.535000	0.000489	0.000202	-0.002068	-0.001919	7029.486817	45157.932848	3980.485401	23990.439303
27.035000	0.002042	0.000780	-0.000922	-0.003693	7061.129472	45386.968966	3987.920888	24076.683589
27.535000	0.000589	0.000329	-0.000014	-0.004186	7051.966576	45390.956812	3991.503814	24100.690820
28.041500	-0.003609	-0.000042	-0.003288	0.001252	6961.183931	44827.651460	3969.400559	23837.161416
28.536000	0.001727	0.000640	0.002531	-0.003694	7058.129589	45373.307717	3996.779852	24076.723748
29.059500	0.001769	0.000367	0.004641	-0.003823	7059.768368	45359.314001	4002.561974	24083.028346
29.537000	0.003209	0.001036	0.003916	-0.003674	7072.104028	45410.071732	4000.301015	24075.774313
30.037000	-0.003732	-0.000299	-0.004821	0.001485	6957.864869	44780.440524	3964.972851	23825.936319
30.541500	-0.001315	-0.001164	-0.001356	-0.001565	7009.089279	44991.285166	3981.393978	23973.268439
31.034500	0.002066	0.000313	0.002706	-0.001780	7043.127157	45155.174985	3992.309918	23983.681145
31.535000	0.001741	0.000776	-0.000680	-0.003820	7059.462085	45398.961051	3988.862689	24082.858630
32.035000	-0.003375	-0.000085	-0.004895	0.001727	6958.931202	44777.731203	3964.181327	23814.252613
32.538500	-0.000155	0.000180	-0.000879	-0.004080	7043.879005	45366.110411	3989.018955	24095.534999
33.036000	0.001503	0.000508	0.001906	-0.005046	7068.910513	45492.567033	3998.653433	24142.701211
33.536500	0.000097	0.000790	0.001773	-0.001771	7024.372944	45200.687788	3989.899508	23983.265886
34.036500	-0.000986	-0.000458	-0.004304	-0.001659	7013.077332	45068.751275	3974.171252	23977.839310
34.536500	-0.000042	0.000946	-0.000914	-0.001284	7018.446746	45168.438362	3981.803976	23959.633037
35.040000	0.001805	0.001245	0.001334	-0.000890	7032.205913	45159.333377	3986.525678	23940.586226
35.537000	-0.002440	0.000642	0.002199	-0.001279	6995.801617	45138.502655	3989.728351	23959.383309
36.034500	-0.001947	-0.000072	-0.001518	-0.000367	6991.860404	44980.950473	3977.944339	23915.249039
36.535000	0.000071	-0.000143	0.002679	-0.002247	7028.628840	45156.194671	3993.437953	24006.329664
37.035500	0.000470	0.000666	0.003513	-0.001456	7024.919006	45158.091730	3993.550273	23967.994969
37.535000	-0.000337	0.000295	0.002334	-0.001914	7021.614322	45166.461761	3991.700516	23990.204102
38.036000	0.000565	0.000348	0.000162	-0.001575	7026.946334	45138.737929	3985.282310	23973.759471
38.536500	0.000329	0.000609	0.001816	-0.001680	7025.705588	45174.246802	3989.776137	23978.841865
39.036500	-0.001347	0.000392	-0.001959	-0.001688	7009.948443	45153.979426	3980.178032	23979.247384
39.540000	-0.000701	0.000308	0.003260	-0.002158	7020.482670	45191.419691	3994.703940	24002.029188
40.037000	-0.000749	0.000429	0.000679	-0.001655	7015.274822	45154.267581	3986.805471	23977.621165
40.535000	-0.000491	0.001395	0.004375	-0.001001	7011.531786	45184.590413	3994.595218	23945.931102
41.035000	-0.000556	0.000062	-0.000215	-0.001844	7018.876698	45137.057320	3985.006270	23986.777708
41.535000	-0.001758	-0.000193	-0.001810	-0.002211	7010.996495	45147.916376	3981.882040	24004.580867
42.035500	0.000258	0.000204	0.003570	-0.001618	7024.442116	45128.840952	3994.113766	23975.824565
42.535500	0.001076	0.001231	-0.001291	-0.001556	7031.603525	45222.640753	3981.536353	23972.806486
43.036500	0.002211	0.000838	0.003995	-0.001502	7041.864326	45179.213372	3994.907700	23970.201473
43.536500	0.002846	0.000587	0.004273	-0.006394	7094.728900	45632.464864	4008.277910	24208.667095
44.039000	0.000976	0.000158	0.002426	0.000674	7009.574766	44902.584542	3985.320560	23864.982780
44.536500	0.000053	0.000724	0.002373	-0.003973	7044.841976	45408.784711	3997.091645	24090.331862
45.037000	0.000152	-0.000483	-0.001720	-0.004930	7054.903167	45384.419607	3989.044121	24137.045574
45.534500	-0.000339	-0.000212	0.000432	-0.004802	7048.999006	45398.383257	3994.231577	24130.786068
46.035000	-0.003075	0.000711	-0.008482	0.000733	6971.004059	44950.372409	3957.718727	23862.164434
46.535500	0.001173	0.001060	-0.001914	-0.003908	7054.888641	45435.304561	3985.938671	24087.152881
47.035500	-0.001212	-0.000345	0.000238	-0.001891	7013.128420	45102.130195	3986.282172	23989.082845
47.536000	-0.001737	0.000447	-0.001557	-0.002458	7013.524873	45234.085312	3983.152537	24016.592060
48.036000	-0.003282	-0.000349	-0.002261	0.000240	6973.671571	44895.567688	3974.531209	23885.916942
48.539500	-0.000254	-0.000032	0.001306	-0.004603	7047.909549	45396.485520	3995.965864	24121.042589
49.036500	0.001697	0.000606	0.004247	-0.005760	7077.602646	45572.132351	4006.561507	24177.628101
49.537000	0.000812	0.000923	0.004434	-0.004759	7059.561396	45505.080020	4004.448552	24128.666886
50.037500	-0.003897	-0.000446	0.001053	0.001476	6956.408308	44767.123351	3979.791324	23826.362201
50.535000	0.003137	0.001455	0.005401	-0.005253	7086.555803	45605.614067	4008.243276	24152.795158
51.035000	0.006696	-0.002170	0.000532	-0.029557	7363.007802	47684.091859	4059.952975	25374.964663
51.535500	-0.029196	-0.006291	-0.017100	0.063587	6219.488163	38715.265953	3793.939848	21040.229809
52.035500	-0.039511	-0.024532	-0.030475	-0.140831	8082.074301	57839.141412	4299.817181	31932.953392
52.536000	-0.038271	-0.109666	-0.019969	-0.282985	10103.801506	65535.000000	4898.538169	43168.536143
53.039000	-0.007439	-0.062761	-0.003744	-0.231837	9775.222750	64927.006265	4742.453621	38696.735848
53.536500	0.000656	-0.019890	0.004207	-0.152962	8743.392054	59999.032032	4461.594220	32754.782012
54.036500	-0.002508	-0.003744	0.002954	-0.065975	7650.702101	51418.005365	4170.493056	27339.251825
54.537000	0.006616	0.002708	0.012753	-0.036951	7438.577041	48965.237769	4114.544604	25760.596715
55.037500	0.024734	0.004933	0.015028	-0.075625	8070.650573	53505.655141	4236.770579	27887.976473
55.534500	0.033178	0.011936	0.026517	-0.063615	8028.466131	52926.438175	4235.139299	27206.894327
56.035500	0.044320	0.023427	0.034344	-0.003318	7481.184617	47618.055294	4080.737277	24058.405216
56.535500	0.054721	0.030200	0.053198	0.033658	7210.104503	44619.633437	4031.600192	22333.075250
57.036000	0.062645	0.035001	0.063357	0.064478	6989.487760	42198.603647	3978.022024	21003.090792
57.538500	0.071219	0.040961	0.072617	0.083267	6894.754020	41057.195991	3954.157594	20237.409316
58.036500	0.078205	0.048121	0.084394	0.100368	6803.116955	40195.622357	3941.050634	19568.693138
58.536500	0.087409	0.052798	0.085131	0.118287	6725.861998	39078.274292	3899.830352	18895.726053
59.036500	0.093781	0.058328	0.097811	0.133572	6648.425514	38276.548433	3893.720565	18343.183391
59.537500	0.107476	0.064816	0.102972	0.144387	6673.276286	37926.669382	3880.587767	17963.826456
60.035000	0.108677	0.066980	0.108563	0.169255	6473.904486	36147.003752	3837.077812	17126.558111
60.535000	0.117805	0.069533	0.112770	0.152288	6694.345680	37671.501985	3884.975368	17692.598852
61.035500	0.117921	0.071532	0.120642	0.143187	6775.429940	38569.438483	3925.092781	18005.455247
61.535500	0.131622	0.079879	0.122879	0.179092	6582.978881	36381.619665	3847.014857	16808.354909
62.038500	0.132043	0.078640	0.122166	0.158216	6767.374436	37926.293720	3893.046250	17492.320107
62.536500	0.133405	0.078720	0.119981	0.159758	6765.778493	37808.835570	3884.374297	17440.643423
63.036000	0.136214	0.080374	0.127094	0.160051	6788.154988	37918.173392	3900.298050	17430.864391
63.537000	0.135754	0.081626	0.129924	0.162226	6764.721548	37844.034736	3901.841419	17358.379643
64.037500	0.133492	0.081047	0.124087	0.169245	6683.308722	37239.456894	3871.986890	17126.872423
64.537500	0.139502	0.081329	0.126090	0.165997	6764.517244	37519.047935	3884.073625	17233.534390
65.035000	0.137487	0.081556	0.129359	0.168061	6728.524817	37373.267652	3886.869450	17165.673816
65.570500	0.140069	0.083183	0.133026	0.171149	6724.085072	37257.784584	3888.215309	17064.725729
66.035500	0.137731	0.082130	0.127942	0.177056	6652.441631	36712.917974	3862.978270	16873.625784
66.538500	0.142888	0.084885	0.130602	0.175662	6709.248011	37036.640954	3872.210858	16918.481444
67.036500	0.140517	0.084518	0.133591	0.175820	6687.223699	36995.555820	3878.713360	16913.407353
67.536500	0.141379	0.085415	0.136053	0.177632	6678.972488	36923.965224	3880.210235	16855.132335
68.037000	0.138405	0.084115	0.125976	0.182070	6615.264735	36478.532593	3847.280896	16713.441208
68.537000	0.140723	0.084909	0.129943	0.178964	6661.781064	36780.600137	3863.188416	16812.445274
69.034500	0.140379	0.084163	0.132920	0.179165	6657.077231	36707.026221	3869.503081	16806.015151
69.534500	0.142136	0.084981	0.131973	0.180729	6658.735873	36649.129265	3863.788798	16756.089280
70.035000	0.143812	0.085965	0.125972	0.182970	6653.870919	36551.860982	3845.266524	16684.878297
70.535000	0.143883	0.085277	0.133634	0.182575	6657.883725	36529.209153	3863.369488	16697.396048
71.038500	0.141082	0.085210	0.134325	0.183590	6625.142473	36445.766110	3862.637025	16665.247529
71.536000	0.140841	0.085011	0.133492	0.184857	6612.278340	36333.003001	3857.889467	16625.202783
72.036000	0.138514	0.084093	0.128777	0.191536	6536.375792	35754.708966	3832.525012	16416.014366
72.536500	0.140091	0.084704	0.132521	0.187565	6582.943406	36102.285670	3849.624206	16539.990410
73.036500	0.141189	0.084823	0.134972	0.189558	6575.393350	35959.664400	3850.650595	16477.628426
73.537000	0.141596	0.084200	0.135666	0.191267	6564.429120	35783.107108	3848.380839	16424.376481
74.034500	0.136785	0.083507	0.126397	0.197755	6470.692690	35245.267660	3813.817982	16224.115150
74.534500	0.139266	0.083225	0.132743	0.193995	6522.167502	35504.672551	3835.841365	16339.819471
75.035000	0.139199	0.083360	0.133871	0.196634	6499.762597	35317.776244	3832.517575	16258.524591
75.538500	0.139616	0.084378	0.134835	0.199492	6479.667834	35181.090069	3828.365889	16171.030483
76.036000	0.135079	0.082969	0.135802	0.206100	6389.325714	34592.189867	3816.105158	15970.902864
76.536000	0.140522	0.084508	0.137205	0.203807	6451.787336	34872.288314	3824.120458	16040.005555
77.036000	0.138035	0.083361	0.136373	0.204193	6428.460964	34759.939228	3821.472859	16028.357585
77.536500	0.139490	0.083255	0.132143	0.206125	6424.602015	34611.168226	3808.184156	15970.153735
78.037000	0.134078	0.082735	0.131888	0.213556	6322.319009	34037.468615	3791.873782	15748.747230
78.534500	0.140066	0.083547	0.133777	0.209950	6398.436682	34354.923190	3803.503697	15855.700344
79.034500	0.139480	0.082954	0.131206	0.210962	6385.643500	34239.256850	3795.905316	15825.606814
79.538000	0.139728	0.083133	0.134110	0.212648	6374.167103	34130.974126	3798.480789	15775.585105
80.034500	0.138607	0.083210	0.133300	0.214151	6353.326914	34028.898119	3793.593937	15731.180776
80.535500	0.139372	0.082342	0.135502	0.214717	6354.908182	33926.604708	3797.048913	15714.502540
81.035500	0.138465	0.083251	0.138186	0.216599	6332.878831	33857.289049	3798.746603	15659.167178
81.536000	0.138377	0.082764	0.135448	0.217906	6321.914107	33730.089490	3790.214478	15620.886603
82.036000	0.141431	0.083552	0.139800	0.219357	6334.519834	33683.164879	3796.324936	15578.516595
82.536500	0.140192	0.082811	0.138905	0.219676	6322.264117	33608.266825	3793.763131	15569.204175
83.037000	0.138026	0.083101	0.133473	0.221089	6294.295820	33529.180222	3779.447076	15528.107719
83.534500	0.140302	0.082599	0.134981	0.221499	6308.851451	33465.154957	3781.729381	15516.218172
84.035000	0.139278	0.082923	0.134288	0.222828	6290.507328	33394.719069	3777.533748	15477.734580
84.535000	0.142376	0.083241	0.135025	0.223855	6306.647142	33345.116338	3776.934640	15448.072133
85.035000	0.139916	0.083493	0.140667	0.224535	6282.209080	33315.175541	3787.257927	15428.465187
85.536000	0.139633	0.081261	0.140442	0.223802	6285.700133	33210.735331	3788.321962	15449.605525
86.036000	0.140302	0.082690	0.133845	0.226045	6273.505188	33154.100769	3769.987575	15385.049969
86.536500	0.141296	0.082859	0.133682	0.227011	6273.725006	33098.790161	3767.673133	15357.361865
87.036500	0.139829	0.082105	0.137947	0.226299	6267.886607	33095.910862	3777.922039	15377.757825
87.536500	0.139742	0.080940	0.131041	0.226782	6263.483227	32981.864302	3762.747430	15363.911409
88.037500	0.137312	0.081657	0.135730	0.232505	6201.200958	32638.092302	3760.646196	15201.002009
88.537500	0.139464	0.082172	0.136769	0.228229	6250.202532	32966.963402	3771.507070	15322.500947
89.037500	0.141493	0.082114	0.140099	0.229498	6256.050467	32875.526704	3775.756788	15286.327755
89.535500	0.141756	0.081075	0.137619	0.229604	6257.256379	32796.846140	3770.430417	15283.306758
90.035000	0.137463	0.081622	0.137783	0.235052	6183.107534	32462.323357	3759.640775	15129.166490
90.535500	0.140352	0.081089	0.139002	0.230389	6240.451873	32744.007949	3771.660410	15260.988077
91.036500	0.139796	0.082224	0.133782	0.232179	6222.529204	32699.073746	3757.356370	15210.208816
91.536500	0.139920	0.080944	0.140686	0.231939	6225.302154	32628.031060	3771.932990	15217.000633
92.037000	0.137211	0.080057	0.134488	0.237308	6164.288447	32204.146985	3748.450981	15065.920016
92.537000	0.140570	0.080252	0.135845	0.232615	6225.113463	32534.845179	3760.655440	15197.892844
93.034500	0.143419	0.081577	0.140017	0.233456	6240.455726	32567.806873	3767.449681	15174.133721
93.534500	0.141961	0.080821	0.140273	0.234519	6221.196707	32444.090371	3765.797210	15144.161323
94.035000	0.138314	0.080101	0.142297	0.237840	6168.564156	32171.270454	3763.151196	15051.039190
94.535500	0.142861	0.080091	0.136385	0.234247	6230.138995	32413.092297	3758.440303	15151.835792
95.036000	0.142119	0.080845	0.133983	0.235280	6216.613085	32394.200254	3751.507527	15122.762657
95.536000	0.138857	0.080398	0.137699	0.235961	6186.763364	32317.852397	3757.628124	15103.629541
