sample name	sample
index	955
start time	 04-12-2021  03:46:53 PM
880	0.037874
Peak Time (s)	121.035
Peak Height 	0.03787
calc peak height	120,123
Baseline Time (s)	10.535
Baseline Value 	-0.005047
subtract baseline	10,4
Abs	0.044097
Peak Time (s)	120.038
Peak Height 	0.0441
calc peak height	120,123
Baseline Time (s)	9.537
Baseline Value 	0.003711
subtract baseline	10,3
PK_550	0.021438
Peak Time (s)	122.036
Peak Height 	0.02144
calc peak height	120,123
Baseline Time (s)	8.537
Baseline Value 	7.5353E-4
subtract baseline	10,2
PK_880	0.034276
Peak Time (s)	122.537
Peak Height 	0.03428
calc peak height	120,123
Baseline Time (s)	9.537
Baseline Value 	0.003083
subtract baseline	10,1


Time (s)	A880-A510	A880-A775	A880-A975	A880	I510	I775	I975	I880	
0.035000	-0.002946	-0.000318	-0.000527	0.002888	7100.980452	42973.374393	3937.205577	23086.321149
0.535000	-0.000850	-0.000201	0.001098	0.003602	7114.407199	42918.411431	3939.494492	23053.174827
1.035500	-0.003563	-0.000767	0.000147	0.003202	7091.967510	42903.120788	3938.111452	23071.740680
1.536000	-0.004445	-0.001324	-0.002044	0.005967	7056.838447	42598.914647	3925.739364	22943.685912
2.035500	-0.000176	-0.000262	-0.001064	0.001309	7143.349633	43124.253174	3939.824996	23159.888257
2.536000	0.000496	-0.000285	-0.001689	0.001074	7152.238954	43143.776020	3938.843467	23170.851748
3.036500	0.002311	0.000323	-0.000871	-0.001385	7194.391479	43428.575148	3947.109399	23286.025116
3.539500	-0.003245	0.000413	-0.003187	0.003618	7091.019362	42973.493687	3928.738365	23052.447686
4.037000	0.000255	-0.000995	0.000213	0.000202	7158.438677	43158.765141	3945.836423	23211.611118
4.537000	0.000873	0.000347	-0.004251	0.000506	7161.523741	43254.990906	3933.844675	23197.398409
5.035000	-0.001027	0.000403	-0.002608	0.000316	7144.751350	43277.860449	3938.440527	23206.314160
5.535500	-0.000829	-0.000027	0.002910	0.000754	7142.393826	43197.389888	3951.273324	23185.819415
6.035500	0.000070	-0.000221	-0.001922	0.000240	7156.248944	43227.008289	3940.355818	23209.855913
6.536000	0.001566	0.000255	0.002653	0.000777	7165.670444	43221.278603	3950.561138	23184.719726
7.036000	-0.000639	0.000601	0.003294	0.000563	7146.126388	43273.245462	3952.734652	23194.729598
7.536500	-0.000240	-0.000152	-0.001102	0.000164	7153.953427	43240.400848	3942.612043	23213.388822
8.039500	-0.001066	-0.000029	0.004988	-0.000048	7147.922632	43271.404250	3958.613550	23223.303126
8.537000	0.000261	0.000000	0.003198	-0.000094	7161.412819	43278.470433	3954.163894	23225.487129
9.037000	-0.000889	-0.000200	-0.002404	-0.000229	7151.436956	43272.402805	3940.321321	23231.792812
9.537500	0.000000	0.000075	0.000000	0.000471	7153.298321	43233.048213	3944.618911	23199.062802
10.035000	0.000661	0.000775	-0.000785	0.000771	7156.842834	43270.121404	3941.882730	23185.035213
10.535000	-0.001995	-0.000265	-0.003757	0.000000	7138.367383	43245.164041	3936.349811	23221.078153
11.035000	-0.000400	-0.000900	0.002013	-0.000427	7158.179728	43225.818589	3951.994374	23241.060566
11.536000	0.001457	0.000372	0.000135	0.000233	7169.956331	43282.612180	3945.558817	23210.156149
12.036000	0.000675	-0.000774	0.000049	-0.000874	7173.167041	43279.079556	3948.144652	23262.047037
12.536500	-0.000206	-0.000095	0.002974	0.000200	7153.932132	43242.356373	3952.843822	23211.722115
13.036500	-0.001325	-0.001041	-0.005287	-0.000325	7148.104504	43203.396596	3933.333391	23236.305842
13.537000	-0.002176	-0.000835	-0.001821	-0.000140	7137.966137	43205.266501	3941.566651	23227.630585
14.034000	-0.001859	-0.000225	-0.004392	0.002498	7115.334003	43017.876977	3928.525430	23104.504350
14.535000	-0.000811	-0.000136	0.000298	0.002744	7123.128828	43003.334270	3939.640551	23093.021972
15.038000	0.000325	0.000180	-0.002031	0.001145	7149.866953	43180.236005	3937.805511	23167.532831
15.535500	0.000164	0.000383	0.003280	0.002701	7133.071686	43055.280072	3947.274169	23095.050489
16.038500	-0.000262	-0.000225	-0.000449	0.000787	7147.621586	43175.920856	3942.686716	23184.255793
16.536000	0.000061	0.000934	0.005763	0.001998	7138.925402	43171.125216	3955.368875	23127.756884
17.036500	0.002326	-0.000087	0.001144	-0.002199	7202.604448	43466.183231	3954.293428	23324.261233
17.536500	0.000131	0.000582	0.003244	0.002675	7132.992336	43076.028414	3947.247574	23096.238523
18.037000	-0.002627	-0.000716	0.002714	0.001069	7121.762932	43104.513293	3949.975405	23171.115644
18.537500	-0.001792	-0.000841	-0.001456	0.001745	7123.308675	43030.537731	3937.743301	23139.560645
19.037500	-0.000227	0.000799	-0.000239	0.002395	7132.234361	43121.965329	3939.168188	23109.287860
19.535000	-0.001555	0.000092	0.002005	0.002613	7117.164784	43036.535632	3944.271795	23099.132582
20.035000	-0.000844	0.000280	0.001112	0.001891	7131.137197	43120.522209	3943.839936	23132.768828
20.535500	-0.001571	-0.000550	-0.000445	0.000998	7132.753249	43126.344730	3942.165002	23174.394342
21.036000	0.000591	-0.000137	-0.003967	0.001874	7145.334469	43083.590743	3931.136966	23133.535432
21.536000	-0.001668	-0.000762	0.000871	0.001370	7128.171406	43072.362470	3944.547233	23157.034241
22.039000	-0.001194	0.000436	-0.000175	0.002189	7124.808666	43107.439944	3939.847392	23118.882467
22.537000	-0.000973	0.000382	-0.002604	0.002071	7128.108163	43113.289766	3934.049484	23124.345742
23.037000	-0.002489	-0.000371	-0.001484	0.001381	7120.066789	43107.508133	3938.588996	23156.550275
23.537500	0.001456	-0.000013	-0.002096	0.002225	7150.371661	43062.632926	3934.937629	23117.187845
24.034500	-0.001776	-0.000234	-0.000736	0.001505	7125.799948	43108.697082	3940.155140	23150.751120
24.535500	-0.000449	-0.000525	0.001178	0.001790	7135.983030	43055.564803	3944.263911	23137.479215
25.066000	-0.000852	-0.000405	0.000264	0.001323	7136.601920	43109.734381	3943.134361	23159.251965
25.535500	-0.000207	0.000669	0.003206	0.002843	7128.057321	43068.527390	3946.724344	23088.420085
26.480500	-0.000588	0.000642	-0.000568	0.002614	7126.581392	43087.190329	3937.791981	23099.103192
27.056500	0.001601	-0.000259	0.003621	-0.000728	7180.870263	43313.326200	3956.860930	23255.204445
27.200500	0.000462	-0.000269	0.003862	0.000926	7153.366406	43159.003785	3953.255696	23177.775224
27.537000	-0.000977	-0.000560	0.005221	0.001520	7133.455343	43077.179899	3955.204329	23150.045731
28.037500	-0.001895	-0.000266	0.002089	0.000795	7131.565124	43171.412931	3949.084490	23183.883245
28.537500	-0.000144	-0.000015	-0.000280	0.000814	7148.523834	43192.952478	3943.044884	23183.021796
29.035000	0.001206	-0.000291	0.002954	0.001024	7159.707437	43147.994800	3950.699313	23173.222340
29.535000	-0.000899	0.000584	-0.001948	0.001530	7134.123642	43182.028638	3937.049156	23149.592530
30.038500	0.001610	-0.000330	0.000232	0.001096	7162.972496	43137.633135	3943.627001	23169.846873
30.535500	-0.002591	0.000343	-0.000094	0.002982	7103.516390	43025.626294	3938.057883	23081.986862
31.039000	-0.002757	-0.000025	0.003100	0.003330	7098.532411	42959.725723	3945.228381	23065.816208
31.539000	-0.000953	-0.000205	-0.000264	0.001252	7136.312535	43134.806754	3941.980401	23162.554333
32.037000	0.000701	0.000390	0.001081	0.001657	7148.528676	43152.317604	3944.351804	23143.647757
32.537000	-0.001214	-0.000145	-0.002824	0.000756	7138.613042	43186.230921	3936.793548	23185.741419
33.037000	0.000331	0.000508	0.001677	0.001300	7148.404858	43196.282165	3946.760562	23160.302018
33.534500	-0.002844	-0.000677	0.001985	0.002642	7104.361176	42962.992385	3944.148355	23097.798295
34.035500	-0.003104	-0.000747	-0.003271	0.001839	7109.632218	43030.543352	3932.963295	23135.195281
34.535500	-0.001279	-0.000136	0.000113	0.002606	7119.913573	43016.133892	3939.522963	23099.444511
35.035500	-0.000947	-0.000401	-0.006276	0.002289	7126.249516	43020.979813	3924.364518	23114.230829
35.536000	-0.000811	-0.000744	-0.002006	0.002400	7126.492951	42979.060976	3934.724091	23109.051277
36.036500	-0.003222	-0.000566	-0.001250	0.002006	7106.863714	43031.770021	3937.606486	23127.383854
36.536500	-0.001184	0.000415	-0.000425	0.002775	7119.205896	43051.431240	3937.748035	23091.611431
37.037000	-0.000963	-0.000637	-0.003243	0.002125	7127.683695	43014.243150	3932.317831	23121.843638
37.537000	-0.000214	-0.000374	0.004993	0.002490	7131.436563	43004.907872	3952.154324	23104.855573
38.035000	-0.002461	-0.000456	-0.001100	0.002457	7109.867353	43000.334505	3936.850422	23106.380718
38.535000	0.000347	-0.001289	0.000241	0.001665	7144.988610	42996.606707	3942.213613	23143.281945
39.035000	-0.001108	-0.000676	0.000298	0.001830	7129.153695	43037.941709	3941.941928	23135.602183
39.535500	-0.002179	-0.000323	0.001295	0.003109	7106.274271	42952.503735	3941.230501	23076.056798
40.035500	-0.000332	0.000232	0.002248	0.002896	7126.311918	43023.276100	3944.169546	23085.948120
40.539000	-0.001877	-0.000601	0.000069	0.002808	7112.139450	42954.751133	3938.904783	23090.082912
41.036000	-0.002782	-0.000203	-0.002104	0.002510	7106.241266	43018.735345	3934.201929	23103.911012
41.537000	-0.001938	0.000578	-0.000058	0.003137	7108.351452	43033.023424	3937.759602	23074.766519
42.037000	-0.001230	-0.000015	-0.000697	0.002289	7123.489115	43056.562845	3938.284330	23114.226376
42.534500	-0.002890	-0.000457	-0.001168	0.002245	7107.762553	43019.821901	3937.212256	23116.267197
43.034500	-0.001073	-0.000185	0.000488	0.002444	7123.504283	43026.605183	3940.873849	23107.004322
43.535000	-0.001247	-0.000740	0.000913	0.002271	7123.487435	42991.342954	3942.379055	23115.043189
44.035500	0.001577	0.000390	0.000494	0.000250	7170.982149	43282.769084	3946.424566	23209.382862
44.536000	0.001308	-0.000337	0.003443	0.000789	7163.020471	43165.340854	3952.538484	23184.157581
45.038500	0.001461	0.000541	0.003541	0.001899	7153.620563	43143.926552	3949.968572	23132.395378
45.536500	-0.004318	-0.001232	-0.003094	0.006384	7054.053886	42569.238659	3922.103558	22924.428386
46.036500	0.002274	0.000475	-0.001694	0.001373	7166.780751	43186.549527	3938.081620	23156.927635
46.537000	-0.001321	-0.000841	0.001733	0.000410	7140.945862	43153.806262	3949.158044	23201.880996
47.037000	-0.002150	0.000301	0.001732	0.002792	7109.639926	43039.249915	3943.131279	23090.813184
47.537500	-0.005435	-0.000118	-0.002892	0.006365	7043.535221	42672.692326	3922.649234	22925.289774
48.036000	-0.000365	0.000336	0.001056	0.001467	7139.959373	43164.887024	3944.768498	23152.516521
48.535000	0.001361	0.000024	0.004090	0.001133	7160.162440	43166.972079	3953.310849	23168.106287
49.035500	0.001313	0.000223	0.003368	0.001562	7155.472540	43145.636019	3950.382856	23148.070846
49.538500	-0.001542	0.000125	0.000767	0.005256	7091.651642	42796.450850	3934.517406	22976.534229
50.035500	-0.002386	-0.000162	0.007792	0.012758	7011.698786	42088.691969	3933.323476	22632.595430
50.536500	-0.034273	-0.010591	0.031602	0.192375	5422.986613	28226.467243	3606.060692	15946.065408
51.036500	-0.073264	-0.011544	0.000798	0.101356	5745.239407	34045.591726	3718.842281	18989.658074
51.537000	-0.053784	-0.037335	-0.021185	-0.198415	8844.151303	61363.245122	4499.172843	34993.874182
52.037000	-0.136996	-0.297708	-0.111825	-0.488759	12482.386444	65535.000000	5463.312450	65535.000000
52.534500	-0.090814	-0.251133	-0.073590	-0.442184	12473.722276	65535.000000	5413.568753	59164.795380
53.035000	-0.027989	-0.166905	-0.007030	-0.357956	12012.909358	65535.000000	5311.278991	49244.264097
53.535000	-0.025632	-0.126785	-0.007430	-0.317836	11253.230643	65535.000000	5091.823412	45154.091008
54.035500	-0.013061	-0.107348	-0.011962	-0.298399	11122.049819	65535.000000	4971.325562	43304.312367
54.535500	-0.007151	-0.091963	-0.014283	-0.283014	10944.425545	65535.000000	4886.484347	41897.755088
55.036000	-0.003697	-0.071339	-0.010780	-0.261261	10612.132509	65372.583587	4802.588462	39992.158928
55.536000	-0.007154	-0.045091	-0.009793	-0.223426	9911.845470	63729.790004	4643.568106	36896.881299
56.037000	-0.005194	-0.029222	-0.002002	-0.195468	9503.879931	62062.048030	4562.084041	34776.794052
56.537000	-0.005809	-0.018323	-0.012353	-0.167889	9088.203857	59835.625706	4418.706302	32814.955691
57.037500	-0.006666	-0.014740	-0.009755	-0.145648	8767.222442	57444.675309	4349.236916	31321.160433
57.535000	-0.004226	-0.012569	-0.008497	-0.133150	8632.697951	56164.706702	4310.875273	30514.723017
58.034500	-0.003095	-0.009307	-0.000909	-0.109124	8337.844713	53681.483540	4256.529163	29028.072695
58.535000	-0.004218	-0.007855	-0.004313	-0.084112	8019.733780	51004.118426	4167.302845	27565.398167
59.041000	-0.007474	-0.007242	-0.007922	-0.059559	7701.611730	48428.219959	4084.445966	26209.164001
59.536000	-0.007681	-0.005536	-0.007042	-0.048016	7573.199954	47410.265789	4054.453038	25597.591594
60.036500	-0.006157	-0.004592	-0.006410	-0.040814	7512.375877	46774.526322	4036.332722	25224.165837
60.536500	-0.008033	-0.004902	-0.003995	-0.035118	7432.496195	46172.984812	4027.387140	24933.179412
61.037500	-0.003764	-0.005434	-0.004582	-0.033611	7461.481959	45970.672323	4021.713498	24856.853401
61.537000	-0.000022	-0.003851	-0.001266	-0.030845	7471.762524	45853.699608	4023.203074	24717.409113
62.040000	0.000871	-0.002296	-0.009698	-0.020980	7378.091214	45041.027021	3974.705913	24227.212976
62.535000	0.001863	-0.002608	-0.006084	-0.025482	7435.221466	45448.809346	3995.965864	24449.526533
63.035000	-0.003506	-0.003525	-0.006709	-0.026736	7392.369515	45481.880592	3997.629902	24511.878083
63.538500	-0.000587	-0.001925	0.001988	-0.025722	7412.156316	45539.200541	4018.153328	24461.456240
64.038500	-0.002404	-0.003170	-0.004455	-0.028841	7425.736130	45723.281544	4009.230072	24616.925830
64.536000	-0.003734	-0.001519	0.000743	-0.035263	7479.217568	46525.416592	4040.728207	24940.586586
65.036500	-0.002861	-0.002285	0.000519	-0.032589	7460.228220	46181.743725	4032.792022	24805.199607
65.536500	0.004331	-0.001649	-0.001635	-0.043939	7659.532133	47390.798974	4058.152346	25385.447604
66.037000	0.008939	-0.001109	0.008467	-0.044456	7716.151007	47499.141995	4088.116647	25412.272098
66.537500	0.006526	-0.000722	0.005477	-0.040941	7650.728189	47179.534139	4069.675880	25230.736621
67.035000	0.008543	-0.001320	0.003593	-0.042286	7687.711699	47255.599883	4068.157299	25299.987130
67.538000	0.008697	-0.000904	-0.000195	-0.041009	7675.331819	47167.871280	4054.007132	25234.214485
68.045000	0.009076	-0.001172	0.004121	-0.042614	7697.242689	47304.208655	4070.565454	25316.932660
68.535500	0.009904	-0.000308	0.001873	-0.042186	7701.670329	47348.760604	4063.055344	25294.850624
69.035000	0.004639	-0.000737	0.005778	-0.038359	7602.008293	46916.048384	4063.274131	25098.317397
69.536000	0.006412	-0.000424	0.005549	-0.041740	7658.238372	47291.286351	4072.126105	25271.835361
70.036500	0.009369	0.000045	0.004463	-0.042745	7701.936689	47442.031081	4071.898901	25323.704834
70.536500	0.006812	-0.000592	0.007520	-0.043314	7679.957636	47435.014081	4082.160579	25353.084972
71.037500	0.004419	-0.000750	0.004667	-0.039357	7610.450320	47015.754898	4062.959257	25149.412651
71.534500	0.005701	-0.000254	0.005865	-0.041334	7645.994661	47267.223337	4071.873958	25250.950775
72.040500	0.008155	0.000286	0.009136	-0.042150	7681.928934	47405.754093	4083.449409	25292.980718
72.535500	0.007846	0.000077	0.004649	-0.042100	7677.970527	47379.212911	4070.604374	25290.387650
73.035500	0.006559	0.000707	0.002265	-0.037647	7615.120555	46990.087172	4051.505593	25061.927296
73.536000	0.010116	0.001155	0.010419	-0.041094	7691.928414	47386.649701	4084.094650	25238.583693
74.039000	0.009761	0.000829	0.012991	-0.041691	7694.601461	47414.351872	4093.147595	25269.319930
74.536000	0.010487	0.001317	0.009703	-0.040685	7691.500735	47361.377724	4080.896177	25217.532638
75.037000	0.007321	0.001022	0.004678	-0.036072	7606.285582	46862.535334	4053.829813	24981.662978
75.536500	0.010619	0.001313	0.008461	-0.039858	7683.828047	47276.454445	4075.034785	25175.070344
76.033500	0.009576	0.001291	0.007315	-0.038885	7661.632733	47175.111872	4069.061968	25125.200693
76.537500	0.008906	0.001274	0.008539	-0.037959	7644.141153	47079.337172	4069.900382	25077.881132
77.035000	0.007520	0.001501	0.009554	-0.032916	7574.294746	46592.923357	4058.616670	24821.741275
77.535000	0.011587	0.001340	0.008820	-0.035949	7651.485472	46882.246029	4065.043810	24975.399738
78.036000	0.011769	0.001873	0.012734	-0.035256	7645.884629	46866.073964	4074.106222	24940.203543
78.536000	0.009645	0.001939	0.010750	-0.034781	7617.517556	46824.877556	4067.182603	24916.126283
79.036500	0.008991	0.001602	0.007932	-0.028932	7547.268866	46204.689751	4043.088043	24621.501245
79.536500	0.010278	0.003408	0.013133	-0.030748	7580.660531	46566.694738	4062.559019	24712.549982
80.036500	0.010690	0.002552	0.013785	-0.031339	7591.500400	46540.160734	4066.041261	24742.263442
80.536500	0.010156	0.003561	0.013766	-0.029731	7568.375317	46480.005890	4061.482522	24661.475870
81.037500	0.006998	0.002747	0.012130	-0.023666	7470.093260	45796.416573	4040.152079	24359.606904
81.535000	0.012076	0.003954	0.011573	-0.026849	7558.022517	46231.483639	4047.383670	24517.506346
82.044000	0.010451	0.002378	0.014309	-0.028117	7554.189212	46200.807009	4058.493970	24580.743045
82.535500	0.010772	0.003894	0.015107	-0.026135	7536.395054	46154.458086	4055.197981	24482.001309
83.039000	0.012613	0.003937	0.015185	-0.025143	7545.480231	46060.179735	4052.660000	24432.728998
83.536500	0.011692	0.003810	0.015347	-0.024755	7531.470465	46009.103709	4052.033091	24413.509255
84.036500	0.010228	0.003844	0.014720	-0.024358	7511.630155	45973.237832	4049.195867	24393.849365
84.536500	0.012354	0.003220	0.017789	-0.023971	7530.168700	45873.113871	4056.638051	24374.665626
85.037000	0.009340	0.003766	0.012423	-0.017313	7427.984560	45273.656061	4023.627497	24047.833740
85.537500	0.012888	0.004255	0.014498	-0.022062	7515.499232	45786.964509	4042.249336	24280.458934
86.034500	0.010462	0.004203	0.016062	-0.021407	7482.817072	45717.300050	4044.752752	24248.241890
86.538000	0.012143	0.004465	0.018970	-0.020844	7494.642541	45687.716091	4051.234063	24220.555443
87.035000	0.007996	0.004809	0.014778	-0.014425	7383.987421	45094.331238	4022.184880	23907.620595
87.535500	0.013571	0.005258	0.018107	-0.018890	7489.070848	45573.609363	4043.450926	24124.794935
88.036000	0.013903	0.006262	0.020306	-0.017732	7480.342746	45558.572158	4046.324679	24068.292627
88.536500	0.010846	0.005454	0.013396	-0.018214	7453.210046	45526.668346	4028.714424	24091.802022
89.039000	0.010429	0.005662	0.016996	-0.011768	7381.675204	44919.790445	4020.997474	23779.449353
89.537000	0.013292	0.005523	0.018527	-0.016138	7457.098787	45330.471130	4037.049710	23990.705391
90.037000	0.014094	0.005986	0.020121	-0.016237	7466.572216	45385.202828	4041.693951	23995.478797
90.537000	0.011775	0.005416	0.018082	-0.014491	7423.948878	45159.672472	4031.334601	23910.832151
91.040500	0.009655	0.006079	0.014037	-0.006909	7323.810446	44492.972468	4000.066218	23547.071962
91.535000	0.013215	0.006352	0.018323	-0.010381	7396.166604	44852.532760	4020.836095	23712.835476
92.038000	0.013947	0.007654	0.021002	-0.010313	7403.067088	44971.754594	4027.912159	23709.617957
92.536000	0.015057	0.007039	0.021884	-0.010021	7411.568009	44884.047323	4029.513918	23695.588084
93.039000	0.011032	0.006429	0.015435	-0.003904	7307.217457	44239.903932	3995.809735	23404.645813
93.536500	0.013688	0.007811	0.020847	-0.006449	7360.427396	44614.706875	4017.039271	23525.203978
94.037000	0.013416	0.007431	0.025748	-0.007410	7367.525760	44670.514234	4032.928458	23570.905926
94.537000	0.014188	0.007692	0.022357	-0.006934	7370.577374	44649.823662	4022.422894	23548.260209
95.040000	0.016123	0.008554	0.023643	-0.005625	7377.038863	44606.938460	4022.361218	23486.093451
95.535000	0.016545	0.008914	0.023186	-0.003877	7363.357959	44474.114776	4016.411313	23403.351655
96.035000	0.015066	0.008536	0.028064	-0.004772	7357.348014	44523.545478	4032.050384	23445.671009
96.535500	0.018350	0.009227	0.021428	-0.003469	7377.769071	44465.095815	4010.597930	23384.126070
97.038500	0.014201	0.008243	0.023446	0.002044	7279.045104	43848.995008	4001.277586	23125.622815
97.536000	0.014884	0.009287	0.027727	-0.000871	7315.563286	44223.364684	4020.551345	23261.903458
98.036000	0.018842	0.009682	0.026457	-0.001524	7362.779930	44322.953205	4018.882952	23292.525627
98.536500	0.017916	0.009240	0.027874	-0.000857	7346.406166	44217.436437	4020.907928	23261.210763
99.036500	0.018463	0.010384	0.024094	0.001149	7331.461543	44135.712198	4005.382003	23167.359296
99.536500	0.017181	0.010707	0.024929	0.002740	7302.189950	44015.712362	4003.369059	23093.237078
100.037500	0.017781	0.009815	0.026210	0.002329	7312.476296	43970.352161	4007.881958	23112.359425
100.537500	0.018627	0.010324	0.022593	0.003682	7307.305652	43890.649293	3994.678619	23049.443537
101.035500	0.015318	0.010536	0.020852	0.010369	7206.829513	43285.226780	3972.636972	22741.483904
101.535500	0.018373	0.010936	0.026144	0.006947	7271.664815	43641.567615	3995.435577	22898.475843
102.036000	0.019427	0.010895	0.032647	0.006425	7287.602104	43686.583191	4014.149974	22922.546360
102.536000	0.020998	0.010618	0.030870	0.006442	7303.359745	43659.076304	4009.341790	22921.756025
103.036000	0.016956	0.011420	0.024686	0.012989	7197.074209	43124.351412	3975.784579	22622.059209
103.536500	0.020977	0.012086	0.028323	0.009125	7275.962363	43545.367156	3995.436179	22798.383545
104.036500	0.022037	0.012620	0.033077	0.009392	7283.976364	43570.315400	4007.355889	22786.148250
104.537000	0.022570	0.013976	0.030170	0.010435	7278.829189	43599.622593	3996.858364	22738.469796
105.040000	0.021285	0.013069	0.029213	0.014379	7226.320406	43148.456174	3983.965233	22559.054910
105.535500	0.020696	0.014400	0.033859	0.011249	7251.755729	43563.122892	4004.489882	22701.293654
106.035000	0.023267	0.013522	0.030713	0.011608	7274.019227	43447.761938	3995.193121	22684.929767
106.536000	0.022576	0.013463	0.026606	0.011981	7263.295122	43407.469693	3983.415339	22667.914598
107.036000	0.023037	0.014195	0.031551	0.017754	7210.150947	42940.953066	3981.253548	22406.811409
107.536000	0.023134	0.014701	0.034496	0.014148	7247.127541	43321.083977	3998.483258	22569.516052
108.036500	0.023844	0.014623	0.032387	0.014976	7245.938230	43236.960985	3990.724392	22532.005601
108.536500	0.025485	0.014948	0.029684	0.015645	7255.702031	43205.156197	3981.885637	22501.801852
109.037000	0.023566	0.015464	0.031296	0.021922	7174.103232	42674.961074	3969.766679	22220.384464
109.540000	0.026382	0.015613	0.035145	0.018404	7237.030281	43011.635361	3988.963509	22377.606036
110.035000	0.027957	0.015714	0.033220	0.018702	7249.825489	42993.406824	3983.136907	22364.235108
110.535000	0.026817	0.016259	0.029872	0.019986	7225.559961	42925.387415	3971.088714	22306.733974
111.035000	0.024692	0.015800	0.032729	0.023647	7168.198872	42548.206025	3969.011821	22143.783514
111.535500	0.027935	0.016632	0.039761	0.021649	7220.123400	42806.913041	3992.571223	22232.541459
112.035500	0.026208	0.017009	0.036333	0.022515	7194.360104	42762.157495	3981.309304	22194.034916
112.536000	0.028268	0.017148	0.036146	0.022813	7211.860232	42747.591753	3980.042112	22180.800282
113.036000	0.025581	0.016889	0.034404	0.027719	7136.964924	42277.333413	3962.839910	21964.109366
113.536500	0.026859	0.018325	0.036316	0.024229	7183.837438	42725.623516	3976.799020	22118.001557
114.037500	0.027649	0.017674	0.036521	0.024796	7186.040857	42614.354321	3975.857462	22092.914372
114.537500	0.029242	0.018130	0.042381	0.025866	7191.218912	42558.375959	3988.371011	22045.688480
115.035000	0.030552	0.017381	0.034086	0.025795	7204.919728	42496.580093	3966.972884	22048.812355
115.536000	0.031301	0.018497	0.037196	0.027270	7197.704760	42463.940612	3971.193528	21983.833895
116.036000	0.029804	0.018009	0.038300	0.027243	7183.152291	42422.046293	3974.123622	21985.026022
116.535500	0.032759	0.018881	0.033739	0.028729	7197.698139	42366.300714	3958.549687	21919.838474
117.036000	0.032301	0.018750	0.038427	0.029061	7189.872928	42324.355198	3969.746625	21905.283209
117.536500	0.031622	0.019342	0.041212	0.031053	7163.514259	42197.644516	3971.796768	21818.266843
118.036500	0.034673	0.019156	0.038580	0.030977	7194.385846	42187.771215	3965.200950	21821.590871
118.537000	0.032867	0.018959	0.035393	0.031207	7174.256695	42149.227622	3956.443273	21811.560575
119.037500	0.031454	0.019382	0.037518	0.034395	7129.120295	41900.631121	3953.734514	21673.207406
119.537500	0.033245	0.020345	0.042376	0.033322	7157.162012	42083.558223	3968.941571	21719.657430
120.037500	0.033271	0.019968	0.044097	0.033152	7159.089337	42064.890871	3973.832709	21727.014578
120.535500	0.033437	0.020022	0.043047	0.034262	7149.819768	41969.929349	3968.245171	21678.928948
121.034500	0.033077	0.021438	0.041687	0.037874	7111.046584	41773.228644	3955.489992	21523.332840
121.536000	0.034194	0.019689	0.032467	0.034512	7154.797225	41917.633740	3940.650259	21668.138456
122.036000	0.033874	0.021438	0.037938	0.036174	7135.383014	41925.530897	3950.279625	21596.437191
122.536500	0.034276	0.021072	0.041842	0.036142	7139.622753	41895.492540	3960.315304	21597.781132
123.036500	0.034908	0.020742	0.041302	0.036193	7145.314903	41861.381047	3958.802885	21595.606636
123.540000	0.034428	0.021447	0.045105	0.037575	7127.106258	41800.826681	3965.013045	21536.169751
124.036500	0.033297	0.021913	0.045698	0.037893	7113.002368	41814.046588	3965.720720	21522.525962
124.534500	0.036440	0.022257	0.042354	0.039349	7129.436707	41714.711341	3953.432481	21460.177391
125.035000	0.032370	0.021872	0.038518	0.042370	7060.792605	41412.125494	3936.112623	21331.468131
125.535500	0.035467	0.023146	0.047119	0.040748	7106.344975	41669.267112	3962.034942	21400.456729
126.035500	0.037699	0.021935	0.044786	0.040504	7130.442465	41583.175319	3956.686624	21410.846636
126.536000	0.036304	0.022281	0.044094	0.040948	7112.529282	41574.485620	3953.791543	21391.928298
127.036500	0.034632	0.022713	0.044639	0.043074	7075.772260	41424.183131	3949.771422	21301.595060
127.536500	0.037770	0.022845	0.043272	0.043026	7106.591375	41440.170917	3946.428629	21303.619545
128.040000	0.038365	0.023009	0.043837	0.042961	7113.009286	41460.481982	3948.026928	21306.407479
128.537500	0.037772	0.022757	0.045204	0.043338	7103.585414	41404.767494	3950.538382	21290.426842
129.040500	0.037225	0.022443	0.044542	0.045093	7081.309712	41222.079421	3944.414394	21216.196428
129.535000	0.036693	0.022558	0.045024	0.044823	7078.786175	41256.035438	3946.316378	21227.600353
130.035500	0.036020	0.023523	0.044472	0.045344	7067.289224	41295.183815	3943.604624	21205.615177
