sample name	sample
index	824
start time	 03-31-2021  04:07:29 PM


Wavelength (nm)	Absorbance
494.344910	NaN
494.563924	NaN
494.782919	NaN
495.001897	NaN
495.220856	NaN
495.439797	NaN
495.658719	0.987962
495.877624	0.509695
496.096510	0.322975
496.315378	NaN
496.534227	0.303872
496.753059	0.056160
496.971872	0.165790
497.190667	0.018622
497.409444	0.018100
497.628203	0.013455
497.846943	0.008797
498.065665	0.010637
498.284369	0.011661
498.503055	0.012354
498.721723	0.012233
498.940372	0.011820
499.159003	0.010820
499.377616	0.010769
499.596210	0.010918
499.814787	0.012407
500.033345	0.012425
500.251885	0.011334
500.470406	0.011203
500.688910	0.011637
500.907395	0.012594
501.125862	0.013927
501.344311	0.013982
501.562742	0.014960
501.781154	0.014258
501.999548	0.014594
502.217924	0.014220
502.436282	0.013532
502.654621	0.014038
502.872942	0.012954
503.091245	0.012154
503.309530	0.011896
503.527797	0.011457
503.746045	0.011562
503.964275	0.010854
504.182487	0.011740
504.400681	0.011478
504.618856	0.010303
504.837013	0.010768
505.055152	0.011378
505.273273	0.011218
505.491376	0.010812
505.709460	0.010560
505.927526	0.009843
506.145574	0.009341
506.363604	0.009345
506.581615	0.009389
506.799608	0.009344
507.017583	0.008932
507.235540	0.009227
507.453478	0.009519
507.671399	0.009828
507.889301	0.010665
508.107185	0.010695
508.325050	0.011072
508.542898	0.011334
508.760727	0.011732
508.978538	0.011510
509.196330	0.011783
509.414105	0.011684
509.631861	0.011584
509.849599	0.011834
510.067319	0.011996
510.285021	0.012673
510.502704	0.012667
510.720369	0.011279
510.938016	0.011689
511.155645	0.011153
511.373255	0.010021
511.590848	0.010541
511.808422	0.010321
512.025977	0.010742
512.243515	0.010804
512.461034	0.011127
512.678536	0.011563
512.896018	0.011217
513.113483	0.011160
513.330930	0.012393
513.548358	0.012163
513.765768	0.012464
513.983160	0.011638
514.200533	0.011061
514.417889	0.010388
514.635226	0.011061
514.852545	0.010791
515.069845	0.011379
515.287128	0.011261
515.504392	0.011658
515.721638	0.011228
515.938866	0.011482
516.156075	0.011764
516.373267	0.011973
516.590440	0.011478
516.807594	0.011473
517.024731	0.011631
517.241850	0.012003
517.458950	0.012250
517.676032	0.013139
517.893095	0.013075
518.110141	0.013011
518.327168	0.013957
518.544177	0.014557
518.761168	0.015200
518.978141	0.014712
519.195095	0.015206
519.412031	0.014679
519.628949	0.014033
519.845849	0.014625
520.062731	0.014819
520.279594	0.015127
520.496439	0.014797
520.713266	0.014850
520.930074	0.014733
521.146865	0.014485
521.363637	0.014543
521.580391	0.015123
521.797127	0.015043
522.013844	0.015470
522.230543	0.015255
522.447224	0.015887
522.663887	0.015946
522.880532	0.016692
523.097158	0.016775
523.313766	0.017578
523.530356	0.017346
523.746928	0.017142
523.963481	0.016714
524.180017	0.016109
524.396534	0.015198
524.613032	0.015182
524.829513	0.015385
525.045975	0.015067
525.262420	0.014161
525.478845	0.014561
525.695253	0.014908
525.911643	0.015116
526.128014	0.015281
526.344367	0.015914
526.560702	0.016336
526.777018	0.016074
526.993316	0.016288
527.209597	0.016979
527.425858	0.016289
527.642102	0.016196
527.858328	0.016434
528.074535	0.016617
528.290724	0.016360
528.506894	0.015761
528.723047	0.015998
528.939181	0.015601
529.155297	0.015504
529.371395	0.016158
529.587475	0.016811
529.803536	0.016607
530.019579	0.016262
530.235604	0.017448
530.451611	0.017932
530.667600	0.017609
530.883570	0.017853
531.099522	0.017968
531.315456	0.017688
531.531372	0.017643
531.747269	0.017888
531.963148	0.017784
532.179009	0.017489
532.394852	0.017767
532.610676	0.018498
532.826482	0.018837
533.042271	0.018892
533.258040	0.019247
533.473792	0.018928
533.689525	0.019339
533.905240	0.020107
534.120937	0.020435
534.336616	0.020932
534.552277	0.020936
534.767919	0.021498
534.983543	0.021494
535.199149	0.021842
535.414736	0.022080
535.630306	0.021746
535.845857	0.021856
536.061390	0.021556
536.276904	0.021147
536.492401	0.020913
536.707879	0.020299
536.923339	0.020590
537.138781	0.020589
537.354204	0.020440
537.569610	0.021079
537.784997	0.021094
538.000366	0.021425
538.215716	0.021329
538.431049	0.021533
538.646363	0.021617
538.861659	0.021344
539.076937	0.021399
539.292196	0.021722
539.507438	0.021438
539.722661	0.021358
539.937866	0.021456
540.153052	0.021604
540.368221	0.021551
540.583371	0.021801
540.798503	0.022301
541.013617	0.022215
541.228712	0.022388
541.443789	0.022791
541.658848	0.022606
541.873889	0.022390
542.088912	0.022268
542.303916	0.022468
542.518902	0.022498
542.733870	0.022483
542.948820	0.022764
543.163752	0.022522
543.378665	0.022426
543.593560	0.023253
543.808437	0.023379
544.023295	0.023987
544.238136	0.024293
544.452958	0.024678
544.667762	0.024593
544.882548	0.024394
545.097315	0.025183
545.312064	0.025044
545.526795	0.024592
545.741508	0.025099
545.956203	0.024905
546.170879	0.024762
546.385537	0.025242
546.600177	0.025596
546.814799	0.026112
547.029402	0.025889
547.243988	0.026239
547.458555	0.026683
547.673103	0.026650
547.887634	0.026614
548.102146	0.026477
548.316640	0.026132
548.531116	0.026177
548.745574	0.025823
548.960013	0.025790
549.174435	0.025632
549.388838	0.025866
549.603222	0.026024
549.817589	0.026674
550.031937	0.027149
550.246267	0.027363
550.460579	0.027401
550.674873	0.027580
550.889148	0.027852
551.103405	0.028091
551.317644	0.028198
551.531865	0.027794
551.746068	0.027498
551.960252	0.027573
552.174418	0.027457
552.388566	0.027605
552.602696	0.027735
552.816807	0.028049
553.030900	0.028326
553.244975	0.028829
553.459032	0.029025
553.673070	0.029248
553.887091	0.029086
554.101093	0.029513
554.315077	0.029507
554.529042	0.029736
554.742990	0.029596
554.956919	0.029402
555.170830	0.028778
555.384722	0.028623
555.598597	0.028714
555.812453	0.029377
556.026291	0.028994
556.240111	0.029057
556.453913	0.028711
556.667696	0.028739
556.881461	0.029031
557.095208	0.029338
557.308937	0.029480
557.522647	0.029252
557.736339	0.028642
557.950013	0.028949
558.163669	0.028926
558.377307	0.029288
558.590926	0.029140
558.804527	0.029128
559.018110	0.029026
559.231675	0.029531
559.445221	0.029990
559.658749	0.030445
559.872259	0.030649
560.085751	0.031097
560.299225	0.031273
560.512680	0.031796
560.726117	0.032065
560.939536	0.032217
561.152937	0.032266
561.366319	0.032221
561.579683	0.031746
561.793029	0.031748
562.006357	0.031677
562.219667	0.031817
562.432958	0.031561
562.646231	0.031579
562.859486	0.031385
563.072723	0.031611
563.285941	0.031720
563.499141	0.032196
563.712323	0.032072
563.925487	0.031849
564.138632	0.031565
564.351760	0.031811
564.564869	0.031692
564.777960	0.031977
564.991032	0.031507
565.204087	0.031796
565.417123	0.031645
565.630141	0.031638
565.843140	0.031965
566.056122	0.032057
566.269085	0.031787
566.482030	0.031863
566.694957	0.032120
566.907866	0.032597
567.120756	0.032587
567.333628	0.032955
567.546482	0.033125
567.759318	0.033511
567.972135	0.033794
568.184935	0.033534
568.397716	0.033852
568.610478	0.033584
568.823223	0.033569
569.035949	0.033237
569.248657	0.032988
569.461347	0.033103
569.674019	0.032770
569.886672	0.032736
570.099308	0.033141
570.311925	0.032798
570.524523	0.033274
570.737104	0.033285
570.949666	0.033167
571.162210	0.032971
571.374736	0.032801
571.587244	0.032678
571.799733	0.032646
572.012205	0.032381
572.224658	0.032678
572.437092	0.032772
572.649509	0.032652
572.861907	0.032988
573.074287	0.033529
573.286649	0.033662
573.498993	0.033803
573.711318	0.034151
573.923625	0.034714
574.135914	0.034898
574.348185	0.034890
574.560438	0.035268
574.772672	0.035508
574.984888	0.035737
575.197086	0.035949
575.409266	0.036348
575.621427	0.036408
575.833570	0.036705
576.045695	0.037068
576.257802	0.036644
576.469890	0.036659
576.681961	0.036703
576.894013	0.036301
577.106046	0.036390
577.318062	0.036147
577.530059	0.036201
577.742039	0.036084
577.954000	0.035832
578.165942	0.036237
578.377867	0.036053
578.589773	0.035959
578.801661	0.036223
579.013531	0.036059
579.225382	0.035973
579.437216	0.035717
579.649031	0.035878
579.860828	0.035694
580.072606	0.035612
580.284367	0.035796
580.496109	0.036287
580.707833	0.036573
580.919539	0.036952
581.131227	0.037137
581.342896	0.037481
581.554547	0.037515
581.766180	0.037641
581.977795	0.038064
582.189391	0.038034
582.400969	0.037783
582.612529	0.037728
582.824071	0.037660
583.035595	0.037667
583.247100	0.037589
583.458587	0.037554
583.670056	0.037784
583.881506	0.037289
584.092939	0.037631
584.304353	0.037749
584.515749	0.037675
584.727127	0.037820
584.938486	0.038006
585.149828	0.038062
585.361151	0.038091
585.572456	0.038064
585.783742	0.038053
585.995011	0.037870
586.206261	0.037872
586.417493	0.037814
586.628706	0.037688
586.839902	0.037869
587.051079	0.038031
587.262238	0.037893
587.473379	0.037776
587.684502	0.037998
587.895606	0.038124
588.106692	0.038130
588.317760	0.038158
588.528810	0.038398
588.739841	0.037990
588.950855	0.037896
589.161850	0.038394
589.372827	0.038565
589.583785	0.038780
589.794726	0.039044
590.005648	0.039032
590.216552	0.039300
590.427437	0.039328
590.638305	0.039782
590.849154	0.040000
591.059985	0.040061
591.270798	0.040035
591.481592	0.040095
591.692369	0.039959
591.903127	0.040081
592.113867	0.040635
592.324588	0.040785
592.535292	0.040921
592.745977	0.041110
592.956644	0.041060
593.167293	0.041420
593.377923	0.041567
593.588536	0.041716
593.799130	0.041439
594.009706	0.040988
594.220263	0.040746
594.430803	0.040809
594.641324	0.040514
594.851827	0.040689
595.062312	0.040470
595.272778	0.040060
595.483227	0.039705
595.693657	0.040129
595.904069	0.039989
596.114462	0.040189
596.324838	0.040158
596.535195	0.040219
596.745534	0.039847
596.955855	0.039878
597.166157	0.040349
597.376441	0.040814
597.586707	0.040957
597.796955	0.041168
598.007185	0.041241
598.217396	0.041310
598.427589	0.041554
598.637764	0.041885
598.847921	0.042126
599.058060	0.041769
599.268180	0.041796
599.478282	0.041754
599.688366	0.041837
599.898431	0.042042
600.108479	0.041870
600.318508	0.041750
600.528519	0.041728
600.738511	0.041719
600.948486	0.042295
601.158442	0.042242
601.368380	0.042141
601.578300	0.042007
601.788202	0.041490
601.998085	0.041834
602.207950	0.042072
602.417797	0.042267
602.627626	0.042075
602.837436	0.042069
603.047228	0.041992
603.257002	0.041875
603.466758	0.042027
603.676496	0.042524
603.886215	0.042458
604.095916	0.042319
604.305599	0.042292
604.515264	0.042426
604.724910	0.042319
604.934538	0.042365
605.144148	0.042831
605.353740	0.043080
605.563314	0.042897
605.772869	0.042909
605.982406	0.042940
606.191925	0.042648
606.401425	0.042677
606.610908	0.042442
606.820372	0.042668
607.029818	0.042472
607.239246	0.042302
607.448655	0.042452
607.658047	0.042482
607.867420	0.042625
608.076775	0.043000
608.286111	0.043161
608.495430	0.043577
608.704730	0.043460
608.914012	0.043495
609.123275	0.043549
609.332521	0.043625
609.541748	0.043557
609.750957	0.043694
609.960148	0.043398
610.169321	0.043329
610.378475	0.043451
610.587611	0.043511
610.796729	0.043476
611.005829	0.043634
611.214910	0.043540
611.423974	0.043756
611.633019	0.043757
611.842045	0.044051
612.051054	0.044039
612.260044	0.043879
612.469017	0.044026
612.677970	0.044411
612.886906	0.044402
613.095824	0.044680
613.304723	0.044822
613.513604	0.044857
613.722467	0.045064
613.931311	0.045314
614.140138	0.045116
614.348946	0.045199
614.557736	0.045233
614.766507	0.045307
614.975261	0.045177
615.183996	0.045187
615.392713	0.045212
615.601412	0.045221
615.810092	0.045169
616.018754	0.045510
616.227399	0.045546
616.436024	0.045368
616.644632	0.045658
616.853222	0.045773
617.061793	0.045861
617.270346	0.046080
617.478880	0.046099
617.687397	0.046518
617.895895	0.046467
618.104375	0.046518
618.312837	0.046541
618.521281	0.046340
618.729706	0.046467
618.938113	0.046477
619.146502	0.046527
619.354873	0.046473
619.563226	0.046402
619.771560	0.046553
619.979876	0.046520
620.188174	0.046734
620.396453	0.046848
620.604715	0.046926
620.812958	0.047117
621.021183	0.047033
621.229390	0.047105
621.437578	0.047079
621.645748	0.047310
621.853900	0.047474
622.062034	0.047629
622.270150	0.047738
622.478247	0.047896
622.686326	0.047879
622.894387	0.048032
623.102430	0.048184
623.310454	0.048104
623.518461	0.047928
623.726449	0.047987
623.934418	0.047870
624.142370	0.047771
624.350303	0.047629
624.558218	0.047580
624.766115	0.047639
624.973994	0.047594
625.181855	0.047687
625.389697	0.047827
625.597521	0.047820
625.805327	0.048189
626.013114	0.048357
626.220883	0.048286
626.428634	0.048393
626.636367	0.048223
626.844082	0.048427
627.051778	0.048388
627.259457	0.048303
627.467117	0.048372
627.674758	0.048236
627.882382	0.048412
628.089987	0.048764
628.297574	0.048732
628.505143	0.048922
628.712694	0.048986
628.920226	0.049010
629.127740	0.049201
629.335236	0.049167
629.542714	0.049112
629.750174	0.049030
629.957615	0.048982
630.165038	0.049051
630.372443	0.049011
630.579829	0.048931
630.787198	0.049208
630.994548	0.049406
631.201880	0.049698
631.409194	0.049636
631.616489	0.049612
631.823766	0.049648
632.031025	0.049696
632.238266	0.049989
632.445489	0.050290
632.652693	0.050198
632.859879	0.050337
633.067047	0.050548
633.274197	0.050806
633.481329	0.050994
633.688442	0.051089
633.895537	0.051184
634.102614	0.051256
634.309672	0.051139
634.516713	0.051259
634.723735	0.051020
634.930739	0.050926
635.137724	0.050936
635.344692	0.050908
635.551641	0.050943
635.758572	0.051101
635.965485	0.051176
636.172379	0.051059
636.379256	0.050986
636.586114	0.051127
636.792954	0.051143
636.999775	0.051021
637.206579	0.051116
637.413364	0.051224
637.620131	0.051208
637.826880	0.051004
638.033610	0.051160
638.240323	0.051368
638.447017	0.051369
638.653692	0.051448
638.860350	0.051676
639.066990	0.051845
639.273611	0.051809
639.480214	0.051855
639.686798	0.051851
639.893365	0.052008
640.099913	0.052307
640.306443	0.052516
640.512955	0.052568
640.719449	0.052805
640.925924	0.052844
641.132381	0.052968
641.338820	0.053132
641.545241	0.053703
641.751644	0.053769
641.958028	0.053784
642.164394	0.053866
642.370742	0.054027
642.577071	0.053847
642.783383	0.053799
642.989676	0.053969
643.195951	0.053793
643.402207	0.053491
643.608446	0.053482
643.814666	0.053451
644.020868	0.053304
644.227052	0.053099
644.433218	0.053135
644.639365	0.053279
644.845494	0.053242
645.051605	0.053548
645.257698	0.053736
645.463772	0.054114
645.669828	0.054105
645.875866	0.054450
646.081886	0.054587
646.287888	0.054958
646.493871	0.055077
646.699836	0.055121
646.905783	0.055221
647.111712	0.055270
647.317622	0.055114
647.523514	0.055415
647.729388	0.055198
647.935244	0.055277
648.141082	0.055054
648.346901	0.055212
648.552702	0.055352
648.758485	0.055341
648.964250	0.055190
649.169996	0.055389
649.375724	0.055417
649.581434	0.055423
649.787126	0.055434
649.992800	0.055793
650.198455	0.055979
650.404092	0.056173
650.609711	0.056363
650.815311	0.056639
651.020894	0.056274
651.226458	0.056221
651.432004	0.056492
651.637532	0.056772
651.843041	0.056725
652.048532	0.056661
652.254006	0.056680
652.459460	0.056568
652.664897	0.056749
652.870315	0.057242
653.075716	0.057354
653.281097	0.057469
653.486461	0.057437
653.691807	0.057515
653.897134	0.057474
654.102443	0.057728
654.307734	0.057841
654.513006	0.057765
654.718261	0.057767
654.923497	0.057705
655.128715	0.057843
655.333915	0.057959
655.539096	0.058133
655.744259	0.058082
655.949404	0.057912
656.154531	0.058061
656.359640	0.058226
656.564730	0.058359
656.769802	0.058653
656.974856	0.058576
657.179892	0.058652
657.384909	0.058832
657.589908	0.059240
657.794889	0.059450
657.999852	0.059682
658.204797	0.059835
658.409723	0.059973
658.614631	0.059851
658.819521	0.059984
659.024393	0.060243
659.229246	0.060216
659.434081	0.060232
659.638898	0.060220
659.843697	0.060136
660.048478	0.060217
660.253240	0.060011
660.457984	0.060227
660.662710	0.060560
660.867417	0.060602
661.072107	0.060635
661.276778	0.060626
661.481431	0.060726
661.686066	0.060678
661.890682	0.060620
662.095281	0.060791
662.299861	0.060701
662.504422	0.060515
662.708966	0.060463
662.913491	0.060580
663.117999	0.060639
663.322488	0.060653
663.526958	0.060853
663.731411	0.061048
663.935845	0.061236
664.140261	0.061502
664.344659	0.061720
664.549038	0.061864
664.753400	0.061880
664.957743	0.061851
665.162068	0.061905
665.366375	0.062154
665.570663	0.062301
665.774933	0.062354
665.979185	0.062476
666.183419	0.062686
666.387635	0.062950
666.591832	0.063068
666.796011	0.063357
667.000172	0.063616
667.204315	0.063518
667.408439	0.063348
667.612545	0.063567
667.816634	0.063625
668.020703	0.063537
668.224755	0.063283
668.428788	0.063349
668.632803	0.063322
668.836800	0.063354
669.040779	0.063492
669.244739	0.063814
669.448681	0.063760
669.652605	0.063938
669.856511	0.064178
670.060399	0.064478
670.264268	0.064661
670.468119	0.064926
670.671952	0.064965
670.875767	0.065187
671.079563	0.065325
671.283341	0.065356
671.487101	0.065306
671.690843	0.065450
671.894567	0.065468
672.098272	0.065545
672.301959	0.065507
672.505628	0.065790
672.709278	0.065698
672.912911	0.065647
673.116525	0.065856
673.320121	0.066041
673.523699	0.065961
673.727258	0.066036
673.930799	0.066202
674.134322	0.066334
674.337827	0.066226
674.541314	0.066486
674.744782	0.066436
674.948232	0.066566
675.151664	0.066753
675.355078	0.066735
675.558474	0.066660
675.761851	0.066645
675.965210	0.066758
676.168551	0.066812
676.371873	0.066749
676.575178	0.067260
676.778464	0.067214
676.981732	0.067087
677.184981	0.067300
677.388213	0.067751
677.591426	0.067992
677.794621	0.068141
677.997798	0.068379
678.200956	0.068537
678.404097	0.068431
678.607219	0.068855
678.810323	0.068964
679.013408	0.069126
679.216476	0.069147
679.419525	0.069078
679.622556	0.069103
679.825569	0.069157
680.028563	0.069256
680.231540	0.069255
680.434498	0.069101
680.637438	0.069132
680.840359	0.069160
681.043263	0.069288
681.246148	0.069366
681.449015	0.069442
681.651864	0.069559
681.854694	0.069785
682.057506	0.069763
682.260301	0.069910
682.463076	0.070128
682.665834	0.070227
682.868573	0.070289
683.071295	0.070306
683.273998	0.070504
683.476682	0.070584
683.679349	0.070630
683.881997	0.071062
684.084627	0.071128
684.287239	0.071321
684.489833	0.071366
684.692408	0.071479
684.894965	0.071561
685.097504	0.071492
685.300025	0.071472
685.502527	0.071525
685.705012	0.071496
685.907478	0.071700
686.109925	0.071581
686.312355	0.071797
686.514766	0.071805
686.717159	0.071982
686.919534	0.072182
687.121891	0.072315
687.324230	0.072302
687.526550	0.072268
687.728852	0.072018
687.931136	0.072049
688.133401	0.071851
688.335649	0.072045
688.537878	0.072118
688.740089	0.072063
688.942281	0.072288
689.144456	0.072263
689.346612	0.072464
689.548750	0.072710
689.750870	0.072629
689.952971	0.072691
690.155055	0.072418
690.357120	0.072570
690.559167	0.072772
690.761195	0.072531
690.963206	0.072627
691.165198	0.072599
691.367172	0.072712
691.569128	0.073098
691.771065	0.073248
691.972984	0.073287
692.174885	0.073089
692.376768	0.073004
692.578633	0.073021
692.780479	0.073293
692.982308	0.073272
693.184118	0.073045
693.385909	0.073008
693.587683	0.073210
693.789438	0.073584
693.991175	0.074064
694.192894	0.074023
694.394595	0.074204
694.596277	0.074000
694.797941	0.074126
694.999587	0.074336
695.201215	0.074478
695.402824	0.074564
695.604416	0.074282
695.805989	0.074022
696.007543	0.074254
696.209080	0.074416
696.410598	0.074370
696.612099	0.074386
696.813580	0.074367
697.015044	0.074491
697.216490	0.074510
697.417917	0.074944
697.619326	0.074971
697.820717	0.074944
698.022089	0.074989
698.223444	0.075402
698.424780	0.075682
698.626098	0.075905
698.827397	0.075760
699.028679	0.075691
699.229942	0.075803
699.431187	0.075976
699.632414	0.076300
699.833622	0.076139
700.034813	0.075913
700.235985	0.075808
700.437139	0.075794
700.638274	0.075876
700.839392	0.075938
701.040491	0.075538
701.241572	0.075403
701.442635	0.075277
701.643679	0.075522
701.844706	0.075620
702.045714	0.075653
702.246704	0.075564
702.447675	0.075696
702.648629	0.075664
702.849564	0.075964
703.050481	0.076207
703.251380	0.076177
703.452260	0.076378
703.653122	0.076552
703.853966	0.076492
704.054792	0.076663
704.255600	0.076301
704.456389	0.076308
704.657160	0.076216
704.857913	0.076188
705.058648	0.076316
705.259365	0.076219
705.460063	0.076130
705.660743	0.076082
705.861405	0.076128
706.062048	0.076442
706.262674	0.076603
706.463281	0.076836
706.663870	0.076813
706.864441	0.076760
707.064993	0.076758
707.265527	0.076754
707.466043	0.076909
707.666541	0.076951
707.867021	0.076876
708.067482	0.076838
708.267925	0.076775
708.468350	0.076858
708.668757	0.076987
708.869145	0.076908
709.069516	0.077042
709.269868	0.076995
709.470201	0.076943
709.670517	0.077326
709.870814	0.077473
710.071093	0.077582
710.271354	0.077542
710.471597	0.077465
710.671821	0.077455
710.872028	0.077328
711.072216	0.077406
711.272385	0.077575
711.472537	0.077285
711.672670	0.077393
711.872785	0.077223
712.072882	0.077261
712.272961	0.077152
712.473021	0.077270
712.673063	0.077319
712.873087	0.077339
713.073093	0.077191
713.273081	0.077273
713.473050	0.077018
713.673001	0.077089
713.872934	0.077019
714.072849	0.077176
714.272745	0.077027
714.472623	0.077014
714.672483	0.076949
714.872325	0.076848
715.072148	0.076692
715.271954	0.076636
715.471741	0.076439
715.671509	0.076231
715.871260	0.076066
716.070992	0.075946
716.270707	0.075728
716.470403	0.075490
716.670080	0.075374
716.869740	0.075229
717.069381	0.075259
717.269004	0.075205
717.468609	0.075283
717.668195	0.075090
717.867764	0.075221
718.067314	0.075320
718.266846	0.075571
718.466360	0.075566
718.665855	0.075673
718.865332	0.075567
719.064791	0.075544
719.264232	0.075485
719.463655	0.075461
719.663059	0.075397
719.862445	0.075499
720.061813	0.075360
720.261163	0.075462
720.460494	0.075356
720.659807	0.075312
720.859102	0.075311
721.058379	0.075297
721.257638	0.075465
721.456878	0.075343
721.656100	0.075240
721.855304	0.075111
722.054490	0.074992
722.253657	0.075079
722.452806	0.074903
722.651937	0.074883
722.851050	0.074667
723.050145	0.074357
723.249221	0.074296
723.448279	0.074060
723.647319	0.074090
723.846340	0.074057
724.045344	0.074062
724.244329	0.073973
724.443296	0.073881
724.642245	0.074008
724.841175	0.074014
725.040088	0.073936
725.238982	0.073841
725.437857	0.073694
725.636715	0.073417
725.835554	0.073103
726.034376	0.073238
726.233179	0.073296
726.431963	0.073221
726.630730	0.073226
726.829478	0.073221
727.028208	0.073330
727.226920	0.073349
727.425614	0.073714
727.624289	0.073648
727.822946	0.073506
728.021585	0.073203
728.220206	0.073081
728.418808	0.072886
728.617392	0.072819
728.815958	0.072590
729.014506	0.072727
729.213036	0.072324
729.411547	0.072334
729.610040	0.072424
729.808515	0.072602
730.006972	0.072652
730.205410	0.072590
730.403831	0.072400
730.602233	0.072519
730.800616	0.072260
730.998982	0.072334
731.197329	0.072379
731.395658	0.072255
731.593969	0.072027
731.792262	0.071846
731.990536	0.071890
732.188793	0.072056
732.387031	0.071867
732.585250	0.071814
732.783452	0.071749
732.981635	0.071581
733.179800	0.071509
733.377947	0.071386
733.576076	0.071307
733.774186	0.071359
733.972278	0.071171
734.170352	0.071097
734.368408	0.070882
734.566446	0.070718
734.764465	0.070479
734.962466	0.070361
735.160449	0.070356
735.358413	0.070354
735.556360	0.070293
735.754288	0.070355
735.952198	0.070365
736.150090	0.070347
736.347963	0.070374
736.545818	0.070522
736.743655	0.070379
736.941474	0.070199
737.139275	0.069986
737.337057	0.069721
737.534821	0.069330
737.732567	0.069146
737.930295	0.069042
738.128005	0.068884
738.325696	0.068632
738.523369	0.068571
738.721024	0.068542
738.918660	0.068446
739.116279	0.068466
739.313879	0.068439
739.511461	0.068509
739.709024	0.068216
739.906570	0.067963
740.104097	0.067852
740.301606	0.067813
740.499097	0.067763
740.696569	0.067802
740.894024	0.067728
741.091460	0.067737
741.288878	0.067537
741.486277	0.067665
741.683659	0.067682
741.881022	0.067674
742.078367	0.067386
742.275694	0.067386
742.473002	0.067322
742.670293	0.067258
742.867565	0.067234
743.064819	0.067262
743.262054	0.067221
743.459272	0.067125
743.656471	0.067243
743.853652	0.067390
744.050815	0.067256
744.247959	0.067101
744.445085	0.066977
744.642194	0.066903
744.839283	0.066865
745.036355	0.066775
745.233408	0.066592
745.430444	0.066261
745.627461	0.066082
745.824459	0.066196
746.021440	0.066233
746.218402	0.066002
746.415346	0.065843
746.612272	0.065439
746.809180	0.065432
747.006069	0.065561
747.202940	0.065691
747.399793	0.065597
747.596628	0.065275
747.793444	0.065394
747.990243	0.065348
748.187023	0.065286
748.383784	0.065374
748.580528	0.065229
748.777253	0.064911
748.973960	0.064727
749.170649	0.064517
749.367320	0.064191
749.563973	0.063742
749.760607	0.063697
749.957223	0.063652
750.153821	0.063677
750.350400	0.063496
750.546962	0.063560
750.743505	0.063559
750.940030	0.063596
751.136536	0.063655
751.333025	0.063375
751.529495	0.063267
751.725947	0.063022
751.922381	0.062835
752.118796	0.062780
752.315194	0.062748
752.511573	0.062503
752.707934	0.062338
752.904276	0.062295
753.100601	0.062562
753.296907	0.062556
753.493195	0.062588
753.689465	0.062488
753.885716	0.062398
754.081949	0.062219
754.278164	0.062146
754.474361	0.062376
754.670540	0.062216
754.866700	0.061982
755.062843	0.061999
755.258967	0.061820
755.455072	0.061971
755.651160	0.062145
755.847229	0.062169
756.043280	0.062196
756.239313	0.062015
756.435328	0.062151
756.631324	0.062252
756.827302	0.062051
757.023262	0.062090
757.219204	0.061806
757.415127	0.061557
757.611033	0.061565
757.806920	0.061551
758.002788	0.061454
758.198639	0.061380
758.394471	0.061051
758.590286	0.061120
758.786081	0.060943
758.981859	0.060552
759.177619	0.060399
759.373360	0.060276
759.569083	0.060013
759.764788	0.059679
759.960474	0.059467
760.156143	0.059324
760.351793	0.059043
760.547425	0.058994
760.743038	0.059358
760.938634	0.059296
761.134211	0.058959
761.329770	0.058917
761.525311	0.059122
761.720833	0.059151
761.916338	0.059262
762.111824	0.059187
762.307292	0.059242
762.502741	0.059204
762.698173	0.059180
762.893586	0.059316
763.088981	0.059233
763.284358	0.059075
763.479716	0.058894
763.675057	0.058845
763.870379	0.058636
764.065683	0.058463
764.260968	0.058259
764.456236	0.058068
764.651485	0.058070
764.846716	0.058081
765.041929	0.058127
765.237123	0.058095
765.432299	0.058018
765.627457	0.058066
765.822597	0.057959
766.017719	0.057826
766.212822	0.057681
766.407907	0.057520
766.602974	0.057607
766.798023	0.057380
766.993054	0.057371
767.188066	0.057362
767.383060	0.057285
767.578036	0.057345
767.772993	0.057192
767.967933	0.057309
768.162854	0.057304
768.357757	0.056872
768.552642	0.056624
768.747508	0.056648
768.942356	0.056297
769.137186	0.056447
769.331998	0.056198
769.526792	0.056225
769.721567	0.056056
769.916324	0.055900
770.111063	0.056135
770.305784	0.056213
770.500486	0.056057
770.695171	0.056266
770.889837	0.055808
771.084484	0.055773
771.279114	0.055801
771.473725	0.055658
771.668318	0.055840
771.862893	0.055688
772.057450	0.055680
772.251988	0.055441
772.446509	0.055220
772.641011	0.055459
772.835494	0.055674
773.029960	0.055775
773.224407	0.055923
773.418836	0.055641
773.613247	0.055614
773.807640	0.055583
774.002014	0.055724
774.196370	0.055933
774.390708	0.055908
774.585028	0.055683
774.779330	0.055462
774.973613	0.055393
775.167878	0.055307
775.362125	0.055137
775.556354	0.055305
775.750564	0.055396
775.944756	0.055360
776.138930	0.055319
776.333086	0.055274
776.527223	0.055136
776.721343	0.054956
776.915444	0.055291
777.109526	0.055542
777.303591	0.055259
777.497637	0.055012
777.691666	0.054848
777.885676	0.054757
778.079667	0.054805
778.273641	0.055032
778.467596	0.055229
778.661533	0.054956
778.855452	0.054727
779.049352	0.054751
779.243235	0.054877
779.437099	0.054903
779.630945	0.054982
779.824773	0.055079
780.018582	0.055046
780.212373	0.054888
780.406146	0.054870
780.599901	0.054984
780.793638	0.054992
780.987356	0.054809
781.181056	0.054964
781.374738	0.055045
781.568402	0.054870
781.762047	0.054988
781.955674	0.055014
782.149283	0.054938
782.342874	0.054899
782.536447	0.054968
782.730001	0.055169
782.923537	0.055248
783.117055	0.055260
783.310555	0.055243
783.504036	0.054904
783.697499	0.055031
783.890944	0.055108
784.084371	0.055162
784.277780	0.055158
784.471170	0.055387
784.664542	0.055218
784.857896	0.055077
785.051231	0.055230
785.244549	0.055198
785.437848	0.054999
785.631129	0.055202
785.824392	0.055207
786.017636	0.055246
786.210863	0.054771
786.404071	0.054824
786.597260	0.054861
786.790432	0.054800
786.983585	0.055045
787.176721	0.055055
787.369838	0.055000
787.562936	0.054858
787.756017	0.054722
787.949079	0.054926
788.142123	0.054893
788.335149	0.055163
788.528156	0.055198
788.721146	0.055233
788.914117	0.055548
789.107070	0.055634
789.300005	0.055879
789.492921	0.056177
789.685819	0.056220
789.878699	0.056328
790.071561	0.056240
790.264405	0.056299
790.457230	0.056355
790.650037	0.056309
790.842826	0.056317
791.035597	0.056387
791.228349	0.056451
791.421084	0.056502
791.613800	0.056496
791.806497	0.056208
791.999177	0.056201
792.191838	0.056176
792.384481	0.056210
792.577106	0.056125
792.769713	0.056054
792.962301	0.055881
793.154871	0.055941
793.347423	0.055785
793.539957	0.056029
793.732473	0.056130
793.924970	0.056027
794.117449	0.055894
794.309910	0.055972
794.502353	0.055858
794.694777	0.055888
794.887183	0.055802
795.079571	0.055920
795.271941	0.056134
795.464293	0.056046
795.656626	0.056258
795.848941	0.056610
796.041238	0.056778
796.233516	0.057128
796.425777	0.057307
796.618019	0.057755
796.810243	0.057977
797.002449	0.058067
797.194636	0.058241
797.386805	0.058259
797.578956	0.058443
797.771089	0.058578
797.963204	0.058650
798.155300	0.058916
798.347378	0.058829
798.539438	0.058981
798.731480	0.059038
798.923503	0.059337
799.115509	0.059554
799.307496	0.059483
799.499465	0.059507
799.691415	0.059521
799.883348	0.059487
800.075262	0.059569
800.267158	0.059772
800.459035	0.059929
800.650895	0.059954
800.842736	0.059838
801.034559	0.060162
801.226364	0.060256
801.418150	0.060422
801.609919	0.060579
801.801669	0.060415
801.993401	0.060458
802.185114	0.060461
802.376810	0.060491
802.568487	0.060651
802.760146	0.060453
802.951787	0.060381
803.143409	0.060420
803.335014	0.060280
803.526600	0.060760
803.718168	0.060796
803.909717	0.060826
804.101249	0.060952
804.292762	0.060996
804.484257	0.061033
804.675734	0.061136
804.867192	0.060950
805.058632	0.061279
805.250054	0.061095
805.441458	0.061132
805.632844	0.061486
805.824211	0.061562
806.015561	0.061872
806.206891	0.061876
806.398204	0.061918
806.589499	0.062004
806.780775	0.061930
806.972033	0.061918
807.163273	0.062009
807.354495	0.061949
807.545698	0.062068
807.736883	0.062237
807.928050	0.062490
808.119199	0.062924
808.310329	0.063062
808.501441	0.063362
808.692535	0.063631
808.883611	0.063717
809.074669	0.063798
809.265708	0.064029
809.456729	0.064191
809.647732	0.064467
809.838717	0.064349
810.029683	0.064843
810.220632	0.064835
810.411562	0.065095
810.602474	0.065330
810.793367	0.065454
810.984242	0.065334
811.175100	0.065368
811.365938	0.065577
811.556759	0.065827
811.747562	0.065861
811.938346	0.066111
812.129112	0.066175
812.319860	0.066121
812.510589	0.066210
812.701300	0.066479
812.891994	0.066343
813.082668	0.066440
813.273325	0.066674
813.463964	0.066870
813.654584	0.066779
813.845186	0.066936
814.035769	0.067039
814.226335	0.067540
814.416882	0.067538
814.607411	0.067942
814.797922	0.068043
814.988415	0.067980
815.178889	0.068250
815.369345	0.068548
815.559783	0.068756
815.750203	0.068786
815.940605	0.068519
816.130988	0.068821
816.321353	0.068794
816.511700	0.068870
816.702028	0.068999
816.892339	0.068736
817.082631	0.068874
817.272905	0.068983
817.463161	0.069307
817.653398	0.069296
817.843617	0.069244
818.033819	0.069594
818.224001	0.069723
818.414166	0.069890
818.604312	0.069998
818.794440	0.069829
818.984550	0.069740
819.174642	0.069777
819.364716	0.070146
819.554771	0.070344
819.744808	0.070399
819.934827	0.070559
820.124827	0.070574
820.314810	0.070942
820.504774	0.071464
820.694720	0.071858
820.884647	0.072052
821.074557	0.072159
821.264448	0.072584
821.454321	0.072672
821.644176	0.072642
821.834012	0.072920
822.023831	0.072879
822.213631	0.072951
822.403413	0.073055
822.593176	0.073157
822.782922	0.073386
822.972649	0.073374
823.162358	0.073757
823.352049	0.074196
823.541721	0.074277
823.731376	0.074687
823.921012	0.074976
824.110629	0.075193
824.300229	0.075789
824.489811	0.075959
824.679374	0.075907
824.868919	0.075837
825.058445	0.075889
825.247954	0.076300
825.437444	0.076439
825.626916	0.076648
825.816370	0.076997
826.005806	0.077119
826.195223	0.077399
826.384622	0.077940
826.574003	0.078343
826.763366	0.078761
826.952711	0.078975
827.142037	0.079274
827.331345	0.079576
827.520635	0.079607
827.709906	0.079631
827.899160	0.079808
828.088395	0.079949
828.277612	0.080001
828.466810	0.080129
828.655991	0.080177
828.845153	0.080304
829.034297	0.080303
829.223423	0.080709
829.412531	0.081047
829.601620	0.081244
829.790691	0.081381
829.979744	0.081776
830.168779	0.082115
830.357795	0.082618
830.546793	0.083134
830.735773	0.083391
830.924735	0.083472
831.113679	0.083753
831.302604	0.084075
831.491511	0.084713
831.680400	0.084966
831.869271	0.084891
832.058123	0.085042
832.246957	0.085120
832.435773	0.085334
832.624571	0.085431
832.813351	0.085537
833.002112	0.085377
833.190855	0.085268
833.379580	0.085275
833.568287	0.085434
833.756975	0.085328
833.945645	0.085267
834.134297	0.085553
834.322931	0.085796
834.511547	0.085859
834.700144	0.086184
834.888723	0.086504
835.077284	0.086741
835.265826	0.087225
835.454351	0.087770
835.642857	0.088039
835.831345	0.088330
836.019815	0.088517
836.208266	0.088882
836.396699	0.089203
836.585114	0.089196
836.773511	0.089496
836.961890	0.089780
837.150250	0.089899
837.338592	0.090152
837.526916	0.090069
837.715222	0.090407
837.903510	0.090612
838.091779	0.090755
838.280030	0.091074
838.468263	0.091432
838.656477	0.091348
838.844674	0.091534
839.032852	0.091811
839.221012	0.092007
839.409153	0.092129
839.597277	0.092181
839.785382	0.092494
839.973469	0.092739
840.161538	0.092902
840.349589	0.093175
840.537621	0.093412
840.725635	0.093739
840.913631	0.094275
841.101609	0.094947
841.289568	0.095388
841.477509	0.095596
841.665432	0.095662
841.853337	0.095726
842.041224	0.096038
842.229092	0.096107
842.416942	0.096356
842.604774	0.096744
842.792588	0.096524
842.980383	0.096615
843.168160	0.096953
843.355919	0.097306
843.543660	0.097517
843.731382	0.097691
843.919087	0.098030
844.106773	0.098278
844.294441	0.098211
844.482090	0.098599
844.669722	0.098803
844.857335	0.099066
845.044930	0.099448
845.232507	0.099691
845.420065	0.100099
845.607605	0.100506
845.795127	0.100728
845.982631	0.101194
846.170117	0.101559
846.357584	0.102169
846.545033	0.102163
846.732464	0.102125
846.919877	0.102519
847.107272	0.102496
847.294648	0.102535
847.482006	0.102730
847.669346	0.102862
847.856667	0.102915
848.043971	0.102967
848.231256	0.103357
848.418523	0.103833
848.605771	0.104067
848.793002	0.104501
848.980214	0.104860
849.167408	0.105189
849.354584	0.105149
849.541742	0.105343
849.728881	0.105519
849.916002	0.105921
850.103105	0.105960
850.290190	0.105905
850.477256	0.106126
850.664304	0.106357
850.851334	0.106543
851.038346	0.107128
851.225340	0.107523
851.412315	0.107658
851.599272	0.107627
851.786211	0.107865
851.973132	0.108316
852.160034	0.108375
852.346918	0.108466
852.533784	0.108598
852.720632	0.108485
852.907462	0.108378
853.094273	0.108844
853.281066	0.109179
853.467841	0.109415
853.654598	0.109262
853.841336	0.109392
854.028056	0.109634
854.214758	0.109786
854.401442	0.109778
854.588107	0.110117
854.774755	0.110067
854.961384	0.110013
855.147995	0.110127
855.334587	0.110529
855.521162	0.110913
855.707718	0.111073
855.894256	0.111453
856.080775	0.111867
856.267277	0.112152
856.453760	0.112628
856.640225	0.112986
856.826672	0.113469
857.013101	0.113617
857.199511	0.113620
857.385903	0.113875
857.572277	0.113894
857.758633	0.114271
857.944970	0.114721
858.131290	0.114787
858.317591	0.114823
858.503873	0.114897
858.690138	0.115356
858.876384	0.115808
859.062612	0.116240
859.248822	0.116506
859.435014	0.116337
859.621188	0.116095
859.807343	0.116340
859.993480	0.116631
860.179599	0.116542
860.365699	0.116575
860.551781	0.116836
860.737846	0.116826
860.923891	0.116784
861.109919	0.116949
861.295929	0.117185
861.481920	0.117197
861.667893	0.117277
861.853848	0.117714
862.039784	0.117982
862.225702	0.117945
862.411603	0.118181
862.597484	0.118452
862.783348	0.118914
862.969193	0.119461
863.155021	0.119676
863.340830	0.119881
863.526620	0.120147
863.712393	0.120378
863.898147	0.120600
864.083883	0.120740
864.269601	0.121187
864.455301	0.121288
864.640982	0.121349
864.826645	0.121744
865.012290	0.122118
865.197917	0.122082
865.383526	0.122340
865.569116	0.122690
865.754688	0.123136
865.940242	0.123159
866.125777	0.123369
866.311295	0.123400
866.496794	0.123782
866.682275	0.124115
866.867737	0.124306
867.053182	0.124486
867.238608	0.124793
867.424016	0.124576
867.609406	0.124685
867.794778	0.125130
867.980131	0.125041
868.165466	0.124886
868.350783	0.124787
868.536082	0.124979
868.721362	0.124903
868.906625	0.124693
869.091869	0.124840
869.277094	0.124888
869.462302	0.125021
869.647491	0.125506
869.832662	0.125684
870.017815	0.126227
870.202950	0.126317
870.388066	0.126647
870.573165	0.127292
870.758245	0.127712
870.943306	0.128103
871.128350	0.128254
871.313375	0.128283
871.498382	0.128475
871.683371	0.128362
871.868342	0.128574
872.053294	0.128597
872.238229	0.128464
872.423144	0.128613
872.608042	0.128567
872.792922	0.128610
872.977783	0.129015
873.162626	0.129118
873.347451	0.129105
873.532258	0.129346
873.717046	0.129314
873.901816	0.129510
874.086568	0.129635
874.271302	0.129639
874.456017	0.129559
874.640715	0.129663
874.825394	0.129802
875.010055	0.130096
875.194697	0.130098
875.379322	0.130396
875.563928	0.130175
875.748516	0.130104
875.933085	0.130358
876.117637	0.130468
876.302170	0.130426
876.486685	0.130766
876.671182	0.130975
876.855661	0.131164
877.040121	0.131231
877.224563	0.131448
877.408987	0.131489
877.593393	0.131791
877.777780	0.131969
877.962150	0.132041
878.146501	0.131728
878.330833	0.131456
878.515148	0.131510
878.699444	0.131838
878.883722	0.132033
879.067982	0.132451
879.252224	0.132311
879.436447	0.132142
879.620653	0.132585
879.804840	0.132594
879.989008	0.133263
880.173159	0.133579
880.357291	0.133685
880.541405	0.133530
880.725501	0.133385
880.909579	0.133651
881.093638	0.134408
881.277680	0.134420
881.461703	0.135011
881.645707	0.134564
881.829694	0.134834
882.013662	0.134687
882.197612	0.135115
882.381544	0.135513
882.565458	0.135456
882.749353	0.135276
882.933230	0.134982
883.117089	0.134511
883.300930	0.134844
883.484753	0.134859
883.668557	0.135161
883.852343	0.135433
884.036111	0.135135
884.219861	0.135203
884.403592	0.135231
884.587305	0.135424
884.771000	0.135649
884.954677	0.135885
885.138335	0.135763
885.321976	0.135630
885.505598	0.135335
885.689201	0.135361
885.872787	0.135891
886.056354	0.135740
886.239904	0.135772
886.423434	0.136102
886.606947	0.135764
886.790442	0.135446
886.973918	0.135887
887.157376	0.136167
887.340816	0.135983
887.524237	0.135630
887.707641	0.135881
887.891026	0.135695
888.074393	0.135090
888.257741	0.135133
888.441072	0.135570
888.624384	0.135307
888.807678	0.134951
888.990954	0.135312
889.174211	0.135510
889.357451	0.135739
889.540672	0.136007
889.723875	0.136703
889.907059	0.136848
890.090226	0.136896
890.273374	0.137017
890.456504	0.136931
890.639616	0.136674
890.822709	0.136513
891.005785	0.136259
891.188842	0.135988
891.371881	0.135551
891.554901	0.135687
891.737904	0.135419
891.920888	0.135500
892.103854	0.135651
892.286802	0.136067
892.469731	0.136030
892.652643	0.136124
892.835536	0.136269
893.018410	0.136234
893.201267	0.135697
893.384106	0.135437
893.566926	0.135221
893.749728	0.135187
893.932511	0.134601
894.115277	0.134349
894.298024	0.134038
894.480753	0.133816
894.663464	0.134013
894.846157	0.134285
895.028831	0.134454
895.211487	0.134258
895.394125	0.134347
895.576745	0.134811
895.759346	0.135000
895.941930	0.134759
896.124495	0.134846
896.307041	0.134459
896.489570	0.134397
896.672080	0.134420
896.854573	0.134324
897.037046	0.134417
897.219502	0.134231
897.401940	0.134089
897.584359	0.133979
897.766760	0.133724
897.949143	0.133730
898.131507	0.133529
898.313854	0.133410
898.496182	0.133477
898.678492	0.133237
898.860783	0.132991
899.043057	0.132988
899.225312	0.133007
899.407549	0.133200
899.589768	0.133442
899.771968	0.133204
899.954151	0.133370
900.136315	0.133250
900.318461	0.133322
900.500588	0.133132
900.682698	0.132322
900.864789	0.132295
901.046862	0.132099
901.228917	0.131917
901.410953	0.132051
901.592971	0.131371
901.774972	0.130889
901.956953	0.130539
902.138917	0.130338
902.320862	0.130643
902.502790	0.130651
902.684699	0.130272
902.866589	0.130193
903.048462	0.130014
903.230316	0.130281
903.412152	0.130093
903.593970	0.129566
903.775770	0.129616
903.957551	0.129396
904.139314	0.129467
904.321059	0.129230
904.502786	0.129068
904.684494	0.129062
904.866185	0.128824
905.047857	0.128968
905.229510	0.129240
905.411146	0.129132
905.592763	0.129369
905.774363	0.129545
905.955943	0.130033
906.137506	0.129662
906.319051	0.129689
906.500577	0.129568
906.682085	0.129596
906.863575	0.129197
907.045046	0.129066
907.226500	0.128668
907.407935	0.127756
907.589352	0.127176
907.770750	0.126854
907.952131	0.126699
908.133493	0.126278
908.314837	0.125783
908.496163	0.125939
908.677470	0.125852
908.858760	0.126039
909.040031	0.126360
909.221284	0.126297
909.402518	0.126336
909.583735	0.125789
909.764933	0.125487
909.946113	0.125154
910.127275	0.124570
910.308418	0.124373
910.489544	0.123854
910.670651	0.123515
910.851740	0.123058
911.032810	0.122809
911.213863	0.122734
911.394897	0.122973
911.575913	0.122954
911.756911	0.122701
911.937890	0.121561
912.118851	0.121654
912.299794	0.121313
912.480719	0.121113
912.661626	0.120587
912.842514	0.119916
913.023384	0.119263
913.204236	0.119085
913.385070	0.118964
913.565886	0.119401
913.746683	0.119021
913.927462	0.118591
914.108223	0.118297
914.288965	0.118106
914.469690	0.117912
914.650396	0.117948
914.831084	0.117326
915.011754	0.116841
915.192405	0.116407
915.373038	0.115857
915.553653	0.115830
915.734250	0.115513
915.914829	0.115031
916.095389	0.114673
916.275931	0.113894
916.456455	0.113691
916.636961	0.113431
916.817448	0.113384
916.997917	0.112817
917.178368	0.112122
917.358801	0.111894
917.539216	0.111898
917.719612	0.111953
917.899990	0.112373
918.080350	0.112394
918.260692	0.112287
918.441015	0.112028
918.621320	0.111960
918.801607	0.112198
918.981876	0.112057
919.162127	0.111412
919.342359	0.111019
919.522573	0.110289
919.702769	0.109886
919.882947	0.109592
920.063106	0.108928
920.243247	0.108790
920.423370	0.108159
920.603475	0.107449
920.783562	0.107610
920.963630	0.107238
921.143680	0.107347
921.323712	0.106701
921.503725	0.106466
921.683721	0.105989
921.863698	0.105369
922.043657	0.105035
922.223598	0.105090
922.403520	0.104756
922.583424	0.104725
922.763311	0.103619
922.943178	0.103859
923.123028	0.103315
923.302859	0.103140
923.482673	0.103079
923.662467	0.102488
923.842244	0.101912
924.022003	0.101336
924.201743	0.100698
924.381465	0.100638
924.561169	0.100359
924.740854	0.100071
924.920522	0.099782
925.100171	0.099015
925.279802	0.098652
925.459414	0.098635
925.639009	0.098072
925.818585	0.097813
925.998143	0.097599
926.177683	0.096534
926.357205	0.095901
926.536708	0.095834
926.716193	0.095741
926.895660	0.096101
927.075109	0.095464
927.254539	0.095544
927.433951	0.094843
927.613345	0.094348
927.792721	0.093594
927.972079	0.092941
928.151418	0.091903
928.330739	0.091447
928.510042	0.089840
928.689327	0.089474
928.868593	0.088550
929.047841	0.087519
929.227071	0.086923
929.406283	0.087153
929.585476	0.087208
929.764652	0.086728
929.943809	0.086099
930.122948	0.086287
930.302068	0.085928
930.481171	0.085193
930.660255	0.085642
930.839321	0.085182
931.018369	0.085050
931.197398	0.084505
931.376409	0.084601
931.555402	0.083928
931.734377	0.083042
931.913334	0.082000
932.092272	0.081920
932.271192	0.081400
932.450094	0.081151
932.628978	0.080043
932.807844	0.079148
932.986691	0.078047
933.165520	0.077499
933.344331	0.077327
933.523123	0.076923
933.701898	0.076718
933.880654	0.076121
934.059392	0.075340
934.238111	0.074742
934.416813	0.074634
934.595496	0.074391
934.774161	0.074637
934.952808	0.074468
935.131437	0.074090
935.310047	0.073130
935.488639	0.072965
935.667213	0.072938
935.845769	0.072905
936.024306	0.072134
936.202825	0.071029
936.381326	0.069620
936.559809	0.068121
936.738274	0.067527
936.916720	0.067089
937.095148	0.066208
937.273558	0.065191
937.451950	0.064480
937.630323	0.064197
937.808678	0.064833
937.987015	0.064584
938.165334	0.064259
938.343635	0.064017
938.521917	0.063357
938.700181	0.062766
938.878427	0.062808
939.056655	0.062772
939.234864	0.062243
939.413055	0.062018
939.591228	0.062181
939.769383	0.062038
939.947519	0.061289
940.125638	0.060960
940.303738	0.060732
940.481820	0.060187
940.659883	0.058937
940.837929	0.058439
941.015956	0.057129
941.193965	0.056176
941.371955	0.055202
941.549928	0.054336
941.727882	0.054261
941.905818	0.053108
942.083736	0.050764
942.261636	0.050076
942.439517	0.049301
942.617380	0.048389
942.795225	0.048033
942.973052	0.048037
943.150860	0.048436
943.328651	0.047127
943.506423	0.046476
943.684176	0.047432
943.861912	0.047060
944.039629	0.046016
944.217328	0.045814
944.395009	0.045539
944.572672	0.045162
944.750317	0.043845
944.927943	0.043588
945.105551	0.042937
945.283141	0.042562
945.460712	0.042674
945.638265	0.043234
945.815801	0.043676
945.993317	0.042632
946.170816	0.042035
946.348297	0.041047
946.525759	0.040181
946.703203	0.039894
946.880629	0.039774
947.058036	0.039006
947.235425	0.038578
947.412797	0.037523
947.590149	0.037539
947.767484	0.036819
947.944800	0.036523
948.122099	0.036882
948.299379	0.035789
948.476640	0.034090
948.653884	0.031910
948.831109	0.031479
949.008316	0.030259
949.185505	0.028929
949.362676	0.029411
949.539828	0.030590
949.716962	0.030319
949.894078	0.030981
950.071176	0.030269
950.248256	0.030834
950.425317	0.030348
950.602360	0.031675
950.779385	0.030553
950.956391	0.029614
951.133380	0.027532
951.310350	0.025770
951.487302	0.025341
951.664235	0.024863
951.841151	0.023886
952.018048	0.022597
952.194927	0.019574
952.371788	0.020029
952.548631	0.017973
952.725455	0.017182
952.902261	0.018393
953.079049	0.018862
953.255819	0.018820
953.432570	0.019317
953.609303	0.019482
953.786018	0.020293
953.962715	0.018665
954.139394	0.018367
954.316054	0.020446
954.492696	0.019166
954.669320	0.018375
954.845926	0.018063
955.022513	0.017076
955.199083	0.015743
955.375634	0.013158
955.552166	0.012949
955.728681	0.011132
955.905177	0.008439
956.081655	0.007446
956.258115	0.005975
956.434557	0.006362
956.610980	0.007357
956.787385	0.006203
956.963772	0.009044
957.140141	0.009378
957.316492	0.011986
957.492824	0.011316
957.669138	0.011862
957.845434	0.012637
958.021712	0.012594
958.197971	0.013280
958.374212	0.012819
958.550435	0.011535
958.726640	0.011921
958.902826	0.010915
959.078995	0.011145
959.255145	0.010794
959.431277	0.009481
959.607390	0.009655
959.783486	0.007612
959.959563	0.008010
960.135622	0.007438
960.311662	0.006569
960.487685	0.006568
960.663689	0.006134
960.839675	0.005077
961.015643	0.004914
961.191593	0.002314
961.367524	0.001264
961.543437	0.001189
961.719332	0.002866
961.895209	0.006069
962.071067	0.005990
962.246907	0.006333
962.422730	0.007630
962.598533	0.007586
962.774319	0.009137
962.950086	0.010062
963.125835	0.011759
963.301566	0.010511
963.477279	0.006329
963.652973	0.004623
963.828650	0.004837
964.004308	0.002873
964.179947	0.003690
964.355569	0.003612
964.531172	0.004855
964.706757	0.004445
964.882324	0.002405
965.057873	0.003449
965.233403	0.004985
965.408916	0.006495
965.584410	0.007824
965.759885	0.006267
965.935343	0.004399
966.110782	0.004157
966.286203	0.005696
966.461606	0.006977
966.636991	0.006058
966.812357	0.005824
966.987705	0.005715
967.163035	0.005498
967.338347	0.006233
967.513641	0.008476
967.688916	0.007031
967.864173	0.003920
968.039412	0.001927
968.214632	0.001858
968.389835	0.003493
968.565019	0.001764
968.740185	0.002405
968.915333	0.002458
969.090462	0.004085
969.265573	0.005370
969.440667	0.006190
969.615741	0.008828
969.790798	0.010265
969.965836	0.009396
970.140856	0.009890
970.315858	0.009263
970.490842	0.009136
970.665808	0.007113
970.840755	0.006544
971.015684	0.006593
971.190595	0.004868
971.365487	0.005799
971.540362	0.006905
971.715218	0.008767
971.890056	0.009367
972.064875	0.010882
972.239677	0.010616
972.414460	0.009476
972.589225	0.008902
972.763972	0.008863
972.938700	0.009206
973.113411	0.008175
973.288103	0.006497
973.462777	0.007498
973.637432	0.005568
973.812070	0.006602
973.986689	0.007930
974.161290	0.009225
974.335873	0.009908
974.510437	0.008415
974.684984	0.008445
974.859512	0.008001
975.034022	0.005622
975.208513	0.007281
975.382987	0.007345
975.557442	0.006079
975.731879	0.005903
975.906298	0.005163
976.080698	0.006298
976.255080	0.005933
976.429445	0.005279
976.603790	0.005026
976.778118	0.004445
976.952427	0.002128
977.126719	0.002911
977.300992	0.002658
977.475246	0.005309
977.649483	0.006078
977.823701	0.004909
977.997901	0.006215
978.172083	0.007279
978.346247	0.006719
978.520392	0.007372
978.694519	0.008384
978.868628	0.008176
979.042719	0.005488
979.216791	0.001747
979.390845	0.003939
979.564882	0.004132
979.738899	0.004038
979.912899	0.003355
980.086880	0.003917
980.260843	0.002256
980.434788	0.002244
980.608715	0.004678
980.782623	0.006550
980.956514	0.005709
981.130386	0.006869
981.304240	0.006013
981.478075	0.007647
981.651892	0.006695
981.825692	0.009008
981.999472	0.011896
982.173235	0.011616
982.346980	0.012593
982.520706	0.012839
982.694414	0.010260
982.868104	0.010861
983.041775	0.009434
983.215428	0.008879
983.389064	0.008829
983.562680	0.006861
983.736279	0.007433
983.909860	0.007556
984.083422	0.007041
984.256966	0.008600
984.430491	0.009738
984.603999	0.012003
984.777488	0.014595
984.950959	0.013508
985.124412	0.012686
985.297847	0.012310
985.471263	0.010953
985.644661	0.011549
985.818041	0.010780
985.991403	0.010071
986.164747	0.008327
986.338072	0.007464
986.511379	0.005908
986.684668	0.005453
986.857938	0.004191
987.031191	0.003843
987.204425	0.002004
987.377641	0.001239
987.550839	0.000319
987.724018	0.000769
987.897179	0.002162
988.070322	0.001545
988.243447	0.002986
988.416554	0.003421
988.589642	0.003648
988.762712	0.003873
988.935764	0.005327
989.108798	0.006727
989.281813	0.004996
989.454811	0.003187
989.627790	0.005961
989.800751	0.004170
989.973693	0.004320
990.146617	0.005333
990.319524	0.004918
990.492412	0.004193
990.665281	0.003866
990.838133	0.006203
991.010966	0.008437
991.183781	0.006708
991.356578	0.006631
991.529356	0.005994
991.702117	0.005614
991.874859	0.005605
992.047583	0.005959
992.220288	0.005864
992.392976	0.006460
992.565645	0.004662
992.738296	0.004967
992.910929	0.006078
993.083543	0.007863
993.256139	0.004874
993.428718	0.004510
993.601277	0.003099
993.773819	0.002196
993.946342	0.001634
994.118848	0.001487
994.291335	0.000839
994.463803	0.001341
994.636254	-0.001276
994.808686	0.001537
994.981100	0.002044
995.153496	0.002685
995.325874	0.003767
995.498233	0.002309
995.670574	0.002411
995.842897	0.003114
996.015202	0.001198
996.187488	0.003833
996.359757	0.003739
996.532007	0.003997
996.704239	0.005087
996.876452	0.003671
997.048648	0.004792
997.220825	0.004217
997.392984	0.005466
997.565124	0.005384
997.737247	0.003619
997.909351	0.003421
998.081437	0.004022
998.253505	0.004058
998.425554	0.006130
998.597586	0.005533
998.769599	0.006071
998.941594	0.004508
999.113571	0.004927
999.285529	0.003091
999.457469	0.003518
999.629391	0.002751
999.801295	0.000863
999.973181	-0.000325
1000.145048	-0.000207
1000.316897	-0.000587
1000.488728	-0.000685
1000.660541	-0.000006
1000.832335	0.001726
1001.004111	0.001325
1001.175869	0.002508
1001.347609	0.003564
1001.519331	0.003325
1001.691034	0.003651
1001.862719	0.004822
1002.034386	0.004247
1002.206035	0.005504
1002.377665	0.006048
1002.549277	0.006394
1002.720871	0.003674
1002.892447	0.003173
1003.064004	0.003517
1003.235544	0.002969
1003.407065	0.002614
1003.578568	0.002472
1003.750052	0.001056
1003.921519	0.001067
1004.092967	-0.000251
1004.264397	0.001515
1004.435809	0.001786
1004.607202	0.002313
1004.778577	0.002752
1004.949934	0.000795
1005.121273	0.000542
1005.292594	0.002576
1005.463896	0.001498
1005.635180	0.002173
1005.806446	0.002196
1005.977694	0.001669
1006.148923	0.000519
1006.320135	0.000195
1006.491328	0.001625
1006.662503	0.002436
1006.833659	0.000374
1007.004798	0.002357
1007.175918	0.002545
1007.347020	0.004035
1007.518103	0.004039
1007.689169	0.004000
1007.860216	0.003932
1008.031245	0.003734
1008.202256	0.004608
1008.373248	0.003558
1008.544223	0.002918
1008.715179	0.003057
1008.886117	0.001856
1009.057036	0.001644
1009.227938	0.001997
1009.398821	0.001901
1009.569686	0.001773
1009.740533	0.000479
1009.911361	0.001169
1010.082172	0.000220
1010.252964	-0.000411
1010.423738	-0.000009
1010.594493	-0.000539
1010.765231	0.000415
1010.935950	0.000521
1011.106651	0.000968
1011.277334	0.000656
1011.447998	0.001762
1011.618645	0.001323
1011.789273	-0.000383
1011.959882	-0.001497
1012.130474	-0.001233
1012.301048	-0.001508
1012.471603	-0.002884
1012.642140	-0.005117
1012.812658	-0.005034
1012.983159	-0.006259
1013.153641	-0.006542
1013.324105	-0.006086
1013.494551	-0.006122
1013.664979	-0.007436
1013.835388	-0.008486
1014.005779	-0.007912
1014.176152	-0.006267
1014.346507	-0.006886
1014.516843	-0.006471
1014.687162	-0.005641
1014.857462	-0.004294
1015.027744	-0.004235
1015.198007	-0.002179
1015.368252	-0.002078
1015.538480	-0.002059
1015.708689	-0.002339
1015.878879	-0.002124
1016.049052	-0.001747
1016.219206	-0.001690
1016.389342	-0.001897
1016.559460	-0.001970
1016.729559	-0.003160
1016.899641	-0.000992
1017.069704	-0.001464
1017.239749	-0.002692
1017.409775	-0.002768
1017.579784	-0.003715
1017.749774	-0.003953
1017.919746	-0.004642
1018.089700	-0.004849
1018.259635	-0.004254
1018.429553	-0.006366
1018.599452	-0.005523
1018.769333	-0.003623
1018.939195	-0.002152
1019.109040	-0.002538
1019.278866	-0.002659
1019.448674	-0.001168
1019.618464	-0.001025
1019.788235	-0.001361
1019.957989	-0.001533
1020.127724	-0.002519
1020.297441	-0.004385
1020.467139	-0.006498
1020.636820	-0.006417
1020.806482	-0.005943
1020.976126	-0.007436
1021.145752	-0.007267
1021.315359	-0.007399
1021.484948	-0.007934
1021.654519	-0.007742
1021.824072	-0.006890
1021.993607	-0.005398
1022.163123	-0.004071
1022.332621	-0.006049
1022.502101	-0.005650
1022.671563	-0.005980
1022.841007	-0.006050
1023.010432	-0.003978
1023.179839	-0.003510
1023.349228	-0.002944
1023.518598	-0.002641
1023.687951	-0.003129
1023.857285	-0.001068
1024.026601	-0.002019
1024.195899	-0.002347
1024.365178	-0.002664
1024.534439	-0.003507
1024.703682	-0.002937
1024.872907	-0.003563
1025.042114	-0.004258
1025.211302	-0.004301
1025.380472	-0.005794
1025.549624	-0.004606
1025.718758	-0.004335
1025.887873	-0.004832
1026.056970	-0.004958
1026.226049	-0.006223
1026.395110	-0.008143
1026.564153	-0.007611
1026.733177	-0.007317
1026.902183	-0.006037
1027.071171	-0.007280
1027.240141	-0.006490
1027.409092	-0.004491
1027.578026	-0.003771
1027.746940	-0.002988
1027.915837	-0.000830
1028.084716	-0.002139
1028.253576	-0.003320
1028.422418	-0.003052
1028.591242	-0.002123
1028.760048	-0.004049
1028.928835	-0.004448
1029.097604	-0.005801
1029.266355	-0.006073
1029.435088	-0.005455
1029.603803	-0.003396
1029.772499	-0.002477
1029.941177	-0.003482
1030.109837	-0.004052
1030.278478	-0.004643
1030.447102	-0.005795
1030.615707	-0.007099
1030.784294	-0.006508
1030.952863	-0.006252
1031.121413	-0.008200
1031.289945	-0.009208
1031.458460	-0.007962
1031.626955	-0.008650
1031.795433	-0.007798
1031.963892	-0.006958
1032.132334	-0.007658
1032.300756	-0.008338
1032.469161	-0.010081
1032.637548	-0.008773
1032.805916	-0.009200
1032.974266	-0.010555
1033.142598	-0.009510
1033.310911	-0.007866
1033.479207	-0.008641
1033.647484	-0.007161
1033.815743	-0.006966
1033.983983	-0.006392
1034.152206	-0.006819
1034.320410	-0.005627
1034.488596	-0.005489
1034.656764	-0.004515
1034.824914	-0.004250
1034.993045	-0.002521
1035.161158	-0.002895
1035.329253	-0.002612
1035.497330	-0.002372
1035.665388	-0.001808
1035.833428	-0.002417
1036.001450	-0.002360
1036.169454	-0.004072
1036.337440	-0.004808
1036.505407	-0.004718
1036.673356	-0.005124
1036.841287	-0.006410
1037.009200	-0.006998
1037.177094	-0.008841
1037.344970	-0.008502
1037.512828	-0.009043
1037.680668	-0.007840
1037.848489	-0.008969
1038.016293	-0.008648
1038.184078	-0.006793
1038.351845	-0.006991
1038.519593	-0.006514
1038.687324	-0.004763
1038.855036	-0.004460
1039.022730	-0.005293
1039.190406	-0.004715
1039.358063	-0.004320
1039.525702	-0.005372
1039.693323	-0.005569
1039.860926	-0.004942
1040.028511	-0.005909
1040.196077	-0.006413
1040.363625	-0.005523
1040.531155	-0.005840
1040.698667	-0.006372
1040.866161	-0.007259
1041.033636	-0.007579
1041.201093	-0.008228
1041.368532	-0.009069
1041.535952	-0.008884
1041.703355	-0.009180
1041.870739	-0.010797
1042.038105	-0.009104
1042.205452	-0.010141
1042.372782	-0.008485
1042.540093	-0.008400
1042.707386	-0.008277
1042.874661	-0.007730
1043.041918	-0.006736
1043.209156	-0.007142
1043.376376	-0.006256
1043.543578	-0.007570
1043.710762	-0.007407
1043.877927	-0.010062
1044.045074	-0.009535
1044.212203	-0.009805
1044.379314	-0.008293
1044.546407	-0.009228
1044.713481	-0.008566
1044.880537	-0.008521
1045.047575	-0.008893
1045.214595	-0.008471
1045.381596	-0.006111
1045.548579	-0.008070
1045.715544	-0.008145
1045.882491	-0.008755
1046.049420	-0.008372
1046.216330	-0.009272
1046.383222	-0.009534
1046.550096	-0.006638
1046.716951	-0.006227
1046.883789	-0.006054
1047.050608	-0.004515
1047.217409	-0.003673
1047.384192	-0.005426
1047.550956	-0.004140
1047.717703	-0.003292
1047.884431	-0.002951
1048.051140	-0.004707
1048.217832	-0.004033
1048.384505	-0.002801
1048.551161	-0.002060
1048.717798	-0.002871
1048.884416	-0.000975
1049.051017	-0.000535
1049.217599	-0.000548
1049.384163	-0.002083
1049.550709	-0.002356
1049.717237	-0.002940
1049.883746	-0.004723
1050.050237	-0.006268
1050.216710	-0.005516
1050.383165	-0.006900
1050.549601	-0.006900
1050.716019	-0.006980
1050.882420	-0.006099
1051.048801	-0.003107
1051.215165	-0.003999
1051.381510	-0.002710
1051.547837	-0.000340
1051.714146	-0.001503
1051.880437	-0.001060
1052.046709	-0.002599
1052.212964	-0.001825
1052.379200	-0.002025
1052.545417	-0.003100
1052.711617	-0.002598
1052.877798	-0.002738
1053.043961	-0.005344
1053.210106	-0.003787
1053.376233	-0.002796
1053.542341	-0.002419
1053.708432	-0.003466
1053.874504	-0.006205
1054.040557	-0.006242
1054.206593	-0.006075
1054.372610	-0.007789
1054.538609	-0.006466
1054.704590	-0.007674
1054.870553	-0.007015
1055.036497	-0.007044
1055.202424	-0.006368
1055.368331	-0.004206
1055.534221	-0.004950
1055.700093	-0.004653
1055.865946	-0.003222
1056.031781	-0.004684
1056.197598	-0.003475
1056.363397	-0.002373
1056.529177	-0.002790
1056.694939	-0.001863
1056.860683	-0.002405
1057.026409	-0.001242
1057.192116	-0.002169
1057.357806	-0.002012
1057.523477	-0.001745
1057.689130	-0.001165
1057.854764	-0.002863
1058.020381	-0.003051
1058.185979	-0.004017
1058.351559	-0.001476
1058.517120	-0.003422
1058.682664	-0.002328
1058.848189	-0.002693
1059.013696	-0.000593
1059.179185	-0.002766
1059.344656	-0.001843
1059.510108	-0.000865
1059.675542	-0.001979
1059.840958	-0.002211
1060.006356	-0.003142
1060.171735	-0.004519
1060.337096	-0.005657
1060.502439	-0.006249
1060.667764	-0.005216
1060.833071	-0.008003
1060.998359	-0.009233
1061.163629	-0.011400
1061.328881	-0.013908
1061.494115	-0.014024
1061.659330	-0.013824
1061.824527	-0.013482
1061.989706	-0.014618
1062.154867	-0.016219
1062.320010	-0.014840
1062.485134	-0.014608
1062.650240	-0.011906
1062.815328	-0.010144
1062.980398	-0.008853
1063.145449	-0.009078
1063.310482	-0.007889
1063.475497	-0.006287
1063.640494	-0.002774
1063.805473	-0.002113
1063.970433	-0.001236
1064.135375	-0.001112
1064.300299	-0.002473
1064.465204	-0.003084
1064.630092	-0.001613
1064.794961	-0.001728
1064.959812	-0.001638
1065.124645	-0.004276
1065.289459	-0.004866
1065.454256	-0.004469
1065.619034	-0.004557
1065.783793	-0.002682
1065.948535	-0.000886
1066.113258	-0.000124
1066.277964	0.000049
1066.442651	0.000063
1066.607319	0.001117
1066.771970	0.002389
1066.936602	0.000463
1067.101216	0.000282
1067.265812	-0.000952
1067.430389	-0.000091
1067.594949	-0.001569
1067.759490	-0.001740
1067.924013	-0.002329
1068.088518	-0.004009
1068.253004	-0.003925
1068.417472	-0.003445
1068.581922	-0.004190
1068.746354	-0.004446
1068.910768	-0.006412
1069.075163	-0.006231
1069.239540	-0.007487
1069.403899	-0.009432
1069.568240	-0.008004
1069.732562	-0.009454
1069.896866	-0.010481
1070.061152	-0.009140
1070.225420	-0.007641
1070.389670	-0.008487
1070.553901	-0.007981
1070.718114	-0.007770
1070.882309	-0.004659
1071.046486	-0.003999
1071.210644	-0.004482
1071.374784	-0.002184
1071.538906	-0.002198
1071.703010	-0.002227
1071.867096	-0.001116
1072.031163	0.000482
1072.195212	0.001639
1072.359243	0.000687
1072.523256	-0.000600
1072.687250	-0.001191
1072.851226	-0.001378
1073.015184	-0.001617
1073.179124	-0.000887
1073.343045	-0.000128
1073.506949	-0.002007
1073.670834	-0.001058
1073.834701	-0.002765
1073.998549	-0.002011
1074.162380	-0.001265
1074.326192	-0.002097
1074.489986	0.000693
1074.653761	0.000710
1074.817519	0.000359
1074.981258	0.000133
1075.144979	-0.000296
1075.308682	0.000706
1075.472367	0.001549
1075.636033	0.002824
1075.799681	0.004223
1075.963311	0.002051
1076.126923	0.001247
1076.290516	0.002034
1076.454092	0.002064
1076.617649	0.000933
1076.781187	0.001897
1076.944708	-0.000568
1077.108210	0.000350
1077.271695	-0.000746
1077.435160	-0.002546
1077.598608	-0.003738
1077.762038	-0.006235
1077.925449	-0.008175
1078.088842	-0.005526
1078.252217	-0.005873
1078.415573	-0.004043
1078.578912	-0.004659
1078.742232	-0.002765
1078.905534	-0.000782
1079.068817	0.001815
1079.232083	0.005504
1079.395330	0.007982
1079.558559	0.005618
1079.721770	0.006084
1079.884962	0.008470
1080.048136	0.006945
1080.211293	0.007396
1080.374430	0.007606
1080.537550	0.006031
1080.700651	0.005790
1080.863735	0.007849
1081.026800	0.006507
1081.189846	0.005921
1081.352875	0.003564
1081.515885	0.005149
1081.678877	0.002455
1081.841851	0.001537
1082.004807	0.001934
1082.167744	-0.001450
1082.330663	-0.005551
1082.493564	-0.003506
1082.656447	-0.004346
1082.819312	-0.003834
1082.982158	-0.002302
1083.144986	-0.001295
1083.307796	-0.000181
1083.470587	-0.000291
1083.633361	0.002839
1083.796116	0.005852
1083.958853	0.003956
1084.121571	0.006416
1084.284272	0.006621
1084.446954	0.003709
1084.609618	0.005377
1084.772264	0.004032
1084.934892	0.002535
1085.097501	0.003196
1085.260092	0.000597
1085.422665	0.001978
1085.585220	0.001211
1085.747756	0.000092
1085.910274	0.002500
1086.072774	0.001418
1086.235256	0.004360
1086.397720	0.003462
1086.560165	0.000122
1086.722592	0.000787
1086.885001	0.002537
1087.047392	0.004702
1087.209764	0.006280
1087.372119	0.005882
1087.534455	0.004710
1087.696772	0.006167
1087.859072	0.009845
1088.021353	0.012011
1088.183616	0.015014
1088.345861	0.015620
1088.508088	0.012892
1088.670296	0.012455
1088.832486	0.009742
1088.994658	0.009975
1089.156812	0.007498
1089.318948	0.008322
1089.481065	0.010664
1089.643164	0.007944
1089.805245	0.007663
1089.967308	0.005785
1090.129352	0.003834
1090.291378	0.005462
1090.453386	0.005022
1090.615376	0.004179
1090.777347	0.003919
1090.939301	0.003083
1091.101236	0.001583
1091.263153	0.000540
1091.425051	0.002855
1091.586932	0.005518
1091.748794	0.006594
1091.910638	0.008718
1092.072463	0.010328
1092.234271	0.009524
1092.396060	0.007561
1092.557831	0.009738
1092.719584	0.009005
1092.881319	0.009634
1093.043035	0.006913
1093.204733	0.003519
1093.366413	0.001283
1093.528075	0.000139
1093.689718	-0.000855
1093.851343	0.001348
1094.012950	-0.001062
1094.174539	-0.002221
1094.336110	-0.003814
1094.497662	-0.002958
1094.659196	0.001994
1094.820712	0.003682
1094.982210	0.002161
1095.143689	0.000614
1095.305151	-0.001399
1095.466594	0.002047
1095.628018	0.003674
1095.789425	0.005208
1095.950813	0.008089
1096.112183	0.006119
1096.273535	0.006054
1096.434869	0.007761
1096.596184	0.009940
1096.757482	0.010341
1096.918761	0.011695
1097.080021	0.013212
1097.241264	0.012663
1097.402488	0.009698
1097.563694	0.008730
1097.724882	0.008121
1097.886052	0.006732
1098.047203	0.005938
1098.208336	0.005728
1098.369451	0.005701
1098.530548	0.002234
1098.691627	0.004345
1098.852687	0.005907
1099.013729	0.007582
1099.174753	0.007031
1099.335758	0.009118
1099.496746	0.008543
1099.657715	0.009168
1099.818666	0.010568
1099.979599	0.011426
1100.140513	0.008366
1100.301409	0.010088
1100.462287	0.013804
1100.623147	0.014602
1100.783989	0.013771
1100.944812	0.017345
1101.105617	0.017607
1101.266404	0.015704
1101.427173	0.012794
1101.587923	0.014448
1101.748656	0.012952
1101.909370	0.006426
1102.070066	0.006419
1102.230743	0.004806
1102.391403	0.003790
1102.552044	0.002037
1102.712667	-0.001404
1102.873271	0.004700
1103.033858	0.003004
1103.194426	0.001403
1103.354976	0.003159
1103.515508	0.003915
1103.676021	0.003695
1103.836517	0.002344
1103.996994	0.003521
1104.157453	0.006793
1104.317893	0.003884
1104.478316	0.005224
1104.638720	0.007655
1104.799106	0.006110
1104.959474	0.004857
1105.119823	0.002182
1105.280155	0.001326
1105.440468	0.000635
1105.600763	-0.000751
1105.761039	0.000897
1105.921298	0.002953
1106.081538	0.002996
1106.241760	0.003843
1106.401964	0.004419
1106.562149	0.006938
1106.722316	0.005921
1106.882465	0.006197
1107.042596	0.004984
1107.202709	0.009321
1107.362803	0.006367
1107.522879	0.007134
1107.682937	0.010351
1107.842977	0.015860
1108.002999	0.015513
1108.163002	0.016248
1108.322987	0.019471
1108.482954	0.021039
1108.642902	0.016589
1108.802833	0.015190
1108.962745	0.013935
1109.122639	0.010895
1109.282515	0.006820
1109.442372	0.009356
1109.602211	0.010292
1109.762032	0.005549
1109.921835	0.008151
1110.081620	0.011290
1110.241386	0.015700
1110.401134	0.016847
1110.560864	0.016982
1110.720576	0.013067
1110.880269	0.012611
1111.039945	0.015731
1111.199602	0.017703
1111.359240	0.016237
1111.518861	0.011639
1111.678463	0.004690
1111.838047	0.002583
1111.997613	0.003084
1112.157161	0.003289
1112.316690	0.002305
1112.476202	-0.003686
1112.635695	-0.004542
1112.795169	-0.005219
1112.954626	-0.005660
1113.114064	-0.002177
1113.273484	-0.002330
1113.432886	-0.002140
1113.592270	0.000154
1113.751635	0.004215
1113.910983	0.004779
1114.070312	0.006790
1114.229622	0.007836
1114.388915	0.012697
1114.548189	0.017210
1114.707445	0.018423
1114.866683	0.016248
1115.025903	0.019837
1115.185104	0.017784
1115.344287	0.022955
1115.503452	0.022437
1115.662599	0.024513
1115.821727	0.017061
1115.980838	0.014759
1116.139930	0.015918
1116.299004	0.017907
1116.458059	0.017856
1116.617097	0.013334
1116.776116	0.009296
1116.935117	0.008042
1117.094099	0.004329
1117.253064	0.010524
1117.412010	0.012029
1117.570938	0.008216
1117.729848	0.007488
1117.888740	0.006904
1118.047613	0.016250
1118.206468	0.017547
1118.365305	0.019227
1118.524124	0.018528
1118.682924	0.014399
1118.841707	0.013375
1119.000471	0.013402
1119.159216	0.014169
1119.317944	0.011350
1119.476653	0.007912
1119.635344	0.008336
1119.794017	0.006239
1119.952672	0.008363
1120.111308	0.007715
1120.269927	0.006260
1120.428527	0.009261
1120.587108	0.009667
1120.745672	0.013282
1120.904217	0.008570
1121.062744	0.011032
1121.221253	0.013533
1121.379744	0.014990
1121.538216	0.020817
1121.696671	0.019054
1121.855107	0.020586
1122.013524	0.023584
1122.171924	0.023068
1122.330305	0.026344
1122.488668	0.024390
1122.647013	0.023993
1122.805340	0.025895
1122.963648	0.027395
1123.121938	0.025628
1123.280210	0.025839
1123.438464	0.022632
1123.596700	0.022059
1123.754917	0.021746
1123.913116	0.020142
1124.071297	0.021439
1124.229459	0.018193
1124.387604	0.017045
1124.545730	0.018406
1124.703838	0.018352
1124.861928	0.022135
1125.019999	0.019374
1125.178052	0.020324
1125.336088	0.024653
1125.494104	0.023502
1125.652103	0.024368
1125.810083	0.021259
1125.968045	0.022478
1126.125989	0.016417
1126.283915	0.012077
1126.441823	0.014593
1126.599712	0.015981
1126.757583	0.018835
1126.915436	0.017015
1127.073270	0.014545
1127.231087	0.008396
1127.388885	0.009326
1127.546665	0.010869
1127.704426	0.012471
1127.862170	0.011571
1128.019895	0.005831
1128.177602	0.002999
1128.335291	0.004256
1128.492961	0.005520
1128.650614	0.012951
1128.808248	0.012726
1128.965864	0.015926
1129.123461	0.017825
1129.281041	0.011269
1129.438602	0.014333
1129.596145	0.013523
1129.753670	0.019611
1129.911176	0.021328
1130.068665	0.020265
1130.226135	0.023186
1130.383587	0.021348
1130.541020	0.019543
1130.698436	0.027160
1130.855833	0.034051
1131.013212	0.035281
1131.170573	0.027709
1131.327915	0.026037
1131.485239	0.024989
1131.642545	0.025613
1131.799833	0.028413
1131.957103	0.028569
1132.114354	0.031529
1132.271588	0.032203
1132.428803	0.030685
1132.585999	0.029026
1132.743178	0.032241
1132.900338	0.033196
1133.057480	0.027482
1133.214604	0.023407
1133.371710	0.020223
1133.528797	0.015086
1133.685866	0.007273
1133.842917	0.009085
1133.999950	0.010610
1134.156964	0.009134
1134.313960	0.012478
1134.470938	0.014630
1134.627898	0.022160
1134.784840	0.023164
1134.941763	0.026979
1135.098668	0.029749
1135.255555	0.024820
1135.412424	0.028598
1135.569274	0.024103
1135.726107	0.021535
1135.882921	0.023986
1136.039716	0.018623
1136.196494	0.014383
1136.353253	0.011308
1136.509995	0.009289
1136.666717	0.010465
1136.823422	0.009280
1136.980109	0.012388
1137.136777	0.013322
1137.293427	0.010463
1137.450059	0.013844
1137.606672	0.022373
1137.763267	0.020015
1137.919844	0.024068
1138.076403	0.027609
1138.232944	0.025168
1138.389466	0.026800
1138.545971	0.026357
1138.702457	0.027349
1138.858924	0.019826
1139.015374	0.021717
1139.171805	0.024647
1139.328218	0.023828
1139.484613	0.022802
1139.640990	0.028168
1139.797348	0.023157
1139.953688	0.024704
1140.110010	0.023140
1140.266314	0.030669
1140.422600	0.025958
1140.578867	0.032297
1140.735116	0.032675
1140.891347	0.032088
1141.047559	0.028345
1141.203754	0.038549
1141.359930	0.036524
1141.516088	0.041626
1141.672228	0.043972
1141.828349	0.046907
1141.984452	0.040465
1142.140537	0.035728
1142.296604	0.038118
1142.452653	0.039964
1142.608683	0.036731
1142.764695	0.041813
1142.920689	0.050410
1143.076665	0.042973
1143.232622	0.035685
1143.388562	0.026332
1143.544483	0.026001
1143.700385	0.027840
1143.856270	0.028013
1144.012136	0.023660
1144.167985	0.019733
1144.323814	0.011533
1144.479626	0.015159
1144.635420	0.025667
1144.791195	0.034670
1144.946952	0.041924
1145.102691	0.043763
1145.258411	0.039765
1145.414113	0.042371
1145.569798	0.046651
1145.725463	0.036957
1145.881111	0.038837
1146.036741	0.032815
1146.192352	0.034591
1146.347945	0.033531
1146.503519	0.023684
1146.659076	0.021192
1146.814614	0.014018
1146.970134	0.013831
1147.125636	0.025611
1147.281120	0.025638
1147.436585	0.027987
1147.592032	0.031313
1147.747461	0.021304
1147.902872	0.027689
1148.058265	0.037201
1148.213639	0.047314
1148.368995	0.043548
1148.524333	0.038533
1148.679653	0.044928
1148.834954	0.042567
1148.990237	0.038543
1149.145502	0.049347
1149.300749	0.036518
1149.455977	0.032612
1149.611188	0.027444
1149.766380	0.027843
1149.921553	0.027528
1150.076709	0.023824
1150.231846	0.028085
1150.386966	0.033601
1150.542066	0.024298
1150.697149	0.037359
1150.852214	0.029153
1151.007260	0.023535
1151.162288	0.019792
1151.317298	0.016773
1151.472289	0.006836
1151.627263	0.008713
1151.782218	0.003814
1151.937155	0.007156
1152.092073	0.005391
1152.246974	0.013595
1152.401856	0.023672
1152.556720	0.020035
1152.711566	0.029194
1152.866393	0.038669
1153.021203	0.032671
1153.175994	0.036806
1153.330767	0.042311
1153.485521	0.035667
1153.640258	0.036173
1153.794976	0.031749
1153.949676	0.035796
1154.104358	0.030064
1154.259021	0.028861
1154.413667	0.028336
1154.568294	0.022467
1154.722903	0.014868
1154.877493	0.020874
1155.032066	0.023947
1155.186620	0.024677
1155.341156	0.023851
1155.495674	0.028334
1155.650173	0.026141
1155.804654	0.025066
1155.959118	0.027214
1156.113562	0.032919
1156.267989	0.030756
1156.422397	0.025273
1156.576788	0.019667
1156.731160	0.019563
1156.885513	0.012657
1157.039849	0.013149
1157.194166	0.012992
1157.348465	0.014285
1157.502746	0.008462
1157.657009	0.015091
1157.811253	0.019909
1157.965479	0.033050
1158.119687	0.040767
1158.273877	0.042589
1158.428048	0.037173
1158.582201	0.037853
1158.736337	0.037039
1158.890453	0.044401
1159.044552	0.036923
1159.198632	0.032020
1159.352694	0.024857
1159.506738	0.023289
1159.660764	0.027896
1159.814771	0.029071
1159.968761	0.030723
1160.122732	0.033300
1160.276685	0.036638
1160.430619	0.044527
1160.584535	0.055411
1160.738434	0.055136
1160.892313	0.061394
1161.046175	0.060950
1161.200019	0.056027
1161.353844	0.052101
1161.507651	0.057323
1161.661440	0.043645
1161.815210	0.032047
1161.968962	0.020520
1162.122697	0.017617
1162.276412	0.008355
1162.430110	0.003839
1162.583789	0.005781
1162.737451	0.011532
1162.891094	0.003435
1163.044718	0.013518
1163.198325	0.014456
1163.351913	0.020269
1163.505483	0.015343
1163.659035	0.015602
1163.812569	0.015601
1163.966084	0.032671
1164.119581	0.035546
1164.273060	0.036259
1164.426521	0.032168
1164.579964	0.032665
1164.733388	0.027801
1164.886794	0.035919
1165.040182	0.036596
1165.193551	0.041489
1165.346903	0.028365
1165.500236	0.021025
1165.653551	0.029050
1165.806848	0.025993
1165.960126	0.040463
1166.113386	0.044409
1166.266628	0.051775
1166.419852	0.049598
1166.573058	0.044156
1166.726245	0.041216
1166.879414	0.045587
1167.032565	0.041997
1167.185698	0.046812
1167.338812	0.040605
1167.491909	0.039799
1167.644987	0.022982
1167.798046	0.034571
1167.951088	0.038253
1168.104111	0.043405
1168.257117	0.043850
1168.410103	0.025642
1168.563072	0.032075
1168.716023	0.023962
1168.868955	0.028526
1169.021869	0.051228
1169.174765	0.036078
1169.327642	0.040395
1169.480501	0.026741
1169.633343	0.035300
1169.786165	0.054299
1169.938970	0.040906
1170.091757	0.056800
1170.244525	0.047139
1170.397275	0.021945
1170.550007	0.036733
1170.702720	0.025596
1170.855415	0.046530
1171.008092	0.036233
1171.160751	0.030072
1171.313392	0.037582
1171.466014	0.110718
1171.618619	0.025768
1171.771205	0.025768
1171.923772	0.025768
