sample name	sample
index	1135
start time	 04-22-2021  02:29:54 PM
880	0.195437
Peak Time (s)	102.037
Peak Height 	0.1954
calc peak height	100,103
Baseline Time (s)	11.037
Baseline Value 	-0.003932
subtract baseline	10,4
Abs	0.139735
Peak Time (s)	102.037
Peak Height 	0.1397
calc peak height	100,103
Baseline Time (s)	9.036
Baseline Value 	0.001425
subtract baseline	10,3
PK_550	0.082531
Peak Time (s)	101.54
Peak Height 	0.08253
calc peak height	100,103
Baseline Time (s)	10.537
Baseline Value 	7.6041E-4
subtract baseline	10,2
PK_880	0.128394
Peak Time (s)	101.036
Peak Height 	0.1284
calc peak height	100,103
Baseline Time (s)	11.037
Baseline Value 	0.001647
subtract baseline	10,1


Time (s)	A880-A510	A880-A775	A880-A975	A880	I510	I775	I975	I880	
0.036000	-0.001326	-0.000303	0.001525	0.002100	6267.646927	43181.981580	3917.040369	22728.559160
0.536500	-0.001090	-0.000915	-0.002253	0.005814	6241.255056	42784.049229	3900.049431	22560.267162
1.037000	-0.002115	-0.000681	-0.001384	0.003892	6248.039281	42981.826639	3906.342390	22647.159057
1.536500	-0.001077	-0.001117	0.007274	0.001363	6275.163138	43174.839592	3931.987842	22762.117136
2.037000	-0.000617	-0.000832	0.004614	0.000811	6282.907221	43252.299859	3927.105053	22787.306687
2.538000	-0.003897	-0.000996	-0.002885	0.004038	6233.470409	42939.439048	3902.623699	22640.555485
3.035500	0.000391	-0.000965	-0.002010	-0.001373	6307.425227	43442.600890	3916.896273	22887.246866
3.535500	0.000514	0.000592	0.001561	0.001309	6287.752461	43338.128289	3918.932059	22764.581944
4.035500	0.000200	-0.000451	0.003568	0.000132	6294.378382	43350.581729	3926.259289	22818.345772
4.536500	-0.000801	-0.000363	-0.004611	0.005341	6247.014501	42877.956038	3895.819854	22581.605819
5.036000	-0.002626	-0.000259	0.001352	0.000252	6271.824214	43357.274264	3920.877989	22812.852962
5.537000	-0.002550	-0.000180	-0.001294	0.000220	6272.651608	43367.627360	3914.895705	22814.329889
6.040000	-0.001825	0.000042	0.002600	0.000468	6276.289404	43365.148350	3923.251579	22802.972799
6.537000	-0.001475	-0.000447	0.001924	0.000132	6281.531492	43350.898815	3922.469591	22818.320384
7.037500	-0.001075	0.000554	0.002243	0.000805	6279.445517	43381.331401	3921.655535	22787.569712
7.535000	0.002278	0.000041	-0.002267	0.000693	6306.048312	43344.202143	3911.598442	22792.707272
8.035000	0.001005	-0.000262	0.002253	-0.000201	6303.132522	43399.095304	3923.994336	22833.570184
8.535500	-0.001280	0.000081	0.002384	0.000374	6281.177777	43377.480720	3922.971563	22807.273933
9.036000	0.000665	0.000827	0.000000	0.000800	6292.819545	43407.262160	3916.526314	22787.838931
9.536000	0.001321	0.000133	-0.000377	0.000010	6303.935607	43416.105210	3917.469680	22823.905334
10.036500	0.001701	-0.000258	-0.001045	-0.000191	6308.416163	43398.497625	3916.402117	22833.090304
10.537000	-0.001716	0.000000	0.001879	-0.000018	6280.841157	43406.416335	3922.710395	22825.202197
11.037000	0.000000	-0.000725	-0.004416	0.000000	6293.855887	43337.357739	3908.293209	22824.372245
11.534500	-0.000632	-0.000203	0.002416	-0.000198	6290.519631	43404.233171	3924.362642	22833.422633
12.035000	-0.000560	-0.000132	0.000758	-0.000358	6292.309897	43425.802527	3920.916307	22840.765498
12.535500	0.001075	-0.000123	0.002904	-0.000288	6304.339323	43420.077602	3925.693989	22837.536399
13.035500	-0.000046	-0.000081	0.003118	0.000071	6292.958926	43390.619200	3925.361075	22821.136173
13.535500	0.000436	0.000564	0.002106	0.000691	6291.891160	43392.864986	3921.602637	22792.773689
14.036000	-0.001035	-0.000573	0.000223	0.001713	6272.817867	43192.732365	3914.946951	22746.165231
14.536000	0.000781	-0.000117	0.006879	0.001265	6290.143484	43276.441298	3931.298723	22766.613379
15.037000	0.000712	-0.000077	0.005532	0.000596	6294.747018	43342.188590	3929.726951	22797.117875
15.539500	0.001869	-0.000777	0.003666	-0.000670	6313.412741	43394.794547	3928.338506	22855.049496
16.037000	0.001570	0.000579	0.004335	0.000471	6302.309278	43414.759485	3927.247652	22802.853859
16.535000	-0.005185	-0.000430	-0.005093	0.005461	6213.087298	42860.872486	3894.473702	22576.204540
17.035000	0.002009	0.000238	0.008350	-0.002000	6324.788543	43613.336046	3942.348707	22916.052287
17.535000	-0.001208	-0.000425	0.002788	0.000719	6279.084934	43298.520534	3923.106278	22791.503566
18.035500	0.000244	0.000269	0.004438	0.001373	6285.203133	43302.259959	3925.403455	22761.699983
18.536000	-0.000279	0.000500	0.001315	0.002001	6276.393903	43265.428450	3916.785966	22733.081631
19.036000	-0.001893	-0.000052	0.001857	0.001512	6267.808591	43259.563339	3919.146336	22755.331069
19.536000	0.000181	-0.000161	-0.002307	0.001012	6287.473847	43295.833680	3910.780926	22778.127101
20.036500	-0.001467	-0.000946	0.003468	0.000455	6279.126141	43274.725679	3925.281513	22803.575225
20.537000	0.000076	-0.000772	0.001258	0.000885	6287.648753	43250.992403	3919.210130	22783.938499
21.037500	-0.000557	-0.000198	0.003292	0.001380	6279.014577	43258.323230	3922.745184	22761.368732
21.534500	-0.000062	-0.000259	0.006839	0.000888	6286.567103	43298.281671	3932.081313	22783.817725
22.035000	-0.002581	-0.001190	-0.004042	0.000518	6270.139484	43246.234135	3907.965184	22800.699122
22.535500	0.001042	-0.000274	0.003433	0.000972	6294.392562	43289.059077	3924.009674	22779.976516
23.036000	-0.001579	-0.000082	0.003606	0.001100	6273.346785	43294.994941	3924.114023	22774.127281
23.536000	-0.002278	-0.000047	0.001342	0.001173	6267.460064	43291.470831	3918.743775	22770.800000
24.036000	0.001339	0.000652	0.009650	0.001802	6290.306038	43298.004374	3936.497231	22742.149257
24.536500	0.000921	0.000910	0.002763	0.001676	6288.060770	43333.594071	3920.849965	22747.867765
25.039500	-0.003433	-0.000475	0.006302	0.001127	6259.013294	43256.096541	3930.279858	22772.882484
25.540000	-0.001566	0.000036	0.005031	0.001105	6273.406668	43305.501242	3927.389959	22773.919965
26.034500	-0.001181	-0.000376	0.003716	0.000927	6277.705450	43283.788293	3924.765874	22782.037432
26.535000	0.000181	0.000309	0.002733	0.001598	6282.994180	43285.108218	3920.961390	22751.445164
27.035000	0.003315	0.000402	0.008123	-0.001629	6332.048522	43594.048054	3940.947248	22899.026799
27.535500	0.001136	-0.000201	0.006768	-0.000312	6304.997691	43415.132987	3934.707790	22838.666532
28.036000	0.000510	0.000200	0.002222	0.000105	6296.962592	43413.530106	3923.215895	22819.549600
28.536500	-0.003994	0.000063	0.003313	0.005696	6220.258243	42884.426226	3912.910854	22565.568870
29.036500	0.001060	0.000493	0.002476	0.000579	6297.550256	43396.697558	3922.710327	22797.906407
29.539500	0.001122	-0.000564	0.005245	-0.000266	6304.540169	43377.063274	3931.061380	22836.563052
30.036500	0.000344	0.000406	0.005080	0.000261	6294.497950	43418.182008	3929.455353	22812.445548
30.537000	-0.002582	0.000086	0.003214	0.002927	6251.811913	43141.499325	3919.012223	22690.952239
31.034500	-0.001782	-0.000034	0.002800	0.001961	6265.230359	43219.721280	3920.278210	22734.882409
31.534500	-0.000952	-0.000297	0.004075	-0.000001	6286.560186	43377.215197	3927.738572	22824.434240
32.036000	-0.000173	-0.000985	0.002144	-0.000472	6296.148588	43357.048256	3924.364518	22845.949503
32.536000	-0.001613	-0.001000	-0.000014	0.004779	6245.121614	42871.102718	3907.438356	22607.015855
33.036000	0.002483	0.000458	0.001272	0.001594	6300.695895	43299.272553	3917.619492	22751.624923
33.538000	0.001688	-0.000014	0.007640	-0.001866	6321.266412	43577.277157	3940.370914	22909.900916
34.037000	-0.001198	-0.000190	0.007741	0.001800	6270.914406	43220.126111	3932.057781	22742.226351
34.537000	-0.003173	0.000192	-0.001382	0.002752	6248.656986	43167.422796	3908.931461	22698.900715
35.037000	-0.001822	-0.000109	0.008135	0.002055	6264.211656	43204.090754	3932.379799	22730.611590
35.534500	-0.001276	-0.000205	0.000426	0.001661	6271.371633	43231.571457	3915.531255	22748.544399
36.037500	-0.001720	-0.000265	0.002848	0.001644	6268.120803	43227.651488	3921.117967	22749.322826
36.535500	-0.000259	-0.000178	0.000497	0.001855	6277.654856	43216.201235	3915.249810	22739.707162
37.035500	0.001453	-0.000527	-0.002640	0.001572	6292.943461	43210.058259	3908.754900	22752.610910
37.536000	-0.001147	0.000006	0.003172	0.001788	6271.393570	43239.436570	3921.531338	22742.781614
38.036000	-0.001847	0.000001	0.000374	0.002155	6263.263804	43205.036940	3914.284806	22726.075524
38.536500	-0.001249	-0.000359	0.000967	0.002344	6266.376438	43154.228817	3915.207206	22717.463858
39.039500	0.000448	0.000696	-0.001232	0.002353	6279.258654	43251.039407	3910.179476	22717.077866
39.537000	-0.001467	0.000050	-0.001647	0.001934	6267.838286	43230.001151	3910.187533	22736.122875
40.037500	-0.000524	0.000835	0.000659	0.002440	6271.169700	43255.807800	3914.283532	22713.082255
40.537500	-0.000059	0.000449	0.008007	0.001814	6279.495914	43277.980091	3932.642396	22741.566865
41.035500	0.001203	-0.000276	-0.001167	0.002099	6286.979812	43184.519825	3910.902111	22728.610775
41.535500	-0.001432	-0.000053	0.000684	0.001574	6270.851312	43253.790623	3916.318802	22752.518740
42.035500	0.000204	-0.000037	0.002293	0.001602	6283.137712	43252.661824	3919.941009	22751.262456
42.536000	-0.001373	-0.000601	0.000826	0.001019	6275.530045	43254.382699	3917.913331	22777.807137
43.036500	-0.001273	0.000716	0.004939	0.002589	6264.321985	43231.010820	3923.752414	22706.313541
43.536500	0.000666	0.001106	0.011785	0.001960	6283.931854	43325.445251	3941.117802	22734.945969
44.036500	0.000234	0.000747	0.008309	-0.003078	6319.390818	43761.868900	3944.783818	22965.625942
44.537000	-0.003578	0.000680	0.003736	0.003260	6241.754872	43165.667590	3919.447164	22675.855673
45.034500	-0.001770	-0.000307	0.004870	0.001101	6271.879156	43274.036319	3927.026989	22774.087817
45.538000	0.000480	0.000459	0.001713	0.000356	6294.805962	43414.248837	3921.467406	22808.076548
46.035500	-0.000829	0.000512	0.006642	0.000813	6281.268689	43376.731887	3931.797011	22787.204351
46.535500	-0.002548	-0.000196	0.001085	0.004236	6242.160911	42994.790727	3911.163571	22631.589263
47.035500	0.000000	0.000263	0.005641	0.001549	6281.982789	43285.325419	3927.772827	22753.657113
47.536500	-0.002602	-0.000458	0.002668	0.002330	6256.198494	43146.377620	3919.132358	22718.116370
48.036500	-0.001992	-0.000723	0.003003	0.000409	6275.473720	43299.678996	3924.316956	22805.696119
48.539000	-0.002404	-0.000720	0.001977	0.003343	6250.009888	43028.823393	3915.233130	22672.080016
49.037000	-0.002658	0.000126	0.000406	0.001838	6259.506687	43245.915584	3915.081287	22740.510343
49.537000	0.001607	0.000485	0.008454	-0.001445	6317.381919	43584.564789	3941.290611	22890.568007
50.037500	-0.000541	-0.000410	0.001295	-0.000292	6291.946646	43393.776675	3921.998073	22837.735267
50.535000	-0.001669	-0.001824	0.006478	0.026862	6081.777815	40824.220514	3872.741680	21633.113871
51.035500	0.020942	-0.013409	-0.006148	0.415038	4304.498976	18086.493641	3300.737908	10600.935956
51.535500	0.008702	-0.019517	-0.013616	-0.033457	6633.875911	44721.626552	3964.858947	24414.917841
52.035500	0.002530	-0.082291	-0.010836	-0.267336	9167.306097	64851.851806	4719.261991	39720.310936
52.536500	-0.000951	-0.091116	-0.008167	-0.279061	9286.299141	65266.046457	4779.776706	40726.179274
53.036500	0.002884	-0.059784	-0.004148	-0.235591	8734.366118	63550.732791	4618.589755	37129.370534
53.536500	0.001676	-0.043143	0.000130	-0.208725	8372.822734	62142.723268	4532.684903	35079.898549
54.037000	0.002851	-0.031358	-0.004121	-0.189100	8147.612340	61085.106118	4446.607465	33660.841263
54.537500	-0.006947	-0.023327	-0.005134	-0.162413	7729.488720	58644.203402	4352.500818	31831.323640
55.034500	-0.001891	-0.034268	-0.006928	-0.198283	8200.944120	61929.624783	4469.130925	34316.844922
55.535500	-0.000021	-0.031028	0.004632	-0.187561	8095.184587	60923.760056	4472.118495	33552.269536
56.035500	0.002037	-0.017388	0.005929	-0.132659	7506.688964	55676.837188	4292.306021	29919.748773
56.535500	0.004782	-0.008635	0.000963	-0.095884	7163.919903	52387.473664	4166.878130	27731.127717
57.035500	0.007719	-0.004889	0.009510	-0.079341	7034.206066	50954.425735	4144.196045	26805.417298
57.536000	0.011510	-0.000215	0.009444	-0.054751	6843.614691	48806.366907	4076.825723	25492.957516
58.039000	0.017651	0.003652	0.015945	-0.033345	6709.430921	46994.700566	4037.918541	24409.405655
58.536500	0.020446	0.009027	0.018373	-0.010912	6543.593922	45301.465733	3987.750800	23329.738584
59.037000	0.025882	0.011915	0.024554	0.003396	6471.093788	44204.414780	3968.021358	22669.664058
59.535000	0.033387	0.015043	0.032770	0.023305	6372.192494	42643.996398	3940.274293	21786.668073
60.034500	0.037403	0.019170	0.039341	0.048703	6208.196256	40750.684280	3897.142783	20717.436543
60.535000	0.036518	0.022411	0.040833	0.066188	6073.598888	39533.635375	3861.940607	20016.818327
61.035500	0.041489	0.023799	0.045414	0.054264	6197.175108	40669.779188	3898.289977	20491.534910
61.535500	0.043772	0.027809	0.044995	0.073698	6071.760399	39356.512777	3854.733150	19724.437180
62.036000	0.046961	0.029202	0.048452	0.081916	6035.927068	38790.269971	3844.583188	19410.278653
62.539000	0.050336	0.032108	0.057081	0.086494	6027.410384	38652.866457	3853.214568	19237.818922
63.036500	0.053915	0.032412	0.056186	0.084855	6064.506497	38812.575508	3854.808133	19299.350503
63.536500	0.057749	0.035636	0.059594	0.087105	6075.852308	38892.840660	3857.294043	19214.920827
64.037000	0.059871	0.036438	0.063464	0.089345	6075.009203	38774.351656	3860.804688	19131.321828
64.534500	0.059643	0.038800	0.063259	0.092439	6051.256386	38714.119594	3853.712477	19016.534847
65.035500	0.061009	0.039427	0.065432	0.094847	6043.845167	38568.125809	3853.207958	18927.767906
65.536000	0.062651	0.040152	0.077723	0.100164	6017.845551	38194.396403	3868.257613	18733.508295
66.036000	0.063248	0.040319	0.067864	0.105578	5984.106989	37772.141648	3835.613937	18538.147344
66.536000	0.066865	0.042165	0.069837	0.108674	5987.735249	37672.283796	3833.258232	18427.508386
67.036000	0.068030	0.044203	0.074652	0.114100	5958.159152	37403.115468	3831.977597	18235.491375
67.537000	0.069309	0.044000	0.075041	0.115205	5959.364471	37299.786460	3830.482529	18196.692960
68.037000	0.071664	0.044660	0.078913	0.118584	5952.294863	37085.937677	3831.512670	18078.633141
68.537000	0.074663	0.045828	0.079171	0.121268	5954.462659	36967.188349	3826.454300	17985.479815
69.034500	0.072185	0.046409	0.083769	0.125010	5911.864322	36721.150400	3828.237647	17856.631130
69.535000	0.076985	0.047908	0.081472	0.126185	5936.619637	36746.241175	3821.032427	17816.371850
70.035000	0.080599	0.049175	0.087975	0.128760	5943.752438	36644.905724	3829.185816	17728.571069
70.535500	0.082376	0.050933	0.086597	0.132679	5929.062663	36478.069314	3818.206391	17595.920645
71.035500	0.080225	0.050908	0.085205	0.135106	5897.920911	36289.803222	3810.376226	17514.393208
71.536000	0.086598	0.052282	0.085997	0.135832	5936.386774	36339.457149	3810.509668	17490.073262
72.039000	0.085156	0.053198	0.087565	0.137154	5917.495453	36308.325718	3811.012000	17445.929941
72.536500	0.085565	0.054868	0.095200	0.139830	5902.088366	36231.342060	3821.203429	17356.971240
73.037000	0.088474	0.055260	0.097173	0.141629	5909.616336	36123.916239	3821.562336	17297.445889
73.537000	0.091337	0.055927	0.096619	0.140915	5934.028657	36229.349656	3821.894579	17321.058216
74.037500	0.090953	0.056018	0.096492	0.140131	5936.772556	36296.281228	3823.253727	17346.988558
74.534500	0.092712	0.056889	0.097797	0.141734	5937.841310	36240.294901	3822.637784	17294.004272
75.035000	0.095100	0.058910	0.102225	0.142822	5946.771838	36311.663407	3829.579443	17258.143261
75.535500	0.095910	0.059561	0.105859	0.143495	5947.718208	36310.034910	3835.776520	17236.006234
76.036000	0.096000	0.060152	0.103525	0.144124	5944.003038	36307.087367	3829.572902	17215.334555
76.536000	0.095765	0.060349	0.104712	0.145367	5933.866647	36227.030609	3829.458327	17174.615765
77.036500	0.097972	0.061213	0.100111	0.145608	5947.368840	36274.763746	3819.415056	17166.740686
77.537000	0.097834	0.063466	0.108678	0.147341	5934.520222	36314.581781	3833.622768	17110.175567
78.034000	0.101864	0.065157	0.111803	0.149068	5950.336263	36311.741282	3836.555427	17054.015577
78.534500	0.102280	0.066067	0.110341	0.150766	5941.519078	36251.481663	3829.938350	16999.042781
79.034500	0.100106	0.067354	0.112021	0.150516	5928.329491	36369.220442	3833.973568	17007.112238
79.535500	0.101491	0.068655	0.105992	0.152313	5925.517656	36331.130753	3817.715850	16949.130024
80.035500	0.103016	0.069579	0.117619	0.154363	5921.936877	36244.939606	3837.653183	16883.275077
80.536000	0.105880	0.068856	0.112682	0.154776	5938.708922	36158.221021	3826.460532	16870.040443
81.036000	0.106770	0.070556	0.114769	0.157779	5924.239459	36058.899140	3824.557877	16774.186565
81.539500	0.107022	0.070735	0.116853	0.159430	5914.703925	35947.189262	3825.456986	16721.803109
82.036500	0.109231	0.071182	0.117018	0.161050	5918.717275	35858.429035	3822.441013	16670.583232
82.536500	0.108142	0.071270	0.114934	0.162230	5903.291264	35776.014302	3815.711238	16633.383992
83.037000	0.108663	0.070685	0.114090	0.165240	5886.459633	35506.079965	3807.827056	16538.951967
83.534500	0.109767	0.070950	0.122355	0.163575	5905.181780	35650.643851	3828.279046	16591.093095
84.034500	0.110930	0.070643	0.120925	0.164495	5906.837951	35558.659334	3823.396326	16562.263792
84.535000	0.109580	0.070450	0.126897	0.165286	5892.335137	35485.097722	3834.197157	16537.525875
85.035000	0.112893	0.071955	0.118152	0.170175	5881.705996	35233.123982	3806.051972	16385.554871
85.536000	0.112606	0.072078	0.120110	0.168800	5889.040137	35344.395740	3812.849518	16428.116766
86.039000	0.112032	0.072704	0.123608	0.170955	5870.680697	35230.838553	3815.604926	16361.472202
86.536500	0.115583	0.072748	0.123722	0.172009	5887.475520	35156.083487	3813.676570	16328.989125
87.037000	0.115728	0.072159	0.124051	0.173045	5881.470960	35036.078670	3812.227722	16297.148180
87.534000	0.116705	0.073061	0.133780	0.175165	5873.794616	34946.489079	3827.937267	16232.239238
88.034500	0.114898	0.072522	0.128755	0.175850	5857.110913	34856.699555	3816.124541	16211.321291
88.536500	0.116919	0.072977	0.129030	0.177998	5856.261878	34732.809633	3812.280534	16145.941947
89.035000	0.118233	0.074034	0.129515	0.181494	5841.740932	34555.360079	3806.142052	16040.257871
89.537000	0.117129	0.074484	0.131720	0.180938	5838.106545	34628.454531	3811.771437	16057.017624
90.036000	0.121121	0.074773	0.127644	0.181909	5858.211437	34578.868811	3801.509982	16027.780486
90.536000	0.120935	0.075624	0.131375	0.183684	5845.144680	34511.872273	3805.472316	15974.490672
91.042000	0.121390	0.075956	0.129503	0.184126	5845.232282	34503.888579	3800.785626	15961.253931
91.536500	0.123451	0.076562	0.136832	0.185309	5851.070829	34462.100223	3813.288366	15925.890663
92.037000	0.122006	0.075985	0.136116	0.185575	5839.693940	34401.117058	3811.278262	15917.945349
92.537000	0.124866	0.076315	0.134500	0.186761	5850.821514	34339.299787	3805.568936	15882.612129
93.034500	0.123420	0.076476	0.128190	0.188729	5828.178164	34209.412587	3788.916628	15824.217781
93.535000	0.124600	0.077032	0.134146	0.187643	5843.190032	34327.446534	3803.061390	15856.406970
94.035000	0.123385	0.078009	0.131801	0.188522	5829.315052	34334.473971	3796.557546	15830.333233
94.536000	0.125002	0.077928	0.127196	0.188921	5837.377029	34299.992876	3786.556122	15818.530257
95.035500	0.123821	0.078482	0.132764	0.192150	5808.286963	34107.957109	3791.216440	15723.291377
95.541500	0.124289	0.078939	0.129832	0.189383	5829.601325	34339.550112	3790.888414	15804.864777
96.036500	0.126766	0.079229	0.131750	0.190893	5835.995964	34251.621886	3791.701644	15760.270997
96.537000	0.125155	0.078254	0.129792	0.189993	5831.293762	34246.288023	3789.590427	15786.829426
97.037000	0.122844	0.079092	0.132356	0.193304	5794.339649	34069.037927	3788.100920	15689.432051
97.537500	0.126471	0.080808	0.137996	0.191441	5830.418145	34325.864766	3803.168683	15744.153706
98.037000	0.124678	0.079302	0.134916	0.190520	5824.659936	34283.749858	3798.806559	15771.289984
98.538000	0.124769	0.079964	0.139534	0.191057	5821.713611	34292.702077	3807.067154	15755.438666
99.035500	0.123636	0.080773	0.132746	0.194479	5791.839581	34105.193644	3786.539889	15655.036059
99.535500	0.126261	0.080982	0.130360	0.192047	5825.025657	34294.781968	3786.631931	15726.331689
100.036000	0.124390	0.080054	0.134441	0.193198	5805.152145	34145.511212	3792.474612	15692.546784
100.538000	0.124699	0.080700	0.137793	0.192093	5814.428187	34271.103954	3801.437632	15724.959108
101.036000	0.128394	0.080552	0.130468	0.191971	5839.648237	34269.314177	3786.997448	15728.562527
101.539500	0.127166	0.082531	0.132747	0.192841	5825.755519	34349.134232	3789.802070	15703.004039
102.037000	0.125384	0.081316	0.139735	0.195437	5796.999998	34075.553452	3798.608136	15627.073284
102.534500	0.127789	0.081282	0.135949	0.193290	5826.907576	34226.971758	3795.312370	15689.846592
103.034500	0.128634	0.081995	0.132125	0.194216	5826.373174	34211.629277	3785.828840	15662.737060
103.538000	0.128638	0.082717	0.135805	0.195480	5818.061042	34172.752448	3790.639348	15625.819253
104.035500	0.125664	0.080865	0.133449	0.196611	5791.161499	33959.646199	3783.704919	15592.898897
104.535000	0.129475	0.081575	0.133912	0.195127	5825.909179	34116.217532	3787.568377	15636.115010
105.039000	0.127689	0.081959	0.137804	0.195965	5808.638109	34083.810397	3793.667044	15611.697302
105.536500	0.129431	0.083139	0.139021	0.197073	5812.804131	34088.943118	3793.885005	15579.469069
106.037000	0.125575	0.082153	0.131142	0.200296	5766.654166	33789.422533	3771.920217	15486.187690
