sample name	sample
index	279
start time	 02-25-2021  12:01:44 PM
880	0.015937
Peak Time (s)	91.035
Peak Height 	0.01594
calc peak height	90,93
Baseline Time (s)	9.036
Baseline Value 	-0.001957
subtract baseline	10,4
Abs	0.032317
Peak Time (s)	90.035
Peak Height 	0.03232
calc peak height	90,93
Baseline Time (s)	10.536
Baseline Value 	4.6039E-4
subtract baseline	10,3
PK_550	0.012643
Peak Time (s)	90.035
Peak Height 	0.01264
calc peak height	90,93
Baseline Time (s)	9.036
Baseline Value 	1.3873E-4
subtract baseline	10,2
PK_880	0.028945
Peak Time (s)	92.037
Peak Height 	0.02894
calc peak height	90,93
Baseline Time (s)	10.036
Baseline Value 	4.9626E-4
subtract baseline	10,1


Time (s)	A880-A510	A880-A775	A880-A975	A880	I510	I775	I975	I880	
0.035500	-0.002438	-0.000699	-0.004392	0.006023	6813.425386	45304.617404	3974.409577	24001.595095
0.536000	-0.002578	0.000125	0.000734	0.004185	6828.611617	45564.983166	3991.692770	24091.020019
1.039000	-0.001569	-0.000033	0.004234	0.003883	6840.377400	45579.081143	4001.245723	24105.724210
1.537000	-0.000551	-0.000028	-0.002553	0.000902	6876.498338	45873.224064	3991.682631	24251.668918
2.037000	-0.002726	-0.000501	-0.004332	0.005337	6816.986204	45390.874652	3976.247543	24034.931015
2.540000	-0.000470	0.000413	-0.003376	0.001082	6875.599006	45899.039814	3989.176736	24242.816971
3.037500	-0.000642	0.000240	-0.003861	0.001790	6867.619294	45811.988157	3986.202007	24208.080585
3.535000	-0.000227	-0.000422	-0.000480	0.000888	6879.565714	45835.644711	3996.916220	24252.359573
4.035500	-0.000374	0.000578	-0.001143	0.001573	6872.016596	45866.833198	3993.533524	24218.741849
4.535000	-0.000648	0.000256	0.004301	0.001460	6870.561764	45846.182067	4007.549354	24224.289382
5.035500	0.000408	0.000678	-0.000288	0.000938	6884.877271	45939.510588	3997.272200	24249.888174
5.536500	0.000173	0.000203	0.003756	0.001067	6881.573229	45879.770260	4007.164902	24243.571546
6.036500	-0.000772	0.000200	-0.002495	0.000727	6876.075303	45913.081321	3992.264456	24260.253570
6.536500	-0.000144	-0.000090	-0.000974	0.000220	6886.387144	45934.542517	3997.353638	24285.181327
7.037500	0.000897	-0.000188	0.000191	0.000332	6894.846809	45913.817154	4000.006418	24279.695881
7.537500	-0.002196	0.000404	0.000162	0.000633	6864.032932	45942.613149	3999.175905	24264.903674
8.035000	0.000842	0.001119	-0.001233	0.000709	6890.905596	46005.865117	3995.475479	24261.141850
8.535000	-0.003037	0.000297	-0.000751	0.000276	6859.662161	45967.333334	3997.774532	24282.462124
9.035500	0.001457	0.000000	-0.000459	0.000000	6902.983294	45965.234271	3999.202948	24296.021662
9.535500	0.000121	0.000809	0.000978	0.000513	6886.132591	45994.548001	4001.534467	24270.787324
10.036000	0.000000	-0.000144	-0.000720	-0.000093	6890.546396	45960.209657	3998.781228	24300.604417
10.536000	-0.000692	-0.000143	0.000000	0.000022	6883.209735	45948.880327	4000.306196	24294.950340
11.036500	0.000331	0.000003	0.000726	-0.000334	6895.760124	45998.632674	4003.037195	24312.483104
11.537000	-0.000986	-0.000127	0.001862	-0.000390	6884.275130	45991.261454	4006.054889	24315.206905
12.037000	0.000142	-0.000244	0.001665	-0.000576	6896.239041	45998.165624	4006.026486	24324.394824
12.534500	0.002032	0.000028	0.000740	-0.000365	6911.580069	46004.167425	4003.150186	24313.985754
13.035000	-0.000295	0.001210	0.002253	0.002008	6868.786865	45886.278297	4000.979237	24197.402564
13.538000	-0.000502	0.000316	0.001156	0.000140	6883.861087	45982.655307	4002.926217	24289.129708
14.035500	0.000423	0.001409	-0.002042	0.000507	6888.928418	46054.647658	3993.951113	24271.060460
14.535500	-0.001931	0.000514	0.001735	0.002631	6848.393378	45756.120684	3998.105639	24166.923578
15.036000	-0.000141	-0.000305	-0.001829	0.002723	6863.714198	45666.363039	3988.941717	24162.406613
15.558000	0.000009	-0.000131	-0.000560	-0.000166	6891.291920	45968.672394	3999.367340	24304.201459
16.036500	0.001321	-0.000101	-0.002529	-0.000362	6905.042194	45991.062545	3994.907923	24313.830359
16.537000	0.000324	-0.000030	0.004282	-0.000455	6896.790883	46007.304410	4012.372859	24318.421952
17.040000	-0.001193	0.000528	0.001573	0.002208	6858.860361	45799.181669	3998.761466	24187.621095
17.537500	-0.000571	0.000675	0.002617	-0.001647	6899.507261	46195.818228	4011.166535	24377.256051
18.038000	0.000198	0.000214	-0.001327	0.000638	6885.693350	45923.241312	3995.415592	24264.623143
18.535500	-0.001765	0.000232	-0.001110	0.001053	6864.129031	45884.037674	3994.921522	24244.257261
19.035500	-0.003635	-0.000030	0.001118	0.002007	6838.676218	45763.939435	3998.121338	24197.465857
19.536000	0.000015	0.000275	-0.003000	0.001347	6877.590907	45859.148866	3989.452553	24229.801805
20.036000	0.000077	0.000608	-0.001101	0.001400	6877.667935	45886.853746	3994.072074	24227.198028
20.536500	-0.001806	0.000091	0.003978	0.001311	6861.429551	45844.517425	4007.107270	24231.577225
21.037000	-0.000545	-0.000127	-0.001885	0.001326	6872.706882	45821.599304	3992.294064	24230.862450
21.537000	0.000270	0.000411	0.002472	0.001297	6880.366773	45877.576494	4003.328555	24232.287609
22.037500	-0.000734	0.000629	0.004523	0.001777	6866.906280	45851.634804	4007.307122	24208.703915
22.538000	-0.001045	-0.000498	0.000737	0.000644	6874.354851	45852.267347	4000.594853	24264.349678
23.035000	-0.001507	0.000912	-0.001303	0.002417	6854.142842	45816.374791	3991.019057	24177.372447
23.535500	-0.000030	-0.000646	-0.001987	0.000857	6881.634051	45816.597449	3993.211730	24253.871755
24.035500	-0.000560	0.000591	-0.001165	0.000997	6875.549251	45924.975278	3994.921298	24246.988584
24.536000	-0.000919	0.000753	0.000076	0.001058	6871.743763	45935.009951	3997.887678	24243.991562
25.036500	-0.000541	0.000048	0.001403	0.000664	6878.744199	45904.299483	4002.225084	24263.358611
25.537000	0.000104	0.000685	-0.001792	0.001119	6880.472606	45922.281521	3993.046512	24241.032316
26.037000	-0.000229	-0.000242	0.001404	0.001001	6878.517266	45842.321316	4001.377891	24246.804098
26.537000	0.000028	0.000543	-0.003338	0.001066	6880.264448	45913.509864	3989.311296	24243.616547
27.037500	-0.000052	0.000732	-0.000693	0.002332	6868.064760	45807.097778	3992.761160	24181.556754
27.537500	-0.000436	0.001193	-0.000137	0.001632	6870.923039	45921.762450	3995.909816	24215.842199
28.035000	-0.000352	0.000068	0.002944	0.000843	6878.834271	45888.529851	4005.671710	24254.575098
28.536000	0.001036	-0.000080	0.001741	-0.000929	6907.623835	46049.426917	4007.114638	24341.785276
29.072500	-0.001330	0.000440	-0.001139	0.003058	6849.952412	45706.673997	3989.826109	24145.996001
29.536000	0.000991	0.000218	0.000972	-0.000347	6901.901397	46021.260535	4003.694072	24313.122771
30.036500	-0.002353	-0.000355	0.000330	0.003321	6838.380458	45602.583302	3992.844405	24133.149534
30.536500	0.002600	0.000633	0.009287	0.000072	6912.782225	46020.916019	4023.848694	24292.497567
31.037500	-0.002922	0.000478	0.000212	0.002578	6839.942556	45757.729094	3994.409189	24169.480764
31.537500	-0.001925	0.000374	0.003641	0.000300	6869.501953	45972.635228	4008.819025	24281.270814
32.037500	-0.001492	-0.000123	0.003673	0.001945	6858.538910	45760.860348	4004.727673	24200.487603
32.566000	0.001749	0.000700	0.000454	-0.000081	6906.394800	46042.623933	4001.710650	24300.010866
33.035500	-0.001868	0.000849	0.002742	0.002813	6847.312272	45771.149686	4000.180656	24157.977628
33.536000	-0.000533	-0.000534	0.003905	-0.000744	6891.615842	45986.009311	4012.146119	24332.661040
34.036000	-0.002689	-0.000037	-0.003415	0.004223	6827.276947	45545.389934	3981.268644	24089.171476
34.536000	0.003828	0.000743	0.008252	-0.001432	6937.873666	46181.172029	4025.055173	24366.613584
35.037000	-0.000320	0.000361	0.003670	0.001399	6874.082907	45862.615498	4006.103724	24227.281202
35.537000	-0.000945	0.000802	-0.000866	0.001463	6867.840149	45899.764111	3994.503262	24224.104895
36.037000	-0.001787	-0.000622	-0.000460	0.001166	6862.901182	45788.435131	3996.267295	24238.681606
36.537500	-0.001230	0.000908	-0.000666	0.001827	6861.962273	45874.221612	3994.091457	24206.250960
37.035000	-0.000107	0.000777	0.001343	0.001606	6874.137800	45883.182144	3999.696794	24217.098069
37.535000	-0.001699	0.000686	0.001822	0.001919	6856.900130	45843.286380	4000.116638	24201.750356
38.035500	-0.002874	0.000369	0.004274	0.001660	6848.638691	45837.473857	4006.970610	24214.438578
38.536000	-0.002138	0.000425	0.001278	0.001493	6856.782686	45859.565489	3999.820165	24222.655853
39.036000	-0.001854	0.000602	-0.002039	0.001565	6858.698795	45869.953118	3991.310728	24219.136539
39.536500	0.000235	0.000237	0.001968	0.001648	6876.852251	45825.715252	4001.168193	24215.035680
40.037000	-0.003753	0.000429	-0.000582	0.001570	6841.539833	45852.387281	3994.946310	24218.873636
40.537000	-0.000774	-0.000136	0.003914	0.001458	6869.434758	45807.651364	4006.574212	24224.389281
41.040000	-0.001512	0.000114	0.003342	0.002416	6854.100400	45737.872115	4002.698565	24177.425268
41.535000	0.001282	0.000272	0.000765	0.002102	6882.234165	45784.290052	3996.994129	24192.781430
42.034500	-0.000088	0.001078	0.001108	0.002498	6866.228841	45824.840624	3996.863321	24173.431100
42.535500	-0.001688	-0.000557	-0.002800	0.001087	6864.518963	45802.721489	3990.603276	24242.580388
43.035500	-0.000605	0.001063	0.001911	0.003109	6856.039188	45763.070063	3997.344618	24143.532131
43.536000	0.001153	0.000527	0.000982	0.001496	6886.582307	45869.347108	3999.067717	24222.522805
44.036500	-0.000988	0.000581	0.000688	0.002114	6861.563201	45813.634397	3996.771658	24192.216842
44.536500	-0.000871	-0.000146	0.002503	0.001424	6868.867697	45810.017599	4003.087838	24226.062061
45.037000	-0.001666	0.000642	0.004957	0.001075	6864.830038	45922.405338	4010.193871	24243.168676
45.534500	0.001167	0.000119	0.004266	-0.000248	6902.597711	46001.569176	4011.803961	24308.240835
46.042500	0.000838	0.000578	0.002382	-0.000121	6898.435098	46034.477274	4006.689836	24301.964993
46.534500	0.000540	-0.000439	0.003488	-0.000768	6901.615372	45997.764015	4011.144226	24333.837373
47.035000	-0.003327	0.000410	0.000439	0.002582	6836.275214	45750.621090	3994.968326	24169.286325
47.535500	0.000534	0.000726	0.005474	0.000171	6892.997105	46020.163139	4013.816010	24287.581972
48.035500	0.000550	0.000687	0.005854	0.000095	6893.836703	46023.834668	4014.979282	24291.322647
48.536500	-0.002459	-0.000318	0.006906	0.001752	6851.551319	45760.763997	4013.436739	24209.968478
49.036500	-0.002578	0.000642	0.000522	0.003761	6832.418341	45657.470824	3992.224641	24111.700268
49.537000	-0.000708	0.000617	-0.000582	-0.000049	6883.711725	46031.336919	3999.017676	24298.452507
50.037000	-0.001559	-0.000739	-0.001366	-0.000120	6876.627047	45903.988714	3997.224639	24301.946074
50.537500	0.002128	0.000394	0.007574	-0.000451	6913.242515	46048.963565	4020.786657	24318.209525
51.037000	-0.003972	0.000708	0.000501	0.002151	6834.351842	45822.594544	3996.208165	24190.403103
51.535000	0.000837	0.000252	0.006751	-0.000823	6904.836655	46071.854349	4019.630219	24336.575762
52.035500	-0.001558	-0.000704	0.002333	0.000431	6871.628888	45852.892492	4005.167502	24274.798607
52.536000	0.000635	-0.002511	0.007619	0.004481	6854.837673	45278.209872	4008.303007	24076.557760
53.036000	-0.029283	-0.017105	-0.007313	0.178864	5384.371388	30343.323375	3618.531500	17079.168217
53.536500	-0.022473	-0.026945	-0.019384	-0.109271	7764.318516	54943.670794	4252.202070	30412.169194
54.036500	-0.034615	-0.187554	-0.009958	-0.350397	11116.299664	65535.000000	5303.634924	50821.802919
54.536500	-0.032554	-0.185539	-0.000840	-0.348382	11117.160260	65535.000000	5343.184110	50600.067600
55.039500	-0.044316	-0.148042	-0.007524	-0.310885	10239.951288	65535.000000	5107.360148	46655.877446
55.534500	-0.034635	-0.136506	0.001192	-0.299349	10208.824210	65535.000000	5093.105701	45509.357959
56.035000	-0.027434	-0.114121	-0.003344	-0.276964	9958.948277	65535.000000	4961.596786	43369.602044
56.535000	-0.016607	-0.117688	-0.003103	-0.280531	10195.598260	65535.000000	4979.705689	43703.205677
57.035500	-0.011340	-0.098405	-0.002855	-0.261248	9965.068848	65535.000000	4890.746098	41931.971740
57.535000	-0.007155	-0.073149	-0.002086	-0.233025	9586.591953	65108.837472	4769.107129	39477.152646
58.036000	-0.007736	-0.048046	0.000926	-0.197032	9049.481219	63569.633348	4632.798448	36569.394531
58.536500	-0.004967	-0.026669	-0.002238	-0.157711	8556.008968	61115.805179	4471.792190	33656.376608
59.036000	-0.006961	-0.016418	0.001582	-0.116250	8020.935789	57082.411152	4341.729887	30857.565679
59.539500	-0.001824	-0.011807	0.002990	-0.096554	7853.307091	55234.423438	4282.490937	29618.742309
60.037000	-0.003698	-0.011202	0.002207	-0.071625	7559.021803	52386.489923	4203.316375	28129.244647
60.535000	-0.002818	-0.007814	0.000393	-0.050661	7350.107403	50425.544348	4136.980239	26941.104756
61.035000	0.000132	-0.006170	0.003578	-0.039451	7266.952188	49391.292960	4114.429426	26328.956822
61.535500	0.002689	-0.005082	0.008062	-0.028681	7185.827611	48367.394869	4097.053142	25755.543590
62.035500	0.001278	-0.003275	0.007016	-0.016181	7051.866820	47262.713179	4060.449076	25107.559428
62.536000	0.001026	-0.002611	0.001606	-0.013082	7020.238049	47014.984092	4038.035973	24949.809729
63.036500	0.005487	-0.002935	0.010547	-0.017797	7107.439619	47462.802055	4074.222002	25190.285522
63.536500	0.007114	0.000641	0.006738	-0.018223	7127.201419	47874.886638	4065.151172	25212.154316
64.039500	0.007223	0.001968	0.008813	-0.019709	7142.618882	48166.740578	4074.702473	25288.537870
64.537000	0.006849	0.004260	0.002169	-0.017452	7117.216415	48170.520836	4050.977405	25172.615342
65.045000	0.008156	0.003950	0.008125	-0.019796	7152.515592	48382.784427	4073.084723	25293.038084
65.535000	0.010411	0.004687	0.008968	-0.017901	7156.013958	48261.744580	4070.258463	25195.626091
66.038000	0.014215	0.005185	0.007704	-0.016422	7178.664571	48159.588262	4062.924846	25119.895884
66.535500	0.011681	0.004709	0.007778	-0.016209	7151.916613	48087.950388	4062.555112	25109.021920
67.038500	0.012344	0.005649	0.010594	-0.013360	7130.750131	47889.938913	4062.465858	24963.912396
67.536000	0.013895	0.005071	0.009529	-0.013037	7142.620216	47796.745708	4058.771215	24947.496290
68.036500	0.012558	0.005868	0.012652	-0.013025	7129.581226	47877.848756	4067.066376	24946.893834
68.537000	0.014963	0.006615	0.013589	-0.012295	7145.781912	47879.679348	4067.622277	24909.920921
69.037000	0.013129	0.006661	0.006633	-0.007933	7086.157324	47435.335745	4037.718241	24690.135824
69.537500	0.015751	0.007055	0.014737	-0.010663	7137.602442	47756.422847	4066.325340	24827.396314
70.037500	0.017067	0.007256	0.014724	-0.009661	7140.644174	47673.910463	4063.614637	24776.923336
70.534500	0.015590	0.006541	0.012713	-0.010233	7131.892998	47659.096721	4059.780166	24805.705897
71.035500	0.013661	0.007773	0.011629	-0.006208	7074.774654	47372.626761	4046.278838	24603.825931
71.535500	0.016119	0.007513	0.014580	-0.010002	7134.768817	47735.513316	4064.140259	24794.070859
72.036000	0.019744	0.008816	0.017455	-0.009819	7168.191017	47851.190807	4071.347354	24784.894252
72.536000	0.019692	0.009358	0.017870	-0.010219	7171.578065	47948.771452	4073.538977	24805.037865
73.036500	0.018282	0.009569	0.014640	-0.005102	7108.394289	47443.153690	4051.295826	24548.639587
73.536500	0.020468	0.009468	0.019773	-0.008781	7165.119589	47811.282812	4074.788576	24732.665138
74.037000	0.021616	0.009385	0.019349	-0.008982	7178.280914	47823.490358	4074.189089	24742.774483
74.537500	0.021307	0.010568	0.018338	-0.008239	7168.014777	47868.927647	4069.475649	24705.443671
75.037500	0.017668	0.010976	0.014401	-0.003495	7087.119306	47422.774875	4046.434227	24468.782439
75.535000	0.022921	0.011679	0.018751	-0.006800	7169.719022	47835.075836	4066.728504	24633.371599
76.035500	0.022994	0.011531	0.019301	-0.006784	7170.274275	47818.124359	4068.158280	24632.575910
76.536000	0.023666	0.012594	0.020840	-0.005399	7163.341774	47784.880260	4068.571135	24563.474030
77.036000	0.021425	0.011746	0.019384	-0.002237	7111.069658	47372.801024	4056.264942	24406.422983
77.536500	0.024985	0.012748	0.021955	-0.004127	7163.792034	47669.576929	4068.150912	24500.158336
78.039500	0.026058	0.013601	0.025079	-0.003756	7170.621616	47719.228036	4075.543813	24481.696384
78.537000	0.026766	0.013669	0.024424	-0.003369	7173.758213	47686.335356	4072.740689	24462.491467
79.037000	0.026036	0.013732	0.025611	-0.002912	7162.197030	47645.836036	4074.706002	24439.849264
79.537500	0.026336	0.012895	0.024142	-0.001812	7154.415545	47446.889362	4067.808306	24385.414011
80.035000	0.026152	0.012240	0.025860	-0.002377	7158.119993	47437.669532	4073.935066	24413.361681
80.535000	0.028490	0.014122	0.025427	-0.000607	7163.649886	47449.255229	4068.022136	24325.946836
81.035500	0.028099	0.013904	0.024890	0.000109	7152.880918	47353.517573	4064.671820	24290.657082
81.536000	0.029027	0.014363	0.029664	0.001101	7152.266524	47299.118689	4074.814122	24241.900806
82.036000	0.029219	0.014446	0.029660	0.001891	7146.458017	47226.988551	4072.676223	24203.137105
82.539500	0.027309	0.013562	0.024892	0.001870	7128.191663	47139.056242	4059.984528	24204.184124
83.036500	0.027475	0.013007	0.029744	0.001677	7131.653862	47102.228249	4073.478488	24213.631937
83.537000	0.028876	0.013541	0.025667	0.002670	7135.601844	47055.669522	4059.918341	24165.007174
84.037000	0.026404	0.013480	0.025430	0.003056	7108.051839	47010.230566	4058.263994	24146.129895
84.534500	0.027558	0.012586	0.027344	0.003062	7119.097099	46918.966520	4063.341299	24145.825719
85.035000	0.028007	0.012916	0.030553	0.003588	7118.352513	46899.143013	4070.516239	24120.116319
85.535000	0.029704	0.012732	0.029273	0.004142	7129.369264	46824.551553	4065.606253	24093.086137
86.036000	0.029800	0.013523	0.023598	0.005542	7116.800940	46763.040766	4046.855035	24024.927764
86.536000	0.027885	0.012290	0.025543	0.005106	7102.588549	46682.762906	4053.131382	24046.143150
87.036500	0.025611	0.012423	0.026666	0.010269	7031.857880	46179.124327	4042.501931	23796.449063
87.536500	0.024760	0.012105	0.028810	0.009390	7032.115891	46235.004782	4050.445397	23838.748446
88.037000	0.026408	0.011763	0.028013	0.007687	7063.840860	46370.895377	4052.839195	23920.961896
88.537000	0.029354	0.012280	0.028685	0.008197	7087.062536	46371.559597	4053.267147	23896.310850
89.034500	0.025534	0.011231	0.025777	0.012565	7009.533016	45833.222850	4034.190537	23686.343257
89.535000	0.024722	0.011955	0.030121	0.012835	6999.400529	45878.209971	4044.832537	23673.458854
90.035000	0.025567	0.012643	0.032317	0.011105	7023.559977	46117.800034	4055.180251	23756.295604
90.535500	0.026899	0.011845	0.029591	0.011276	7034.506469	46021.638082	4047.537612	23748.113316
91.035500	0.022890	0.011349	0.026291	0.015937	6953.500274	45513.166381	4026.785019	23525.710238
91.536000	0.025840	0.010960	0.027692	0.012368	7014.256563	45825.963123	4039.696327	23695.783730
92.036500	0.028945	0.012031	0.032067	0.014196	7026.266029	45751.318965	4046.370209	23608.528733
92.537000	0.025434	0.011138	0.029345	0.014294	6992.418818	45653.754947	4038.980837	23603.821507
93.037000	0.025576	0.011333	0.029631	0.014821	6988.819462	45621.070678	4038.352052	23578.745664
93.537500	0.023642	0.010715	0.033554	0.018923	6932.892404	45159.854371	4037.886007	23384.528977
94.037500	0.027411	0.011112	0.030929	0.017018	6985.450546	45384.202278	4036.011152	23474.512075
94.535000	0.025311	0.010328	0.035377	0.016819	6967.757874	45327.038921	4048.174815	23483.918620
95.035000	0.026008	0.009982	0.029179	0.017381	6969.014578	45238.539055	4030.520837	23457.329419
95.544000	0.025320	0.010394	0.031292	0.023554	6905.812916	44681.309496	4020.051784	23167.455492
96.038500	0.024558	0.009490	0.031381	0.019034	6940.308415	45030.225387	4031.944898	23379.293143
96.539000	0.028302	0.010519	0.032031	0.020205	6964.098041	45016.512649	4030.594994	23324.201315
97.036000	0.026816	0.009869	0.034283	0.020514	6947.480793	44923.676520	4035.640988	23309.673607
97.537000	0.021076	0.009156	0.033617	0.025940	6845.660695	44334.452695	4019.892884	23056.468807
98.037000	0.024277	0.009315	0.031810	0.023012	6901.231765	44629.806977	4022.776552	23192.749091
98.537500	0.028106	0.011095	0.035088	0.025402	6914.387506	44571.208778	4025.061851	23081.460063
