sample name	sample
index	1286
start time	 04-29-2021  02:55:41 PM


Wavelength (nm)	Absorbance
494.344910	-0.096704
494.563924	-0.096704
494.782919	-0.096704
495.001897	-0.506142
495.220856	-0.122773
495.439797	-0.098770
495.658719	-0.057397
495.877624	-0.027891
496.096510	0.011313
496.315378	-0.079703
496.534227	-0.003032
496.753059	0.013292
496.971872	0.038924
497.190667	0.027925
497.409444	0.025936
497.628203	0.028627
497.846943	0.028850
498.065665	0.028409
498.284369	0.030175
498.503055	0.028822
498.721723	0.027410
498.940372	0.027063
499.159003	0.026335
499.377616	0.025910
499.596210	0.023937
499.814787	0.023978
500.033345	0.023486
500.251885	0.022426
500.470406	0.022969
500.688910	0.023022
500.907395	0.021750
501.125862	0.021772
501.344311	0.021692
501.562742	0.022451
501.781154	0.021836
501.999548	0.022576
502.217924	0.023179
502.436282	0.022241
502.654621	0.022563
502.872942	0.024213
503.091245	0.024298
503.309530	0.024266
503.527797	0.023086
503.746045	0.022143
503.964275	0.021075
504.182487	0.021226
504.400681	0.020867
504.618856	0.020752
504.837013	0.020009
505.055152	0.019673
505.273273	0.019908
505.491376	0.021112
505.709460	0.021564
505.927526	0.022340
506.145574	0.021233
506.363604	0.022042
506.581615	0.021720
506.799608	0.021805
507.017583	0.022528
507.235540	0.021948
507.453478	0.021510
507.671399	0.022331
507.889301	0.021980
508.107185	0.022563
508.325050	0.021951
508.542898	0.022565
508.760727	0.022737
508.978538	0.022344
509.196330	0.023203
509.414105	0.022963
509.631861	0.023238
509.849599	0.023109
510.067319	0.022803
510.285021	0.023100
510.502704	0.022202
510.720369	0.022202
510.938016	0.021670
511.155645	0.021604
511.373255	0.022496
511.590848	0.021739
511.808422	0.021848
512.025977	0.021956
512.243515	0.022321
512.461034	0.023307
512.678536	0.022960
512.896018	0.022992
513.113483	0.022509
513.330930	0.022380
513.548358	0.021994
513.765768	0.022049
513.983160	0.022283
514.200533	0.022233
514.417889	0.022290
514.635226	0.021822
514.852545	0.022462
515.069845	0.022945
515.287128	0.022739
515.504392	0.023509
515.721638	0.023362
515.938866	0.022670
516.156075	0.022246
516.373267	0.021565
516.590440	0.022401
516.807594	0.022549
517.024731	0.022202
517.241850	0.021926
517.458950	0.021998
517.676032	0.022580
517.893095	0.023119
518.110141	0.023782
518.327168	0.024099
518.544177	0.024512
518.761168	0.024639
518.978141	0.025118
519.195095	0.025600
519.412031	0.025815
519.628949	0.026195
519.845849	0.026591
520.062731	0.026804
520.279594	0.027561
520.496439	0.027107
520.713266	0.026693
520.930074	0.027024
521.146865	0.026545
521.363637	0.026519
521.580391	0.026141
521.797127	0.025984
522.013844	0.025472
522.230543	0.025200
522.447224	0.025591
522.663887	0.026142
522.880532	0.025664
523.097158	0.026165
523.313766	0.025867
523.530356	0.026001
523.746928	0.026845
523.963481	0.027662
524.180017	0.028335
524.396534	0.028472
524.613032	0.028510
524.829513	0.029133
525.045975	0.029396
525.262420	0.029231
525.478845	0.029650
525.695253	0.029600
525.911643	0.029539
526.128014	0.029358
526.344367	0.029303
526.560702	0.029609
526.777018	0.029326
526.993316	0.029471
527.209597	0.030408
527.425858	0.030706
527.642102	0.030526
527.858328	0.030845
528.074535	0.030822
528.290724	0.030508
528.506894	0.030985
528.723047	0.031102
528.939181	0.030732
529.155297	0.030445
529.371395	0.030280
529.587475	0.030101
529.803536	0.030051
530.019579	0.029794
530.235604	0.030162
530.451611	0.029789
530.667600	0.030366
530.883570	0.030794
531.099522	0.031113
531.315456	0.031446
531.531372	0.031795
531.747269	0.031814
531.963148	0.032775
532.179009	0.033008
532.394852	0.032752
532.610676	0.032596
532.826482	0.032672
533.042271	0.032445
533.258040	0.032110
533.473792	0.032031
533.689525	0.032459
533.905240	0.032254
534.120937	0.032538
534.336616	0.033448
534.552277	0.034037
534.767919	0.034610
534.983543	0.034947
535.199149	0.035424
535.414736	0.035749
535.630306	0.035674
535.845857	0.035364
536.061390	0.035489
536.276904	0.035303
536.492401	0.034841
536.707879	0.034857
536.923339	0.035155
537.138781	0.035037
537.354204	0.035158
537.569610	0.035270
537.784997	0.035952
538.000366	0.035951
538.215716	0.036130
538.431049	0.036497
538.646363	0.036166
538.861659	0.036046
539.076937	0.035755
539.292196	0.035854
539.507438	0.035811
539.722661	0.035480
539.937866	0.035596
540.153052	0.035489
540.368221	0.035794
540.583371	0.035754
540.798503	0.035902
541.013617	0.036136
541.228712	0.036169
541.443789	0.035843
541.658848	0.036083
541.873889	0.036123
542.088912	0.036538
542.303916	0.036175
542.518902	0.036653
542.733870	0.036485
542.948820	0.036657
543.163752	0.036872
543.378665	0.037314
543.593560	0.037734
543.808437	0.037773
544.023295	0.037603
544.238136	0.037812
544.452958	0.037898
544.667762	0.038333
544.882548	0.038218
545.097315	0.038564
545.312064	0.038426
545.526795	0.038303
545.741508	0.038439
545.956203	0.038548
546.170879	0.038223
546.385537	0.038099
546.600177	0.037835
546.814799	0.038213
547.029402	0.037933
547.243988	0.038325
547.458555	0.038611
547.673103	0.038755
547.887634	0.038700
548.102146	0.039303
548.316640	0.039557
548.531116	0.039971
548.745574	0.039894
548.960013	0.039500
549.174435	0.039490
549.388838	0.039124
549.603222	0.039201
549.817589	0.039340
550.031937	0.039518
550.246267	0.039701
550.460579	0.039720
550.674873	0.039947
550.889148	0.040652
551.103405	0.040674
551.317644	0.040602
551.531865	0.040373
551.746068	0.040542
551.960252	0.040367
552.174418	0.039923
552.388566	0.039885
552.602696	0.040083
552.816807	0.039927
553.030900	0.040006
553.244975	0.040043
553.459032	0.040229
553.673070	0.040004
553.887091	0.039815
554.101093	0.040362
554.315077	0.040349
554.529042	0.040152
554.742990	0.040135
554.956919	0.040203
555.170830	0.040242
555.384722	0.040672
555.598597	0.040717
555.812453	0.040807
556.026291	0.040416
556.240111	0.040284
556.453913	0.040259
556.667696	0.040609
556.881461	0.040506
557.095208	0.040504
557.308937	0.040003
557.522647	0.039869
557.736339	0.040167
557.950013	0.040244
558.163669	0.040821
558.377307	0.040954
558.590926	0.040944
558.804527	0.041309
559.018110	0.041455
559.231675	0.041738
559.445221	0.042233
559.658749	0.042279
559.872259	0.042494
560.085751	0.042215
560.299225	0.042110
560.512680	0.041770
560.726117	0.041449
560.939536	0.041725
561.152937	0.041795
561.366319	0.041247
561.579683	0.041115
561.793029	0.040987
562.006357	0.040843
562.219667	0.040960
562.432958	0.041020
562.646231	0.041119
562.859486	0.040970
563.072723	0.040860
563.285941	0.041248
563.499141	0.040731
563.712323	0.041280
563.925487	0.041220
564.138632	0.041017
564.351760	0.040996
564.564869	0.041097
564.777960	0.040851
564.991032	0.040833
565.204087	0.041052
565.417123	0.041608
565.630141	0.041106
565.843140	0.041285
566.056122	0.041769
566.269085	0.042033
566.482030	0.041587
566.694957	0.041791
566.907866	0.041910
567.120756	0.041944
567.333628	0.041826
567.546482	0.041977
567.759318	0.042375
567.972135	0.042124
568.184935	0.042056
568.397716	0.041991
568.610478	0.041812
568.823223	0.041512
569.035949	0.041418
569.248657	0.041580
569.461347	0.041389
569.674019	0.041262
569.886672	0.041190
570.099308	0.041205
570.311925	0.041526
570.524523	0.042028
570.737104	0.042322
570.949666	0.042361
571.162210	0.042402
571.374736	0.042460
571.587244	0.041905
571.799733	0.042005
572.012205	0.042154
572.224658	0.042586
572.437092	0.042454
572.649509	0.042520
572.861907	0.042564
573.074287	0.042615
573.286649	0.042701
573.498993	0.043074
573.711318	0.043118
573.923625	0.042917
574.135914	0.042514
574.348185	0.042725
574.560438	0.042672
574.772672	0.042357
574.984888	0.042134
575.197086	0.042325
575.409266	0.042274
575.621427	0.042186
575.833570	0.041937
576.045695	0.042296
576.257802	0.042009
576.469890	0.042243
576.681961	0.042277
576.894013	0.042385
577.106046	0.042197
577.318062	0.042311
577.530059	0.042338
577.742039	0.042498
577.954000	0.042221
578.165942	0.042362
578.377867	0.042194
578.589773	0.042513
578.801661	0.042626
579.013531	0.042419
579.225382	0.042473
579.437216	0.042593
579.649031	0.042919
579.860828	0.042933
580.072606	0.042659
580.284367	0.042851
580.496109	0.042796
580.707833	0.042796
580.919539	0.042974
581.131227	0.042872
581.342896	0.042816
581.554547	0.042874
581.766180	0.042945
581.977795	0.043327
582.189391	0.043342
582.400969	0.043251
582.612529	0.042900
582.824071	0.043217
583.035595	0.043301
583.247100	0.043390
583.458587	0.043330
583.670056	0.043001
583.881506	0.042927
584.092939	0.042694
584.304353	0.042720
584.515749	0.043133
584.727127	0.042917
584.938486	0.042963
585.149828	0.043030
585.361151	0.042648
585.572456	0.042740
585.783742	0.043243
585.995011	0.043430
586.206261	0.043469
586.417493	0.043246
586.628706	0.043219
586.839902	0.043069
587.051079	0.043303
587.262238	0.043775
587.473379	0.044196
587.684502	0.043907
587.895606	0.043517
588.106692	0.043554
588.317760	0.043794
588.528810	0.044012
588.739841	0.044188
588.950855	0.044150
589.161850	0.044266
589.372827	0.044204
589.583785	0.044045
589.794726	0.044448
590.005648	0.044845
590.216552	0.045062
590.427437	0.045331
590.638305	0.045461
590.849154	0.045429
591.059985	0.045283
591.270798	0.045438
591.481592	0.045852
591.692369	0.046036
591.903127	0.046078
592.113867	0.045829
592.324588	0.045637
592.535292	0.045692
592.745977	0.045710
592.956644	0.045853
593.167293	0.045703
593.377923	0.045498
593.588536	0.045561
593.799130	0.045468
594.009706	0.045566
594.220263	0.045668
594.430803	0.045683
594.641324	0.045607
594.851827	0.045757
595.062312	0.046185
595.272778	0.046560
595.483227	0.046603
595.693657	0.046560
595.904069	0.046840
596.114462	0.046948
596.324838	0.047033
596.535195	0.047234
596.745534	0.047174
596.955855	0.047018
597.166157	0.047060
597.376441	0.047019
597.586707	0.046959
597.796955	0.046918
598.007185	0.046889
598.217396	0.046860
598.427589	0.047270
598.637764	0.047083
598.847921	0.047134
599.058060	0.046543
599.268180	0.046433
599.478282	0.046340
599.688366	0.046245
599.898431	0.046433
600.108479	0.046639
600.318508	0.046302
600.528519	0.046432
600.738511	0.046510
600.948486	0.046644
601.158442	0.047037
601.368380	0.047375
601.578300	0.047506
601.788202	0.047616
601.998085	0.047964
602.207950	0.047948
602.417797	0.047990
602.627626	0.048172
602.837436	0.048782
603.047228	0.048753
603.257002	0.048954
603.466758	0.049192
603.676496	0.049044
603.886215	0.048657
604.095916	0.049023
604.305599	0.049441
604.515264	0.049292
604.724910	0.048944
604.934538	0.048909
605.144148	0.048585
605.353740	0.048475
605.563314	0.048655
605.772869	0.048712
605.982406	0.048725
606.191925	0.048536
606.401425	0.048692
606.610908	0.048946
606.820372	0.049176
607.029818	0.049621
607.239246	0.049722
607.448655	0.049834
607.658047	0.050089
607.867420	0.050147
608.076775	0.050190
608.286111	0.050428
608.495430	0.050476
608.704730	0.050572
608.914012	0.050382
609.123275	0.050501
609.332521	0.050404
609.541748	0.050395
609.750957	0.050394
609.960148	0.050696
610.169321	0.050688
610.378475	0.050701
610.587611	0.050612
610.796729	0.050961
611.005829	0.051108
611.214910	0.051319
611.423974	0.051188
611.633019	0.051436
611.842045	0.051382
612.051054	0.051398
612.260044	0.051387
612.469017	0.051350
612.677970	0.051339
612.886906	0.051293
613.095824	0.051448
613.304723	0.051843
613.513604	0.051582
613.722467	0.051891
613.931311	0.051791
614.140138	0.051848
614.348946	0.052187
614.557736	0.052091
614.766507	0.052210
614.975261	0.052333
615.183996	0.052306
615.392713	0.052471
615.601412	0.052417
615.810092	0.052558
616.018754	0.052660
616.227399	0.052549
616.436024	0.052667
616.644632	0.052514
616.853222	0.052274
617.061793	0.052263
617.270346	0.052250
617.478880	0.052006
617.687397	0.052019
617.895895	0.052153
618.104375	0.051983
618.312837	0.052009
618.521281	0.051940
618.729706	0.051978
618.938113	0.051794
619.146502	0.051680
619.354873	0.051746
619.563226	0.051638
619.771560	0.051475
619.979876	0.051434
620.188174	0.051325
620.396453	0.051424
620.604715	0.051259
620.812958	0.051520
621.021183	0.051656
621.229390	0.051887
621.437578	0.052035
621.645748	0.052253
621.853900	0.052432
622.062034	0.052595
622.270150	0.052669
622.478247	0.053010
622.686326	0.052991
622.894387	0.053151
623.102430	0.052980
623.310454	0.052956
623.518461	0.053103
623.726449	0.053133
623.934418	0.053130
624.142370	0.053136
624.350303	0.053149
624.558218	0.053316
624.766115	0.053169
624.973994	0.053418
625.181855	0.053637
625.389697	0.053650
625.597521	0.053864
625.805327	0.054027
626.013114	0.054177
626.220883	0.054350
626.428634	0.054429
626.636367	0.054837
626.844082	0.054834
627.051778	0.054930
627.259457	0.054677
627.467117	0.054771
627.674758	0.054791
627.882382	0.055110
628.089987	0.055121
628.297574	0.055015
628.505143	0.055051
628.712694	0.055152
628.920226	0.055004
629.127740	0.055390
629.335236	0.055244
629.542714	0.055310
629.750174	0.055044
629.957615	0.054893
630.165038	0.054866
630.372443	0.054588
630.579829	0.054721
630.787198	0.054811
630.994548	0.054577
631.201880	0.054605
631.409194	0.054429
631.616489	0.054628
631.823766	0.054719
632.031025	0.054766
632.238266	0.054834
632.445489	0.054650
632.652693	0.054596
632.859879	0.054569
633.067047	0.054619
633.274197	0.054657
633.481329	0.054699
633.688442	0.054741
633.895537	0.054754
634.102614	0.054793
634.309672	0.054721
634.516713	0.054837
634.723735	0.054965
634.930739	0.055285
635.137724	0.055576
635.344692	0.055575
635.551641	0.055704
635.758572	0.055901
635.965485	0.055987
636.172379	0.056211
636.379256	0.056217
636.586114	0.056248
636.792954	0.056275
636.999775	0.056346
637.206579	0.056747
637.413364	0.056837
637.620131	0.056859
637.826880	0.057181
638.033610	0.057294
638.240323	0.057513
638.447017	0.057914
638.653692	0.057876
638.860350	0.057955
639.066990	0.057757
639.273611	0.057842
639.480214	0.057970
639.686798	0.057922
639.893365	0.058094
640.099913	0.058244
640.306443	0.058166
640.512955	0.058258
640.719449	0.058511
640.925924	0.058565
641.132381	0.058628
641.338820	0.058869
641.545241	0.058953
641.751644	0.058888
641.958028	0.058899
642.164394	0.059047
642.370742	0.059125
642.577071	0.058795
642.783383	0.058631
642.989676	0.058658
643.195951	0.058505
643.402207	0.058404
643.608446	0.058585
643.814666	0.058383
644.020868	0.058356
644.227052	0.058340
644.433218	0.058644
644.639365	0.058889
644.845494	0.058933
645.051605	0.058983
645.257698	0.059178
645.463772	0.058918
645.669828	0.059184
645.875866	0.059161
646.081886	0.059257
646.287888	0.059080
646.493871	0.059081
646.699836	0.059037
646.905783	0.059081
647.111712	0.059040
647.317622	0.059185
647.523514	0.059226
647.729388	0.059357
647.935244	0.059295
648.141082	0.059392
648.346901	0.059520
648.552702	0.059692
648.758485	0.059594
648.964250	0.059574
649.169996	0.059708
649.375724	0.059664
649.581434	0.059452
649.787126	0.059633
649.992800	0.059766
650.198455	0.059792
650.404092	0.059707
650.609711	0.059865
650.815311	0.060112
651.020894	0.059989
651.226458	0.060111
651.432004	0.060212
651.637532	0.060180
651.843041	0.060273
652.048532	0.060380
652.254006	0.060527
652.459460	0.060624
652.664897	0.060413
652.870315	0.060547
653.075716	0.060756
653.281097	0.060855
653.486461	0.061047
653.691807	0.061249
653.897134	0.061336
654.102443	0.061445
654.307734	0.061631
654.513006	0.061800
654.718261	0.061841
654.923497	0.061703
655.128715	0.061823
655.333915	0.061670
655.539096	0.061241
655.744259	0.061021
655.949404	0.060799
656.154531	0.060774
656.359640	0.060827
656.564730	0.060995
656.769802	0.061049
656.974856	0.061065
657.179892	0.061079
657.384909	0.061304
657.589908	0.061466
657.794889	0.061668
657.999852	0.061671
658.204797	0.061681
658.409723	0.061622
658.614631	0.061874
658.819521	0.062009
659.024393	0.062208
659.229246	0.062370
659.434081	0.062509
659.638898	0.062588
659.843697	0.062897
660.048478	0.063168
660.253240	0.063464
660.457984	0.063525
660.662710	0.063553
660.867417	0.063675
661.072107	0.064069
661.276778	0.064284
661.481431	0.064283
661.686066	0.064136
661.890682	0.064431
662.095281	0.064510
662.299861	0.064517
662.504422	0.064595
662.708966	0.064615
662.913491	0.064489
663.117999	0.064511
663.322488	0.064859
663.526958	0.064938
663.731411	0.064792
663.935845	0.064655
664.140261	0.064750
664.344659	0.064767
664.549038	0.064807
664.753400	0.064745
664.957743	0.064706
665.162068	0.064592
665.366375	0.064836
665.570663	0.064877
665.774933	0.065071
665.979185	0.064953
666.183419	0.065005
666.387635	0.065072
666.591832	0.065138
666.796011	0.065262
667.000172	0.065271
667.204315	0.065287
667.408439	0.065309
667.612545	0.065273
667.816634	0.065463
668.020703	0.065582
668.224755	0.065703
668.428788	0.065698
668.632803	0.065774
668.836800	0.065835
669.040779	0.065843
669.244739	0.065946
669.448681	0.066165
669.652605	0.066377
669.856511	0.066434
670.060399	0.066522
670.264268	0.066659
670.468119	0.066754
670.671952	0.067057
670.875767	0.067072
671.079563	0.066919
671.283341	0.066886
671.487101	0.066744
671.690843	0.066923
671.894567	0.066834
672.098272	0.066861
672.301959	0.066942
672.505628	0.066736
672.709278	0.066860
672.912911	0.067150
673.116525	0.067030
673.320121	0.067129
673.523699	0.067056
673.727258	0.067373
673.930799	0.067390
674.134322	0.067478
674.337827	0.067744
674.541314	0.067807
674.744782	0.067771
674.948232	0.068114
675.151664	0.068229
675.355078	0.068612
675.558474	0.068544
675.761851	0.068842
675.965210	0.068876
676.168551	0.068949
676.371873	0.068951
676.575178	0.069046
676.778464	0.068964
676.981732	0.069064
677.184981	0.068834
677.388213	0.068768
677.591426	0.068893
677.794621	0.068932
677.997798	0.068966
678.200956	0.069156
678.404097	0.069329
678.607219	0.069590
678.810323	0.069589
679.013408	0.069832
679.216476	0.070386
679.419525	0.070226
679.622556	0.070383
679.825569	0.070293
680.028563	0.070166
680.231540	0.070187
680.434498	0.070094
680.637438	0.070300
680.840359	0.070159
681.043263	0.070009
681.246148	0.070403
681.449015	0.070188
681.651864	0.070389
681.854694	0.070625
682.057506	0.070780
682.260301	0.070994
682.463076	0.070833
682.665834	0.070976
682.868573	0.071038
683.071295	0.070999
683.273998	0.071441
683.476682	0.071706
683.679349	0.071768
683.881997	0.071799
684.084627	0.071971
684.287239	0.072152
684.489833	0.072299
684.692408	0.072332
684.894965	0.072392
685.097504	0.072115
685.300025	0.071824
685.502527	0.071622
685.705012	0.071713
685.907478	0.071518
686.109925	0.071776
686.312355	0.071825
686.514766	0.071846
686.717159	0.071784
686.919534	0.072011
687.121891	0.072244
687.324230	0.072582
687.526550	0.072432
687.728852	0.072423
687.931136	0.072419
688.133401	0.072520
688.335649	0.072619
688.537878	0.072609
688.740089	0.072527
688.942281	0.072474
689.144456	0.072270
689.346612	0.072284
689.548750	0.072353
689.750870	0.072248
689.952971	0.072077
690.155055	0.072101
690.357120	0.072062
690.559167	0.072027
690.761195	0.072122
690.963206	0.072312
691.165198	0.072319
691.367172	0.072316
691.569128	0.072372
691.771065	0.072429
691.972984	0.072427
692.174885	0.072534
692.376768	0.072671
692.578633	0.072788
692.780479	0.072667
692.982308	0.072881
693.184118	0.072883
693.385909	0.072741
693.587683	0.072752
693.789438	0.072794
693.991175	0.072881
694.192894	0.073003
694.394595	0.073091
694.596277	0.073246
694.797941	0.073324
694.999587	0.073743
695.201215	0.074031
695.402824	0.074265
695.604416	0.074294
695.805989	0.074454
696.007543	0.074630
696.209080	0.074799
696.410598	0.075055
696.612099	0.075085
696.813580	0.075051
697.015044	0.075151
697.216490	0.075193
697.417917	0.075278
697.619326	0.075292
697.820717	0.075289
698.022089	0.075235
698.223444	0.075195
698.424780	0.075369
698.626098	0.075386
698.827397	0.075292
699.028679	0.075493
699.229942	0.075513
699.431187	0.075358
699.632414	0.075404
699.833622	0.075413
700.034813	0.075539
700.235985	0.075589
700.437139	0.075710
700.638274	0.075683
700.839392	0.075711
701.040491	0.075737
701.241572	0.076083
701.442635	0.075991
701.643679	0.076007
701.844706	0.076024
702.045714	0.075913
702.246704	0.075798
702.447675	0.075995
702.648629	0.076020
702.849564	0.076130
703.050481	0.076084
703.251380	0.076309
703.452260	0.076318
703.653122	0.076356
703.853966	0.076337
704.054792	0.076325
704.255600	0.076270
704.456389	0.076102
704.657160	0.076209
704.857913	0.076244
705.058648	0.076134
705.259365	0.076179
705.460063	0.076057
705.660743	0.076055
705.861405	0.076084
706.062048	0.076071
706.262674	0.075882
706.463281	0.075724
706.663870	0.075659
706.864441	0.075435
707.064993	0.075158
707.265527	0.075122
707.466043	0.075131
707.666541	0.075119
707.867021	0.075308
708.067482	0.075600
708.267925	0.075689
708.468350	0.075735
708.668757	0.075993
708.869145	0.076423
709.069516	0.076467
709.269868	0.076667
709.470201	0.076687
709.670517	0.076744
709.870814	0.076912
710.071093	0.076837
710.271354	0.076915
710.471597	0.076985
710.671821	0.076900
710.872028	0.076845
711.072216	0.076765
711.272385	0.076806
711.472537	0.076598
711.672670	0.076398
711.872785	0.076503
712.072882	0.076566
712.272961	0.076517
712.473021	0.076640
712.673063	0.076803
712.873087	0.076740
713.073093	0.076672
713.273081	0.076715
713.473050	0.076931
713.673001	0.076793
713.872934	0.076638
714.072849	0.076576
714.272745	0.076245
714.472623	0.076064
714.672483	0.075969
714.872325	0.075770
715.072148	0.075682
715.271954	0.075406
715.471741	0.075457
715.671509	0.075359
715.871260	0.075244
716.070992	0.075480
716.270707	0.075322
716.470403	0.075528
716.670080	0.075705
716.869740	0.075721
717.069381	0.075503
717.269004	0.075631
717.468609	0.075491
717.668195	0.075427
717.867764	0.075162
718.067314	0.075189
718.266846	0.074932
718.466360	0.074855
718.665855	0.074696
718.865332	0.074811
719.064791	0.074360
719.264232	0.074309
719.463655	0.074235
719.663059	0.074211
719.862445	0.074219
720.061813	0.074361
720.261163	0.074267
720.460494	0.074308
720.659807	0.074283
720.859102	0.074324
721.058379	0.074429
721.257638	0.074446
721.456878	0.074312
721.656100	0.074153
721.855304	0.074118
722.054490	0.074055
722.253657	0.074062
722.452806	0.074025
722.651937	0.074086
722.851050	0.073830
723.050145	0.073882
723.249221	0.073974
723.448279	0.074063
723.647319	0.073690
723.846340	0.073705
724.045344	0.073443
724.244329	0.073336
724.443296	0.073103
724.642245	0.073140
724.841175	0.072919
725.040088	0.072647
725.238982	0.072721
725.437857	0.072823
725.636715	0.072561
725.835554	0.072621
726.034376	0.072578
726.233179	0.072540
726.431963	0.072400
726.630730	0.072608
726.829478	0.072701
727.028208	0.072606
727.226920	0.072584
727.425614	0.072643
727.624289	0.072343
727.822946	0.072173
728.021585	0.072116
728.220206	0.072055
728.418808	0.071778
728.617392	0.071598
728.815958	0.071387
729.014506	0.071197
729.213036	0.071168
729.411547	0.071268
729.610040	0.071306
729.808515	0.071374
730.006972	0.071309
730.205410	0.071287
730.403831	0.071416
730.602233	0.071471
730.800616	0.071460
730.998982	0.071383
731.197329	0.071530
731.395658	0.071594
731.593969	0.071515
731.792262	0.071542
731.990536	0.071457
732.188793	0.071561
732.387031	0.071545
732.585250	0.071560
732.783452	0.071686
732.981635	0.071619
733.179800	0.071701
733.377947	0.071888
733.576076	0.071870
733.774186	0.071962
733.972278	0.071894
734.170352	0.071856
734.368408	0.071984
734.566446	0.071968
734.764465	0.071884
734.962466	0.071693
735.160449	0.071463
735.358413	0.071519
735.556360	0.071683
735.754288	0.071512
735.952198	0.071524
736.150090	0.071466
736.347963	0.071463
736.545818	0.071311
736.743655	0.071019
736.941474	0.070927
737.139275	0.070842
737.337057	0.070458
737.534821	0.070275
737.732567	0.070070
737.930295	0.069822
738.128005	0.069327
738.325696	0.069406
738.523369	0.069486
738.721024	0.069294
738.918660	0.069302
739.116279	0.069345
739.313879	0.069375
739.511461	0.069266
739.709024	0.069232
739.906570	0.069526
740.104097	0.069426
740.301606	0.069406
740.499097	0.069312
740.696569	0.068909
740.894024	0.068734
741.091460	0.068643
741.288878	0.068730
741.486277	0.068715
741.683659	0.068476
741.881022	0.068347
742.078367	0.068398
742.275694	0.068695
742.473002	0.068900
742.670293	0.068808
742.867565	0.068378
743.064819	0.068156
743.262054	0.067844
743.459272	0.067958
743.656471	0.067778
743.853652	0.067484
744.050815	0.067081
744.247959	0.067001
744.445085	0.066914
744.642194	0.067114
744.839283	0.067127
745.036355	0.067347
745.233408	0.067283
745.430444	0.067655
745.627461	0.067567
745.824459	0.067699
746.021440	0.067618
746.218402	0.067678
746.415346	0.067729
746.612272	0.067758
746.809180	0.067748
747.006069	0.067796
747.202940	0.067598
747.399793	0.067564
747.596628	0.067540
747.793444	0.067485
747.990243	0.067287
748.187023	0.067216
748.383784	0.067017
748.580528	0.066712
748.777253	0.066537
748.973960	0.066408
749.170649	0.066453
749.367320	0.066413
749.563973	0.066453
749.760607	0.066716
749.957223	0.066703
750.153821	0.066773
750.350400	0.066765
750.546962	0.066832
750.743505	0.066933
750.940030	0.066842
751.136536	0.066683
751.333025	0.066631
751.529495	0.066367
751.725947	0.066194
751.922381	0.066142
752.118796	0.066182
752.315194	0.065893
752.511573	0.065853
752.707934	0.066212
752.904276	0.066166
753.100601	0.066069
753.296907	0.066044
753.493195	0.066022
753.689465	0.065851
753.885716	0.065582
754.081949	0.065705
754.278164	0.065489
754.474361	0.064967
754.670540	0.064933
754.866700	0.065086
755.062843	0.065082
755.258967	0.065170
755.455072	0.065072
755.651160	0.065154
755.847229	0.064956
756.043280	0.064876
756.239313	0.064978
756.435328	0.065011
756.631324	0.064638
756.827302	0.064422
757.023262	0.064460
757.219204	0.064731
757.415127	0.064745
757.611033	0.064878
757.806920	0.064872
758.002788	0.065026
758.198639	0.064909
758.394471	0.064937
758.590286	0.065032
758.786081	0.065011
758.981859	0.064710
759.177619	0.064665
759.373360	0.064599
759.569083	0.064640
759.764788	0.064617
759.960474	0.064695
760.156143	0.064824
760.351793	0.064893
760.547425	0.064838
760.743038	0.065023
760.938634	0.064946
761.134211	0.064915
761.329770	0.064733
761.525311	0.064588
761.720833	0.064416
761.916338	0.064128
762.111824	0.063890
762.307292	0.063794
762.502741	0.063573
762.698173	0.063622
762.893586	0.063340
763.088981	0.063406
763.284358	0.063409
763.479716	0.063491
763.675057	0.063534
763.870379	0.063614
764.065683	0.063474
764.260968	0.063552
764.456236	0.063420
764.651485	0.063456
764.846716	0.063303
765.041929	0.062989
765.237123	0.062618
765.432299	0.062521
765.627457	0.062367
765.822597	0.062260
766.017719	0.062106
766.212822	0.062169
766.407907	0.062190
766.602974	0.062230
766.798023	0.062248
766.993054	0.062582
767.188066	0.062415
767.383060	0.062449
767.578036	0.062454
767.772993	0.062481
767.967933	0.062346
768.162854	0.062315
768.357757	0.062301
768.552642	0.062226
768.747508	0.061917
768.942356	0.062129
769.137186	0.062134
769.331998	0.062251
769.526792	0.062147
769.721567	0.062089
769.916324	0.062263
770.111063	0.062128
770.305784	0.062265
770.500486	0.062510
770.695171	0.062488
770.889837	0.062377
771.084484	0.062371
771.279114	0.062392
771.473725	0.062646
771.668318	0.062362
771.862893	0.062387
772.057450	0.062497
772.251988	0.062597
772.446509	0.062846
772.641011	0.062989
772.835494	0.063056
773.029960	0.063232
773.224407	0.063280
773.418836	0.063589
773.613247	0.063652
773.807640	0.063603
774.002014	0.063520
774.196370	0.063310
774.390708	0.063337
774.585028	0.063280
774.779330	0.063255
774.973613	0.063021
775.167878	0.062930
775.362125	0.063074
775.556354	0.063070
775.750564	0.063035
775.944756	0.063048
776.138930	0.063087
776.333086	0.062957
776.527223	0.062710
776.721343	0.062787
776.915444	0.062730
777.109526	0.062660
777.303591	0.062567
777.497637	0.062509
777.691666	0.062539
777.885676	0.062658
778.079667	0.062842
778.273641	0.063155
778.467596	0.063319
778.661533	0.063306
778.855452	0.063501
779.049352	0.063574
779.243235	0.063907
779.437099	0.063888
779.630945	0.063922
779.824773	0.063929
780.018582	0.063772
780.212373	0.063653
780.406146	0.063704
780.599901	0.063423
780.793638	0.063562
780.987356	0.063297
781.181056	0.063567
781.374738	0.063524
781.568402	0.063496
781.762047	0.063613
781.955674	0.063683
782.149283	0.063715
782.342874	0.063809
782.536447	0.063587
782.730001	0.063558
782.923537	0.063195
783.117055	0.062948
783.310555	0.063036
783.504036	0.062928
783.697499	0.062845
783.890944	0.062695
784.084371	0.062556
784.277780	0.062817
784.471170	0.062690
784.664542	0.062621
784.857896	0.062734
785.051231	0.062546
785.244549	0.062503
785.437848	0.062506
785.631129	0.062593
785.824392	0.062875
786.017636	0.062609
786.210863	0.062704
786.404071	0.062913
786.597260	0.062892
786.790432	0.063072
786.983585	0.063153
787.176721	0.063313
787.369838	0.063415
787.562936	0.063351
787.756017	0.063345
787.949079	0.063500
788.142123	0.063640
788.335149	0.063708
788.528156	0.063652
788.721146	0.063814
788.914117	0.063618
789.107070	0.063766
789.300005	0.063821
789.492921	0.063895
789.685819	0.063927
789.878699	0.063863
790.071561	0.063853
790.264405	0.063858
790.457230	0.063902
790.650037	0.064222
790.842826	0.064002
791.035597	0.064036
791.228349	0.064151
791.421084	0.064008
791.613800	0.064009
791.806497	0.064137
791.999177	0.063868
792.191838	0.063621
792.384481	0.063340
792.577106	0.063373
792.769713	0.063341
792.962301	0.063267
793.154871	0.063487
793.347423	0.063539
793.539957	0.063591
793.732473	0.063740
793.924970	0.064017
794.117449	0.064068
794.309910	0.064095
794.502353	0.063910
794.694777	0.063969
794.887183	0.064086
795.079571	0.063929
795.271941	0.063974
795.464293	0.064101
795.656626	0.064150
795.848941	0.064199
796.041238	0.064349
796.233516	0.064607
796.425777	0.064638
796.618019	0.064437
796.810243	0.064625
797.002449	0.064565
797.194636	0.064824
797.386805	0.064688
797.578956	0.064873
797.771089	0.064900
797.963204	0.064844
798.155300	0.064934
798.347378	0.065079
798.539438	0.065075
798.731480	0.065216
798.923503	0.065394
799.115509	0.065567
799.307496	0.065523
799.499465	0.065666
799.691415	0.065881
799.883348	0.065944
800.075262	0.065924
800.267158	0.066015
800.459035	0.066061
800.650895	0.065915
800.842736	0.065945
801.034559	0.066145
801.226364	0.066138
801.418150	0.065862
801.609919	0.065755
801.801669	0.065684
801.993401	0.065672
802.185114	0.065467
802.376810	0.065329
802.568487	0.065144
802.760146	0.065100
802.951787	0.065063
803.143409	0.065387
803.335014	0.065459
803.526600	0.065467
803.718168	0.065344
803.909717	0.065403
804.101249	0.065309
804.292762	0.065527
804.484257	0.065431
804.675734	0.065450
804.867192	0.065369
805.058632	0.065460
805.250054	0.065662
805.441458	0.065961
805.632844	0.065894
805.824211	0.066108
806.015561	0.066084
806.206891	0.066118
806.398204	0.066007
806.589499	0.066030
806.780775	0.066011
806.972033	0.065833
807.163273	0.065759
807.354495	0.066002
807.545698	0.066051
807.736883	0.066031
807.928050	0.066069
808.119199	0.066149
808.310329	0.066119
808.501441	0.066352
808.692535	0.066533
808.883611	0.066493
809.074669	0.066529
809.265708	0.066703
809.456729	0.066830
809.647732	0.067052
809.838717	0.067243
810.029683	0.067269
810.220632	0.067211
810.411562	0.067442
810.602474	0.067881
810.793367	0.067870
810.984242	0.067822
811.175100	0.068164
811.365938	0.068362
811.556759	0.068331
811.747562	0.068505
811.938346	0.068531
812.129112	0.068618
812.319860	0.068587
812.510589	0.068757
812.701300	0.068944
812.891994	0.068857
813.082668	0.068867
813.273325	0.069264
813.463964	0.069432
813.654584	0.069638
813.845186	0.069759
814.035769	0.069863
814.226335	0.070112
814.416882	0.070301
814.607411	0.070379
814.797922	0.070386
814.988415	0.070438
815.178889	0.070584
815.369345	0.070711
815.559783	0.070666
815.750203	0.070814
815.940605	0.070699
816.130988	0.070563
816.321353	0.070659
816.511700	0.070740
816.702028	0.070831
816.892339	0.070993
817.082631	0.070954
817.272905	0.070988
817.463161	0.071018
817.653398	0.071150
817.843617	0.071379
818.033819	0.071493
818.224001	0.071717
818.414166	0.071688
818.604312	0.071802
818.794440	0.072131
818.984550	0.072485
819.174642	0.072556
819.364716	0.072801
819.554771	0.072870
819.744808	0.072943
819.934827	0.072984
820.124827	0.073039
820.314810	0.072938
820.504774	0.072932
820.694720	0.072928
820.884647	0.072867
821.074557	0.072946
821.264448	0.072840
821.454321	0.072711
821.644176	0.072586
821.834012	0.072414
822.023831	0.072442
822.213631	0.072282
822.403413	0.072010
822.593176	0.071926
822.782922	0.071832
822.972649	0.072175
823.162358	0.072281
823.352049	0.072472
823.541721	0.072791
823.731376	0.072991
823.921012	0.073496
824.110629	0.073956
824.300229	0.074367
824.489811	0.074526
824.679374	0.074749
824.868919	0.075105
825.058445	0.075331
825.247954	0.075521
825.437444	0.075713
825.626916	0.075739
825.816370	0.075863
826.005806	0.075971
826.195223	0.076284
826.384622	0.076108
826.574003	0.075967
826.763366	0.076028
826.952711	0.075841
827.142037	0.075895
827.331345	0.075624
827.520635	0.075492
827.709906	0.075484
827.899160	0.075262
828.088395	0.075257
828.277612	0.075382
828.466810	0.075479
828.655991	0.075615
828.845153	0.075434
829.034297	0.075690
829.223423	0.075713
829.412531	0.075729
829.601620	0.075863
829.790691	0.076111
829.979744	0.076478
830.168779	0.076580
830.357795	0.076868
830.546793	0.077264
830.735773	0.077376
830.924735	0.077583
831.113679	0.077720
831.302604	0.078034
831.491511	0.078174
831.680400	0.078232
831.869271	0.078367
832.058123	0.078483
832.246957	0.078523
832.435773	0.078887
832.624571	0.079492
832.813351	0.079957
833.002112	0.080257
833.190855	0.080394
833.379580	0.080565
833.568287	0.080834
833.756975	0.081024
833.945645	0.081422
834.134297	0.081469
834.322931	0.081393
834.511547	0.081175
834.700144	0.081072
834.888723	0.081410
835.077284	0.081729
835.265826	0.081774
835.454351	0.081972
835.642857	0.081797
835.831345	0.081744
836.019815	0.081901
836.208266	0.081972
836.396699	0.082259
836.585114	0.081990
836.773511	0.081479
836.961890	0.081525
837.150250	0.081525
837.338592	0.081552
837.526916	0.081707
837.715222	0.081532
837.903510	0.081737
838.091779	0.081430
838.280030	0.081545
838.468263	0.082110
838.656477	0.081928
838.844674	0.081965
839.032852	0.082226
839.221012	0.082436
839.409153	0.082681
839.597277	0.082784
839.785382	0.083090
839.973469	0.083086
840.161538	0.082787
840.349589	0.083070
840.537621	0.083270
840.725635	0.083067
840.913631	0.082932
841.101609	0.082755
841.289568	0.082949
841.477509	0.082951
841.665432	0.083184
841.853337	0.083594
842.041224	0.083830
842.229092	0.084070
842.416942	0.084605
842.604774	0.084770
842.792588	0.084909
842.980383	0.085019
843.168160	0.085246
843.355919	0.085374
843.543660	0.085671
843.731382	0.085595
843.919087	0.085534
844.106773	0.085383
844.294441	0.085518
844.482090	0.086101
844.669722	0.086140
844.857335	0.086284
845.044930	0.086544
845.232507	0.086482
845.420065	0.086723
845.607605	0.086858
845.795127	0.087221
845.982631	0.087464
846.170117	0.087313
846.357584	0.087504
846.545033	0.087451
846.732464	0.087665
846.919877	0.087931
847.107272	0.087925
847.294648	0.088294
847.482006	0.088543
847.669346	0.088547
847.856667	0.088960
848.043971	0.089215
848.231256	0.089701
848.418523	0.089820
848.605771	0.089915
848.793002	0.090041
848.980214	0.090029
849.167408	0.090115
849.354584	0.090719
849.541742	0.090689
849.728881	0.090868
849.916002	0.090976
850.103105	0.091211
850.290190	0.091374
850.477256	0.091862
850.664304	0.092068
850.851334	0.092136
851.038346	0.092257
851.225340	0.092319
851.412315	0.092580
851.599272	0.092529
851.786211	0.092602
851.973132	0.092898
852.160034	0.093204
852.346918	0.093348
852.533784	0.093635
852.720632	0.093689
852.907462	0.093755
853.094273	0.093626
853.281066	0.093968
853.467841	0.094185
853.654598	0.094293
853.841336	0.094184
854.028056	0.094374
854.214758	0.094477
854.401442	0.094589
854.588107	0.094843
854.774755	0.095116
854.961384	0.095267
855.147995	0.095099
855.334587	0.095069
855.521162	0.095047
855.707718	0.095050
855.894256	0.095346
856.080775	0.095238
856.267277	0.095690
856.453760	0.095546
856.640225	0.095582
856.826672	0.095878
857.013101	0.096075
857.199511	0.096260
857.385903	0.096198
857.572277	0.096047
857.758633	0.096183
857.944970	0.096154
858.131290	0.096591
858.317591	0.096633
858.503873	0.096789
858.690138	0.097072
858.876384	0.097001
859.062612	0.097461
859.248822	0.097729
859.435014	0.097909
859.621188	0.098106
859.807343	0.098152
859.993480	0.098248
860.179599	0.098332
860.365699	0.098257
860.551781	0.098385
860.737846	0.097970
860.923891	0.097883
861.109919	0.098238
861.295929	0.098257
861.481920	0.098528
861.667893	0.098779
861.853848	0.099082
862.039784	0.098953
862.225702	0.099218
862.411603	0.099761
862.597484	0.099898
862.783348	0.100087
862.969193	0.100068
863.155021	0.099845
863.340830	0.099925
863.526620	0.099798
863.712393	0.099978
863.898147	0.100173
864.083883	0.100319
864.269601	0.100199
864.455301	0.100140
864.640982	0.100274
864.826645	0.100523
865.012290	0.100759
865.197917	0.100819
865.383526	0.100741
865.569116	0.100718
865.754688	0.100719
865.940242	0.100963
866.125777	0.101044
866.311295	0.101018
866.496794	0.101218
866.682275	0.101192
866.867737	0.101550
867.053182	0.101815
867.238608	0.101910
867.424016	0.102051
867.609406	0.102107
867.794778	0.102010
867.980131	0.102238
868.165466	0.102207
868.350783	0.102297
868.536082	0.102209
868.721362	0.102102
868.906625	0.101786
869.091869	0.101801
869.277094	0.101767
869.462302	0.101714
869.647491	0.101407
869.832662	0.101444
870.017815	0.101518
870.202950	0.101652
870.388066	0.101771
870.573165	0.102002
870.758245	0.101738
870.943306	0.101573
871.128350	0.101798
871.313375	0.102014
871.498382	0.102224
871.683371	0.102314
871.868342	0.102428
872.053294	0.102681
872.238229	0.102916
872.423144	0.102962
872.608042	0.103409
872.792922	0.103470
872.977783	0.103817
873.162626	0.103564
873.347451	0.103369
873.532258	0.103139
873.717046	0.103028
873.901816	0.103190
874.086568	0.103371
874.271302	0.103348
874.456017	0.103651
874.640715	0.103608
874.825394	0.103684
875.010055	0.103509
875.194697	0.103828
875.379322	0.104189
875.563928	0.104028
875.748516	0.104146
875.933085	0.104681
876.117637	0.104513
876.302170	0.104419
876.486685	0.104416
876.671182	0.104846
876.855661	0.104738
877.040121	0.104813
877.224563	0.105065
877.408987	0.105201
877.593393	0.104664
877.777780	0.105037
877.962150	0.105277
878.146501	0.105599
878.330833	0.105643
878.515148	0.105868
878.699444	0.106076
878.883722	0.106190
879.067982	0.106092
879.252224	0.106287
879.436447	0.105957
879.620653	0.105955
879.804840	0.105774
879.989008	0.105690
880.173159	0.105582
880.357291	0.105322
880.541405	0.105022
880.725501	0.105299
880.909579	0.105155
881.093638	0.105049
881.277680	0.105002
881.461703	0.105100
881.645707	0.105272
881.829694	0.105469
882.013662	0.104979
882.197612	0.105174
882.381544	0.104885
882.565458	0.104893
882.749353	0.104832
882.933230	0.104738
883.117089	0.105048
883.300930	0.104629
883.484753	0.104382
883.668557	0.104802
883.852343	0.104639
884.036111	0.104986
884.219861	0.105048
884.403592	0.105294
884.587305	0.105223
884.771000	0.105108
884.954677	0.105523
885.138335	0.105623
885.321976	0.105452
885.505598	0.105700
885.689201	0.105766
885.872787	0.105882
886.056354	0.105886
886.239904	0.106046
886.423434	0.106113
886.606947	0.106082
886.790442	0.106148
886.973918	0.106528
887.157376	0.106683
887.340816	0.106681
887.524237	0.106444
887.707641	0.106812
887.891026	0.107111
888.074393	0.107336
888.257741	0.107366
888.441072	0.107361
888.624384	0.107505
888.807678	0.107443
888.990954	0.107465
889.174211	0.107704
889.357451	0.107328
889.540672	0.106983
889.723875	0.106395
889.907059	0.106759
890.090226	0.106753
890.273374	0.106542
890.456504	0.106478
890.639616	0.106056
890.822709	0.106107
891.005785	0.106202
891.188842	0.106259
891.371881	0.106299
891.554901	0.105850
891.737904	0.105766
891.920888	0.105543
892.103854	0.105569
892.286802	0.105617
892.469731	0.105832
892.652643	0.105572
892.835536	0.105743
893.018410	0.105646
893.201267	0.105566
893.384106	0.105542
893.566926	0.105103
893.749728	0.104517
893.932511	0.104397
894.115277	0.104022
894.298024	0.104249
894.480753	0.103833
894.663464	0.103826
894.846157	0.103758
895.028831	0.103653
895.211487	0.103749
895.394125	0.104033
895.576745	0.103834
895.759346	0.104038
895.941930	0.103678
896.124495	0.103819
896.307041	0.103436
896.489570	0.103194
896.672080	0.102975
896.854573	0.103241
897.037046	0.102997
897.219502	0.103197
897.401940	0.102918
897.584359	0.102894
897.766760	0.102512
897.949143	0.102579
898.131507	0.102452
898.313854	0.102271
898.496182	0.101989
898.678492	0.102267
898.860783	0.102194
899.043057	0.101796
899.225312	0.101732
899.407549	0.101917
899.589768	0.102174
899.771968	0.102024
899.954151	0.102101
900.136315	0.102596
900.318461	0.102228
900.500588	0.102467
900.682698	0.102475
900.864789	0.102142
901.046862	0.101871
901.228917	0.101763
901.410953	0.102300
901.592971	0.102370
901.774972	0.102138
901.956953	0.102312
902.138917	0.102121
902.320862	0.102225
902.502790	0.102243
902.684699	0.102548
902.866589	0.102346
903.048462	0.102156
903.230316	0.101827
903.412152	0.101298
903.593970	0.101077
903.775770	0.101029
903.957551	0.101163
904.139314	0.101482
904.321059	0.101234
904.502786	0.101495
904.684494	0.101417
904.866185	0.101253
905.047857	0.101341
905.229510	0.101331
905.411146	0.100898
905.592763	0.100701
905.774363	0.100605
905.955943	0.100547
906.137506	0.100487
906.319051	0.100001
906.500577	0.100308
906.682085	0.100131
906.863575	0.100406
907.045046	0.100265
907.226500	0.099597
907.407935	0.099245
907.589352	0.098784
907.770750	0.098121
907.952131	0.098047
908.133493	0.097359
908.314837	0.097217
908.496163	0.096540
908.677470	0.096696
908.858760	0.096606
909.040031	0.096334
909.221284	0.096672
909.402518	0.096459
909.583735	0.096319
909.764933	0.096581
909.946113	0.096223
910.127275	0.096004
910.308418	0.095383
910.489544	0.095370
910.670651	0.095135
910.851740	0.094551
911.032810	0.094105
911.213863	0.093664
911.394897	0.093004
911.575913	0.092940
911.756911	0.093011
911.937890	0.093311
912.118851	0.093034
912.299794	0.093015
912.480719	0.092556
912.661626	0.092588
912.842514	0.092295
913.023384	0.092016
913.204236	0.091310
913.385070	0.090817
913.565886	0.089962
913.746683	0.089375
913.927462	0.088976
914.108223	0.088914
914.288965	0.088342
914.469690	0.087823
914.650396	0.087615
914.831084	0.087573
915.011754	0.087127
915.192405	0.086700
915.373038	0.086009
915.553653	0.085570
915.734250	0.085003
915.914829	0.084608
916.095389	0.084517
916.275931	0.084312
916.456455	0.083985
916.636961	0.083551
916.817448	0.083210
916.997917	0.083853
917.178368	0.083313
917.358801	0.082948
917.539216	0.082921
917.719612	0.082613
917.899990	0.082315
918.080350	0.082023
918.260692	0.081596
918.441015	0.081205
918.621320	0.080512
918.801607	0.079951
918.981876	0.079495
919.162127	0.079591
919.342359	0.079434
919.522573	0.079110
919.702769	0.078696
919.882947	0.078385
920.063106	0.078221
920.243247	0.077592
920.423370	0.077381
920.603475	0.077115
920.783562	0.076453
920.963630	0.076401
921.143680	0.075707
921.323712	0.075445
921.503725	0.074891
921.683721	0.074659
921.863698	0.074431
922.043657	0.074147
922.223598	0.074184
922.403520	0.073604
922.583424	0.072873
922.763311	0.072592
922.943178	0.071761
923.123028	0.071869
923.302859	0.071580
923.482673	0.071698
923.662467	0.071699
923.842244	0.070962
924.022003	0.070809
924.201743	0.070661
924.381465	0.070166
924.561169	0.070540
924.740854	0.070130
924.920522	0.069722
925.100171	0.068870
925.279802	0.068197
925.459414	0.068204
925.639009	0.067630
925.818585	0.067124
925.998143	0.066701
926.177683	0.066106
926.357205	0.066179
926.536708	0.065720
926.716193	0.065638
926.895660	0.065247
927.075109	0.064677
927.254539	0.064542
927.433951	0.064720
927.613345	0.064786
927.792721	0.064249
927.972079	0.063231
928.151418	0.063061
928.330739	0.062481
928.510042	0.062215
928.689327	0.061411
928.868593	0.060343
929.047841	0.059013
929.227071	0.057764
929.406283	0.057353
929.585476	0.057302
929.764652	0.056668
929.943809	0.056288
930.122948	0.055802
930.302068	0.055604
930.481171	0.055834
930.660255	0.055131
930.839321	0.055694
931.018369	0.055194
931.197398	0.054867
931.376409	0.054647
931.555402	0.053811
931.734377	0.053762
931.913334	0.053496
932.092272	0.053053
932.271192	0.052931
932.450094	0.052872
932.628978	0.052661
932.807844	0.051907
932.986691	0.050637
933.165520	0.050200
933.344331	0.049497
933.523123	0.048802
933.701898	0.047825
933.880654	0.047863
934.059392	0.046619
934.238111	0.046114
934.416813	0.045396
934.595496	0.045110
934.774161	0.044883
934.952808	0.043839
935.131437	0.043659
935.310047	0.043153
935.488639	0.042557
935.667213	0.042220
935.845769	0.041684
936.024306	0.040843
936.202825	0.040348
936.381326	0.039942
936.559809	0.040221
936.738274	0.039812
936.916720	0.039650
937.095148	0.038942
937.273558	0.038690
937.451950	0.037987
937.630323	0.037889
937.808678	0.037752
937.987015	0.037631
938.165334	0.035967
938.343635	0.034927
938.521917	0.035269
938.700181	0.034367
938.878427	0.034095
939.056655	0.034192
939.234864	0.034727
939.413055	0.033906
939.591228	0.032476
939.769383	0.032717
939.947519	0.033164
940.125638	0.031353
940.303738	0.031220
940.481820	0.029166
940.659883	0.027780
940.837929	0.025474
941.015956	0.026083
941.193965	0.026268
941.371955	0.026609
941.549928	0.024935
941.727882	0.025156
941.905818	0.024613
942.083736	0.025170
942.261636	0.024908
942.439517	0.025266
942.617380	0.023740
942.795225	0.022991
942.973052	0.021352
943.150860	0.021804
943.328651	0.021227
943.506423	0.022250
943.684176	0.021916
943.861912	0.022344
944.039629	0.021350
944.217328	0.022360
944.395009	0.022284
944.572672	0.021915
944.750317	0.020990
944.927943	0.021647
945.105551	0.020552
945.283141	0.019672
945.460712	0.018340
945.638265	0.019058
945.815801	0.018888
945.993317	0.018908
946.170816	0.018878
946.348297	0.017715
946.525759	0.016126
946.703203	0.015317
946.880629	0.015471
947.058036	0.015818
947.235425	0.014439
947.412797	0.012895
947.590149	0.011837
947.767484	0.011753
947.944800	0.013259
948.122099	0.012477
948.299379	0.011311
948.476640	0.011439
948.653884	0.010961
948.831109	0.010932
949.008316	0.010853
949.185505	0.011753
949.362676	0.011878
949.539828	0.010286
949.716962	0.009989
949.894078	0.011589
950.071176	0.011382
950.248256	0.010272
950.425317	0.009919
950.602360	0.009353
950.779385	0.008780
950.956391	0.007298
951.133380	0.006148
951.310350	0.005088
951.487302	0.003518
951.664235	0.002295
951.841151	0.003142
952.018048	0.002811
952.194927	0.003297
952.371788	0.002712
952.548631	0.003933
952.725455	0.004953
952.902261	0.005283
953.079049	0.005511
953.255819	0.005356
953.432570	0.005093
953.609303	0.006319
953.786018	0.005291
953.962715	0.003492
954.139394	0.001994
954.316054	0.001227
954.492696	0.001647
954.669320	0.001464
954.845926	0.001990
955.022513	0.002103
955.199083	0.001464
955.375634	0.002872
955.552166	0.004755
955.728681	0.005209
955.905177	0.006473
956.081655	0.006644
956.258115	0.005611
956.434557	0.002769
956.610980	0.002118
956.787385	0.001469
956.963772	-0.000575
957.140141	0.000078
957.316492	-0.000599
957.492824	-0.001585
957.669138	-0.001217
957.845434	0.000083
958.021712	0.003254
958.197971	0.002588
958.374212	0.003473
958.550435	0.003333
958.726640	0.000805
958.902826	0.001371
959.078995	0.002205
959.255145	0.002150
959.431277	-0.000365
959.607390	0.000038
959.783486	0.002313
959.959563	-0.000253
960.135622	0.001161
960.311662	0.003941
960.487685	0.004507
960.663689	0.005870
960.839675	0.007293
961.015643	0.009584
961.191593	0.007053
961.367524	0.005757
961.543437	0.009544
961.719332	0.011626
961.895209	0.012093
962.071067	0.012531
962.246907	0.009944
962.422730	0.008849
962.598533	0.008478
962.774319	0.011242
962.950086	0.010179
963.125835	0.009113
963.301566	0.006536
963.477279	0.005546
963.652973	0.006506
963.828650	0.008614
964.004308	0.009002
964.179947	0.010863
964.355569	0.008597
964.531172	0.009596
964.706757	0.009674
964.882324	0.010586
965.057873	0.010788
965.233403	0.009719
965.408916	0.008148
965.584410	0.009394
965.759885	0.008294
965.935343	0.011246
966.110782	0.012811
966.286203	0.012452
966.461606	0.013934
966.636991	0.014190
966.812357	0.014166
966.987705	0.015470
967.163035	0.013661
967.338347	0.012801
967.513641	0.011572
967.688916	0.010571
967.864173	0.011562
968.039412	0.009752
968.214632	0.010362
968.389835	0.010080
968.565019	0.009176
968.740185	0.011300
968.915333	0.009613
969.090462	0.010737
969.265573	0.008342
969.440667	0.007516
969.615741	0.008607
969.790798	0.008450
969.965836	0.009459
970.140856	0.009481
970.315858	0.008521
970.490842	0.009576
970.665808	0.008256
970.840755	0.011279
971.015684	0.011193
971.190595	0.009983
971.365487	0.008466
971.540362	0.009855
971.715218	0.010578
971.890056	0.011307
972.064875	0.012118
972.239677	0.011403
972.414460	0.009620
972.589225	0.010484
972.763972	0.012946
972.938700	0.016307
973.113411	0.016428
973.288103	0.015442
973.462777	0.013873
973.637432	0.014822
973.812070	0.016597
973.986689	0.017798
974.161290	0.018523
974.335873	0.016054
974.510437	0.014296
974.684984	0.013627
974.859512	0.013466
975.034022	0.012748
975.208513	0.010842
975.382987	0.010905
975.557442	0.009357
975.731879	0.007597
975.906298	0.008247
976.080698	0.006172
976.255080	0.004416
976.429445	0.006900
976.603790	0.007785
976.778118	0.008931
976.952427	0.008376
977.126719	0.009609
977.300992	0.010089
977.475246	0.010337
977.649483	0.012345
977.823701	0.011919
977.997901	0.010351
978.172083	0.010555
978.346247	0.011655
978.520392	0.011426
978.694519	0.010928
978.868628	0.012324
979.042719	0.012863
979.216791	0.015116
979.390845	0.017669
979.564882	0.018284
979.738899	0.018837
979.912899	0.016945
980.086880	0.016735
980.260843	0.017419
980.434788	0.016086
980.608715	0.013997
980.782623	0.012248
980.956514	0.012484
981.130386	0.013235
981.304240	0.013481
981.478075	0.014951
981.651892	0.012891
981.825692	0.012940
981.999472	0.011882
982.173235	0.011732
982.346980	0.010414
982.520706	0.009332
982.694414	0.008126
982.868104	0.009123
983.041775	0.011645
983.215428	0.012174
983.389064	0.011731
983.562680	0.013696
983.736279	0.014058
983.909860	0.015385
984.083422	0.016546
984.256966	0.016490
984.430491	0.013969
984.603999	0.009275
984.777488	0.011063
984.950959	0.012973
985.124412	0.012141
985.297847	0.012746
985.471263	0.012579
985.644661	0.011117
985.818041	0.011240
985.991403	0.012489
986.164747	0.013519
986.338072	0.012884
986.511379	0.011929
986.684668	0.012065
986.857938	0.012898
987.031191	0.012378
987.204425	0.011813
987.377641	0.012894
987.550839	0.012178
987.724018	0.012285
987.897179	0.014047
988.070322	0.012522
988.243447	0.011745
988.416554	0.012857
988.589642	0.012114
988.762712	0.010379
988.935764	0.008532
989.108798	0.008053
989.281813	0.009256
989.454811	0.008166
989.627790	0.009805
989.800751	0.012980
989.973693	0.012299
990.146617	0.013366
990.319524	0.015803
990.492412	0.015629
990.665281	0.016406
990.838133	0.016659
991.010966	0.016237
991.183781	0.017121
991.356578	0.014573
991.529356	0.012249
991.702117	0.013064
991.874859	0.012892
992.047583	0.014673
992.220288	0.013499
992.392976	0.012235
992.565645	0.011978
992.738296	0.009843
992.910929	0.010979
993.083543	0.013199
993.256139	0.008984
993.428718	0.009554
993.601277	0.008526
993.773819	0.008668
993.946342	0.009699
994.118848	0.011542
994.291335	0.011158
994.463803	0.009892
994.636254	0.009434
994.808686	0.011708
994.981100	0.011850
995.153496	0.014239
995.325874	0.015688
995.498233	0.015659
995.670574	0.014564
995.842897	0.014161
996.015202	0.013546
996.187488	0.011670
996.359757	0.011802
996.532007	0.010008
996.704239	0.006889
996.876452	0.006298
997.048648	0.004742
997.220825	0.005134
997.392984	0.005736
997.565124	0.006683
997.737247	0.007682
997.909351	0.009376
998.081437	0.008599
998.253505	0.009913
998.425554	0.009571
998.597586	0.009544
998.769599	0.008666
998.941594	0.007830
999.113571	0.007733
999.285529	0.007832
999.457469	0.006564
999.629391	0.006958
999.801295	0.006942
999.973181	0.006204
1000.145048	0.007669
1000.316897	0.006612
1000.488728	0.007810
1000.660541	0.007734
1000.832335	0.006910
1001.004111	0.007163
1001.175869	0.009781
1001.347609	0.008746
1001.519331	0.009000
1001.691034	0.007971
1001.862719	0.008085
1002.034386	0.007530
1002.206035	0.006023
1002.377665	0.007256
1002.549277	0.006362
1002.720871	0.003996
1002.892447	0.005828
1003.064004	0.004720
1003.235544	0.006507
1003.407065	0.008505
1003.578568	0.009875
1003.750052	0.010447
1003.921519	0.010126
1004.092967	0.009158
1004.264397	0.008373
1004.435809	0.008560
1004.607202	0.010823
1004.778577	0.008839
1004.949934	0.006288
1005.121273	0.006225
1005.292594	0.006221
1005.463896	0.007370
1005.635180	0.010283
1005.806446	0.010368
1005.977694	0.007703
1006.148923	0.005853
1006.320135	0.005270
1006.491328	0.007098
1006.662503	0.005252
1006.833659	0.005442
1007.004798	0.003985
1007.175918	0.002926
1007.347020	0.003287
1007.518103	0.004707
1007.689169	0.006363
1007.860216	0.007030
1008.031245	0.007039
1008.202256	0.008125
1008.373248	0.008530
1008.544223	0.008552
1008.715179	0.005835
1008.886117	0.006008
1009.057036	0.006047
1009.227938	0.006711
1009.398821	0.007811
1009.569686	0.007030
1009.740533	0.006494
1009.911361	0.007658
1010.082172	0.006421
1010.252964	0.008464
1010.423738	0.008325
1010.594493	0.008649
1010.765231	0.006777
1010.935950	0.005791
1011.106651	0.004660
1011.277334	0.007157
1011.447998	0.007066
1011.618645	0.007890
1011.789273	0.007647
1011.959882	0.007041
1012.130474	0.007065
1012.301048	0.007522
1012.471603	0.006490
1012.642140	0.007646
1012.812658	0.004374
1012.983159	0.003286
1013.153641	0.005004
1013.324105	0.006077
1013.494551	0.007075
1013.664979	0.006432
1013.835388	0.005444
1014.005779	0.006737
1014.176152	0.008610
1014.346507	0.008907
1014.516843	0.008102
1014.687162	0.006229
1014.857462	0.004443
1015.027744	0.004269
1015.198007	0.004135
1015.368252	0.005549
1015.538480	0.005034
1015.708689	0.003881
1015.878879	0.004717
1016.049052	0.005613
1016.219206	0.008660
1016.389342	0.009027
1016.559460	0.008290
1016.729559	0.007890
1016.899641	0.008829
1017.069704	0.009647
1017.239749	0.009454
1017.409775	0.007634
1017.579784	0.007792
1017.749774	0.004217
1017.919746	0.006811
1018.089700	0.007464
1018.259635	0.008437
1018.429553	0.008235
1018.599452	0.007766
1018.769333	0.006937
1018.939195	0.010062
1019.109040	0.009810
1019.278866	0.011616
1019.448674	0.010103
1019.618464	0.009172
1019.788235	0.006803
1019.957989	0.004604
1020.127724	0.003225
1020.297441	0.003446
1020.467139	0.001747
1020.636820	0.000672
1020.806482	-0.000947
1020.976126	-0.001872
1021.145752	-0.000010
1021.315359	0.001064
1021.484948	0.001098
1021.654519	0.000052
1021.824072	-0.001064
1021.993607	-0.002418
1022.163123	0.000205
1022.332621	0.001562
1022.502101	0.002152
1022.671563	-0.000013
1022.841007	0.000739
1023.010432	-0.000033
1023.179839	0.000337
1023.349228	0.002207
1023.518598	0.003314
1023.687951	0.001683
1023.857285	0.000041
1024.026601	0.000278
1024.195899	0.001398
1024.365178	0.001048
1024.534439	0.002102
1024.703682	0.003210
1024.872907	0.003524
1025.042114	0.005085
1025.211302	0.006157
1025.380472	0.006886
1025.549624	0.006754
1025.718758	0.007330
1025.887873	0.008079
1026.056970	0.009877
1026.226049	0.010936
1026.395110	0.008076
1026.564153	0.005645
1026.733177	0.004522
1026.902183	0.004767
1027.071171	0.004029
1027.240141	0.003728
1027.409092	0.002895
1027.578026	0.002316
1027.746940	0.002562
1027.915837	0.004765
1028.084716	0.006575
1028.253576	0.007046
1028.422418	0.008032
1028.591242	0.010355
1028.760048	0.010114
1028.928835	0.010564
1029.097604	0.009788
1029.266355	0.010448
1029.435088	0.008461
1029.603803	0.006631
1029.772499	0.006054
1029.941177	0.005165
1030.109837	0.004466
1030.278478	0.004497
1030.447102	0.003216
1030.615707	0.003417
1030.784294	0.002200
1030.952863	0.002624
1031.121413	0.005169
1031.289945	0.005281
1031.458460	0.005247
1031.626955	0.003638
1031.795433	0.004625
1031.963892	0.006469
1032.132334	0.006250
1032.300756	0.006919
1032.469161	0.007277
1032.637548	0.006742
1032.805916	0.006340
1032.974266	0.005804
1033.142598	0.006035
1033.310911	0.006194
1033.479207	0.005212
1033.647484	0.004399
1033.815743	0.002720
1033.983983	0.002858
1034.152206	0.001707
1034.320410	0.000418
1034.488596	0.001948
1034.656764	0.003201
1034.824914	0.002623
1034.993045	0.001520
1035.161158	0.000990
1035.329253	0.001499
1035.497330	0.002954
1035.665388	0.002112
1035.833428	0.003871
1036.001450	0.002846
1036.169454	0.001760
1036.337440	0.001663
1036.505407	0.001839
1036.673356	0.003301
1036.841287	0.003719
1037.009200	0.002719
1037.177094	0.003199
1037.344970	0.003273
1037.512828	0.004870
1037.680668	0.004054
1037.848489	0.002385
1038.016293	0.003474
1038.184078	0.003805
1038.351845	0.005020
1038.519593	0.005987
1038.687324	0.006639
1038.855036	0.005157
1039.022730	0.001777
1039.190406	0.002507
1039.358063	0.003935
1039.525702	0.002915
1039.693323	0.003549
1039.860926	0.001366
1040.028511	0.000241
1040.196077	-0.000432
1040.363625	0.000028
1040.531155	0.002394
1040.698667	0.001851
1040.866161	0.001890
1041.033636	0.003330
1041.201093	0.001472
1041.368532	0.000608
1041.535952	0.000779
1041.703355	0.000596
1041.870739	0.001674
1042.038105	0.000065
1042.205452	0.001100
1042.372782	0.001727
1042.540093	0.002012
1042.707386	0.002629
1042.874661	0.004371
1043.041918	0.004013
1043.209156	0.004381
1043.376376	0.003687
1043.543578	0.004473
1043.710762	0.002676
1043.877927	0.001929
1044.045074	0.001154
1044.212203	0.000397
1044.379314	0.001035
1044.546407	0.001407
1044.713481	0.003227
1044.880537	0.003703
1045.047575	0.003300
1045.214595	0.003582
1045.381596	0.003456
1045.548579	0.001940
1045.715544	0.002052
1045.882491	0.000838
1046.049420	0.000495
1046.216330	-0.000774
1046.383222	-0.000400
1046.550096	0.000503
1046.716951	0.001650
1046.883789	0.001843
1047.050608	0.004683
1047.217409	0.006399
1047.384192	0.006994
1047.550956	0.007015
1047.717703	0.006531
1047.884431	0.006422
1048.051140	0.006752
1048.217832	0.006329
1048.384505	0.004406
1048.551161	0.001946
1048.717798	0.000796
1048.884416	0.001842
1049.051017	0.002826
1049.217599	0.003465
1049.384163	0.003739
1049.550709	0.003233
1049.717237	0.004222
1049.883746	0.006168
1050.050237	0.006306
1050.216710	0.007449
1050.383165	0.005539
1050.549601	0.005672
1050.716019	0.004627
1050.882420	0.001933
1051.048801	0.002894
1051.215165	0.002026
1051.381510	0.000308
1051.547837	0.002984
1051.714146	0.000260
1051.880437	0.000622
1052.046709	0.000054
1052.212964	-0.000243
1052.379200	0.000070
1052.545417	-0.001308
1052.711617	-0.001002
1052.877798	0.000016
1053.043961	-0.002613
1053.210106	-0.001074
1053.376233	-0.001091
1053.542341	-0.002025
1053.708432	0.000183
1053.874504	0.002721
1054.040557	0.001605
1054.206593	0.001602
1054.372610	0.002522
1054.538609	0.003004
1054.704590	0.001757
1054.870553	0.003055
1055.036497	0.003302
1055.202424	-0.000365
1055.368331	-0.000579
1055.534221	0.000281
1055.700093	-0.000218
1055.865946	-0.001144
1056.031781	-0.000684
1056.197598	0.000733
1056.363397	-0.000232
1056.529177	-0.000439
1056.694939	0.003211
1056.860683	0.004042
1057.026409	0.004602
1057.192116	0.005722
1057.357806	0.006184
1057.523477	0.005628
1057.689130	0.005007
1057.854764	0.003570
1058.020381	0.003478
1058.185979	0.001821
1058.351559	-0.000496
1058.517120	-0.000735
1058.682664	-0.002321
1058.848189	-0.003313
1059.013696	-0.001765
1059.179185	-0.002870
1059.344656	-0.001417
1059.510108	-0.002597
1059.675542	-0.000318
1059.840958	-0.000228
1060.006356	0.000494
1060.171735	0.001328
1060.337096	0.002603
1060.502439	0.000407
1060.667764	0.001058
1060.833071	0.001367
1060.998359	0.003309
1061.163629	0.001798
1061.328881	0.002977
1061.494115	0.002466
1061.659330	0.001528
1061.824527	0.000121
1061.989706	-0.000644
1062.154867	0.001314
1062.320010	0.001246
1062.485134	0.000643
1062.650240	-0.000011
1062.815328	-0.002107
1062.980398	-0.001764
1063.145449	-0.000666
1063.310482	-0.000724
1063.475497	0.000716
1063.640494	-0.001174
1063.805473	-0.002205
1063.970433	-0.001099
1064.135375	-0.001964
1064.300299	0.000474
1064.465204	0.000536
1064.630092	0.002755
1064.794961	0.004960
1064.959812	0.006749
1065.124645	0.007302
1065.289459	0.008563
1065.454256	0.009298
1065.619034	0.010251
1065.783793	0.008719
1065.948535	0.007264
1066.113258	0.004441
1066.277964	0.002675
1066.442651	0.001738
1066.607319	0.001770
1066.771970	0.001867
1066.936602	0.001793
1067.101216	0.001946
1067.265812	0.002853
1067.430389	0.002521
1067.594949	0.000749
1067.759490	0.000125
1067.924013	-0.000513
1068.088518	0.000691
1068.253004	-0.000562
1068.417472	-0.003050
1068.581922	-0.004460
1068.746354	-0.004968
1068.910768	-0.003133
1069.075163	-0.002877
1069.239540	-0.003505
1069.403899	-0.004147
1069.568240	-0.006042
1069.732562	-0.004119
1069.896866	-0.004164
1070.061152	-0.003378
1070.225420	-0.005590
1070.389670	-0.006807
1070.553901	-0.006905
1070.718114	-0.005179
1070.882309	-0.005608
1071.046486	-0.005462
1071.210644	-0.008354
1071.374784	-0.006458
1071.538906	-0.004895
1071.703010	-0.000590
1071.867096	-0.000553
1072.031163	-0.000327
1072.195212	-0.001262
1072.359243	0.000800
1072.523256	0.002059
1072.687250	0.002404
1072.851226	-0.000153
1073.015184	-0.002645
1073.179124	-0.005663
1073.343045	-0.005884
1073.506949	-0.002608
1073.670834	0.000221
1073.834701	-0.000964
1073.998549	-0.001524
1074.162380	-0.000896
1074.326192	-0.000283
1074.489986	0.000444
1074.653761	0.001197
1074.817519	0.001532
1074.981258	-0.001874
1075.144979	-0.005338
1075.308682	-0.005009
1075.472367	-0.005596
1075.636033	-0.003748
1075.799681	-0.002019
1075.963311	-0.000621
1076.126923	-0.002774
1076.290516	-0.002332
1076.454092	-0.000029
1076.617649	0.001255
1076.781187	0.000893
1076.944708	0.001342
1077.108210	-0.000123
1077.271695	-0.000713
1077.435160	0.000610
1077.598608	0.002919
1077.762038	0.002760
1077.925449	0.002267
1078.088842	0.003402
1078.252217	0.003990
1078.415573	0.004066
1078.578912	0.005208
1078.742232	0.006417
1078.905534	0.006974
1079.068817	0.006759
1079.232083	0.008081
1079.395330	0.007939
1079.558559	0.006920
1079.721770	0.005348
1079.884962	0.005018
1080.048136	0.001274
1080.211293	-0.001000
1080.374430	-0.007046
1080.537550	-0.007907
1080.700651	-0.009395
1080.863735	-0.008458
1081.026800	-0.008509
1081.189846	-0.007978
1081.352875	-0.009440
1081.515885	-0.007791
1081.678877	-0.004465
1081.841851	0.001975
1082.004807	0.002408
1082.167744	0.003520
1082.330663	0.002898
1082.493564	0.004591
1082.656447	0.004506
1082.819312	0.006362
1082.982158	0.006094
1083.144986	0.003098
1083.307796	0.002746
1083.470587	0.003152
1083.633361	0.002677
1083.796116	0.001962
1083.958853	-0.000196
1084.121571	0.000355
1084.284272	0.000753
1084.446954	0.003843
1084.609618	0.003719
1084.772264	0.003616
1084.934892	0.006141
1085.097501	0.003875
1085.260092	0.004235
1085.422665	0.005551
1085.585220	0.007623
1085.747756	0.008856
1085.910274	0.007811
1086.072774	0.007406
1086.235256	0.005673
1086.397720	0.004312
1086.560165	0.006912
1086.722592	0.006712
1086.885001	0.006542
1087.047392	0.006026
1087.209764	0.007228
1087.372119	0.007068
1087.534455	0.008540
1087.696772	0.007643
1087.859072	0.009195
1088.021353	0.008139
1088.183616	0.006851
1088.345861	0.008053
1088.508088	0.008028
1088.670296	0.004939
1088.832486	0.002790
1088.994658	0.005562
1089.156812	0.004271
1089.318948	0.001079
1089.481065	0.005673
1089.643164	0.005791
1089.805245	0.002464
1089.967308	0.001504
1090.129352	0.002041
1090.291378	0.004504
1090.453386	0.000612
1090.615376	0.002405
1090.777347	0.005114
1090.939301	-0.003220
1091.101236	-0.003049
1091.263153	-0.001483
1091.425051	-0.000798
1091.586932	-0.000275
1091.748794	-0.000845
1091.910638	0.000270
1092.072463	0.001173
1092.234271	0.001350
1092.396060	0.004957
1092.557831	0.004094
1092.719584	0.004560
1092.881319	0.004949
1093.043035	0.003872
1093.204733	0.004176
1093.366413	0.003444
1093.528075	0.003431
1093.689718	0.001829
1093.851343	-0.000105
1094.012950	-0.000412
1094.174539	-0.000347
1094.336110	-0.003537
1094.497662	-0.003607
1094.659196	-0.003853
1094.820712	-0.004302
1094.982210	-0.004911
1095.143689	-0.004981
1095.305151	-0.001703
1095.466594	0.003471
1095.628018	0.001411
1095.789425	0.001285
1095.950813	-0.000967
1096.112183	-0.000926
1096.273535	-0.001120
1096.434869	-0.002272
1096.596184	-0.007892
1096.757482	-0.010142
1096.918761	-0.013101
1097.080021	-0.011270
1097.241264	-0.010233
1097.402488	-0.007673
1097.563694	-0.009086
1097.724882	-0.009751
1097.886052	-0.011634
1098.047203	-0.002988
1098.208336	-0.003339
1098.369451	-0.002146
1098.530548	-0.005534
1098.691627	-0.005182
1098.852687	-0.005431
1099.013729	-0.003189
1099.174753	0.000428
1099.335758	0.002405
1099.496746	-0.000806
1099.657715	0.001798
1099.818666	-0.000945
1099.979599	0.002169
1100.140513	0.004536
1100.301409	0.003405
1100.462287	0.001879
1100.623147	0.001607
1100.783989	0.000818
1100.944812	-0.000429
1101.105617	-0.002227
1101.266404	0.000125
1101.427173	0.000843
1101.587923	0.002475
1101.748656	0.004923
1101.909370	0.009275
1102.070066	0.005949
1102.230743	0.007205
1102.391403	0.009837
1102.552044	0.010452
1102.712667	0.006112
1102.873271	0.006679
1103.033858	0.004032
1103.194426	0.003048
1103.354976	-0.003743
1103.515508	-0.003279
1103.676021	-0.003500
1103.836517	-0.005343
1103.996994	-0.002927
1104.157453	-0.002124
1104.317893	-0.007047
1104.478316	-0.008446
1104.638720	-0.006179
1104.799106	-0.005896
1104.959474	-0.004570
1105.119823	-0.002702
1105.280155	-0.006565
1105.440468	-0.009979
1105.600763	-0.009553
1105.761039	-0.005023
1105.921298	-0.004719
1106.081538	-0.003482
1106.241760	-0.005290
1106.401964	-0.004723
1106.562149	-0.007573
1106.722316	-0.003605
1106.882465	-0.002050
1107.042596	-0.001647
1107.202709	-0.002028
1107.362803	-0.003981
1107.522879	-0.008555
1107.682937	-0.005767
1107.842977	-0.014121
1108.002999	-0.011606
1108.163002	-0.011237
1108.322987	-0.011796
1108.482954	-0.011381
1108.642902	-0.010495
1108.802833	-0.008620
1108.962745	-0.007466
1109.122639	-0.008296
1109.282515	0.000527
1109.442372	-0.000422
1109.602211	-0.005729
1109.762032	-0.004844
1109.921835	-0.005789
1110.081620	-0.004759
1110.241386	-0.003064
1110.401134	-0.004136
1110.560864	-0.002526
1110.720576	-0.005065
1110.880269	-0.006574
1111.039945	0.000881
1111.199602	-0.002664
1111.359240	0.004364
1111.518861	-0.000481
1111.678463	-0.003556
1111.838047	-0.002832
1111.997613	-0.003977
1112.157161	-0.000336
1112.316690	-0.000702
1112.476202	-0.006191
1112.635695	-0.001742
1112.795169	-0.007511
1112.954626	-0.005585
1113.114064	-0.003665
1113.273484	-0.004497
1113.432886	-0.003635
1113.592270	-0.008636
1113.751635	-0.009044
1113.910983	-0.009579
1114.070312	-0.013416
1114.229622	-0.014562
1114.388915	-0.011807
1114.548189	-0.009393
1114.707445	-0.009394
1114.866683	-0.007085
1115.025903	-0.005321
1115.185104	-0.005101
1115.344287	-0.004311
1115.503452	-0.000699
1115.662599	0.001285
1115.821727	-0.002877
1115.980838	-0.004852
1116.139930	-0.005039
1116.299004	-0.007359
1116.458059	-0.009105
1116.617097	-0.007486
1116.776116	-0.003020
1116.935117	-0.008101
1117.094099	-0.007933
1117.253064	-0.011283
1117.412010	-0.009758
1117.570938	-0.010944
1117.729848	-0.008036
1117.888740	-0.007435
1118.047613	-0.006686
1118.206468	-0.010972
1118.365305	-0.008537
1118.524124	-0.012911
1118.682924	-0.010273
1118.841707	-0.016084
1119.000471	-0.015651
1119.159216	-0.016786
1119.317944	-0.015757
1119.476653	-0.017619
1119.635344	-0.018264
1119.794017	-0.014930
1119.952672	-0.014995
1120.111308	-0.009200
1120.269927	-0.006006
1120.428527	-0.002036
1120.587108	-0.006206
1120.745672	-0.004122
1120.904217	-0.002200
1121.062744	0.000256
1121.221253	-0.007467
1121.379744	-0.001958
1121.538216	-0.008009
1121.696671	-0.009653
1121.855107	-0.011921
1122.013524	-0.005337
1122.171924	-0.003873
1122.330305	-0.006693
1122.488668	-0.006598
1122.647013	-0.007643
1122.805340	-0.008892
1122.963648	-0.010087
1123.121938	-0.008920
1123.280210	-0.010685
1123.438464	-0.013127
1123.596700	-0.016513
1123.754917	-0.012482
1123.913116	-0.015282
1124.071297	-0.007752
1124.229459	-0.009224
1124.387604	-0.002572
1124.545730	-0.002703
1124.703838	-0.003982
1124.861928	-0.001869
1125.019999	0.002351
1125.178052	-0.002485
1125.336088	-0.000410
1125.494104	0.005850
1125.652103	0.004640
1125.810083	0.000192
1125.968045	-0.002197
1126.125989	0.003688
1126.283915	-0.002080
1126.441823	-0.003936
1126.599712	-0.007592
1126.757583	-0.001600
1126.915436	-0.008997
1127.073270	-0.007677
1127.231087	-0.009968
1127.388885	-0.009069
1127.546665	-0.013169
1127.704426	-0.010428
1127.862170	-0.012057
1128.019895	-0.009362
1128.177602	-0.017575
1128.335291	-0.017794
1128.492961	-0.016245
1128.650614	-0.014409
1128.808248	-0.009482
1128.965864	-0.006701
1129.123461	-0.005204
1129.281041	-0.004189
1129.438602	0.000792
1129.596145	0.006682
1129.753670	0.007709
1129.911176	0.005477
1130.068665	0.003802
1130.226135	-0.000172
1130.383587	-0.006649
1130.541020	-0.014555
1130.698436	-0.021981
1130.855833	-0.027166
1131.013212	-0.031370
1131.170573	-0.031004
1131.327915	-0.030513
1131.485239	-0.024043
1131.642545	-0.020197
1131.799833	-0.018530
1131.957103	-0.017500
1132.114354	-0.007555
1132.271588	-0.005673
1132.428803	-0.005163
1132.585999	-0.007946
1132.743178	-0.010544
1132.900338	-0.012984
1133.057480	-0.012753
1133.214604	-0.008285
1133.371710	-0.003377
1133.528797	-0.006013
1133.685866	-0.004152
1133.842917	0.004098
1133.999950	0.004419
1134.156964	0.010220
1134.313960	0.006780
1134.470938	0.001197
1134.627898	-0.002441
1134.784840	-0.005572
1134.941763	-0.012122
1135.098668	-0.014492
1135.255555	-0.022921
1135.412424	-0.022545
1135.569274	-0.021338
1135.726107	-0.017628
1135.882921	-0.021193
1136.039716	-0.022528
1136.196494	-0.018889
1136.353253	-0.007962
1136.509995	-0.007522
1136.666717	-0.001345
1136.823422	-0.003866
1136.980109	-0.007278
1137.136777	-0.007699
1137.293427	-0.004279
1137.450059	-0.001534
1137.606672	0.001670
1137.763267	-0.000105
1137.919844	-0.003397
1138.076403	-0.006034
1138.232944	-0.001907
1138.389466	-0.004578
1138.545971	-0.004182
1138.702457	-0.007239
1138.858924	-0.010202
1139.015374	-0.008444
1139.171805	-0.011810
1139.328218	-0.004208
1139.484613	-0.007465
1139.640990	-0.009998
1139.797348	-0.006505
1139.953688	-0.010734
1140.110010	-0.001776
1140.266314	0.005849
1140.422600	0.004981
1140.578867	0.007216
1140.735116	0.006269
1140.891347	0.010649
1141.047559	0.012656
1141.203754	0.012424
1141.359930	0.012575
1141.516088	0.003960
1141.672228	0.004371
1141.828349	-0.003628
1141.984452	-0.014803
1142.140537	-0.020785
1142.296604	-0.026242
1142.452653	-0.025522
1142.608683	-0.026962
1142.764695	-0.019053
1142.920689	-0.016561
1143.076665	-0.023908
1143.232622	-0.022552
1143.388562	-0.012858
1143.544483	-0.004802
1143.700385	-0.003043
1143.856270	-0.003878
1144.012136	-0.004875
1144.167985	-0.013840
1144.323814	-0.011497
1144.479626	-0.007140
1144.635420	-0.005819
1144.791195	-0.010259
1144.946952	-0.018441
1145.102691	-0.020846
1145.258411	-0.016743
1145.414113	-0.022520
1145.569798	-0.018535
1145.725463	-0.026687
1145.881111	-0.022939
1146.036741	-0.020068
1146.192352	-0.017794
1146.347945	-0.010786
1146.503519	-0.003435
1146.659076	-0.021050
1146.814614	-0.015394
1146.970134	-0.016503
1147.125636	-0.007913
1147.281120	-0.021248
1147.436585	-0.018273
1147.592032	-0.022021
1147.747461	-0.017219
1147.902872	-0.017230
1148.058265	-0.000916
1148.213639	-0.003101
1148.368995	-0.001159
1148.524333	-0.000516
1148.679653	0.013285
1148.834954	0.004688
1148.990237	0.011014
1149.145502	-0.000724
1149.300749	-0.008595
1149.455977	-0.014517
1149.611188	-0.004842
1149.766380	0.001158
1149.921553	-0.008703
1150.076709	-0.009521
1150.231846	-0.001645
1150.386966	-0.006404
1150.542066	-0.008213
1150.697149	-0.006677
1150.852214	-0.004089
1151.007260	-0.013895
1151.162288	-0.014540
1151.317298	-0.006995
1151.472289	-0.010871
1151.627263	-0.009911
1151.782218	-0.011090
1151.937155	-0.003177
1152.092073	-0.002377
1152.246974	0.001667
1152.401856	0.008234
1152.556720	0.002991
1152.711566	0.010722
1152.866393	0.009728
1153.021203	-0.001117
1153.175994	0.002297
1153.330767	-0.000609
1153.485521	-0.002501
1153.640258	-0.006410
1153.794976	0.000643
1153.949676	0.005457
1154.104358	-0.005143
1154.259021	0.001199
1154.413667	0.001796
1154.568294	0.002722
1154.722903	-0.005690
1154.877493	-0.005655
1155.032066	-0.000521
1155.186620	-0.009607
1155.341156	-0.013977
1155.495674	-0.015325
1155.650173	-0.016098
1155.804654	-0.009262
1155.959118	-0.013682
1156.113562	0.001908
1156.267989	0.007148
1156.422397	0.006473
1156.576788	0.009690
1156.731160	0.012994
1156.885513	0.015779
1157.039849	0.014693
1157.194166	0.021503
1157.348465	0.031860
1157.502746	0.022714
1157.657009	0.028459
1157.811253	0.030214
1157.965479	0.034646
1158.119687	0.033097
1158.273877	0.026454
1158.428048	0.019819
1158.582201	0.008155
1158.736337	0.001828
1158.890453	0.000194
1159.044552	-0.009308
1159.198632	-0.019285
1159.352694	-0.032868
1159.506738	-0.039828
1159.660764	-0.030514
1159.814771	-0.029072
1159.968761	-0.027551
1160.122732	-0.027166
1160.276685	-0.024631
1160.430619	-0.017842
1160.584535	-0.023504
1160.738434	-0.005515
1160.892313	0.002929
1161.046175	-0.002086
1161.200019	-0.006733
1161.353844	-0.003172
1161.507651	-0.002884
1161.661440	0.000024
1161.815210	-0.011048
1161.968962	-0.001572
1162.122697	-0.018261
1162.276412	-0.028035
1162.430110	-0.013053
1162.583789	-0.007156
1162.737451	-0.011327
1162.891094	-0.015458
1163.044718	-0.013381
1163.198325	-0.005961
1163.351913	0.008366
1163.505483	0.006684
1163.659035	0.012284
1163.812569	-0.003569
1163.966084	-0.005425
1164.119581	-0.002348
1164.273060	0.002192
1164.426521	-0.001085
1164.579964	0.002847
1164.733388	-0.003705
1164.886794	0.000906
1165.040182	0.011112
1165.193551	0.010960
1165.346903	0.012724
1165.500236	-0.001876
1165.653551	0.000383
1165.806848	0.007948
1165.960126	0.004786
1166.113386	0.003814
1166.266628	-0.001117
1166.419852	-0.010417
1166.573058	0.003028
1166.726245	0.010352
1166.879414	0.021156
1167.032565	0.017665
1167.185698	0.021574
1167.338812	0.010080
1167.491909	0.004567
1167.644987	0.029468
1167.798046	0.019206
1167.951088	0.005548
1168.104111	-0.006100
1168.257117	-0.011647
1168.410103	0.002104
1168.563072	-0.001309
1168.716023	0.021233
1168.868955	0.017175
1169.021869	0.000399
1169.174765	-0.000518
1169.327642	-0.003533
1169.480501	-0.003569
1169.633343	-0.005346
1169.786165	-0.004956
1169.938970	-0.008165
1170.091757	-0.024530
1170.244525	-0.020469
1170.397275	-0.017601
1170.550007	-0.006083
1170.702720	-0.007386
1170.855415	-0.005553
1171.008092	-0.010739
1171.160751	-0.038614
1171.313392	-0.054079
1171.466014	-0.038077
1171.618619	-0.101124
1171.771205	-0.101124
1171.923772	-0.101124
