sample name	sample
index	1337
start time	 05-03-2021  12:02:58 PM


Wavelength (nm)	Absorbance
494.344910	-0.016303
494.563924	-0.016303
494.782919	-0.016303
495.001897	-0.091029
495.220856	0.003809
495.439797	-0.006014
495.658719	-0.027632
495.877624	-0.032637
496.096510	-0.020869
496.315378	-0.042479
496.534227	-0.027541
496.753059	-0.024874
496.971872	-0.026174
497.190667	0.019981
497.409444	0.035001
497.628203	0.041408
497.846943	0.044683
498.065665	0.044412
498.284369	0.045379
498.503055	0.042729
498.721723	0.042369
498.940372	0.040412
499.159003	0.042053
499.377616	0.041984
499.596210	0.041565
499.814787	0.041118
500.033345	0.041009
500.251885	0.040001
500.470406	0.040967
500.688910	0.041012
500.907395	0.041430
501.125862	0.040688
501.344311	0.039578
501.562742	0.039417
501.781154	0.039384
501.999548	0.039485
502.217924	0.040206
502.436282	0.040729
502.654621	0.040561
502.872942	0.040463
503.091245	0.039920
503.309530	0.040082
503.527797	0.040209
503.746045	0.039911
503.964275	0.040212
504.182487	0.040660
504.400681	0.040559
504.618856	0.040713
504.837013	0.041873
505.055152	0.041756
505.273273	0.042091
505.491376	0.041803
505.709460	0.041684
505.927526	0.041262
506.145574	0.041012
506.363604	0.040566
506.581615	0.040516
506.799608	0.039402
507.017583	0.039670
507.235540	0.039455
507.453478	0.040434
507.671399	0.040765
507.889301	0.041244
508.107185	0.040535
508.325050	0.040942
508.542898	0.040824
508.760727	0.042048
508.978538	0.042915
509.196330	0.043897
509.414105	0.043042
509.631861	0.042698
509.849599	0.043035
510.067319	0.045180
510.285021	0.045589
510.502704	0.045809
510.720369	0.044836
510.938016	0.044649
511.155645	0.045101
511.373255	0.045343
511.590848	0.046139
511.808422	0.046075
512.025977	0.044902
512.243515	0.045387
512.461034	0.045141
512.678536	0.045759
512.896018	0.045656
513.113483	0.045271
513.330930	0.045770
513.548358	0.045340
513.765768	0.044632
513.983160	0.044901
514.200533	0.045010
514.417889	0.045176
514.635226	0.045516
514.852545	0.045223
515.069845	0.045571
515.287128	0.044540
515.504392	0.045146
515.721638	0.045161
515.938866	0.045161
516.156075	0.043939
516.373267	0.043754
516.590440	0.043312
516.807594	0.043228
517.024731	0.043697
517.241850	0.043888
517.458950	0.043769
517.676032	0.044062
517.893095	0.044167
518.110141	0.045324
518.327168	0.045723
518.544177	0.046034
518.761168	0.046771
518.978141	0.046449
519.195095	0.047491
519.412031	0.047308
519.628949	0.047212
519.845849	0.046784
520.062731	0.045624
520.279594	0.046039
520.496439	0.046306
520.713266	0.046066
520.930074	0.045399
521.146865	0.045632
521.363637	0.045487
521.580391	0.045876
521.797127	0.046292
522.013844	0.046908
522.230543	0.046979
522.447224	0.046565
522.663887	0.046428
522.880532	0.047306
523.097158	0.047362
523.313766	0.047876
523.530356	0.048055
523.746928	0.048148
523.963481	0.048497
524.180017	0.048577
524.396534	0.049886
524.613032	0.050315
524.829513	0.050455
525.045975	0.050476
525.262420	0.050402
525.478845	0.050322
525.695253	0.050843
525.911643	0.050998
526.128014	0.050839
526.344367	0.050491
526.560702	0.050463
526.777018	0.050865
526.993316	0.050917
527.209597	0.051001
527.425858	0.051595
527.642102	0.051777
527.858328	0.051791
528.074535	0.052344
528.290724	0.052540
528.506894	0.053309
528.723047	0.053329
528.939181	0.053832
529.155297	0.054637
529.371395	0.055323
529.587475	0.055283
529.803536	0.055970
530.019579	0.056249
530.235604	0.055950
530.451611	0.055646
530.667600	0.055574
530.883570	0.055717
531.099522	0.055186
531.315456	0.055091
531.531372	0.055794
531.747269	0.055625
531.963148	0.055533
532.179009	0.055760
532.394852	0.055680
532.610676	0.056008
532.826482	0.056354
533.042271	0.057188
533.258040	0.057181
533.473792	0.056780
533.689525	0.057038
533.905240	0.058174
534.120937	0.059115
534.336616	0.059956
534.552277	0.060118
534.767919	0.060384
534.983543	0.059667
535.199149	0.060357
535.414736	0.060946
535.630306	0.061238
535.845857	0.060860
536.061390	0.060739
536.276904	0.061158
536.492401	0.061080
536.707879	0.060855
536.923339	0.061840
537.138781	0.061678
537.354204	0.061627
537.569610	0.062227
537.784997	0.062701
538.000366	0.063113
538.215716	0.062617
538.431049	0.063488
538.646363	0.063532
538.861659	0.063673
539.076937	0.063641
539.292196	0.064054
539.507438	0.063459
539.722661	0.062925
539.937866	0.062810
540.153052	0.063573
540.368221	0.063535
540.583371	0.063883
540.798503	0.064513
541.013617	0.064838
541.228712	0.065177
541.443789	0.066160
541.658848	0.066709
541.873889	0.066737
542.088912	0.066773
542.303916	0.066394
542.518902	0.066482
542.733870	0.066499
542.948820	0.066697
543.163752	0.066356
543.378665	0.066388
543.593560	0.066406
543.808437	0.066348
544.023295	0.066381
544.238136	0.066888
544.452958	0.067166
544.667762	0.066537
544.882548	0.066741
545.097315	0.067065
545.312064	0.066423
545.526795	0.066602
545.741508	0.066878
545.956203	0.067098
546.170879	0.067391
546.385537	0.067699
546.600177	0.068364
546.814799	0.067908
547.029402	0.067690
547.243988	0.067986
547.458555	0.067773
547.673103	0.067660
547.887634	0.067593
548.102146	0.067642
548.316640	0.067286
548.531116	0.067100
548.745574	0.067552
548.960013	0.067948
549.174435	0.068267
549.388838	0.068679
549.603222	0.068786
549.817589	0.068950
550.031937	0.068637
550.246267	0.068637
550.460579	0.068862
550.674873	0.068976
550.889148	0.069540
551.103405	0.069901
551.317644	0.070191
551.531865	0.070569
551.746068	0.070681
551.960252	0.070708
552.174418	0.070876
552.388566	0.071149
552.602696	0.071558
552.816807	0.071065
553.030900	0.071014
553.244975	0.070934
553.459032	0.071518
553.673070	0.071747
553.887091	0.072388
554.101093	0.072856
554.315077	0.072585
554.529042	0.072470
554.742990	0.072922
554.956919	0.073563
555.170830	0.074098
555.384722	0.073940
555.598597	0.073900
555.812453	0.074297
556.026291	0.074208
556.240111	0.074960
556.453913	0.074750
556.667696	0.074649
556.881461	0.074082
557.095208	0.073516
557.308937	0.073518
557.522647	0.073429
557.736339	0.073012
557.950013	0.072916
558.163669	0.072512
558.377307	0.072701
558.590926	0.072963
558.804527	0.073161
559.018110	0.073515
559.231675	0.073488
559.445221	0.073932
559.658749	0.074249
559.872259	0.074572
560.085751	0.074660
560.299225	0.075035
560.512680	0.075109
560.726117	0.075319
560.939536	0.075286
561.152937	0.075332
561.366319	0.075446
561.579683	0.075149
561.793029	0.075438
562.006357	0.075549
562.219667	0.075320
562.432958	0.075568
562.646231	0.075627
562.859486	0.076052
563.072723	0.076210
563.285941	0.076038
563.499141	0.075761
563.712323	0.075649
563.925487	0.075782
564.138632	0.075679
564.351760	0.075272
564.564869	0.075073
564.777960	0.075227
564.991032	0.075284
565.204087	0.075539
565.417123	0.076186
565.630141	0.076410
565.843140	0.076464
566.056122	0.077090
566.269085	0.077429
566.482030	0.077524
566.694957	0.077369
566.907866	0.077610
567.120756	0.077340
567.333628	0.077169
567.546482	0.077323
567.759318	0.077595
567.972135	0.077819
568.184935	0.077826
568.397716	0.078270
568.610478	0.078011
568.823223	0.078057
569.035949	0.078306
569.248657	0.078491
569.461347	0.078515
569.674019	0.078523
569.886672	0.077592
570.099308	0.077635
570.311925	0.077382
570.524523	0.077557
570.737104	0.077439
570.949666	0.077682
571.162210	0.077538
571.374736	0.077167
571.587244	0.076740
571.799733	0.077492
572.012205	0.077130
572.224658	0.077017
572.437092	0.076999
572.649509	0.076916
572.861907	0.076666
573.074287	0.076816
573.286649	0.076866
573.498993	0.076961
573.711318	0.076978
573.923625	0.077108
574.135914	0.077168
574.348185	0.077082
574.560438	0.076946
574.772672	0.076830
574.984888	0.077004
575.197086	0.076811
575.409266	0.076922
575.621427	0.076664
575.833570	0.076880
576.045695	0.077080
576.257802	0.077452
576.469890	0.077585
576.681961	0.077730
576.894013	0.077639
577.106046	0.077886
577.318062	0.078422
577.530059	0.078639
577.742039	0.078585
577.954000	0.078175
578.165942	0.078067
578.377867	0.078194
578.589773	0.078103
578.801661	0.078135
579.013531	0.078239
579.225382	0.078005
579.437216	0.078207
579.649031	0.078385
579.860828	0.078714
580.072606	0.078867
580.284367	0.079322
580.496109	0.079618
580.707833	0.079610
580.919539	0.079649
581.131227	0.079620
581.342896	0.079376
581.554547	0.079653
581.766180	0.079884
581.977795	0.079572
582.189391	0.079180
582.400969	0.079338
582.612529	0.079290
582.824071	0.079436
583.035595	0.079448
583.247100	0.079552
583.458587	0.079141
583.670056	0.079264
583.881506	0.079464
584.092939	0.079475
584.304353	0.079232
584.515749	0.079366
584.727127	0.079507
584.938486	0.079518
585.149828	0.079577
585.361151	0.079722
585.572456	0.079538
585.783742	0.079614
585.995011	0.079565
586.206261	0.079874
586.417493	0.080153
586.628706	0.080094
586.839902	0.080113
587.051079	0.080482
587.262238	0.080743
587.473379	0.080706
587.684502	0.080723
587.895606	0.080637
588.106692	0.080643
588.317760	0.080514
588.528810	0.080702
588.739841	0.080666
588.950855	0.080156
589.161850	0.079970
589.372827	0.080018
589.583785	0.080167
589.794726	0.080402
590.005648	0.080219
590.216552	0.080198
590.427437	0.080133
590.638305	0.080388
590.849154	0.080556
591.059985	0.080640
591.270798	0.080910
591.481592	0.080877
591.692369	0.081072
591.903127	0.081512
592.113867	0.081866
592.324588	0.081889
592.535292	0.081951
592.745977	0.082322
592.956644	0.082498
593.167293	0.082640
593.377923	0.082832
593.588536	0.082982
593.799130	0.082831
594.009706	0.082555
594.220263	0.082656
594.430803	0.082717
594.641324	0.082632
594.851827	0.082385
595.062312	0.082216
595.272778	0.082225
595.483227	0.082188
595.693657	0.082089
595.904069	0.082153
596.114462	0.082117
596.324838	0.081972
596.535195	0.082318
596.745534	0.082747
596.955855	0.082885
597.166157	0.083322
597.376441	0.083824
597.586707	0.084119
597.796955	0.084515
598.007185	0.084692
598.217396	0.084960
598.427589	0.084949
598.637764	0.085086
598.847921	0.085204
599.058060	0.084832
599.268180	0.084759
599.478282	0.084998
599.688366	0.085251
599.898431	0.085072
600.108479	0.085350
600.318508	0.085471
600.528519	0.085457
600.738511	0.085686
600.948486	0.086067
601.158442	0.086134
601.368380	0.086170
601.578300	0.086069
601.788202	0.086566
601.998085	0.086769
602.207950	0.086661
602.417797	0.086854
602.627626	0.086865
602.837436	0.087011
603.047228	0.087163
603.257002	0.087431
603.466758	0.087542
603.676496	0.087442
603.886215	0.086981
604.095916	0.087075
604.305599	0.087233
604.515264	0.087082
604.724910	0.086974
604.934538	0.086920
605.144148	0.086885
605.353740	0.086875
605.563314	0.087145
605.772869	0.087501
605.982406	0.087602
606.191925	0.087707
606.401425	0.088230
606.610908	0.088296
606.820372	0.088229
607.029818	0.088479
607.239246	0.088693
607.448655	0.088674
607.658047	0.088835
607.867420	0.088717
608.076775	0.088652
608.286111	0.088420
608.495430	0.088424
608.704730	0.088519
608.914012	0.088268
609.123275	0.088409
609.332521	0.088474
609.541748	0.088413
609.750957	0.088680
609.960148	0.088695
610.169321	0.088640
610.378475	0.088644
610.587611	0.088826
610.796729	0.088982
611.005829	0.088946
611.214910	0.088891
611.423974	0.088866
611.633019	0.088752
611.842045	0.088814
612.051054	0.088990
612.260044	0.089513
612.469017	0.089614
612.677970	0.089459
612.886906	0.089503
613.095824	0.089774
613.304723	0.089923
613.513604	0.090377
613.722467	0.090597
613.931311	0.090894
614.140138	0.090674
614.348946	0.090422
614.557736	0.090674
614.766507	0.090472
614.975261	0.090489
615.183996	0.090621
615.392713	0.090369
615.601412	0.090084
615.810092	0.090087
616.018754	0.090184
616.227399	0.090662
616.436024	0.090807
616.644632	0.091118
616.853222	0.091228
617.061793	0.091103
617.270346	0.091273
617.478880	0.091389
617.687397	0.091556
617.895895	0.091719
618.104375	0.091523
618.312837	0.091449
618.521281	0.091576
618.729706	0.091618
618.938113	0.091871
619.146502	0.091906
619.354873	0.092126
619.563226	0.092197
619.771560	0.092286
619.979876	0.092472
620.188174	0.092519
620.396453	0.092614
620.604715	0.092680
620.812958	0.092864
621.021183	0.093142
621.229390	0.093228
621.437578	0.093360
621.645748	0.093545
621.853900	0.093836
622.062034	0.094227
622.270150	0.094316
622.478247	0.094418
622.686326	0.094380
622.894387	0.094379
623.102430	0.094676
623.310454	0.094609
623.518461	0.094490
623.726449	0.094357
623.934418	0.094169
624.142370	0.094278
624.350303	0.094300
624.558218	0.094411
624.766115	0.094427
624.973994	0.094297
625.181855	0.094294
625.389697	0.094440
625.597521	0.094598
625.805327	0.094526
626.013114	0.094552
626.220883	0.094606
626.428634	0.094469
626.636367	0.094497
626.844082	0.094762
627.051778	0.094692
627.259457	0.094767
627.467117	0.094774
627.674758	0.094953
627.882382	0.094988
628.089987	0.095037
628.297574	0.095369
628.505143	0.095233
628.712694	0.095405
628.920226	0.095639
629.127740	0.095652
629.335236	0.095939
629.542714	0.096216
629.750174	0.096395
629.957615	0.096663
630.165038	0.096973
630.372443	0.097488
630.579829	0.097422
630.787198	0.097635
630.994548	0.097813
631.201880	0.098026
631.409194	0.098240
631.616489	0.098339
631.823766	0.098561
632.031025	0.098705
632.238266	0.098794
632.445489	0.099113
632.652693	0.099290
632.859879	0.099386
633.067047	0.099290
633.274197	0.099194
633.481329	0.099246
633.688442	0.099148
633.895537	0.099013
634.102614	0.099035
634.309672	0.098756
634.516713	0.098588
634.723735	0.098698
634.930739	0.098520
635.137724	0.098592
635.344692	0.098788
635.551641	0.098925
635.758572	0.099006
635.965485	0.099083
636.172379	0.099283
636.379256	0.099514
636.586114	0.099352
636.792954	0.099620
636.999775	0.099722
637.206579	0.099571
637.413364	0.099444
637.620131	0.099582
637.826880	0.099551
638.033610	0.099587
638.240323	0.099478
638.447017	0.099565
638.653692	0.099746
638.860350	0.099961
639.066990	0.100089
639.273611	0.100383
639.480214	0.100411
639.686798	0.100634
639.893365	0.100793
640.099913	0.100938
640.306443	0.101224
640.512955	0.101188
640.719449	0.101042
640.925924	0.101331
641.132381	0.101346
641.338820	0.101590
641.545241	0.101886
641.751644	0.102083
641.958028	0.102387
642.164394	0.102582
642.370742	0.102704
642.577071	0.102971
642.783383	0.102896
642.989676	0.103238
643.195951	0.103255
643.402207	0.102956
643.608446	0.102865
643.814666	0.102888
644.020868	0.102805
644.227052	0.102783
644.433218	0.102713
644.639365	0.102927
644.845494	0.102792
645.051605	0.102789
645.257698	0.102840
645.463772	0.102845
645.669828	0.103168
645.875866	0.103251
646.081886	0.103467
646.287888	0.103901
646.493871	0.103699
646.699836	0.103796
646.905783	0.103915
647.111712	0.104127
647.317622	0.104309
647.523514	0.104062
647.729388	0.104288
647.935244	0.104462
648.141082	0.104380
648.346901	0.104814
648.552702	0.104903
648.758485	0.104829
648.964250	0.105082
649.169996	0.105187
649.375724	0.105353
649.581434	0.105373
649.787126	0.105330
649.992800	0.105326
650.198455	0.105286
650.404092	0.105479
650.609711	0.105795
650.815311	0.105932
651.020894	0.106051
651.226458	0.106080
651.432004	0.106129
651.637532	0.106342
651.843041	0.106615
652.048532	0.106641
652.254006	0.106779
652.459460	0.106920
652.664897	0.107076
652.870315	0.107460
653.075716	0.107747
653.281097	0.108180
653.486461	0.108516
653.691807	0.108556
653.897134	0.108926
654.102443	0.109122
654.307734	0.109172
654.513006	0.109111
654.718261	0.109113
654.923497	0.109354
655.128715	0.109365
655.333915	0.109377
655.539096	0.109523
655.744259	0.109511
655.949404	0.109364
656.154531	0.109331
656.359640	0.109608
656.564730	0.109654
656.769802	0.109648
656.974856	0.109692
657.179892	0.109712
657.384909	0.109573
657.589908	0.109501
657.794889	0.109541
657.999852	0.109556
658.204797	0.109327
658.409723	0.109398
658.614631	0.109344
658.819521	0.109350
659.024393	0.109111
659.229246	0.108997
659.434081	0.109073
659.638898	0.109244
659.843697	0.109444
660.048478	0.109615
660.253240	0.109514
660.457984	0.109565
660.662710	0.109563
660.867417	0.109673
661.072107	0.109834
661.276778	0.109743
661.481431	0.109671
661.686066	0.109592
661.890682	0.109633
662.095281	0.109646
662.299861	0.109565
662.504422	0.109676
662.708966	0.109760
662.913491	0.109983
663.117999	0.110256
663.322488	0.110420
663.526958	0.110600
663.731411	0.110560
663.935845	0.110888
664.140261	0.111077
664.344659	0.111182
664.549038	0.111477
664.753400	0.111580
664.957743	0.111668
665.162068	0.111925
665.366375	0.111835
665.570663	0.112131
665.774933	0.112237
665.979185	0.112387
666.183419	0.112412
666.387635	0.112527
666.591832	0.112551
666.796011	0.112874
667.000172	0.112977
667.204315	0.113345
667.408439	0.113474
667.612545	0.113640
667.816634	0.113882
668.020703	0.114096
668.224755	0.114197
668.428788	0.114500
668.632803	0.114363
668.836800	0.114316
669.040779	0.114562
669.244739	0.114477
669.448681	0.114461
669.652605	0.114457
669.856511	0.114644
670.060399	0.114736
670.264268	0.114919
670.468119	0.115297
670.671952	0.115453
670.875767	0.115481
671.079563	0.115750
671.283341	0.115966
671.487101	0.116092
671.690843	0.116174
671.894567	0.116289
672.098272	0.116459
672.301959	0.116437
672.505628	0.116732
672.709278	0.116912
672.912911	0.116984
673.116525	0.117176
673.320121	0.117440
673.523699	0.117627
673.727258	0.117754
673.930799	0.117605
674.134322	0.117708
674.337827	0.117615
674.541314	0.117695
674.744782	0.118126
674.948232	0.118162
675.151664	0.118244
675.355078	0.118228
675.558474	0.118371
675.761851	0.118666
675.965210	0.118680
676.168551	0.118932
676.371873	0.119044
676.575178	0.119042
676.778464	0.118966
676.981732	0.118985
677.184981	0.119119
677.388213	0.119174
677.591426	0.119172
677.794621	0.119419
677.997798	0.119505
678.200956	0.119637
678.404097	0.119657
678.607219	0.119765
678.810323	0.119890
679.013408	0.119815
679.216476	0.119874
679.419525	0.120016
679.622556	0.120121
679.825569	0.120202
680.028563	0.120219
680.231540	0.120283
680.434498	0.120317
680.637438	0.120473
680.840359	0.120793
681.043263	0.121005
681.246148	0.121062
681.449015	0.121126
681.651864	0.121342
681.854694	0.121569
682.057506	0.121633
682.260301	0.121925
682.463076	0.121941
682.665834	0.122029
682.868573	0.122138
683.071295	0.122339
683.273998	0.122587
683.476682	0.122530
683.679349	0.122599
683.881997	0.122906
684.084627	0.123063
684.287239	0.123224
684.489833	0.123337
684.692408	0.123542
684.894965	0.123740
685.097504	0.123677
685.300025	0.123644
685.502527	0.123510
685.705012	0.123246
685.907478	0.123239
686.109925	0.123212
686.312355	0.123346
686.514766	0.123355
686.717159	0.123290
686.919534	0.123403
687.121891	0.123545
687.324230	0.123724
687.526550	0.123774
687.728852	0.123752
687.931136	0.123867
688.133401	0.123781
688.335649	0.123761
688.537878	0.124001
688.740089	0.123955
688.942281	0.124291
689.144456	0.124440
689.346612	0.124924
689.548750	0.125071
689.750870	0.125339
689.952971	0.125535
690.155055	0.125746
690.357120	0.125733
690.559167	0.126070
690.761195	0.126181
690.963206	0.126526
691.165198	0.126641
691.367172	0.126794
691.569128	0.126779
691.771065	0.126932
691.972984	0.126974
692.174885	0.126920
692.376768	0.126858
692.578633	0.126751
692.780479	0.126556
692.982308	0.126351
693.184118	0.126365
693.385909	0.126321
693.587683	0.126351
693.789438	0.126353
693.991175	0.126542
694.192894	0.126595
694.394595	0.126570
694.596277	0.126392
694.797941	0.126504
694.999587	0.126860
695.201215	0.127147
695.402824	0.127172
695.604416	0.127421
695.805989	0.127537
696.007543	0.127540
696.209080	0.127751
696.410598	0.128228
696.612099	0.128234
696.813580	0.128090
697.015044	0.128050
697.216490	0.128015
697.417917	0.128031
697.619326	0.127901
697.820717	0.128182
698.022089	0.128107
698.223444	0.128069
698.424780	0.128265
698.626098	0.128304
698.827397	0.128519
699.028679	0.128650
699.229942	0.128661
699.431187	0.128884
699.632414	0.128791
699.833622	0.128877
700.034813	0.128976
700.235985	0.128994
700.437139	0.129067
700.638274	0.129028
700.839392	0.129323
701.040491	0.129203
701.241572	0.129300
701.442635	0.129331
701.643679	0.129667
701.844706	0.129522
702.045714	0.129400
702.246704	0.129466
702.447675	0.129609
702.648629	0.129639
702.849564	0.129686
703.050481	0.129433
703.251380	0.129603
703.452260	0.129357
703.653122	0.129454
703.853966	0.129600
704.054792	0.129456
704.255600	0.129330
704.456389	0.129189
704.657160	0.129187
704.857913	0.129176
705.058648	0.129011
705.259365	0.128847
705.460063	0.128830
705.660743	0.128819
705.861405	0.128879
706.062048	0.128607
706.262674	0.128429
706.463281	0.128308
706.663870	0.128564
706.864441	0.128539
707.064993	0.128369
707.265527	0.128185
707.466043	0.128008
707.666541	0.127743
707.867021	0.127726
708.067482	0.127631
708.267925	0.127514
708.468350	0.127150
708.668757	0.126919
708.869145	0.127100
709.069516	0.127235
709.269868	0.127241
709.470201	0.127275
709.670517	0.127321
709.870814	0.127343
710.071093	0.127492
710.271354	0.127676
710.471597	0.127900
710.671821	0.128120
710.872028	0.127879
711.072216	0.128076
711.272385	0.128205
711.472537	0.128269
711.672670	0.128351
711.872785	0.128501
712.072882	0.128624
712.272961	0.128653
712.473021	0.128594
712.673063	0.128832
712.873087	0.128761
713.073093	0.129053
713.273081	0.129205
713.473050	0.129418
713.673001	0.129263
713.872934	0.129279
714.072849	0.129017
714.272745	0.128946
714.472623	0.128940
714.672483	0.129040
714.872325	0.128723
715.072148	0.128590
715.271954	0.128293
715.471741	0.128187
715.671509	0.127852
715.871260	0.127840
716.070992	0.127754
716.270707	0.127570
716.470403	0.127307
716.670080	0.127259
716.869740	0.127067
717.069381	0.126886
717.269004	0.126744
717.468609	0.126544
717.668195	0.126274
717.867764	0.126130
718.067314	0.126011
718.266846	0.125819
718.466360	0.125736
718.665855	0.125627
718.865332	0.125450
719.064791	0.125368
719.264232	0.125412
719.463655	0.125467
719.663059	0.125112
719.862445	0.125141
720.061813	0.125062
720.261163	0.124901
720.460494	0.124701
720.659807	0.124604
720.859102	0.124493
721.058379	0.124354
721.257638	0.124079
721.456878	0.124181
721.656100	0.124110
721.855304	0.124216
722.054490	0.124127
722.253657	0.124213
722.452806	0.124145
722.651937	0.124243
722.851050	0.124429
723.050145	0.124612
723.249221	0.124537
723.448279	0.124329
723.647319	0.124074
723.846340	0.124043
724.045344	0.123872
724.244329	0.123838
724.443296	0.123595
724.642245	0.123367
724.841175	0.123221
725.040088	0.123413
725.238982	0.123409
725.437857	0.123323
725.636715	0.123074
725.835554	0.123021
726.034376	0.122849
726.233179	0.122875
726.431963	0.122889
726.630730	0.123028
726.829478	0.122792
727.028208	0.122679
727.226920	0.122572
727.425614	0.122754
727.624289	0.122755
727.822946	0.123026
728.021585	0.122842
728.220206	0.122882
728.418808	0.122802
728.617392	0.122688
728.815958	0.122558
729.014506	0.122536
729.213036	0.122478
729.411547	0.122301
729.610040	0.122090
729.808515	0.121956
730.006972	0.121666
730.205410	0.121367
730.403831	0.121436
730.602233	0.121356
730.800616	0.121225
730.998982	0.121065
731.197329	0.121110
731.395658	0.121104
731.593969	0.121158
731.792262	0.121129
731.990536	0.121114
732.188793	0.120699
732.387031	0.120540
732.585250	0.120714
732.783452	0.120599
732.981635	0.120422
733.179800	0.120139
733.377947	0.120001
733.576076	0.119607
733.774186	0.119464
733.972278	0.119470
734.170352	0.119276
734.368408	0.118980
734.566446	0.118836
734.764465	0.118546
734.962466	0.118417
735.160449	0.118344
735.358413	0.118419
735.556360	0.118456
735.754288	0.118356
735.952198	0.118509
736.150090	0.118537
736.347963	0.118590
736.545818	0.118672
736.743655	0.118613
736.941474	0.118529
737.139275	0.118309
737.337057	0.118223
737.534821	0.118189
737.732567	0.118093
737.930295	0.117920
738.128005	0.118084
738.325696	0.118103
738.523369	0.118358
738.721024	0.118338
738.918660	0.118624
739.116279	0.118576
739.313879	0.118788
739.511461	0.118725
739.709024	0.118825
739.906570	0.118557
740.104097	0.118467
740.301606	0.118244
740.499097	0.118252
740.696569	0.118171
740.894024	0.118132
741.091460	0.117824
741.288878	0.117803
741.486277	0.117615
741.683659	0.117429
741.881022	0.117181
742.078367	0.117030
742.275694	0.117157
742.473002	0.117185
742.670293	0.117062
742.867565	0.116943
743.064819	0.116807
743.262054	0.116614
743.459272	0.116440
743.656471	0.116582
743.853652	0.116663
744.050815	0.116581
744.247959	0.116322
744.445085	0.116386
744.642194	0.116512
744.839283	0.116433
745.036355	0.116374
745.233408	0.116453
745.430444	0.116602
745.627461	0.116568
745.824459	0.116445
746.021440	0.116431
746.218402	0.116062
746.415346	0.115791
746.612272	0.115718
746.809180	0.115758
747.006069	0.115545
747.202940	0.115314
747.399793	0.115214
747.596628	0.115039
747.793444	0.114992
747.990243	0.115205
748.187023	0.115063
748.383784	0.114888
748.580528	0.114990
748.777253	0.115137
748.973960	0.114962
749.170649	0.115003
749.367320	0.114968
749.563973	0.114830
749.760607	0.114902
749.957223	0.115040
750.153821	0.115253
750.350400	0.115128
750.546962	0.114826
750.743505	0.114797
750.940030	0.114440
751.136536	0.114448
751.333025	0.114413
751.529495	0.114199
751.725947	0.113934
751.922381	0.113631
752.118796	0.113568
752.315194	0.113609
752.511573	0.113442
752.707934	0.113498
752.904276	0.113441
753.100601	0.113367
753.296907	0.113253
753.493195	0.113360
753.689465	0.113409
753.885716	0.113226
754.081949	0.113000
754.278164	0.112922
754.474361	0.112763
754.670540	0.112447
754.866700	0.112400
755.062843	0.112199
755.258967	0.112242
755.455072	0.112328
755.651160	0.112359
755.847229	0.112457
756.043280	0.112546
756.239313	0.112393
756.435328	0.112231
756.631324	0.112263
756.827302	0.112203
757.023262	0.111783
757.219204	0.111754
757.415127	0.111663
757.611033	0.111578
757.806920	0.111431
758.002788	0.111225
758.198639	0.111197
758.394471	0.110909
758.590286	0.110917
758.786081	0.111033
758.981859	0.110715
759.177619	0.110453
759.373360	0.110544
759.569083	0.110436
759.764788	0.110637
759.960474	0.110806
760.156143	0.110852
760.351793	0.110857
760.547425	0.110889
760.743038	0.110987
760.938634	0.111059
761.134211	0.110716
761.329770	0.110542
761.525311	0.110394
761.720833	0.110188
761.916338	0.109996
762.111824	0.109842
762.307292	0.109604
762.502741	0.109440
762.698173	0.109160
762.893586	0.109103
763.088981	0.109191
763.284358	0.109291
763.479716	0.109398
763.675057	0.109464
763.870379	0.109432
764.065683	0.109610
764.260968	0.109438
764.456236	0.109640
764.651485	0.109667
764.846716	0.109681
765.041929	0.109568
765.237123	0.109208
765.432299	0.109202
765.627457	0.109299
765.822597	0.109258
766.017719	0.109425
766.212822	0.109370
766.407907	0.109223
766.602974	0.109239
766.798023	0.109201
766.993054	0.109338
767.188066	0.109287
767.383060	0.109084
767.578036	0.109258
767.772993	0.109188
767.967933	0.109490
768.162854	0.109700
768.357757	0.109655
768.552642	0.109762
768.747508	0.109760
768.942356	0.109809
769.137186	0.109925
769.331998	0.109663
769.526792	0.109716
769.721567	0.109553
769.916324	0.109586
770.111063	0.109616
770.305784	0.109460
770.500486	0.109670
770.695171	0.109685
770.889837	0.109733
771.084484	0.109946
771.279114	0.109861
771.473725	0.109871
771.668318	0.109697
771.862893	0.109561
772.057450	0.109509
772.251988	0.109506
772.446509	0.109389
772.641011	0.109266
772.835494	0.109035
773.029960	0.109003
773.224407	0.108763
773.418836	0.108763
773.613247	0.108791
773.807640	0.108992
774.002014	0.108862
774.196370	0.108769
774.390708	0.108813
774.585028	0.108611
774.779330	0.108350
774.973613	0.108351
775.167878	0.108354
775.362125	0.108357
775.556354	0.108199
775.750564	0.107980
775.944756	0.108099
776.138930	0.107841
776.333086	0.107941
776.527223	0.108047
776.721343	0.107955
776.915444	0.107911
777.109526	0.107830
777.303591	0.107728
777.497637	0.107853
777.691666	0.107596
777.885676	0.107793
778.079667	0.107797
778.273641	0.107945
778.467596	0.108141
778.661533	0.108302
778.855452	0.108437
779.049352	0.108719
779.243235	0.108839
779.437099	0.109115
779.630945	0.109203
779.824773	0.109354
780.018582	0.109375
780.212373	0.109594
780.406146	0.109500
780.599901	0.109431
780.793638	0.109260
780.987356	0.109171
781.181056	0.108954
781.374738	0.108904
781.568402	0.108677
781.762047	0.108745
781.955674	0.108537
782.149283	0.108481
782.342874	0.108423
782.536447	0.108325
782.730001	0.108262
782.923537	0.108366
783.117055	0.108198
783.310555	0.108331
783.504036	0.108108
783.697499	0.107906
783.890944	0.107795
784.084371	0.107643
784.277780	0.107861
784.471170	0.107745
784.664542	0.107843
784.857896	0.107815
785.051231	0.107579
785.244549	0.107741
785.437848	0.107809
785.631129	0.107999
785.824392	0.108279
786.017636	0.108174
786.210863	0.108262
786.404071	0.108277
786.597260	0.108448
786.790432	0.108367
786.983585	0.108268
787.176721	0.108096
787.369838	0.107974
787.562936	0.107924
787.756017	0.107898
787.949079	0.108094
788.142123	0.108008
788.335149	0.108229
788.528156	0.108717
788.721146	0.108978
788.914117	0.109211
789.107070	0.109473
789.300005	0.109637
789.492921	0.109883
789.685819	0.109836
789.878699	0.109904
790.071561	0.109910
790.264405	0.109774
790.457230	0.109676
790.650037	0.109772
790.842826	0.109834
791.035597	0.109839
791.228349	0.109685
791.421084	0.109816
791.613800	0.109483
791.806497	0.109128
791.999177	0.109117
792.191838	0.109324
792.384481	0.109289
792.577106	0.109388
792.769713	0.109592
792.962301	0.109918
793.154871	0.109989
793.347423	0.110504
793.539957	0.110975
793.732473	0.111256
793.924970	0.111294
794.117449	0.111791
794.309910	0.111916
794.502353	0.111913
794.694777	0.111872
794.887183	0.112129
795.079571	0.112506
795.271941	0.112565
795.464293	0.112581
795.656626	0.112774
795.848941	0.112663
796.041238	0.112438
796.233516	0.112506
796.425777	0.112575
796.618019	0.112375
796.810243	0.112203
797.002449	0.112483
797.194636	0.112493
797.386805	0.112336
797.578956	0.112317
797.771089	0.112708
797.963204	0.112738
798.155300	0.112868
798.347378	0.113315
798.539438	0.113391
798.731480	0.113468
798.923503	0.113842
799.115509	0.114275
799.307496	0.114263
799.499465	0.114290
799.691415	0.114401
799.883348	0.114385
800.075262	0.114168
800.267158	0.114138
800.459035	0.113964
800.650895	0.113634
800.842736	0.113506
801.034559	0.113769
801.226364	0.113898
801.418150	0.114052
801.609919	0.114133
801.801669	0.114385
801.993401	0.114693
802.185114	0.114785
802.376810	0.115117
802.568487	0.115185
802.760146	0.115267
802.951787	0.115293
803.143409	0.115309
803.335014	0.115406
803.526600	0.115590
803.718168	0.115479
803.909717	0.115524
804.101249	0.115649
804.292762	0.115809
804.484257	0.115837
804.675734	0.115843
804.867192	0.116035
805.058632	0.116284
805.250054	0.116201
805.441458	0.116487
805.632844	0.116755
805.824211	0.116719
806.015561	0.116798
806.206891	0.116909
806.398204	0.117104
806.589499	0.117136
806.780775	0.117179
806.972033	0.117180
807.163273	0.117290
807.354495	0.117477
807.545698	0.117884
807.736883	0.118064
807.928050	0.118480
808.119199	0.118635
808.310329	0.118882
808.501441	0.119075
808.692535	0.119341
808.883611	0.119764
809.074669	0.119831
809.265708	0.120157
809.456729	0.120586
809.647732	0.120597
809.838717	0.120784
810.029683	0.120939
810.220632	0.121020
810.411562	0.121082
810.602474	0.121126
810.793367	0.121401
810.984242	0.121488
811.175100	0.121407
811.365938	0.121666
811.556759	0.122044
811.747562	0.122420
811.938346	0.122681
812.129112	0.123013
812.319860	0.122853
812.510589	0.122839
812.701300	0.122796
812.891994	0.122731
813.082668	0.122667
813.273325	0.122397
813.463964	0.122193
813.654584	0.122193
813.845186	0.122267
814.035769	0.122405
814.226335	0.122333
814.416882	0.122326
814.607411	0.122413
814.797922	0.122716
814.988415	0.122874
815.178889	0.122963
815.369345	0.123265
815.559783	0.123209
815.750203	0.123381
815.940605	0.123747
816.130988	0.123857
816.321353	0.123815
816.511700	0.123758
816.702028	0.123826
816.892339	0.123857
817.082631	0.123833
817.272905	0.123987
817.463161	0.124008
817.653398	0.123988
817.843617	0.123926
818.033819	0.124412
818.224001	0.124470
818.414166	0.124675
818.604312	0.124867
818.794440	0.125090
818.984550	0.125328
819.174642	0.125525
819.364716	0.125700
819.554771	0.126150
819.744808	0.126181
819.934827	0.126477
820.124827	0.126634
820.314810	0.126982
820.504774	0.126843
820.694720	0.126839
820.884647	0.127248
821.074557	0.127602
821.264448	0.127551
821.454321	0.127831
821.644176	0.127995
821.834012	0.128285
822.023831	0.128259
822.213631	0.128493
822.403413	0.128955
822.593176	0.129038
822.782922	0.128882
822.972649	0.129140
823.162358	0.129128
823.352049	0.129055
823.541721	0.129008
823.731376	0.129241
823.921012	0.129598
824.110629	0.129759
824.300229	0.129812
824.489811	0.130138
824.679374	0.130501
824.868919	0.130839
825.058445	0.131306
825.247954	0.131522
825.437444	0.131687
825.626916	0.132013
825.816370	0.132185
826.005806	0.132329
826.195223	0.132579
826.384622	0.132832
826.574003	0.132968
826.763366	0.132895
826.952711	0.132922
827.142037	0.133052
827.331345	0.132863
827.520635	0.132589
827.709906	0.132690
827.899160	0.132686
828.088395	0.132264
828.277612	0.132448
828.466810	0.132511
828.655991	0.132897
828.845153	0.133011
829.034297	0.133076
829.223423	0.133592
829.412531	0.133765
829.601620	0.133817
829.790691	0.134222
829.979744	0.134082
830.168779	0.134325
830.357795	0.134207
830.546793	0.134049
830.735773	0.134245
830.924735	0.134052
831.113679	0.134147
831.302604	0.134233
831.491511	0.134341
831.680400	0.134617
831.869271	0.134953
832.058123	0.135428
832.246957	0.135883
832.435773	0.136175
832.624571	0.136435
832.813351	0.136672
833.002112	0.137138
833.190855	0.137380
833.379580	0.137642
833.568287	0.137609
833.756975	0.137690
833.945645	0.137856
834.134297	0.138122
834.322931	0.138371
834.511547	0.138373
834.700144	0.138146
834.888723	0.138427
835.077284	0.138190
835.265826	0.138080
835.454351	0.138206
835.642857	0.138272
835.831345	0.138650
836.019815	0.138848
836.208266	0.139429
836.396699	0.139686
836.585114	0.139789
836.773511	0.140448
836.961890	0.141163
837.150250	0.141557
837.338592	0.141821
837.526916	0.141940
837.715222	0.142243
837.903510	0.142198
838.091779	0.142693
838.280030	0.142999
838.468263	0.143194
838.656477	0.143433
838.844674	0.143588
839.032852	0.144222
839.221012	0.144277
839.409153	0.144412
839.597277	0.144491
839.785382	0.144843
839.973469	0.145154
840.161538	0.145392
840.349589	0.145424
840.537621	0.145740
840.725635	0.145455
840.913631	0.145663
841.101609	0.145758
841.289568	0.146235
841.477509	0.146222
841.665432	0.146321
841.853337	0.146534
842.041224	0.146557
842.229092	0.146674
842.416942	0.147106
842.604774	0.147351
842.792588	0.147483
842.980383	0.147439
843.168160	0.147488
843.355919	0.147458
843.543660	0.147607
843.731382	0.148002
843.919087	0.148017
844.106773	0.148157
844.294441	0.148347
844.482090	0.148888
844.669722	0.149057
844.857335	0.149509
845.044930	0.150078
845.232507	0.150195
845.420065	0.150523
845.607605	0.150979
845.795127	0.151021
845.982631	0.151398
846.170117	0.151359
846.357584	0.151847
846.545033	0.152079
846.732464	0.152372
846.919877	0.152506
847.107272	0.152797
847.294648	0.152843
847.482006	0.153173
847.669346	0.153374
847.856667	0.153827
848.043971	0.154235
848.231256	0.154427
848.418523	0.154293
848.605771	0.154498
848.793002	0.154437
848.980214	0.154648
849.167408	0.155034
849.354584	0.154798
849.541742	0.154820
849.728881	0.154610
849.916002	0.154525
850.103105	0.154872
850.290190	0.155108
850.477256	0.155177
850.664304	0.155286
850.851334	0.155174
851.038346	0.155518
851.225340	0.155849
851.412315	0.156337
851.599272	0.156659
851.786211	0.156567
851.973132	0.156681
852.160034	0.156728
852.346918	0.157099
852.533784	0.157394
852.720632	0.157315
852.907462	0.157219
853.094273	0.157174
853.281066	0.157554
853.467841	0.157882
853.654598	0.158166
853.841336	0.158632
854.028056	0.158741
854.214758	0.158864
854.401442	0.159119
854.588107	0.159224
854.774755	0.159563
854.961384	0.159439
855.147995	0.159436
855.334587	0.159658
855.521162	0.159883
855.707718	0.160138
855.894256	0.160310
856.080775	0.160547
856.267277	0.160797
856.453760	0.161078
856.640225	0.161364
856.826672	0.161621
857.013101	0.161702
857.199511	0.161858
857.385903	0.161655
857.572277	0.161658
857.758633	0.161930
857.944970	0.162207
858.131290	0.161848
858.317591	0.162041
858.503873	0.162397
858.690138	0.162496
858.876384	0.162918
859.062612	0.163433
859.248822	0.164042
859.435014	0.164300
859.621188	0.164487
859.807343	0.164829
859.993480	0.165294
860.179599	0.165521
860.365699	0.165821
860.551781	0.165841
860.737846	0.165784
860.923891	0.165779
861.109919	0.165839
861.295929	0.166065
861.481920	0.166381
861.667893	0.166476
861.853848	0.166591
862.039784	0.166824
862.225702	0.166666
862.411603	0.166870
862.597484	0.167173
862.783348	0.167353
862.969193	0.167801
863.155021	0.167957
863.340830	0.167988
863.526620	0.167992
863.712393	0.167878
863.898147	0.167773
864.083883	0.167914
864.269601	0.168139
864.455301	0.168072
864.640982	0.167844
864.826645	0.167711
865.012290	0.167613
865.197917	0.167713
865.383526	0.167546
865.569116	0.167855
865.754688	0.167998
865.940242	0.167802
866.125777	0.167977
866.311295	0.168105
866.496794	0.168406
866.682275	0.168527
866.867737	0.168498
867.053182	0.168985
867.238608	0.169228
867.424016	0.169186
867.609406	0.169169
867.794778	0.169412
867.980131	0.169358
868.165466	0.169605
868.350783	0.169924
868.536082	0.170293
868.721362	0.170312
868.906625	0.170407
869.091869	0.170420
869.277094	0.170688
869.462302	0.170778
869.647491	0.170905
869.832662	0.170833
870.017815	0.170758
870.202950	0.170990
870.388066	0.171328
870.573165	0.171316
870.758245	0.171817
870.943306	0.172026
871.128350	0.172025
871.313375	0.172334
871.498382	0.172477
871.683371	0.172688
871.868342	0.172216
872.053294	0.172283
872.238229	0.172658
872.423144	0.172382
872.608042	0.172588
872.792922	0.172679
872.977783	0.172532
873.162626	0.172369
873.347451	0.172584
873.532258	0.173278
873.717046	0.173350
873.901816	0.173110
874.086568	0.173542
874.271302	0.173281
874.456017	0.173635
874.640715	0.173718
874.825394	0.173989
875.010055	0.174006
875.194697	0.173905
875.379322	0.174192
875.563928	0.174865
875.748516	0.174553
875.933085	0.174708
876.117637	0.174801
876.302170	0.175277
876.486685	0.175382
876.671182	0.175781
876.855661	0.175959
877.040121	0.175917
877.224563	0.175578
877.408987	0.176016
877.593393	0.175940
877.777780	0.176081
877.962150	0.175893
878.146501	0.175718
878.330833	0.175369
878.515148	0.175473
878.699444	0.175471
878.883722	0.175593
879.067982	0.175521
879.252224	0.175938
879.436447	0.175687
879.620653	0.175750
879.804840	0.176274
879.989008	0.176117
880.173159	0.175814
880.357291	0.175816
880.541405	0.175505
880.725501	0.175522
880.909579	0.174967
881.093638	0.174790
881.277680	0.174657
881.461703	0.174458
881.645707	0.174363
881.829694	0.174259
882.013662	0.174317
882.197612	0.174589
882.381544	0.174332
882.565458	0.174625
882.749353	0.174821
882.933230	0.174728
883.117089	0.174399
883.300930	0.174219
883.484753	0.174264
883.668557	0.173658
883.852343	0.173373
884.036111	0.173347
884.219861	0.173519
884.403592	0.173397
884.587305	0.173431
884.771000	0.173639
884.954677	0.174098
885.138335	0.173926
885.321976	0.174329
885.505598	0.174658
885.689201	0.174809
885.872787	0.174512
886.056354	0.174267
886.239904	0.174466
886.423434	0.174413
886.606947	0.174198
886.790442	0.174342
886.973918	0.174160
887.157376	0.174189
887.340816	0.174094
887.524237	0.174217
887.707641	0.174660
887.891026	0.174520
888.074393	0.174658
888.257741	0.174530
888.441072	0.174901
888.624384	0.175271
888.807678	0.174989
888.990954	0.174838
889.174211	0.174893
889.357451	0.174646
889.540672	0.174708
889.723875	0.174326
889.907059	0.174744
890.090226	0.174588
890.273374	0.174565
890.456504	0.174361
890.639616	0.174513
890.822709	0.174483
891.005785	0.174211
891.188842	0.174233
891.371881	0.174411
891.554901	0.174214
891.737904	0.174084
891.920888	0.173540
892.103854	0.173700
892.286802	0.173922
892.469731	0.173675
892.652643	0.174106
892.835536	0.173985
893.018410	0.173995
893.201267	0.173596
893.384106	0.173177
893.566926	0.173550
893.749728	0.173444
893.932511	0.173008
894.115277	0.172787
894.298024	0.172377
894.480753	0.172421
894.663464	0.172172
894.846157	0.172004
895.028831	0.172117
895.211487	0.171595
895.394125	0.171684
895.576745	0.171898
895.759346	0.172067
895.941930	0.172299
896.124495	0.172256
896.307041	0.172427
896.489570	0.172872
896.672080	0.172580
896.854573	0.172918
897.037046	0.172831
897.219502	0.172329
897.401940	0.172145
897.584359	0.171916
897.766760	0.171304
897.949143	0.171130
898.131507	0.170686
898.313854	0.170434
898.496182	0.169677
898.678492	0.169258
898.860783	0.169159
899.043057	0.169206
899.225312	0.169091
899.407549	0.168953
899.589768	0.168757
899.771968	0.168355
899.954151	0.168430
900.136315	0.168522
900.318461	0.168439
900.500588	0.168400
900.682698	0.167862
900.864789	0.167838
901.046862	0.167580
901.228917	0.166963
901.410953	0.166939
901.592971	0.166714
901.774972	0.166423
901.956953	0.166334
902.138917	0.165886
902.320862	0.165509
902.502790	0.164788
902.684699	0.164844
902.866589	0.164936
903.048462	0.164566
903.230316	0.164220
903.412152	0.164084
903.593970	0.163704
903.775770	0.163450
903.957551	0.163460
904.139314	0.163372
904.321059	0.163258
904.502786	0.163284
904.684494	0.163339
904.866185	0.163051
905.047857	0.162745
905.229510	0.162574
905.411146	0.162660
905.592763	0.162516
905.774363	0.162150
905.955943	0.161579
906.137506	0.161100
906.319051	0.160972
906.500577	0.161117
906.682085	0.160879
906.863575	0.160742
907.045046	0.160518
907.226500	0.160277
907.407935	0.160371
907.589352	0.159929
907.770750	0.159517
907.952131	0.159442
908.133493	0.158989
908.314837	0.158964
908.496163	0.158804
908.677470	0.158638
908.858760	0.158026
909.040031	0.157478
909.221284	0.157540
909.402518	0.157136
909.583735	0.156320
909.764933	0.155985
909.946113	0.155182
910.127275	0.154345
910.308418	0.154026
910.489544	0.154322
910.670651	0.153626
910.851740	0.153195
911.032810	0.153030
911.213863	0.152683
911.394897	0.152417
911.575913	0.152837
911.756911	0.152655
911.937890	0.152256
912.118851	0.151395
912.299794	0.151377
912.480719	0.151346
912.661626	0.151468
912.842514	0.151497
913.023384	0.151295
913.204236	0.150974
913.385070	0.150756
913.565886	0.150472
913.746683	0.150449
913.927462	0.150055
914.108223	0.149264
914.288965	0.148801
914.469690	0.148072
914.650396	0.147275
914.831084	0.146468
915.011754	0.145807
915.192405	0.145557
915.373038	0.144761
915.553653	0.144259
915.734250	0.143772
915.914829	0.142725
916.095389	0.142678
916.275931	0.142900
916.456455	0.142368
916.636961	0.142176
916.817448	0.141073
916.997917	0.140950
917.178368	0.140239
917.358801	0.140431
917.539216	0.140184
917.719612	0.139814
917.899990	0.139170
918.080350	0.138843
918.260692	0.138132
918.441015	0.138262
918.621320	0.138293
918.801607	0.137841
918.981876	0.137343
919.162127	0.136900
919.342359	0.136535
919.522573	0.136217
919.702769	0.135576
919.882947	0.135389
920.063106	0.134588
920.243247	0.134360
920.423370	0.134956
920.603475	0.134866
920.783562	0.134476
920.963630	0.134242
921.143680	0.133865
921.323712	0.134270
921.503725	0.134193
921.683721	0.133969
921.863698	0.133091
922.043657	0.132733
922.223598	0.132133
922.403520	0.131926
922.583424	0.131048
922.763311	0.130882
922.943178	0.129930
923.123028	0.129541
923.302859	0.129692
923.482673	0.128965
923.662467	0.128499
923.842244	0.127413
924.022003	0.127004
924.201743	0.125972
924.381465	0.124833
924.561169	0.124671
924.740854	0.124237
924.920522	0.123136
925.100171	0.122644
925.279802	0.121938
925.459414	0.121708
925.639009	0.120967
925.818585	0.121018
925.998143	0.120533
926.177683	0.119893
926.357205	0.119422
926.536708	0.119336
926.716193	0.118984
926.895660	0.118379
927.075109	0.117211
927.254539	0.116762
927.433951	0.116207
927.613345	0.115898
927.792721	0.114986
927.972079	0.114029
928.151418	0.113263
928.330739	0.112457
928.510042	0.111472
928.689327	0.111482
928.868593	0.110872
929.047841	0.110183
929.227071	0.109563
929.406283	0.109038
929.585476	0.108615
929.764652	0.107762
929.943809	0.107297
930.122948	0.107010
930.302068	0.106509
930.481171	0.106466
930.660255	0.106044
930.839321	0.105808
931.018369	0.105188
931.197398	0.104975
931.376409	0.104600
931.555402	0.103894
931.734377	0.102952
931.913334	0.102154
932.092272	0.100692
932.271192	0.099955
932.450094	0.098444
932.628978	0.097906
932.807844	0.097045
932.986691	0.096464
933.165520	0.096013
933.344331	0.095950
933.523123	0.095912
933.701898	0.095564
933.880654	0.095323
934.059392	0.095154
934.238111	0.094237
934.416813	0.093297
934.595496	0.093005
934.774161	0.092105
934.952808	0.091299
935.131437	0.090159
935.310047	0.090432
935.488639	0.089395
935.667213	0.089454
935.845769	0.089304
936.024306	0.089297
936.202825	0.088712
936.381326	0.088481
936.559809	0.088411
936.738274	0.088129
936.916720	0.087297
937.095148	0.087280
937.273558	0.085580
937.451950	0.084317
937.630323	0.083025
937.808678	0.081323
937.987015	0.080758
938.165334	0.079651
938.343635	0.079468
938.521917	0.078255
938.700181	0.076903
938.878427	0.076922
939.056655	0.076740
939.234864	0.076587
939.413055	0.076683
939.591228	0.074694
939.769383	0.074453
939.947519	0.072693
940.125638	0.072034
940.303738	0.071907
940.481820	0.071490
940.659883	0.070883
940.837929	0.069843
941.015956	0.069201
941.193965	0.068993
941.371955	0.067313
941.549928	0.066967
941.727882	0.066060
941.905818	0.065532
942.083736	0.064639
942.261636	0.064219
942.439517	0.063474
942.617380	0.061623
942.795225	0.061839
942.973052	0.061706
943.150860	0.061822
943.328651	0.061857
943.506423	0.060696
943.684176	0.059969
943.861912	0.059721
944.039629	0.059707
944.217328	0.060466
944.395009	0.061184
944.572672	0.060690
944.750317	0.059679
944.927943	0.059344
945.105551	0.059419
945.283141	0.058021
945.460712	0.056153
945.638265	0.054881
945.815801	0.054207
945.993317	0.052094
946.170816	0.051257
946.348297	0.049905
946.525759	0.047916
946.703203	0.046099
946.880629	0.045946
947.058036	0.046027
947.235425	0.045268
947.412797	0.043871
947.590149	0.043448
947.767484	0.042307
947.944800	0.040627
948.122099	0.040987
948.299379	0.040795
948.476640	0.040293
948.653884	0.040394
948.831109	0.040776
949.008316	0.040533
949.185505	0.040542
949.362676	0.040418
949.539828	0.042832
949.716962	0.041034
949.894078	0.040807
950.071176	0.040136
950.248256	0.039476
950.425317	0.038612
950.602360	0.038544
950.779385	0.037224
950.956391	0.035170
951.133380	0.033002
951.310350	0.033357
951.487302	0.033763
951.664235	0.033715
951.841151	0.031941
952.018048	0.031477
952.194927	0.030048
952.371788	0.029928
952.548631	0.031468
952.725455	0.031137
952.902261	0.031226
953.079049	0.030333
953.255819	0.029268
953.432570	0.031020
953.609303	0.029916
953.786018	0.030088
953.962715	0.031136
954.139394	0.030295
954.316054	0.030516
954.492696	0.031565
954.669320	0.030254
954.845926	0.029668
955.022513	0.029732
955.199083	0.030633
955.375634	0.031874
955.552166	0.031377
955.728681	0.031498
955.905177	0.032468
956.081655	0.031932
956.258115	0.032640
956.434557	0.033739
956.610980	0.031706
956.787385	0.031784
956.963772	0.031027
957.140141	0.030269
957.316492	0.031270
957.492824	0.028992
957.669138	0.028559
957.845434	0.028079
958.021712	0.028448
958.197971	0.030095
958.374212	0.029988
958.550435	0.028724
958.726640	0.028025
958.902826	0.027952
959.078995	0.029959
959.255145	0.029447
959.431277	0.030679
959.607390	0.029141
959.783486	0.028011
959.959563	0.026953
960.135622	0.028305
960.311662	0.029370
960.487685	0.028752
960.663689	0.028531
960.839675	0.026957
961.015643	0.027451
961.191593	0.027362
961.367524	0.027028
961.543437	0.028919
961.719332	0.028479
961.895209	0.026861
962.071067	0.026915
962.246907	0.026577
962.422730	0.028668
962.598533	0.028436
962.774319	0.029060
962.950086	0.030098
963.125835	0.028844
963.301566	0.029026
963.477279	0.030194
963.652973	0.028672
963.828650	0.028187
964.004308	0.028414
964.179947	0.028249
964.355569	0.028235
964.531172	0.028576
964.706757	0.030759
964.882324	0.032127
965.057873	0.031865
965.233403	0.034296
965.408916	0.034122
965.584410	0.032903
965.759885	0.032536
965.935343	0.033025
966.110782	0.032745
966.286203	0.030540
966.461606	0.028807
966.636991	0.026987
966.812357	0.027514
966.987705	0.027972
967.163035	0.028180
967.338347	0.026896
967.513641	0.027301
967.688916	0.026095
967.864173	0.025523
968.039412	0.027067
968.214632	0.028869
968.389835	0.028502
968.565019	0.029014
968.740185	0.029071
968.915333	0.029179
969.090462	0.029375
969.265573	0.029909
969.440667	0.031459
969.615741	0.031148
969.790798	0.031493
969.965836	0.031027
970.140856	0.031067
970.315858	0.031359
970.490842	0.031154
970.665808	0.030439
970.840755	0.030983
971.015684	0.029262
971.190595	0.029173
971.365487	0.029394
971.540362	0.029071
971.715218	0.027814
971.890056	0.028005
972.064875	0.029669
972.239677	0.031180
972.414460	0.031295
972.589225	0.030509
972.763972	0.029875
972.938700	0.030753
973.113411	0.032566
973.288103	0.033907
973.462777	0.032180
973.637432	0.033171
973.812070	0.033865
973.986689	0.033309
974.161290	0.034551
974.335873	0.034756
974.510437	0.033816
974.684984	0.031984
974.859512	0.032159
975.034022	0.034282
975.208513	0.033022
975.382987	0.031935
975.557442	0.032485
975.731879	0.033544
975.906298	0.033377
976.080698	0.032203
976.255080	0.030488
976.429445	0.028799
976.603790	0.027456
976.778118	0.028811
976.952427	0.027366
977.126719	0.027008
977.300992	0.025284
977.475246	0.027135
977.649483	0.027754
977.823701	0.028513
977.997901	0.030352
978.172083	0.030832
978.346247	0.029058
978.520392	0.030556
978.694519	0.030587
978.868628	0.033420
979.042719	0.031637
979.216791	0.032861
979.390845	0.034045
979.564882	0.032971
979.738899	0.035221
979.912899	0.034492
980.086880	0.034129
980.260843	0.034601
980.434788	0.032748
980.608715	0.033693
980.782623	0.033155
980.956514	0.033377
981.130386	0.033378
981.304240	0.032186
981.478075	0.033147
981.651892	0.032286
981.825692	0.032653
981.999472	0.033627
982.173235	0.033603
982.346980	0.034227
982.520706	0.034578
982.694414	0.034888
982.868104	0.032314
983.041775	0.031991
983.215428	0.034045
983.389064	0.033421
983.562680	0.032032
983.736279	0.031364
983.909860	0.030401
984.083422	0.029161
984.256966	0.029706
984.430491	0.031907
984.603999	0.031665
984.777488	0.030495
984.950959	0.030046
985.124412	0.031595
985.297847	0.030811
985.471263	0.029952
985.644661	0.030720
985.818041	0.030705
985.991403	0.030312
986.164747	0.031558
986.338072	0.031445
986.511379	0.030478
986.684668	0.030247
986.857938	0.031463
987.031191	0.033381
987.204425	0.034192
987.377641	0.033981
987.550839	0.035052
987.724018	0.034110
987.897179	0.035359
988.070322	0.038051
988.243447	0.037598
988.416554	0.036265
988.589642	0.036940
988.762712	0.036703
988.935764	0.035535
989.108798	0.034504
989.281813	0.035399
989.454811	0.033572
989.627790	0.033427
989.800751	0.032841
989.973693	0.034354
990.146617	0.031761
990.319524	0.031284
990.492412	0.032264
990.665281	0.032298
990.838133	0.030470
991.010966	0.030091
991.183781	0.029935
991.356578	0.030062
991.529356	0.028377
991.702117	0.027557
991.874859	0.027747
992.047583	0.027008
992.220288	0.026348
992.392976	0.025690
992.565645	0.028044
992.738296	0.027996
992.910929	0.028401
993.083543	0.029304
993.256139	0.030425
993.428718	0.030011
993.601277	0.030457
993.773819	0.031000
993.946342	0.032533
994.118848	0.031534
994.291335	0.029972
994.463803	0.028647
994.636254	0.029359
994.808686	0.029685
994.981100	0.028739
995.153496	0.028120
995.325874	0.029184
995.498233	0.028825
995.670574	0.030128
995.842897	0.030738
996.015202	0.030606
996.187488	0.028458
996.359757	0.028209
996.532007	0.027904
996.704239	0.029502
996.876452	0.027898
997.048648	0.029874
997.220825	0.027570
997.392984	0.027166
997.565124	0.028113
997.737247	0.029808
997.909351	0.031351
998.081437	0.033395
998.253505	0.033576
998.425554	0.033625
998.597586	0.031060
998.769599	0.031609
998.941594	0.032127
999.113571	0.031320
999.285529	0.033054
999.457469	0.030574
999.629391	0.030127
999.801295	0.031065
999.973181	0.031576
1000.145048	0.033205
1000.316897	0.033606
1000.488728	0.036226
1000.660541	0.037135
1000.832335	0.035330
1001.004111	0.036868
1001.175869	0.035563
1001.347609	0.033467
1001.519331	0.033145
1001.691034	0.032166
1001.862719	0.032863
1002.034386	0.029600
1002.206035	0.029584
1002.377665	0.029971
1002.549277	0.029914
1002.720871	0.030507
1002.892447	0.031869
1003.064004	0.031561
1003.235544	0.033282
1003.407065	0.032498
1003.578568	0.032706
1003.750052	0.033206
1003.921519	0.033349
1004.092967	0.033461
1004.264397	0.032445
1004.435809	0.031303
1004.607202	0.031450
1004.778577	0.031473
1004.949934	0.029485
1005.121273	0.028529
1005.292594	0.029290
1005.463896	0.029195
1005.635180	0.030189
1005.806446	0.031593
1005.977694	0.032682
1006.148923	0.033958
1006.320135	0.033371
1006.491328	0.035744
1006.662503	0.038183
1006.833659	0.036116
1007.004798	0.035492
1007.175918	0.034458
1007.347020	0.034492
1007.518103	0.033411
1007.689169	0.031841
1007.860216	0.030847
1008.031245	0.030073
1008.202256	0.028241
1008.373248	0.029776
1008.544223	0.028941
1008.715179	0.028505
1008.886117	0.027554
1009.057036	0.027322
1009.227938	0.027399
1009.398821	0.027369
1009.569686	0.028049
1009.740533	0.028952
1009.911361	0.028309
1010.082172	0.029072
1010.252964	0.028581
1010.423738	0.029877
1010.594493	0.030071
1010.765231	0.029866
1010.935950	0.029680
1011.106651	0.028839
1011.277334	0.029136
1011.447998	0.028358
1011.618645	0.027805
1011.789273	0.028070
1011.959882	0.027624
1012.130474	0.027653
1012.301048	0.028535
1012.471603	0.029389
1012.642140	0.029153
1012.812658	0.029102
1012.983159	0.029277
1013.153641	0.028388
1013.324105	0.028074
1013.494551	0.028267
1013.664979	0.027698
1013.835388	0.026031
1014.005779	0.026124
1014.176152	0.026921
1014.346507	0.027662
1014.516843	0.027765
1014.687162	0.028396
1014.857462	0.028281
1015.027744	0.028456
1015.198007	0.029704
1015.368252	0.030216
1015.538480	0.029064
1015.708689	0.029543
1015.878879	0.028108
1016.049052	0.029001
1016.219206	0.030047
1016.389342	0.029775
1016.559460	0.029600
1016.729559	0.028284
1016.899641	0.029474
1017.069704	0.030439
1017.239749	0.031120
1017.409775	0.032155
1017.579784	0.032827
1017.749774	0.032828
1017.919746	0.033167
1018.089700	0.033646
1018.259635	0.034041
1018.429553	0.033519
1018.599452	0.035164
1018.769333	0.032982
1018.939195	0.031281
1019.109040	0.029899
1019.278866	0.030460
1019.448674	0.029796
1019.618464	0.028619
1019.788235	0.028629
1019.957989	0.030070
1020.127724	0.027801
1020.297441	0.029904
1020.467139	0.030489
1020.636820	0.030693
1020.806482	0.029399
1020.976126	0.031671
1021.145752	0.032402
1021.315359	0.031419
1021.484948	0.030572
1021.654519	0.030777
1021.824072	0.031097
1021.993607	0.031234
1022.163123	0.030918
1022.332621	0.030314
1022.502101	0.029135
1022.671563	0.029230
1022.841007	0.029676
1023.010432	0.030675
1023.179839	0.031094
1023.349228	0.028844
1023.518598	0.027839
1023.687951	0.027173
1023.857285	0.028798
1024.026601	0.029744
1024.195899	0.029414
1024.365178	0.029671
1024.534439	0.027709
1024.703682	0.028180
1024.872907	0.028809
1025.042114	0.030507
1025.211302	0.030730
1025.380472	0.030192
1025.549624	0.030782
1025.718758	0.032258
1025.887873	0.032984
1026.056970	0.031745
1026.226049	0.030592
1026.395110	0.030450
1026.564153	0.030199
1026.733177	0.031677
1026.902183	0.032460
1027.071171	0.031669
1027.240141	0.031190
1027.409092	0.030949
1027.578026	0.032536
1027.746940	0.033480
1027.915837	0.031836
1028.084716	0.030162
1028.253576	0.030235
1028.422418	0.028200
1028.591242	0.026887
1028.760048	0.025911
1028.928835	0.026168
1029.097604	0.024764
1029.266355	0.023849
1029.435088	0.024016
1029.603803	0.024664
1029.772499	0.023157
1029.941177	0.024329
1030.109837	0.025400
1030.278478	0.024852
1030.447102	0.024043
1030.615707	0.025201
1030.784294	0.027046
1030.952863	0.028282
1031.121413	0.029309
1031.289945	0.030734
1031.458460	0.029968
1031.626955	0.029826
1031.795433	0.028908
1031.963892	0.029473
1032.132334	0.029827
1032.300756	0.027226
1032.469161	0.027308
1032.637548	0.027490
1032.805916	0.026456
1032.974266	0.027710
1033.142598	0.027226
1033.310911	0.029004
1033.479207	0.029031
1033.647484	0.028964
1033.815743	0.027954
1033.983983	0.028658
1034.152206	0.028666
1034.320410	0.029279
1034.488596	0.028319
1034.656764	0.028235
1034.824914	0.027919
1034.993045	0.026492
1035.161158	0.027490
1035.329253	0.029243
1035.497330	0.027641
1035.665388	0.026888
1035.833428	0.025844
1036.001450	0.027378
1036.169454	0.027716
1036.337440	0.026469
1036.505407	0.028606
1036.673356	0.027999
1036.841287	0.028042
1037.009200	0.028712
1037.177094	0.028736
1037.344970	0.028667
1037.512828	0.028256
1037.680668	0.027822
1037.848489	0.029122
1038.016293	0.026941
1038.184078	0.025003
1038.351845	0.025280
1038.519593	0.025885
1038.687324	0.026629
1038.855036	0.027185
1039.022730	0.025295
1039.190406	0.025388
1039.358063	0.024619
1039.525702	0.026535
1039.693323	0.028228
1039.860926	0.028639
1040.028511	0.029449
1040.196077	0.028199
1040.363625	0.027528
1040.531155	0.027887
1040.698667	0.026908
1040.866161	0.028269
1041.033636	0.027300
1041.201093	0.028084
1041.368532	0.028032
1041.535952	0.026793
1041.703355	0.026714
1041.870739	0.025575
1042.038105	0.026479
1042.205452	0.027857
1042.372782	0.026916
1042.540093	0.025116
1042.707386	0.025558
1042.874661	0.024447
1043.041918	0.023633
1043.209156	0.024968
1043.376376	0.026652
1043.543578	0.026563
1043.710762	0.027179
1043.877927	0.026067
1044.045074	0.028233
1044.212203	0.027161
1044.379314	0.029336
1044.546407	0.029911
1044.713481	0.028433
1044.880537	0.028269
1045.047575	0.028692
1045.214595	0.027275
1045.381596	0.028633
1045.548579	0.026801
1045.715544	0.027619
1045.882491	0.026647
1046.049420	0.025173
1046.216330	0.024137
1046.383222	0.025457
1046.550096	0.025721
1046.716951	0.026665
1046.883789	0.026383
1047.050608	0.028289
1047.217409	0.025631
1047.384192	0.026212
1047.550956	0.027634
1047.717703	0.029424
1047.884431	0.027667
1048.051140	0.025731
1048.217832	0.024131
1048.384505	0.025297
1048.551161	0.026066
1048.717798	0.026972
1048.884416	0.026170
1049.051017	0.026267
1049.217599	0.025431
1049.384163	0.026155
1049.550709	0.026887
1049.717237	0.027555
1049.883746	0.025577
1050.050237	0.024331
1050.216710	0.025447
1050.383165	0.025217
1050.549601	0.025382
1050.716019	0.026777
1050.882420	0.027729
1051.048801	0.027706
1051.215165	0.029333
1051.381510	0.030000
1051.547837	0.030387
1051.714146	0.030209
1051.880437	0.030133
1052.046709	0.029210
1052.212964	0.029450
1052.379200	0.027609
1052.545417	0.029738
1052.711617	0.028011
1052.877798	0.026180
1053.043961	0.025850
1053.210106	0.025614
1053.376233	0.024754
1053.542341	0.026441
1053.708432	0.025036
1053.874504	0.026587
1054.040557	0.024129
1054.206593	0.024963
1054.372610	0.027623
1054.538609	0.025712
1054.704590	0.025878
1054.870553	0.026308
1055.036497	0.025564
1055.202424	0.025835
1055.368331	0.025711
1055.534221	0.025790
1055.700093	0.025484
1055.865946	0.024743
1056.031781	0.026153
1056.197598	0.026110
1056.363397	0.027696
1056.529177	0.027312
1056.694939	0.026592
1056.860683	0.025005
1057.026409	0.025952
1057.192116	0.025864
1057.357806	0.027690
1057.523477	0.027466
1057.689130	0.026259
1057.854764	0.024434
1058.020381	0.025178
1058.185979	0.026917
1058.351559	0.029556
1058.517120	0.027774
1058.682664	0.027806
1058.848189	0.024997
1059.013696	0.025289
1059.179185	0.027807
1059.344656	0.028857
1059.510108	0.028387
1059.675542	0.028112
1059.840958	0.026633
1060.006356	0.025873
1060.171735	0.025544
1060.337096	0.025881
1060.502439	0.026857
1060.667764	0.025493
1060.833071	0.025162
1060.998359	0.025105
1061.163629	0.024059
1061.328881	0.025947
1061.494115	0.027125
1061.659330	0.027515
1061.824527	0.027275
1061.989706	0.026552
1062.154867	0.026546
1062.320010	0.027014
1062.485134	0.029398
1062.650240	0.029544
1062.815328	0.028620
1062.980398	0.028656
1063.145449	0.028513
1063.310482	0.028892
1063.475497	0.028350
1063.640494	0.028432
1063.805473	0.029021
1063.970433	0.026824
1064.135375	0.027801
1064.300299	0.027335
1064.465204	0.028984
1064.630092	0.030164
1064.794961	0.030952
1064.959812	0.031378
1065.124645	0.030405
1065.289459	0.029001
1065.454256	0.031086
1065.619034	0.031732
1065.783793	0.031448
1065.948535	0.029797
1066.113258	0.029167
1066.277964	0.029793
1066.442651	0.029472
1066.607319	0.031054
1066.771970	0.031733
1066.936602	0.028462
1067.101216	0.026776
1067.265812	0.025429
1067.430389	0.026283
1067.594949	0.026039
1067.759490	0.024102
1067.924013	0.023423
1068.088518	0.023568
1068.253004	0.024256
1068.417472	0.025370
1068.581922	0.025989
1068.746354	0.026765
1068.910768	0.027186
1069.075163	0.026075
1069.239540	0.027807
1069.403899	0.029680
1069.568240	0.030269
1069.732562	0.028591
1069.896866	0.031579
1070.061152	0.032900
1070.225420	0.033030
1070.389670	0.032559
1070.553901	0.035055
1070.718114	0.034286
1070.882309	0.034071
1071.046486	0.033226
1071.210644	0.034059
1071.374784	0.031846
1071.538906	0.031778
1071.703010	0.032450
1071.867096	0.032165
1072.031163	0.028560
1072.195212	0.028111
1072.359243	0.027269
1072.523256	0.027348
1072.687250	0.025380
1072.851226	0.025457
1073.015184	0.024583
1073.179124	0.023832
1073.343045	0.026032
1073.506949	0.026458
1073.670834	0.027798
1073.834701	0.028490
1073.998549	0.027090
1074.162380	0.030511
1074.326192	0.030840
1074.489986	0.031154
1074.653761	0.032505
1074.817519	0.032464
1074.981258	0.033969
1075.144979	0.032700
1075.308682	0.034899
1075.472367	0.035209
1075.636033	0.033497
1075.799681	0.035338
1075.963311	0.033510
1076.126923	0.032348
1076.290516	0.031576
1076.454092	0.033262
1076.617649	0.034086
1076.781187	0.033560
1076.944708	0.033541
1077.108210	0.033506
1077.271695	0.031153
1077.435160	0.033065
1077.598608	0.034753
1077.762038	0.036709
1077.925449	0.036995
1078.088842	0.036548
1078.252217	0.034489
1078.415573	0.036435
1078.578912	0.037088
1078.742232	0.036312
1078.905534	0.034028
1079.068817	0.032903
1079.232083	0.030113
1079.395330	0.029143
1079.558559	0.029077
1079.721770	0.029198
1079.884962	0.027677
1080.048136	0.026896
1080.211293	0.028175
1080.374430	0.030609
1080.537550	0.031056
1080.700651	0.032744
1080.863735	0.033358
1081.026800	0.033991
1081.189846	0.036359
1081.352875	0.036457
1081.515885	0.036367
1081.678877	0.037786
1081.841851	0.038482
1082.004807	0.037898
1082.167744	0.036151
1082.330663	0.034435
1082.493564	0.033089
1082.656447	0.031733
1082.819312	0.032230
1082.982158	0.033474
1083.144986	0.032359
1083.307796	0.029695
1083.470587	0.030883
1083.633361	0.031163
1083.796116	0.030470
1083.958853	0.032790
1084.121571	0.032039
1084.284272	0.031619
1084.446954	0.030566
1084.609618	0.029062
1084.772264	0.029944
1084.934892	0.028522
1085.097501	0.029264
1085.260092	0.030143
1085.422665	0.028998
1085.585220	0.029066
1085.747756	0.031158
1085.910274	0.034483
1086.072774	0.036290
1086.235256	0.036699
1086.397720	0.037091
1086.560165	0.036834
1086.722592	0.037485
1086.885001	0.036923
1087.047392	0.036210
1087.209764	0.036065
1087.372119	0.032414
1087.534455	0.032348
1087.696772	0.033274
1087.859072	0.034117
1088.021353	0.034499
1088.183616	0.035247
1088.345861	0.035531
1088.508088	0.036407
1088.670296	0.034820
1088.832486	0.036126
1088.994658	0.035699
1089.156812	0.035012
1089.318948	0.037028
1089.481065	0.035089
1089.643164	0.036771
1089.805245	0.038377
1089.967308	0.040283
1090.129352	0.040211
1090.291378	0.039088
1090.453386	0.038543
1090.615376	0.037677
1090.777347	0.037073
1090.939301	0.036504
1091.101236	0.035379
1091.263153	0.033094
1091.425051	0.026662
1091.586932	0.025772
1091.748794	0.025375
1091.910638	0.023243
1092.072463	0.022844
1092.234271	0.019882
1092.396060	0.023874
1092.557831	0.024059
1092.719584	0.026315
1092.881319	0.030384
1093.043035	0.029226
1093.204733	0.030448
1093.366413	0.030762
1093.528075	0.032769
1093.689718	0.035968
1093.851343	0.031676
1094.012950	0.030551
1094.174539	0.028999
1094.336110	0.031010
1094.497662	0.035466
1094.659196	0.037090
1094.820712	0.039665
1094.982210	0.039944
1095.143689	0.037297
1095.305151	0.041767
1095.466594	0.041318
1095.628018	0.045021
1095.789425	0.044782
1095.950813	0.044138
1096.112183	0.042280
1096.273535	0.040046
1096.434869	0.038786
1096.596184	0.036088
1096.757482	0.031482
1096.918761	0.030608
1097.080021	0.024855
1097.241264	0.025403
1097.402488	0.025032
1097.563694	0.024648
1097.724882	0.024775
1097.886052	0.024734
1098.047203	0.024430
1098.208336	0.024641
1098.369451	0.029039
1098.530548	0.032501
1098.691627	0.033378
1098.852687	0.032847
1099.013729	0.032709
1099.174753	0.036146
1099.335758	0.035655
1099.496746	0.041603
1099.657715	0.040098
1099.818666	0.035591
1099.979599	0.032976
1100.140513	0.029432
1100.301409	0.026843
1100.462287	0.026629
1100.623147	0.025948
1100.783989	0.024349
1100.944812	0.021193
1101.105617	0.023398
1101.266404	0.024926
1101.427173	0.024564
1101.587923	0.024192
1101.748656	0.026317
1101.909370	0.025006
1102.070066	0.020634
1102.230743	0.024628
1102.391403	0.028270
1102.552044	0.028503
1102.712667	0.029959
1102.873271	0.031695
1103.033858	0.033831
1103.194426	0.034232
1103.354976	0.037280
1103.515508	0.038522
1103.676021	0.035134
1103.836517	0.030351
1103.996994	0.035219
1104.157453	0.035983
1104.317893	0.036277
1104.478316	0.033192
1104.638720	0.031418
1104.799106	0.030742
1104.959474	0.030964
1105.119823	0.034823
1105.280155	0.034220
1105.440468	0.033266
1105.600763	0.029830
1105.761039	0.030695
1105.921298	0.030834
1106.081538	0.030251
1106.241760	0.030041
1106.401964	0.033122
1106.562149	0.029011
1106.722316	0.030149
1106.882465	0.028888
1107.042596	0.029257
1107.202709	0.025690
1107.362803	0.027404
1107.522879	0.031561
1107.682937	0.033817
1107.842977	0.034699
1108.002999	0.037436
1108.163002	0.040846
1108.322987	0.041602
1108.482954	0.043451
1108.642902	0.046670
1108.802833	0.043925
1108.962745	0.040413
1109.122639	0.039337
1109.282515	0.035723
1109.442372	0.033761
1109.602211	0.032843
1109.762032	0.029651
1109.921835	0.028963
1110.081620	0.028776
1110.241386	0.031991
1110.401134	0.035165
1110.560864	0.035248
1110.720576	0.036172
1110.880269	0.038303
1111.039945	0.034043
1111.199602	0.036168
1111.359240	0.036101
1111.518861	0.036307
1111.678463	0.037421
1111.838047	0.037710
1111.997613	0.034206
1112.157161	0.037062
1112.316690	0.037527
1112.476202	0.039169
1112.635695	0.040443
1112.795169	0.040215
1112.954626	0.038681
1113.114064	0.038214
1113.273484	0.035201
1113.432886	0.040105
1113.592270	0.037322
1113.751635	0.032470
1113.910983	0.033979
1114.070312	0.031956
1114.229622	0.030894
1114.388915	0.032372
1114.548189	0.030915
1114.707445	0.030044
1114.866683	0.027951
1115.025903	0.030419
1115.185104	0.037328
1115.344287	0.037316
1115.503452	0.034001
1115.662599	0.034553
1115.821727	0.032408
1115.980838	0.034190
1116.139930	0.037783
1116.299004	0.040450
1116.458059	0.039696
1116.617097	0.034619
1116.776116	0.035728
1116.935117	0.036513
1117.094099	0.036071
1117.253064	0.040154
1117.412010	0.036025
1117.570938	0.028383
1117.729848	0.025322
1117.888740	0.027388
1118.047613	0.025722
1118.206468	0.025751
1118.365305	0.030700
1118.524124	0.032452
1118.682924	0.029692
1118.841707	0.032913
1119.000471	0.039167
1119.159216	0.042009
1119.317944	0.039184
1119.476653	0.041942
1119.635344	0.045015
1119.794017	0.044039
1119.952672	0.044486
1120.111308	0.048878
1120.269927	0.053489
1120.428527	0.056216
1120.587108	0.056181
1120.745672	0.056746
1120.904217	0.061515
1121.062744	0.055009
1121.221253	0.053787
1121.379744	0.048661
1121.538216	0.042490
1121.696671	0.038580
1121.855107	0.032762
1122.013524	0.033325
1122.171924	0.034891
1122.330305	0.032646
1122.488668	0.030510
1122.647013	0.027744
1122.805340	0.030737
1122.963648	0.036257
1123.121938	0.038407
1123.280210	0.040129
1123.438464	0.038011
1123.596700	0.037858
1123.754917	0.037612
1123.913116	0.042296
1124.071297	0.049621
1124.229459	0.048620
1124.387604	0.041386
1124.545730	0.038592
1124.703838	0.042100
1124.861928	0.042169
1125.019999	0.036912
1125.178052	0.035613
1125.336088	0.039386
1125.494104	0.034861
1125.652103	0.036089
1125.810083	0.038698
1125.968045	0.042232
1126.125989	0.038223
1126.283915	0.036583
1126.441823	0.034333
1126.599712	0.032249
1126.757583	0.026946
1126.915436	0.025356
1127.073270	0.024094
1127.231087	0.026683
1127.388885	0.024424
1127.546665	0.024479
1127.704426	0.025268
1127.862170	0.029591
1128.019895	0.028085
1128.177602	0.029265
1128.335291	0.032551
1128.492961	0.041052
1128.650614	0.038817
1128.808248	0.039972
1128.965864	0.038062
1129.123461	0.036449
1129.281041	0.033295
1129.438602	0.033813
1129.596145	0.037367
1129.753670	0.034622
1129.911176	0.028608
1130.068665	0.031126
1130.226135	0.034688
1130.383587	0.036800
1130.541020	0.036224
1130.698436	0.035999
1130.855833	0.037807
1131.013212	0.031221
1131.170573	0.032688
1131.327915	0.031491
1131.485239	0.032143
1131.642545	0.025166
1131.799833	0.028836
1131.957103	0.033894
1132.114354	0.038111
1132.271588	0.044749
1132.428803	0.049619
1132.585999	0.046929
1132.743178	0.048415
1132.900338	0.049187
1133.057480	0.049990
1133.214604	0.042702
1133.371710	0.035397
1133.528797	0.034869
1133.685866	0.031518
1133.842917	0.025588
1133.999950	0.024642
1134.156964	0.022450
1134.313960	0.019032
1134.470938	0.022448
1134.627898	0.027021
1134.784840	0.032041
1134.941763	0.031110
1135.098668	0.032629
1135.255555	0.039077
1135.412424	0.039644
1135.569274	0.042525
1135.726107	0.041979
1135.882921	0.043048
1136.039716	0.047421
1136.196494	0.046287
1136.353253	0.046538
1136.509995	0.043545
1136.666717	0.041736
1136.823422	0.044142
1136.980109	0.041822
1137.136777	0.042347
1137.293427	0.037767
1137.450059	0.029536
1137.606672	0.028329
1137.763267	0.027443
1137.919844	0.025938
1138.076403	0.023740
1138.232944	0.027792
1138.389466	0.031343
1138.545971	0.035559
1138.702457	0.036079
1138.858924	0.040319
1139.015374	0.037516
1139.171805	0.039411
1139.328218	0.040298
1139.484613	0.042848
1139.640990	0.035452
1139.797348	0.033225
1139.953688	0.027885
1140.110010	0.027367
1140.266314	0.037133
1140.422600	0.044509
1140.578867	0.046961
1140.735116	0.051836
1140.891347	0.053816
1141.047559	0.053275
1141.203754	0.046965
1141.359930	0.045314
1141.516088	0.045048
1141.672228	0.032401
1141.828349	0.033163
1141.984452	0.034971
1142.140537	0.025085
1142.296604	0.020002
1142.452653	0.026891
1142.608683	0.036493
1142.764695	0.041749
1142.920689	0.047246
1143.076665	0.050283
1143.232622	0.048421
1143.388562	0.045092
1143.544483	0.053232
1143.700385	0.053779
1143.856270	0.050689
1144.012136	0.047298
1144.167985	0.048725
1144.323814	0.049788
1144.479626	0.054445
1144.635420	0.054607
1144.791195	0.049993
1144.946952	0.053465
1145.102691	0.059646
1145.258411	0.056750
1145.414113	0.060956
1145.569798	0.053721
1145.725463	0.048007
1145.881111	0.045051
1146.036741	0.039694
1146.192352	0.046775
1146.347945	0.037918
1146.503519	0.031170
1146.659076	0.040009
1146.814614	0.037892
1146.970134	0.046066
1147.125636	0.049081
1147.281120	0.047688
1147.436585	0.055952
1147.592032	0.059243
1147.747461	0.061481
1147.902872	0.060323
1148.058265	0.057941
1148.213639	0.054892
1148.368995	0.053287
1148.524333	0.053265
1148.679653	0.057955
1148.834954	0.055934
1148.990237	0.047220
1149.145502	0.050165
1149.300749	0.047404
1149.455977	0.046461
1149.611188	0.047417
1149.766380	0.049672
1149.921553	0.051162
1150.076709	0.045769
1150.231846	0.047542
1150.386966	0.045609
1150.542066	0.048076
1150.697149	0.063262
1150.852214	0.059660
1151.007260	0.055965
1151.162288	0.052604
1151.317298	0.051080
1151.472289	0.057251
1151.627263	0.053094
1151.782218	0.060096
1151.937155	0.049596
1152.092073	0.040380
1152.246974	0.040271
1152.401856	0.038883
1152.556720	0.038785
1152.711566	0.038751
1152.866393	0.036403
1153.021203	0.033606
1153.175994	0.037907
1153.330767	0.048758
1153.485521	0.060906
1153.640258	0.060449
1153.794976	0.067072
1153.949676	0.069199
1154.104358	0.067393
1154.259021	0.060266
1154.413667	0.065145
1154.568294	0.058522
1154.722903	0.051516
1154.877493	0.040430
1155.032066	0.038512
1155.186620	0.040485
1155.341156	0.039140
1155.495674	0.041525
1155.650173	0.046069
1155.804654	0.051190
1155.959118	0.049309
1156.113562	0.051198
1156.267989	0.051325
1156.422397	0.052151
1156.576788	0.044445
1156.731160	0.045088
1156.885513	0.041946
1157.039849	0.036122
1157.194166	0.021050
1157.348465	0.024536
1157.502746	0.028381
1157.657009	0.036750
1157.811253	0.035408
1157.965479	0.041157
1158.119687	0.035117
1158.273877	0.042485
1158.428048	0.041223
1158.582201	0.048017
1158.736337	0.050613
1158.890453	0.054227
1159.044552	0.047861
1159.198632	0.054714
1159.352694	0.055824
1159.506738	0.062786
1159.660764	0.055904
1159.814771	0.066661
1159.968761	0.072097
1160.122732	0.062606
1160.276685	0.053654
1160.430619	0.054886
1160.584535	0.049729
1160.738434	0.046504
1160.892313	0.045679
1161.046175	0.040767
1161.200019	0.030305
1161.353844	0.034643
1161.507651	0.031018
1161.661440	0.032794
1161.815210	0.023431
1161.968962	0.016762
1162.122697	0.011777
1162.276412	0.009381
1162.430110	0.005166
1162.583789	0.013136
1162.737451	0.006274
1162.891094	0.017670
1163.044718	0.016850
1163.198325	0.032756
1163.351913	0.040995
1163.505483	0.038248
1163.659035	0.043392
1163.812569	0.049097
1163.966084	0.049510
1164.119581	0.052599
1164.273060	0.045593
1164.426521	0.047617
1164.579964	0.043231
1164.733388	0.047848
1164.886794	0.068841
1165.040182	0.071496
1165.193551	0.073112
1165.346903	0.078318
1165.500236	0.074236
1165.653551	0.082572
1165.806848	0.077813
1165.960126	0.070566
1166.113386	0.066208
1166.266628	0.036800
1166.419852	0.030006
1166.573058	0.031247
1166.726245	0.021995
1166.879414	0.019903
1167.032565	0.008669
1167.185698	0.011675
1167.338812	0.015347
1167.491909	0.007199
1167.644987	0.022219
1167.798046	0.023962
1167.951088	0.019551
1168.104111	0.014055
1168.257117	0.015275
1168.410103	0.024810
1168.563072	0.025695
1168.716023	0.018590
1168.868955	0.025054
1169.021869	0.027406
1169.174765	0.032094
1169.327642	0.035016
1169.480501	0.051350
1169.633343	0.049194
1169.786165	0.042624
1169.938970	0.043839
1170.091757	0.041483
1170.244525	0.044265
1170.397275	0.036123
1170.550007	0.021791
1170.702720	0.031847
1170.855415	0.030265
1171.008092	0.026433
1171.160751	0.023074
1171.313392	0.014725
1171.466014	0.119172
1171.618619	-0.024311
1171.771205	-0.024311
1171.923772	-0.024311
