sample name	sample
index	646
start time	 03-19-2021  03:57:15 PM


Wavelength (nm)	Absorbance
494.344910	-0.414250
494.563924	-0.414250
494.782919	-0.414250
495.001897	-0.192298
495.220856	-0.628361
495.439797	-0.681113
495.658719	-0.711708
495.877624	-0.847343
496.096510	-0.449586
496.315378	-0.385746
496.534227	-0.152621
496.753059	0.089875
496.971872	0.434314
497.190667	0.010511
497.409444	0.008506
497.628203	0.009286
497.846943	0.006884
498.065665	0.008114
498.284369	0.009081
498.503055	0.008492
498.721723	0.008729
498.940372	0.008563
499.159003	0.009516
499.377616	0.009700
499.596210	0.009969
499.814787	0.010282
500.033345	0.009039
500.251885	0.008688
500.470406	0.008779
500.688910	0.008261
500.907395	0.008149
501.125862	0.007713
501.344311	0.008059
501.562742	0.008335
501.781154	0.008379
501.999548	0.009182
502.217924	0.009053
502.436282	0.008696
502.654621	0.008963
502.872942	0.008342
503.091245	0.008036
503.309530	0.008148
503.527797	0.007068
503.746045	0.007295
503.964275	0.007673
504.182487	0.008563
504.400681	0.008691
504.618856	0.009265
504.837013	0.009684
505.055152	0.010653
505.273273	0.010363
505.491376	0.011249
505.709460	0.011446
505.927526	0.010710
506.145574	0.010292
506.363604	0.010907
506.581615	0.010255
506.799608	0.009920
507.017583	0.009415
507.235540	0.009306
507.453478	0.009139
507.671399	0.008709
507.889301	0.008336
508.107185	0.007662
508.325050	0.007251
508.542898	0.006756
508.760727	0.007292
508.978538	0.006945
509.196330	0.007244
509.414105	0.007040
509.631861	0.007252
509.849599	0.007531
510.067319	0.007820
510.285021	0.007664
510.502704	0.007785
510.720369	0.007279
510.938016	0.007801
511.155645	0.007106
511.373255	0.007261
511.590848	0.006960
511.808422	0.006997
512.025977	0.006619
512.243515	0.007103
512.461034	0.006663
512.678536	0.006547
512.896018	0.006755
513.113483	0.006922
513.330930	0.006920
513.548358	0.007185
513.765768	0.007808
513.983160	0.007891
514.200533	0.007280
514.417889	0.008043
514.635226	0.008024
514.852545	0.007267
515.069845	0.007518
515.287128	0.007544
515.504392	0.007419
515.721638	0.006629
515.938866	0.006919
516.156075	0.006604
516.373267	0.005833
516.590440	0.006268
516.807594	0.006530
517.024731	0.005940
517.241850	0.006168
517.458950	0.005302
517.676032	0.005449
517.893095	0.005590
518.110141	0.006123
518.327168	0.006276
518.544177	0.006255
518.761168	0.005838
518.978141	0.006246
519.195095	0.005615
519.412031	0.006666
519.628949	0.006747
519.845849	0.006586
520.062731	0.006675
520.279594	0.006779
520.496439	0.006418
520.713266	0.006403
520.930074	0.006486
521.146865	0.006826
521.363637	0.006603
521.580391	0.006697
521.797127	0.006565
522.013844	0.006620
522.230543	0.006972
522.447224	0.006919
522.663887	0.007092
522.880532	0.007393
523.097158	0.007571
523.313766	0.007124
523.530356	0.007869
523.746928	0.007787
523.963481	0.007634
524.180017	0.007181
524.396534	0.007403
524.613032	0.007433
524.829513	0.006928
525.045975	0.006869
525.262420	0.007547
525.478845	0.006635
525.695253	0.006487
525.911643	0.006478
526.128014	0.006907
526.344367	0.007008
526.560702	0.006885
526.777018	0.006971
526.993316	0.006280
527.209597	0.006059
527.425858	0.005670
527.642102	0.005774
527.858328	0.005863
528.074535	0.005475
528.290724	0.005936
528.506894	0.006149
528.723047	0.005810
528.939181	0.006185
529.155297	0.006541
529.371395	0.007139
529.587475	0.007096
529.803536	0.006728
530.019579	0.006981
530.235604	0.006488
530.451611	0.006496
530.667600	0.007049
530.883570	0.007079
531.099522	0.006871
531.315456	0.006866
531.531372	0.007065
531.747269	0.007235
531.963148	0.007420
532.179009	0.007177
532.394852	0.007438
532.610676	0.007088
532.826482	0.007056
533.042271	0.006907
533.258040	0.006909
533.473792	0.006602
533.689525	0.006504
533.905240	0.006395
534.120937	0.006411
534.336616	0.006325
534.552277	0.006122
534.767919	0.006019
534.983543	0.005631
535.199149	0.005341
535.414736	0.005198
535.630306	0.005030
535.845857	0.004950
536.061390	0.005385
536.276904	0.005335
536.492401	0.005683
536.707879	0.006036
536.923339	0.006213
537.138781	0.006358
537.354204	0.006696
537.569610	0.006952
537.784997	0.007210
538.000366	0.006835
538.215716	0.006557
538.431049	0.006571
538.646363	0.006493
538.861659	0.006635
539.076937	0.006723
539.292196	0.006822
539.507438	0.006813
539.722661	0.006352
539.937866	0.006449
540.153052	0.006530
540.368221	0.006237
540.583371	0.005944
540.798503	0.005737
541.013617	0.005721
541.228712	0.005591
541.443789	0.005215
541.658848	0.005457
541.873889	0.005435
542.088912	0.005581
542.303916	0.005934
542.518902	0.006166
542.733870	0.006200
542.948820	0.006080
543.163752	0.005809
543.378665	0.006192
543.593560	0.006192
543.808437	0.006338
544.023295	0.006147
544.238136	0.005950
544.452958	0.005911
544.667762	0.006057
544.882548	0.006247
545.097315	0.006220
545.312064	0.006463
545.526795	0.006462
545.741508	0.006249
545.956203	0.006112
546.170879	0.006052
546.385537	0.006001
546.600177	0.005918
546.814799	0.005765
547.029402	0.006239
547.243988	0.005839
547.458555	0.005877
547.673103	0.006125
547.887634	0.006223
548.102146	0.006500
548.316640	0.006594
548.531116	0.006835
548.745574	0.007311
548.960013	0.007146
549.174435	0.007387
549.388838	0.007553
549.603222	0.007411
549.817589	0.007386
550.031937	0.007070
550.246267	0.006915
550.460579	0.006823
550.674873	0.006508
550.889148	0.006539
551.103405	0.006403
551.317644	0.006167
551.531865	0.006188
551.746068	0.006782
551.960252	0.006892
552.174418	0.006861
552.388566	0.006924
552.602696	0.006877
552.816807	0.006873
553.030900	0.007208
553.244975	0.007457
553.459032	0.007215
553.673070	0.006730
553.887091	0.006579
554.101093	0.006743
554.315077	0.006854
554.529042	0.006832
554.742990	0.006918
554.956919	0.006668
555.170830	0.006574
555.384722	0.006641
555.598597	0.006936
555.812453	0.007122
556.026291	0.007328
556.240111	0.007171
556.453913	0.007106
556.667696	0.006769
556.881461	0.006947
557.095208	0.006814
557.308937	0.007105
557.522647	0.006764
557.736339	0.006785
557.950013	0.006625
558.163669	0.006581
558.377307	0.006573
558.590926	0.007018
558.804527	0.006692
559.018110	0.006603
559.231675	0.006678
559.445221	0.006609
559.658749	0.007044
559.872259	0.006852
560.085751	0.006725
560.299225	0.007081
560.512680	0.007229
560.726117	0.007286
560.939536	0.007307
561.152937	0.007258
561.366319	0.007407
561.579683	0.007104
561.793029	0.007378
562.006357	0.007338
562.219667	0.007127
562.432958	0.006834
562.646231	0.006989
562.859486	0.007188
563.072723	0.007084
563.285941	0.007534
563.499141	0.007366
563.712323	0.007458
563.925487	0.007883
564.138632	0.007745
564.351760	0.007919
564.564869	0.008264
564.777960	0.008190
564.991032	0.008233
565.204087	0.007721
565.417123	0.007690
565.630141	0.007544
565.843140	0.007353
566.056122	0.007488
566.269085	0.007636
566.482030	0.007494
566.694957	0.007579
566.907866	0.007556
567.120756	0.007723
567.333628	0.008135
567.546482	0.008068
567.759318	0.008226
567.972135	0.008182
568.184935	0.007931
568.397716	0.008137
568.610478	0.008127
568.823223	0.008050
569.035949	0.008165
569.248657	0.007756
569.461347	0.008005
569.674019	0.007828
569.886672	0.007953
570.099308	0.008004
570.311925	0.007551
570.524523	0.007285
570.737104	0.007261
570.949666	0.007082
571.162210	0.007329
571.374736	0.007199
571.587244	0.007212
571.799733	0.007024
572.012205	0.007100
572.224658	0.007387
572.437092	0.007804
572.649509	0.007709
572.861907	0.007881
573.074287	0.008078
573.286649	0.007890
573.498993	0.008058
573.711318	0.008408
573.923625	0.008509
574.135914	0.008493
574.348185	0.008315
574.560438	0.008824
574.772672	0.008767
574.984888	0.008563
575.197086	0.008878
575.409266	0.009016
575.621427	0.008653
575.833570	0.008434
576.045695	0.008177
576.257802	0.008243
576.469890	0.008045
576.681961	0.008211
576.894013	0.008306
577.106046	0.008196
577.318062	0.007919
577.530059	0.008399
577.742039	0.008602
577.954000	0.008640
578.165942	0.008594
578.377867	0.008818
578.589773	0.008467
578.801661	0.008329
579.013531	0.008130
579.225382	0.008218
579.437216	0.007841
579.649031	0.007727
579.860828	0.007963
580.072606	0.007873
580.284367	0.007678
580.496109	0.008001
580.707833	0.008064
580.919539	0.008485
581.131227	0.008577
581.342896	0.008727
581.554547	0.008648
581.766180	0.008565
581.977795	0.008601
582.189391	0.008417
582.400969	0.008482
582.612529	0.008690
582.824071	0.008519
583.035595	0.008478
583.247100	0.008467
583.458587	0.008302
583.670056	0.008298
583.881506	0.008454
584.092939	0.008743
584.304353	0.008618
584.515749	0.008439
584.727127	0.008410
584.938486	0.008327
585.149828	0.008167
585.361151	0.008184
585.572456	0.008262
585.783742	0.008389
585.995011	0.008488
586.206261	0.008669
586.417493	0.008630
586.628706	0.008683
586.839902	0.008749
587.051079	0.008840
587.262238	0.008871
587.473379	0.008850
587.684502	0.008735
587.895606	0.008556
588.106692	0.008506
588.317760	0.008513
588.528810	0.008309
588.739841	0.008323
588.950855	0.008387
589.161850	0.008672
589.372827	0.008488
589.583785	0.008233
589.794726	0.008250
590.005648	0.008304
590.216552	0.008270
590.427437	0.008566
590.638305	0.008488
590.849154	0.008427
591.059985	0.008467
591.270798	0.008754
591.481592	0.009004
591.692369	0.008890
591.903127	0.008654
592.113867	0.008709
592.324588	0.008747
592.535292	0.008907
592.745977	0.009113
592.956644	0.008838
593.167293	0.008623
593.377923	0.008682
593.588536	0.008861
593.799130	0.008749
594.009706	0.008864
594.220263	0.008902
594.430803	0.009022
594.641324	0.008889
594.851827	0.008972
595.062312	0.009255
595.272778	0.009303
595.483227	0.009435
595.693657	0.009849
595.904069	0.010017
596.114462	0.010056
596.324838	0.009675
596.535195	0.009942
596.745534	0.009871
596.955855	0.009762
597.166157	0.009657
597.376441	0.009389
597.586707	0.009385
597.796955	0.009138
598.007185	0.008897
598.217396	0.009200
598.427589	0.009004
598.637764	0.009177
598.847921	0.009054
599.058060	0.009232
599.268180	0.009439
599.478282	0.009594
599.688366	0.009587
599.898431	0.009665
600.108479	0.009523
600.318508	0.009641
600.528519	0.009703
600.738511	0.009779
600.948486	0.009495
601.158442	0.009323
601.368380	0.008952
601.578300	0.008849
601.788202	0.008962
601.998085	0.008892
602.207950	0.008784
602.417797	0.008811
602.627626	0.008978
602.837436	0.008870
603.047228	0.008946
603.257002	0.008908
603.466758	0.008898
603.676496	0.008784
603.886215	0.008883
604.095916	0.008796
604.305599	0.008737
604.515264	0.008463
604.724910	0.008835
604.934538	0.008948
605.144148	0.009148
605.353740	0.009418
605.563314	0.009354
605.772869	0.009371
605.982406	0.009487
606.191925	0.009501
606.401425	0.009779
606.610908	0.009597
606.820372	0.009611
607.029818	0.009556
607.239246	0.009551
607.448655	0.009413
607.658047	0.009682
607.867420	0.009623
608.076775	0.009573
608.286111	0.009372
608.495430	0.009223
608.704730	0.009084
608.914012	0.009101
609.123275	0.008832
609.332521	0.008929
609.541748	0.008689
609.750957	0.008742
609.960148	0.008608
610.169321	0.008792
610.378475	0.009223
610.587611	0.009253
610.796729	0.009180
611.005829	0.009377
611.214910	0.009565
611.423974	0.009597
611.633019	0.009652
611.842045	0.009953
612.051054	0.009811
612.260044	0.009485
612.469017	0.009568
612.677970	0.009657
612.886906	0.009555
613.095824	0.009520
613.304723	0.009418
613.513604	0.009189
613.722467	0.008997
613.931311	0.008833
614.140138	0.009034
614.348946	0.008934
614.557736	0.009033
614.766507	0.009000
614.975261	0.008920
615.183996	0.009191
615.392713	0.009613
615.601412	0.009521
615.810092	0.009887
616.018754	0.009796
616.227399	0.009748
616.436024	0.009789
616.644632	0.009844
616.853222	0.009917
617.061793	0.009788
617.270346	0.009563
617.478880	0.009749
617.687397	0.009701
617.895895	0.009794
618.104375	0.009896
618.312837	0.009656
618.521281	0.009792
618.729706	0.009976
618.938113	0.009960
619.146502	0.009865
619.354873	0.009958
619.563226	0.009849
619.771560	0.009996
619.979876	0.010062
620.188174	0.010321
620.396453	0.010316
620.604715	0.010193
620.812958	0.010226
621.021183	0.010321
621.229390	0.010446
621.437578	0.010425
621.645748	0.010303
621.853900	0.010165
622.062034	0.010124
622.270150	0.009915
622.478247	0.009935
622.686326	0.010175
622.894387	0.010303
623.102430	0.010085
623.310454	0.010143
623.518461	0.010252
623.726449	0.010265
623.934418	0.010149
624.142370	0.010384
624.350303	0.010362
624.558218	0.010175
624.766115	0.010147
624.973994	0.010202
625.181855	0.010244
625.389697	0.010125
625.597521	0.010191
625.805327	0.010218
626.013114	0.010110
626.220883	0.010144
626.428634	0.009937
626.636367	0.009992
626.844082	0.010188
627.051778	0.010341
627.259457	0.010363
627.467117	0.010657
627.674758	0.010602
627.882382	0.010648
628.089987	0.010776
628.297574	0.010747
628.505143	0.010583
628.712694	0.010260
628.920226	0.010300
629.127740	0.010350
629.335236	0.010193
629.542714	0.010355
629.750174	0.010479
629.957615	0.010259
630.165038	0.010405
630.372443	0.010474
630.579829	0.010756
630.787198	0.010572
630.994548	0.010474
631.201880	0.010620
631.409194	0.010355
631.616489	0.010130
631.823766	0.010095
632.031025	0.010194
632.238266	0.010163
632.445489	0.009866
632.652693	0.009979
632.859879	0.010072
633.067047	0.009732
633.274197	0.009881
633.481329	0.009995
633.688442	0.010193
633.895537	0.010190
634.102614	0.010303
634.309672	0.010475
634.516713	0.010252
634.723735	0.010272
634.930739	0.010329
635.137724	0.010315
635.344692	0.010302
635.551641	0.010153
635.758572	0.010143
635.965485	0.010254
636.172379	0.010189
636.379256	0.010382
636.586114	0.010094
636.792954	0.010224
636.999775	0.010252
637.206579	0.010478
637.413364	0.010723
637.620131	0.010701
637.826880	0.010583
638.033610	0.010701
638.240323	0.010724
638.447017	0.011076
638.653692	0.011017
638.860350	0.011101
639.066990	0.010919
639.273611	0.010683
639.480214	0.010837
639.686798	0.010629
639.893365	0.010682
640.099913	0.010594
640.306443	0.010448
640.512955	0.010422
640.719449	0.010366
640.925924	0.010283
641.132381	0.010573
641.338820	0.010406
641.545241	0.010661
641.751644	0.010643
641.958028	0.010613
642.164394	0.010810
642.370742	0.011072
642.577071	0.011242
642.783383	0.011454
642.989676	0.011360
643.195951	0.011522
643.402207	0.011461
643.608446	0.011467
643.814666	0.011606
644.020868	0.011464
644.227052	0.011373
644.433218	0.011447
644.639365	0.011507
644.845494	0.011607
645.051605	0.011519
645.257698	0.011647
645.463772	0.011825
645.669828	0.011900
645.875866	0.012052
646.081886	0.012124
646.287888	0.012124
646.493871	0.011955
646.699836	0.011791
646.905783	0.011888
647.111712	0.011871
647.317622	0.011814
647.523514	0.011676
647.729388	0.011615
647.935244	0.011653
648.141082	0.011636
648.346901	0.011739
648.552702	0.011842
648.758485	0.011764
648.964250	0.011826
649.169996	0.011824
649.375724	0.011973
649.581434	0.011981
649.787126	0.011880
649.992800	0.011801
650.198455	0.011925
650.404092	0.011792
650.609711	0.011898
650.815311	0.011713
651.020894	0.011751
651.226458	0.011688
651.432004	0.011754
651.637532	0.011672
651.843041	0.011698
652.048532	0.011629
652.254006	0.011601
652.459460	0.011577
652.664897	0.011671
652.870315	0.011443
653.075716	0.011394
653.281097	0.011315
653.486461	0.011459
653.691807	0.011425
653.897134	0.011262
654.102443	0.011436
654.307734	0.011462
654.513006	0.011361
654.718261	0.011518
654.923497	0.011453
655.128715	0.011502
655.333915	0.011450
655.539096	0.011494
655.744259	0.011691
655.949404	0.011886
656.154531	0.012037
656.359640	0.012233
656.564730	0.012217
656.769802	0.012191
656.974856	0.012254
657.179892	0.012378
657.384909	0.012486
657.589908	0.012474
657.794889	0.012306
657.999852	0.012194
658.204797	0.012164
658.409723	0.012197
658.614631	0.012418
658.819521	0.012318
659.024393	0.012197
659.229246	0.012218
659.434081	0.012323
659.638898	0.012322
659.843697	0.012313
660.048478	0.012363
660.253240	0.012358
660.457984	0.012299
660.662710	0.012273
660.867417	0.012273
661.072107	0.012071
661.276778	0.012160
661.481431	0.012181
661.686066	0.012198
661.890682	0.012095
662.095281	0.012059
662.299861	0.012101
662.504422	0.012009
662.708966	0.012127
662.913491	0.012192
663.117999	0.011872
663.322488	0.011767
663.526958	0.011790
663.731411	0.011744
663.935845	0.011714
664.140261	0.011657
664.344659	0.011810
664.549038	0.011828
664.753400	0.011812
664.957743	0.011922
665.162068	0.011932
665.366375	0.011917
665.570663	0.012020
665.774933	0.012066
665.979185	0.012052
666.183419	0.012131
666.387635	0.012134
666.591832	0.012216
666.796011	0.012127
667.000172	0.012153
667.204315	0.012112
667.408439	0.012176
667.612545	0.012233
667.816634	0.012345
668.020703	0.012315
668.224755	0.012298
668.428788	0.012191
668.632803	0.012408
668.836800	0.012558
669.040779	0.012625
669.244739	0.012526
669.448681	0.012526
669.652605	0.012344
669.856511	0.012452
670.060399	0.012343
670.264268	0.012324
670.468119	0.012434
670.671952	0.012590
670.875767	0.012681
671.079563	0.012821
671.283341	0.012831
671.487101	0.013026
671.690843	0.012966
671.894567	0.013025
672.098272	0.013351
672.301959	0.013304
672.505628	0.013135
672.709278	0.013046
672.912911	0.013084
673.116525	0.013169
673.320121	0.013185
673.523699	0.013181
673.727258	0.013443
673.930799	0.013268
674.134322	0.013272
674.337827	0.013207
674.541314	0.013206
674.744782	0.013207
674.948232	0.012978
675.151664	0.012811
675.355078	0.012804
675.558474	0.012457
675.761851	0.012457
675.965210	0.012193
676.168551	0.012212
676.371873	0.012176
676.575178	0.012240
676.778464	0.012314
676.981732	0.012368
677.184981	0.012414
677.388213	0.012594
677.591426	0.012588
677.794621	0.012784
677.997798	0.012757
678.200956	0.012787
678.404097	0.012707
678.607219	0.013002
678.810323	0.013045
679.013408	0.012968
679.216476	0.012885
679.419525	0.012951
679.622556	0.012963
679.825569	0.013217
680.028563	0.013354
680.231540	0.013248
680.434498	0.013072
680.637438	0.013107
680.840359	0.013121
681.043263	0.013246
681.246148	0.013117
681.449015	0.013126
681.651864	0.013043
681.854694	0.012997
682.057506	0.013134
682.260301	0.013186
682.463076	0.013266
682.665834	0.013297
682.868573	0.013255
683.071295	0.013284
683.273998	0.013310
683.476682	0.013217
683.679349	0.013160
683.881997	0.013157
684.084627	0.013021
684.287239	0.012934
684.489833	0.013015
684.692408	0.013100
684.894965	0.013118
685.097504	0.013090
685.300025	0.013042
685.502527	0.013096
685.705012	0.013292
685.907478	0.013443
686.109925	0.013604
686.312355	0.013605
686.514766	0.013602
686.717159	0.013755
686.919534	0.013696
687.121891	0.013690
687.324230	0.013637
687.526550	0.013487
687.728852	0.013415
687.931136	0.013345
688.133401	0.013296
688.335649	0.013151
688.537878	0.013084
688.740089	0.013097
688.942281	0.013061
689.144456	0.013024
689.346612	0.012907
689.548750	0.012954
689.750870	0.012968
689.952971	0.012920
690.155055	0.012894
690.357120	0.012818
690.559167	0.012911
690.761195	0.013080
690.963206	0.013152
691.165198	0.013327
691.367172	0.013465
691.569128	0.013374
691.771065	0.013522
691.972984	0.013638
692.174885	0.013652
692.376768	0.013698
692.578633	0.013706
692.780479	0.013754
692.982308	0.013602
693.184118	0.013441
693.385909	0.013498
693.587683	0.013393
693.789438	0.013422
693.991175	0.013495
694.192894	0.013442
694.394595	0.013423
694.596277	0.013553
694.797941	0.013582
694.999587	0.013559
695.201215	0.013621
695.402824	0.013777
695.604416	0.013850
695.805989	0.013957
696.007543	0.013906
696.209080	0.013886
696.410598	0.013730
696.612099	0.013811
696.813580	0.013929
697.015044	0.013943
697.216490	0.013825
697.417917	0.013671
697.619326	0.013563
697.820717	0.013640
698.022089	0.013714
698.223444	0.013755
698.424780	0.013683
698.626098	0.013792
698.827397	0.013761
699.028679	0.013935
699.229942	0.014001
699.431187	0.014039
699.632414	0.014074
699.833622	0.013944
700.034813	0.013871
700.235985	0.013952
700.437139	0.013943
700.638274	0.014078
700.839392	0.013977
701.040491	0.014117
701.241572	0.014162
701.442635	0.014157
701.643679	0.014272
701.844706	0.014483
702.045714	0.014434
702.246704	0.014396
702.447675	0.014143
702.648629	0.014163
702.849564	0.014114
703.050481	0.014061
703.251380	0.014132
703.452260	0.014154
703.653122	0.014074
703.853966	0.014215
704.054792	0.014138
704.255600	0.014365
704.456389	0.014480
704.657160	0.014438
704.857913	0.014555
705.058648	0.014396
705.259365	0.014341
705.460063	0.014310
705.660743	0.014142
705.861405	0.014258
706.062048	0.014235
706.262674	0.014200
706.463281	0.014153
706.663870	0.014060
706.864441	0.014084
707.064993	0.014248
707.265527	0.014223
707.466043	0.014266
707.666541	0.014235
707.867021	0.014331
708.067482	0.014379
708.267925	0.014593
708.468350	0.014608
708.668757	0.014830
708.869145	0.014788
709.069516	0.014915
709.269868	0.014999
709.470201	0.014922
709.670517	0.014898
709.870814	0.014866
710.071093	0.014710
710.271354	0.014784
710.471597	0.014643
710.671821	0.014621
710.872028	0.014388
711.072216	0.014402
711.272385	0.014529
711.472537	0.014401
711.672670	0.014271
711.872785	0.014357
712.072882	0.014287
712.272961	0.014167
712.473021	0.014187
712.673063	0.014290
712.873087	0.014263
713.073093	0.014174
713.273081	0.014156
713.473050	0.014144
713.673001	0.014175
713.872934	0.014207
714.072849	0.014353
714.272745	0.014425
714.472623	0.014603
714.672483	0.014587
714.872325	0.014728
715.072148	0.014819
715.271954	0.014836
715.471741	0.014641
715.671509	0.014527
715.871260	0.014612
716.070992	0.014572
716.270707	0.014517
716.470403	0.014512
716.670080	0.014330
716.869740	0.014377
717.069381	0.014531
717.269004	0.014529
717.468609	0.014541
717.668195	0.014366
717.867764	0.014319
718.067314	0.014305
718.266846	0.014327
718.466360	0.014336
718.665855	0.014239
718.865332	0.014004
719.064791	0.014057
719.264232	0.014028
719.463655	0.014073
719.663059	0.013928
719.862445	0.013787
720.061813	0.013820
720.261163	0.013854
720.460494	0.013688
720.659807	0.013803
720.859102	0.013881
721.058379	0.013948
721.257638	0.013992
721.456878	0.014074
721.656100	0.014123
721.855304	0.013930
722.054490	0.013780
722.253657	0.013797
722.452806	0.013707
722.651937	0.013601
722.851050	0.013419
723.050145	0.013392
723.249221	0.013332
723.448279	0.013365
723.647319	0.013436
723.846340	0.013459
724.045344	0.013698
724.244329	0.013838
724.443296	0.013843
724.642245	0.014011
724.841175	0.014042
725.040088	0.014060
725.238982	0.014219
725.437857	0.014331
725.636715	0.014339
725.835554	0.014318
726.034376	0.014511
726.233179	0.014617
726.431963	0.014667
726.630730	0.014702
726.829478	0.014695
727.028208	0.014613
727.226920	0.014487
727.425614	0.014456
727.624289	0.014372
727.822946	0.014154
728.021585	0.014093
728.220206	0.014125
728.418808	0.014040
728.617392	0.014130
728.815958	0.013977
729.014506	0.014030
729.213036	0.014088
729.411547	0.014121
729.610040	0.014015
729.808515	0.013981
730.006972	0.014039
730.205410	0.014059
730.403831	0.013981
730.602233	0.014062
730.800616	0.014122
730.998982	0.014057
731.197329	0.014092
731.395658	0.014272
731.593969	0.014271
731.792262	0.014281
731.990536	0.014128
732.188793	0.014089
732.387031	0.014043
732.585250	0.014030
732.783452	0.014030
732.981635	0.013939
733.179800	0.013675
733.377947	0.013606
733.576076	0.013363
733.774186	0.013405
733.972278	0.013366
734.170352	0.013244
734.368408	0.013068
734.566446	0.013068
734.764465	0.012921
734.962466	0.013038
735.160449	0.013027
735.358413	0.012979
735.556360	0.012989
735.754288	0.013017
735.952198	0.012955
736.150090	0.012951
736.347963	0.012960
736.545818	0.013196
736.743655	0.013073
736.941474	0.013260
737.139275	0.013365
737.337057	0.013317
737.534821	0.013164
737.732567	0.013404
737.930295	0.013365
738.128005	0.013380
738.325696	0.013220
738.523369	0.013261
738.721024	0.013053
738.918660	0.012945
739.116279	0.013096
739.313879	0.013331
739.511461	0.013247
739.709024	0.013324
739.906570	0.013430
740.104097	0.013599
740.301606	0.013628
740.499097	0.013709
740.696569	0.013819
740.894024	0.013790
741.091460	0.013786
741.288878	0.013796
741.486277	0.013823
741.683659	0.013743
741.881022	0.013753
742.078367	0.013729
742.275694	0.013510
742.473002	0.013531
742.670293	0.013410
742.867565	0.013132
743.064819	0.013092
743.262054	0.012980
743.459272	0.012949
743.656471	0.012742
743.853652	0.012574
744.050815	0.012581
744.247959	0.012529
744.445085	0.012401
744.642194	0.012606
744.839283	0.012519
745.036355	0.012633
745.233408	0.012567
745.430444	0.012570
745.627461	0.012804
745.824459	0.013004
746.021440	0.012993
746.218402	0.012967
746.415346	0.012788
746.612272	0.012676
746.809180	0.012565
747.006069	0.012564
747.202940	0.012718
747.399793	0.012604
747.596628	0.012609
747.793444	0.012522
747.990243	0.012689
748.187023	0.012820
748.383784	0.012859
748.580528	0.012948
748.777253	0.013070
748.973960	0.012980
749.170649	0.012930
749.367320	0.012762
749.563973	0.012803
749.760607	0.012783
749.957223	0.012855
750.153821	0.012968
750.350400	0.012941
750.546962	0.012954
750.743505	0.012893
750.940030	0.012900
751.136536	0.013005
751.333025	0.013081
751.529495	0.013131
751.725947	0.013241
751.922381	0.013312
752.118796	0.013258
752.315194	0.013121
752.511573	0.013228
752.707934	0.013463
752.904276	0.013373
753.100601	0.013307
753.296907	0.013373
753.493195	0.013317
753.689465	0.013228
753.885716	0.013236
754.081949	0.013318
754.278164	0.013383
754.474361	0.013215
754.670540	0.013228
754.866700	0.013396
755.062843	0.013454
755.258967	0.013455
755.455072	0.013447
755.651160	0.013484
755.847229	0.013443
756.043280	0.013374
756.239313	0.013357
756.435328	0.013415
756.631324	0.013308
756.827302	0.013212
757.023262	0.013034
757.219204	0.012970
757.415127	0.013081
757.611033	0.013192
757.806920	0.012976
758.002788	0.013002
758.198639	0.013076
758.394471	0.013273
758.590286	0.013147
758.786081	0.013308
758.981859	0.013443
759.177619	0.013480
759.373360	0.013343
759.569083	0.013502
759.764788	0.013677
759.960474	0.013719
760.156143	0.013479
760.351793	0.013284
760.547425	0.013269
760.743038	0.013299
760.938634	0.013297
761.134211	0.013235
761.329770	0.013159
761.525311	0.012984
761.720833	0.012917
761.916338	0.012784
762.111824	0.013098
762.307292	0.012956
762.502741	0.012783
762.698173	0.012630
762.893586	0.012627
763.088981	0.012625
763.284358	0.012476
763.479716	0.012544
763.675057	0.012678
763.870379	0.012743
764.065683	0.012707
764.260968	0.012853
764.456236	0.012877
764.651485	0.012925
764.846716	0.012917
765.041929	0.013049
765.237123	0.012929
765.432299	0.013021
765.627457	0.013013
765.822597	0.013228
766.017719	0.013275
766.212822	0.013211
766.407907	0.013420
766.602974	0.013641
766.798023	0.013743
766.993054	0.013810
767.188066	0.013712
767.383060	0.013593
767.578036	0.013568
767.772993	0.013592
767.967933	0.013655
768.162854	0.013539
768.357757	0.013255
768.552642	0.013296
768.747508	0.012974
768.942356	0.013208
769.137186	0.013321
769.331998	0.013266
769.526792	0.013171
769.721567	0.013129
769.916324	0.013094
770.111063	0.013183
770.305784	0.012936
770.500486	0.013154
770.695171	0.012868
770.889837	0.012823
771.084484	0.012838
771.279114	0.012816
771.473725	0.012794
771.668318	0.012895
771.862893	0.012926
772.057450	0.013229
772.251988	0.013363
772.446509	0.013500
772.641011	0.013583
772.835494	0.013654
773.029960	0.013681
773.224407	0.013811
773.418836	0.013876
773.613247	0.013886
773.807640	0.013738
774.002014	0.013636
774.196370	0.013545
774.390708	0.013463
774.585028	0.013224
774.779330	0.013293
774.973613	0.013235
775.167878	0.012997
775.362125	0.013092
775.556354	0.012987
775.750564	0.013167
775.944756	0.013315
776.138930	0.013217
776.333086	0.013542
776.527223	0.013468
776.721343	0.013527
776.915444	0.013742
777.109526	0.013740
777.303591	0.013982
777.497637	0.013840
777.691666	0.013750
777.885676	0.013751
778.079667	0.013678
778.273641	0.013552
778.467596	0.013486
778.661533	0.013340
778.855452	0.013189
779.049352	0.013046
779.243235	0.012978
779.437099	0.012976
779.630945	0.013130
779.824773	0.012909
780.018582	0.013062
780.212373	0.013039
780.406146	0.012986
780.599901	0.013109
780.793638	0.013295
780.987356	0.013591
781.181056	0.013725
781.374738	0.013728
781.568402	0.013712
781.762047	0.013737
781.955674	0.013689
782.149283	0.013662
782.342874	0.013676
782.536447	0.013482
782.730001	0.013491
782.923537	0.013361
783.117055	0.013370
783.310555	0.013523
783.504036	0.013435
783.697499	0.013518
783.890944	0.013448
784.084371	0.013506
784.277780	0.013456
784.471170	0.013251
784.664542	0.013176
784.857896	0.012952
785.051231	0.012994
785.244549	0.013191
785.437848	0.013362
785.631129	0.013519
785.824392	0.013299
786.017636	0.013459
786.210863	0.013540
786.404071	0.013664
786.597260	0.013810
786.790432	0.013730
786.983585	0.013693
787.176721	0.013681
787.369838	0.013703
787.562936	0.013809
787.756017	0.013746
787.949079	0.013660
788.142123	0.013572
788.335149	0.013571
788.528156	0.013708
788.721146	0.013664
788.914117	0.013603
789.107070	0.013588
789.300005	0.013714
789.492921	0.013632
789.685819	0.013681
789.878699	0.013820
790.071561	0.013752
790.264405	0.013640
790.457230	0.013769
790.650037	0.013771
790.842826	0.013941
791.035597	0.013641
791.228349	0.013797
791.421084	0.013680
791.613800	0.013569
791.806497	0.013813
791.999177	0.013885
792.191838	0.013812
792.384481	0.013781
792.577106	0.013972
792.769713	0.014495
792.962301	0.014544
793.154871	0.014775
793.347423	0.014736
793.539957	0.014619
793.732473	0.014668
793.924970	0.014611
794.117449	0.014597
794.309910	0.014325
794.502353	0.014068
794.694777	0.014084
794.887183	0.013956
795.079571	0.014060
795.271941	0.014034
795.464293	0.013986
795.656626	0.013947
795.848941	0.014048
796.041238	0.014084
796.233516	0.014075
796.425777	0.013978
796.618019	0.013886
796.810243	0.013962
797.002449	0.013956
797.194636	0.014013
797.386805	0.014050
797.578956	0.014097
797.771089	0.014211
797.963204	0.014308
798.155300	0.014406
798.347378	0.014435
798.539438	0.014378
798.731480	0.014232
798.923503	0.014081
799.115509	0.014126
799.307496	0.013974
799.499465	0.014003
799.691415	0.013949
799.883348	0.013726
800.075262	0.013844
800.267158	0.013846
800.459035	0.014032
800.650895	0.014213
800.842736	0.014039
801.034559	0.013953
801.226364	0.013839
801.418150	0.013730
801.609919	0.013811
801.801669	0.013813
801.993401	0.013608
802.185114	0.013617
802.376810	0.013465
802.568487	0.013526
802.760146	0.013552
802.951787	0.013594
803.143409	0.013578
803.335014	0.013474
803.526600	0.013357
803.718168	0.013723
803.909717	0.013710
804.101249	0.013892
804.292762	0.014010
804.484257	0.013974
804.675734	0.013910
804.867192	0.014168
805.058632	0.014282
805.250054	0.014382
805.441458	0.014188
805.632844	0.014190
805.824211	0.014146
806.015561	0.014238
806.206891	0.014385
806.398204	0.014343
806.589499	0.014043
806.780775	0.014062
806.972033	0.013994
807.163273	0.014078
807.354495	0.014139
807.545698	0.014112
807.736883	0.013966
807.928050	0.014115
808.119199	0.013987
808.310329	0.014172
808.501441	0.014215
808.692535	0.014479
808.883611	0.014424
809.074669	0.014581
809.265708	0.014535
809.456729	0.014588
809.647732	0.014592
809.838717	0.015019
810.029683	0.015177
810.220632	0.015386
810.411562	0.015206
810.602474	0.015146
810.793367	0.015042
810.984242	0.014900
811.175100	0.014907
811.365938	0.014817
811.556759	0.014814
811.747562	0.014638
811.938346	0.014469
812.129112	0.014516
812.319860	0.014793
812.510589	0.014902
812.701300	0.015128
812.891994	0.015211
813.082668	0.015352
813.273325	0.015160
813.463964	0.015183
813.654584	0.015103
813.845186	0.014905
814.035769	0.014719
814.226335	0.014425
814.416882	0.014415
814.607411	0.014313
814.797922	0.014227
814.988415	0.014260
815.178889	0.014200
815.369345	0.014254
815.559783	0.014468
815.750203	0.014447
815.940605	0.014592
816.130988	0.014422
816.321353	0.014459
816.511700	0.014252
816.702028	0.014224
816.892339	0.014243
817.082631	0.014271
817.272905	0.014313
817.463161	0.014213
817.653398	0.014170
817.843617	0.014238
818.033819	0.014278
818.224001	0.014536
818.414166	0.014588
818.604312	0.014740
818.794440	0.014895
818.984550	0.014687
819.174642	0.014794
819.364716	0.014966
819.554771	0.015072
819.744808	0.015109
819.934827	0.014991
820.124827	0.014935
820.314810	0.014677
820.504774	0.014598
820.694720	0.014732
820.884647	0.014715
821.074557	0.014448
821.264448	0.014460
821.454321	0.014368
821.644176	0.014541
821.834012	0.014489
822.023831	0.014638
822.213631	0.014593
822.403413	0.014569
822.593176	0.014596
822.782922	0.014840
822.972649	0.014630
823.162358	0.014761
823.352049	0.014516
823.541721	0.014508
823.731376	0.014441
823.921012	0.014350
824.110629	0.014306
824.300229	0.014288
824.489811	0.014197
824.679374	0.014282
824.868919	0.014163
825.058445	0.014147
825.247954	0.014061
825.437444	0.014146
825.626916	0.014179
825.816370	0.014270
826.005806	0.014183
826.195223	0.014053
826.384622	0.014141
826.574003	0.014155
826.763366	0.014178
826.952711	0.014213
827.142037	0.014239
827.331345	0.014226
827.520635	0.014155
827.709906	0.014307
827.899160	0.014493
828.088395	0.014539
828.277612	0.014590
828.466810	0.014694
828.655991	0.014978
828.845153	0.014876
829.034297	0.014881
829.223423	0.014872
829.412531	0.014816
829.601620	0.014700
829.790691	0.014642
829.979744	0.014662
830.168779	0.014554
830.357795	0.014366
830.546793	0.014381
830.735773	0.014348
830.924735	0.014485
831.113679	0.014607
831.302604	0.014554
831.491511	0.014732
831.680400	0.014820
831.869271	0.014940
832.058123	0.014934
832.246957	0.015115
832.435773	0.015279
832.624571	0.015330
832.813351	0.015091
833.002112	0.015215
833.190855	0.015059
833.379580	0.014936
833.568287	0.014868
833.756975	0.014817
833.945645	0.014584
834.134297	0.014573
834.322931	0.014499
834.511547	0.014609
834.700144	0.014477
834.888723	0.014484
835.077284	0.014377
835.265826	0.014325
835.454351	0.014323
835.642857	0.014421
835.831345	0.014188
836.019815	0.013882
836.208266	0.013822
836.396699	0.013988
836.585114	0.013930
836.773511	0.013973
836.961890	0.014093
837.150250	0.014161
837.338592	0.014232
837.526916	0.014333
837.715222	0.014457
837.903510	0.014587
838.091779	0.014535
838.280030	0.014687
838.468263	0.014703
838.656477	0.014640
838.844674	0.014742
839.032852	0.014646
839.221012	0.014921
839.409153	0.015102
839.597277	0.015217
839.785382	0.015186
839.973469	0.015232
840.161538	0.015315
840.349589	0.015355
840.537621	0.015196
840.725635	0.015259
840.913631	0.015088
841.101609	0.014980
841.289568	0.015069
841.477509	0.015087
841.665432	0.015120
841.853337	0.015024
842.041224	0.015163
842.229092	0.015457
842.416942	0.015537
842.604774	0.015673
842.792588	0.015820
842.980383	0.015673
843.168160	0.015589
843.355919	0.015646
843.543660	0.015517
843.731382	0.015409
843.919087	0.015204
844.106773	0.015042
844.294441	0.015069
844.482090	0.014975
844.669722	0.014959
844.857335	0.015092
845.044930	0.014935
845.232507	0.015280
845.420065	0.015368
845.607605	0.015537
845.795127	0.015627
845.982631	0.015613
846.170117	0.015880
846.357584	0.015881
846.545033	0.015820
846.732464	0.015951
846.919877	0.015819
847.107272	0.015976
847.294648	0.015887
847.482006	0.016023
847.669346	0.016099
847.856667	0.016002
848.043971	0.015995
848.231256	0.016190
848.418523	0.016097
848.605771	0.016217
848.793002	0.016410
848.980214	0.016775
849.167408	0.016870
849.354584	0.016719
849.541742	0.016693
849.728881	0.016927
849.916002	0.017041
850.103105	0.017021
850.290190	0.016998
850.477256	0.016836
850.664304	0.016550
850.851334	0.016436
851.038346	0.016539
851.225340	0.016625
851.412315	0.016604
851.599272	0.016539
851.786211	0.016662
851.973132	0.016670
852.160034	0.016465
852.346918	0.016560
852.533784	0.016707
852.720632	0.016592
852.907462	0.016808
853.094273	0.016853
853.281066	0.016786
853.467841	0.016694
853.654598	0.016881
853.841336	0.017079
854.028056	0.017284
854.214758	0.017230
854.401442	0.017413
854.588107	0.017240
854.774755	0.017025
854.961384	0.017035
855.147995	0.017003
855.334587	0.016984
855.521162	0.016881
855.707718	0.016562
855.894256	0.016598
856.080775	0.016724
856.267277	0.016758
856.453760	0.016994
856.640225	0.017044
856.826672	0.017264
857.013101	0.017248
857.199511	0.017344
857.385903	0.017420
857.572277	0.017398
857.758633	0.017234
857.944970	0.017094
858.131290	0.017230
858.317591	0.017328
858.503873	0.017416
858.690138	0.017464
858.876384	0.017600
859.062612	0.017694
859.248822	0.017714
859.435014	0.017724
859.621188	0.017997
859.807343	0.017762
859.993480	0.017946
860.179599	0.018066
860.365699	0.018212
860.551781	0.018098
860.737846	0.018171
860.923891	0.018410
861.109919	0.018492
861.295929	0.018481
861.481920	0.018600
861.667893	0.018575
861.853848	0.018355
862.039784	0.018407
862.225702	0.018405
862.411603	0.018509
862.597484	0.018513
862.783348	0.018660
862.969193	0.018680
863.155021	0.018660
863.340830	0.018661
863.526620	0.018697
863.712393	0.018644
863.898147	0.018718
864.083883	0.018749
864.269601	0.018664
864.455301	0.018710
864.640982	0.018707
864.826645	0.018721
865.012290	0.018655
865.197917	0.018715
865.383526	0.018646
865.569116	0.018676
865.754688	0.018527
865.940242	0.018408
866.125777	0.018498
866.311295	0.018395
866.496794	0.018736
866.682275	0.018814
866.867737	0.019039
867.053182	0.019110
867.238608	0.019218
867.424016	0.019323
867.609406	0.019301
867.794778	0.019081
867.980131	0.019204
868.165466	0.019252
868.350783	0.019150
868.536082	0.018901
868.721362	0.018905
868.906625	0.018934
869.091869	0.018922
869.277094	0.019152
869.462302	0.019476
869.647491	0.019472
869.832662	0.019398
870.017815	0.019588
870.202950	0.019814
870.388066	0.019691
870.573165	0.020046
870.758245	0.020158
870.943306	0.020094
871.128350	0.019996
871.313375	0.020113
871.498382	0.020276
871.683371	0.020385
871.868342	0.020466
872.053294	0.020546
872.238229	0.020181
872.423144	0.020218
872.608042	0.020256
872.792922	0.020350
872.977783	0.020355
873.162626	0.020066
873.347451	0.020305
873.532258	0.020071
873.717046	0.020263
873.901816	0.020264
874.086568	0.020163
874.271302	0.020306
874.456017	0.020265
874.640715	0.020678
874.825394	0.020913
875.010055	0.020547
875.194697	0.020965
875.379322	0.020792
875.563928	0.020783
875.748516	0.020950
875.933085	0.020538
876.117637	0.020407
876.302170	0.020197
876.486685	0.020148
876.671182	0.020420
876.855661	0.020107
877.040121	0.020015
877.224563	0.019968
877.408987	0.019910
877.593393	0.020316
877.777780	0.020237
877.962150	0.019959
878.146501	0.019839
878.330833	0.019522
878.515148	0.019575
878.699444	0.019910
878.883722	0.019769
879.067982	0.019598
879.252224	0.019223
879.436447	0.019282
879.620653	0.019373
879.804840	0.019431
879.989008	0.019432
880.173159	0.019638
880.357291	0.019481
880.541405	0.019680
880.725501	0.019800
880.909579	0.020200
881.093638	0.020099
881.277680	0.020094
881.461703	0.020176
881.645707	0.020154
881.829694	0.019680
882.013662	0.019759
882.197612	0.019800
882.381544	0.019740
882.565458	0.019729
882.749353	0.020060
882.933230	0.020315
883.117089	0.020344
883.300930	0.020576
883.484753	0.021054
883.668557	0.021111
883.852343	0.021246
884.036111	0.021342
884.219861	0.021389
884.403592	0.021525
884.587305	0.021398
884.771000	0.021108
884.954677	0.020913
885.138335	0.020834
885.321976	0.020804
885.505598	0.020783
885.689201	0.020713
885.872787	0.020513
886.056354	0.020236
886.239904	0.019996
886.423434	0.020095
886.606947	0.020240
886.790442	0.020246
886.973918	0.020369
887.157376	0.020343
887.340816	0.020438
887.524237	0.020523
887.707641	0.020789
887.891026	0.020593
888.074393	0.020496
888.257741	0.020289
888.441072	0.020211
888.624384	0.019949
888.807678	0.019947
888.990954	0.019929
889.174211	0.019792
889.357451	0.019333
889.540672	0.019714
889.723875	0.019755
889.907059	0.019939
890.090226	0.019901
890.273374	0.020113
890.456504	0.020021
890.639616	0.019662
890.822709	0.019482
891.005785	0.019607
891.188842	0.019481
891.371881	0.019489
891.554901	0.019284
891.737904	0.019081
891.920888	0.018747
892.103854	0.018632
892.286802	0.018698
892.469731	0.018623
892.652643	0.018574
892.835536	0.018667
893.018410	0.018613
893.201267	0.018892
893.384106	0.019416
893.566926	0.019761
893.749728	0.019905
893.932511	0.019992
894.115277	0.020675
894.298024	0.020844
894.480753	0.021061
894.663464	0.021318
894.846157	0.021020
895.028831	0.020662
895.211487	0.020378
895.394125	0.020251
895.576745	0.020574
895.759346	0.020282
895.941930	0.020173
896.124495	0.019847
896.307041	0.019741
896.489570	0.019849
896.672080	0.019909
896.854573	0.019838
897.037046	0.020088
897.219502	0.019739
897.401940	0.019832
897.584359	0.020080
897.766760	0.020025
897.949143	0.019755
898.131507	0.019936
898.313854	0.019778
898.496182	0.019842
898.678492	0.019542
898.860783	0.019569
899.043057	0.019324
899.225312	0.019281
899.407549	0.019405
899.589768	0.019600
899.771968	0.019437
899.954151	0.019454
900.136315	0.019673
900.318461	0.019925
900.500588	0.020069
900.682698	0.020469
900.864789	0.020110
901.046862	0.019714
901.228917	0.019514
901.410953	0.019301
901.592971	0.019262
901.774972	0.018942
901.956953	0.018750
902.138917	0.018668
902.320862	0.018243
902.502790	0.018525
902.684699	0.019034
902.866589	0.019011
903.048462	0.019172
903.230316	0.019282
903.412152	0.019270
903.593970	0.019314
903.775770	0.019526
903.957551	0.019736
904.139314	0.019691
904.321059	0.019693
904.502786	0.020007
904.684494	0.019903
904.866185	0.020002
905.047857	0.020006
905.229510	0.019943
905.411146	0.019795
905.592763	0.019540
905.774363	0.019452
905.955943	0.019336
906.137506	0.019105
906.319051	0.019057
906.500577	0.018906
906.682085	0.019183
906.863575	0.019463
907.045046	0.019424
907.226500	0.019688
907.407935	0.019486
907.589352	0.019420
907.770750	0.019393
907.952131	0.019560
908.133493	0.019547
908.314837	0.019214
908.496163	0.019326
908.677470	0.019125
908.858760	0.019028
909.040031	0.019178
909.221284	0.019235
909.402518	0.019195
909.583735	0.019021
909.764933	0.019019
909.946113	0.019174
910.127275	0.018753
910.308418	0.018753
910.489544	0.018708
910.670651	0.018535
910.851740	0.018356
911.032810	0.018508
911.213863	0.018516
911.394897	0.018277
911.575913	0.017971
911.756911	0.017594
911.937890	0.017394
912.118851	0.017061
912.299794	0.017018
912.480719	0.016520
912.661626	0.016530
912.842514	0.016660
913.023384	0.016471
913.204236	0.016773
913.385070	0.017063
913.565886	0.016913
913.746683	0.017164
913.927462	0.017033
914.108223	0.017371
914.288965	0.016686
914.469690	0.016388
914.650396	0.016681
914.831084	0.016402
915.011754	0.016377
915.192405	0.016304
915.373038	0.016428
915.553653	0.016385
915.734250	0.016387
915.914829	0.016614
916.095389	0.016683
916.275931	0.016588
916.456455	0.016610
916.636961	0.016466
916.817448	0.016664
916.997917	0.015918
917.178368	0.015607
917.358801	0.015436
917.539216	0.015682
917.719612	0.015384
917.899990	0.014988
918.080350	0.014990
918.260692	0.014517
918.441015	0.014531
918.621320	0.014625
918.801607	0.014779
918.981876	0.014798
919.162127	0.014658
919.342359	0.015062
919.522573	0.015038
919.702769	0.015029
919.882947	0.015225
920.063106	0.015048
920.243247	0.015444
920.423370	0.015325
920.603475	0.015234
920.783562	0.015538
920.963630	0.015046
921.143680	0.015370
921.323712	0.015124
921.503725	0.015013
921.683721	0.014926
921.863698	0.014661
922.043657	0.014669
922.223598	0.014668
922.403520	0.013801
922.583424	0.013750
922.763311	0.013611
922.943178	0.013503
923.123028	0.013599
923.302859	0.013601
923.482673	0.013021
923.662467	0.012805
923.842244	0.012480
924.022003	0.012465
924.201743	0.012248
924.381465	0.012070
924.561169	0.012097
924.740854	0.011693
924.920522	0.011500
925.100171	0.011805
925.279802	0.011432
925.459414	0.011446
925.639009	0.011741
925.818585	0.011917
925.998143	0.011631
926.177683	0.011053
926.357205	0.011101
926.536708	0.011020
926.716193	0.010800
926.895660	0.011092
927.075109	0.010787
927.254539	0.010762
927.433951	0.010620
927.613345	0.010267
927.792721	0.010524
927.972079	0.010140
928.151418	0.009916
928.330739	0.009852
928.510042	0.009633
928.689327	0.010111
928.868593	0.009924
929.047841	0.009412
929.227071	0.009535
929.406283	0.009122
929.585476	0.010220
929.764652	0.010280
929.943809	0.009923
930.122948	0.009952
930.302068	0.009676
930.481171	0.009192
930.660255	0.009222
930.839321	0.008820
931.018369	0.009045
931.197398	0.007985
931.376409	0.007601
931.555402	0.007578
931.734377	0.007552
931.913334	0.006797
932.092272	0.006844
932.271192	0.007271
932.450094	0.007869
932.628978	0.007693
932.807844	0.007542
932.986691	0.007417
933.165520	0.007459
933.344331	0.007034
933.523123	0.007162
933.701898	0.007071
933.880654	0.006562
934.059392	0.005758
934.238111	0.005631
934.416813	0.005489
934.595496	0.005524
934.774161	0.005334
934.952808	0.005675
935.131437	0.005360
935.310047	0.005505
935.488639	0.005468
935.667213	0.005918
935.845769	0.005950
936.024306	0.006056
936.202825	0.005768
936.381326	0.005959
936.559809	0.005911
936.738274	0.005608
936.916720	0.005264
937.095148	0.004756
937.273558	0.004016
937.451950	0.003582
937.630323	0.003870
937.808678	0.004027
937.987015	0.003257
938.165334	0.002828
938.343635	0.003054
938.521917	0.002873
938.700181	0.002488
938.878427	0.002667
939.056655	0.002776
939.234864	0.001969
939.413055	0.001666
939.591228	0.001745
939.769383	0.001540
939.947519	0.001649
940.125638	0.002745
940.303738	0.002646
940.481820	0.002738
940.659883	0.002041
940.837929	0.001858
941.015956	0.002525
941.193965	0.002660
941.371955	0.002538
941.549928	0.002065
941.727882	0.000842
941.905818	0.001637
942.083736	0.000827
942.261636	0.001793
942.439517	0.001841
942.617380	0.000220
942.795225	0.001083
942.973052	0.001209
943.150860	0.002335
943.328651	0.001855
943.506423	0.001417
943.684176	0.001653
943.861912	0.001004
944.039629	0.000957
944.217328	0.001729
944.395009	0.000136
944.572672	-0.000285
944.750317	-0.001064
944.927943	-0.001217
945.105551	-0.001294
945.283141	-0.001471
945.460712	-0.001495
945.638265	-0.000982
945.815801	-0.000551
945.993317	0.000012
946.170816	-0.000732
946.348297	-0.001429
946.525759	-0.001108
946.703203	-0.000244
946.880629	0.000843
947.058036	0.000388
947.235425	-0.000676
947.412797	-0.000891
947.590149	-0.000993
947.767484	-0.001138
947.944800	-0.000123
948.122099	-0.000343
948.299379	-0.000887
948.476640	-0.001275
948.653884	-0.000891
948.831109	0.000436
949.008316	-0.000212
949.185505	-0.000014
949.362676	0.001621
949.539828	0.001595
949.716962	0.001984
949.894078	0.000875
950.071176	0.000846
950.248256	0.000259
950.425317	-0.001538
950.602360	-0.001152
950.779385	-0.001496
950.956391	-0.002357
951.133380	-0.002749
951.310350	-0.002562
951.487302	-0.000635
951.664235	-0.001075
951.841151	-0.001321
952.018048	-0.000719
952.194927	-0.000037
952.371788	-0.000038
952.548631	-0.000120
952.725455	0.000114
952.902261	-0.000098
953.079049	-0.002369
953.255819	-0.003170
953.432570	-0.001307
953.609303	-0.001760
953.786018	-0.002738
953.962715	-0.001547
954.139394	-0.000649
954.316054	0.000822
954.492696	0.000592
954.669320	0.001447
954.845926	0.002882
955.022513	0.000997
955.199083	0.000694
955.375634	-0.000205
955.552166	-0.000947
955.728681	-0.001307
955.905177	-0.004206
956.081655	-0.003213
956.258115	-0.002674
956.434557	-0.002413
956.610980	-0.003302
956.787385	-0.001617
956.963772	0.000723
957.140141	-0.000010
957.316492	-0.001433
957.492824	0.000782
957.669138	0.000174
957.845434	-0.000304
958.021712	-0.000393
958.197971	0.000791
958.374212	0.001708
958.550435	0.001852
958.726640	0.001916
958.902826	0.003084
959.078995	0.002261
959.255145	0.001410
959.431277	0.001912
959.607390	0.002400
959.783486	0.004826
959.959563	0.002943
960.135622	0.002883
960.311662	0.004167
960.487685	0.004881
960.663689	0.005103
960.839675	0.003409
961.015643	0.003560
961.191593	0.002601
961.367524	0.002785
961.543437	0.002629
961.719332	0.003395
961.895209	0.003828
962.071067	0.003656
962.246907	0.002907
962.422730	0.005713
962.598533	0.006367
962.774319	0.006387
962.950086	0.005824
963.125835	0.008135
963.301566	0.007499
963.477279	0.005854
963.652973	0.005950
963.828650	0.008096
964.004308	0.008726
964.179947	0.008064
964.355569	0.007383
964.531172	0.006590
964.706757	0.006267
964.882324	0.005915
965.057873	0.006700
965.233403	0.007144
965.408916	0.006749
965.584410	0.006035
965.759885	0.006157
965.935343	0.005132
966.110782	0.005008
966.286203	0.005764
966.461606	0.006125
966.636991	0.005712
966.812357	0.005240
966.987705	0.005833
967.163035	0.007801
967.338347	0.008235
967.513641	0.010829
967.688916	0.012390
967.864173	0.012515
968.039412	0.012817
968.214632	0.013877
968.389835	0.014460
968.565019	0.011101
968.740185	0.009525
968.915333	0.007697
969.090462	0.006966
969.265573	0.003865
969.440667	0.003024
969.615741	0.002300
969.790798	0.002118
969.965836	0.002268
970.140856	0.004512
970.315858	0.002830
970.490842	0.003939
970.665808	0.004714
970.840755	0.007245
971.015684	0.006794
971.190595	0.008328
971.365487	0.005740
971.540362	0.007090
971.715218	0.007149
971.890056	0.009231
972.064875	0.012020
972.239677	0.011163
972.414460	0.011074
972.589225	0.010828
972.763972	0.009317
972.938700	0.012050
973.113411	0.011806
973.288103	0.012563
973.462777	0.010393
973.637432	0.008558
973.812070	0.007795
973.986689	0.006380
974.161290	0.007150
974.335873	0.007261
974.510437	0.005355
974.684984	0.003352
974.859512	0.002227
975.034022	0.004551
975.208513	0.003903
975.382987	0.005272
975.557442	0.006721
975.731879	0.005136
975.906298	0.005576
976.080698	0.007914
976.255080	0.008956
976.429445	0.008799
976.603790	0.006972
976.778118	0.007378
976.952427	0.008655
977.126719	0.007557
977.300992	0.010209
977.475246	0.009888
977.649483	0.010743
977.823701	0.008884
977.997901	0.011958
978.172083	0.012836
978.346247	0.012750
978.520392	0.011702
978.694519	0.012447
978.868628	0.009675
979.042719	0.009344
979.216791	0.008205
979.390845	0.009046
979.564882	0.007677
979.738899	0.006995
979.912899	0.008304
980.086880	0.007333
980.260843	0.006684
980.434788	0.006862
980.608715	0.007015
980.782623	0.006406
980.956514	0.008180
981.130386	0.006862
981.304240	0.009730
981.478075	0.007721
981.651892	0.008664
981.825692	0.011212
981.999472	0.011467
982.173235	0.011791
982.346980	0.013526
982.520706	0.014138
982.694414	0.013928
982.868104	0.013245
983.041775	0.013226
983.215428	0.013110
983.389064	0.012626
983.562680	0.012407
983.736279	0.009829
983.909860	0.008382
984.083422	0.007700
984.256966	0.007321
984.430491	0.005569
984.603999	0.006980
984.777488	0.006214
984.950959	0.006433
985.124412	0.007505
985.297847	0.010868
985.471263	0.012537
985.644661	0.011621
985.818041	0.012649
985.991403	0.013457
986.164747	0.013042
986.338072	0.014125
986.511379	0.012058
986.684668	0.011888
986.857938	0.010762
987.031191	0.009526
987.204425	0.010285
987.377641	0.010801
987.550839	0.010231
987.724018	0.010772
987.897179	0.011821
988.070322	0.012318
988.243447	0.012900
988.416554	0.012665
988.589642	0.013751
988.762712	0.013316
988.935764	0.013639
989.108798	0.012895
989.281813	0.012570
989.454811	0.010835
989.627790	0.009466
989.800751	0.009048
989.973693	0.010343
990.146617	0.008641
990.319524	0.007982
990.492412	0.006577
990.665281	0.006495
990.838133	0.006142
991.010966	0.005456
991.183781	0.005919
991.356578	0.004902
991.529356	0.003103
991.702117	0.004267
991.874859	0.005980
992.047583	0.005596
992.220288	0.005541
992.392976	0.005455
992.565645	0.005948
992.738296	0.006804
992.910929	0.007948
993.083543	0.008487
993.256139	0.006548
993.428718	0.005429
993.601277	0.006376
993.773819	0.008001
993.946342	0.009018
994.118848	0.009487
994.291335	0.009448
994.463803	0.009727
994.636254	0.011827
994.808686	0.012486
994.981100	0.011390
995.153496	0.011780
995.325874	0.011063
995.498233	0.011958
995.670574	0.011233
995.842897	0.010843
996.015202	0.010752
996.187488	0.010176
996.359757	0.011555
996.532007	0.011549
996.704239	0.011638
996.876452	0.011473
997.048648	0.010166
997.220825	0.010808
997.392984	0.011457
997.565124	0.011133
997.737247	0.009592
997.909351	0.009244
998.081437	0.011150
998.253505	0.011146
998.425554	0.012762
998.597586	0.011429
998.769599	0.011758
998.941594	0.011404
999.113571	0.011380
999.285529	0.010872
999.457469	0.011203
999.629391	0.011147
999.801295	0.009571
999.973181	0.007968
1000.145048	0.008529
1000.316897	0.008934
1000.488728	0.009293
1000.660541	0.009166
1000.832335	0.010377
1001.004111	0.009206
1001.175869	0.008808
1001.347609	0.008772
1001.519331	0.008638
1001.691034	0.007919
1001.862719	0.006758
1002.034386	0.007218
1002.206035	0.007037
1002.377665	0.005997
1002.549277	0.006495
1002.720871	0.005290
1002.892447	0.004856
1003.064004	0.005555
1003.235544	0.007518
1003.407065	0.006876
1003.578568	0.006177
1003.750052	0.006562
1003.921519	0.008124
1004.092967	0.007441
1004.264397	0.008239
1004.435809	0.011249
1004.607202	0.010886
1004.778577	0.009886
1004.949934	0.010455
1005.121273	0.010543
1005.292594	0.010131
1005.463896	0.010456
1005.635180	0.010459
1005.806446	0.008860
1005.977694	0.007089
1006.148923	0.007732
1006.320135	0.008061
1006.491328	0.008711
1006.662503	0.008315
1006.833659	0.009029
1007.004798	0.008112
1007.175918	0.008873
1007.347020	0.009927
1007.518103	0.009423
1007.689169	0.009324
1007.860216	0.007968
1008.031245	0.008128
1008.202256	0.007182
1008.373248	0.005439
1008.544223	0.004748
1008.715179	0.004958
1008.886117	0.006171
1009.057036	0.007719
1009.227938	0.007706
1009.398821	0.008499
1009.569686	0.008403
1009.740533	0.009127
1009.911361	0.009993
1010.082172	0.010699
1010.252964	0.009931
1010.423738	0.008634
1010.594493	0.007435
1010.765231	0.007036
1010.935950	0.006969
1011.106651	0.005385
1011.277334	0.005747
1011.447998	0.005412
1011.618645	0.006106
1011.789273	0.006760
1011.959882	0.006551
1012.130474	0.005981
1012.301048	0.007269
1012.471603	0.008117
1012.642140	0.009135
1012.812658	0.010030
1012.983159	0.011416
1013.153641	0.010890
1013.324105	0.010626
1013.494551	0.011225
1013.664979	0.010599
1013.835388	0.009311
1014.005779	0.008239
1014.176152	0.008134
1014.346507	0.007476
1014.516843	0.005625
1014.687162	0.005233
1014.857462	0.004999
1015.027744	0.005623
1015.198007	0.006443
1015.368252	0.006862
1015.538480	0.007225
1015.708689	0.006703
1015.878879	0.007204
1016.049052	0.010180
1016.219206	0.009805
1016.389342	0.011465
1016.559460	0.011043
1016.729559	0.012875
1016.899641	0.012210
1017.069704	0.011667
1017.239749	0.013783
1017.409775	0.012807
1017.579784	0.011072
1017.749774	0.010251
1017.919746	0.007848
1018.089700	0.007092
1018.259635	0.005783
1018.429553	0.006304
1018.599452	0.008285
1018.769333	0.005500
1018.939195	0.006148
1019.109040	0.006494
1019.278866	0.006698
1019.448674	0.007130
1019.618464	0.007441
1019.788235	0.007321
1019.957989	0.007169
1020.127724	0.005539
1020.297441	0.008010
1020.467139	0.006747
1020.636820	0.005883
1020.806482	0.006394
1020.976126	0.006595
1021.145752	0.005889
1021.315359	0.006825
1021.484948	0.006674
1021.654519	0.006662
1021.824072	0.006025
1021.993607	0.006529
1022.163123	0.006943
1022.332621	0.007785
1022.502101	0.008973
1022.671563	0.009486
1022.841007	0.008375
1023.010432	0.008512
1023.179839	0.008135
1023.349228	0.007316
1023.518598	0.006537
1023.687951	0.004883
1023.857285	0.004165
1024.026601	0.003237
1024.195899	0.003308
1024.365178	0.004125
1024.534439	0.004814
1024.703682	0.005448
1024.872907	0.008243
1025.042114	0.009397
1025.211302	0.010176
1025.380472	0.010950
1025.549624	0.011568
1025.718758	0.012661
1025.887873	0.011674
1026.056970	0.010627
1026.226049	0.010300
1026.395110	0.008365
1026.564153	0.008796
1026.733177	0.008624
1026.902183	0.007245
1027.071171	0.006354
1027.240141	0.005757
1027.409092	0.005752
1027.578026	0.006367
1027.746940	0.006867
1027.915837	0.008157
1028.084716	0.006617
1028.253576	0.007270
1028.422418	0.007811
1028.591242	0.008946
1028.760048	0.008828
1028.928835	0.009026
1029.097604	0.009779
1029.266355	0.008989
1029.435088	0.007121
1029.603803	0.008338
1029.772499	0.008336
1029.941177	0.009147
1030.109837	0.008165
1030.278478	0.008781
1030.447102	0.011173
1030.615707	0.008864
1030.784294	0.008760
1030.952863	0.007791
1031.121413	0.008419
1031.289945	0.008862
1031.458460	0.007737
1031.626955	0.008252
1031.795433	0.007432
1031.963892	0.004896
1032.132334	0.006238
1032.300756	0.007288
1032.469161	0.008679
1032.637548	0.006555
1032.805916	0.007760
1032.974266	0.008043
1033.142598	0.007405
1033.310911	0.006834
1033.479207	0.006455
1033.647484	0.005238
1033.815743	0.004245
1033.983983	0.005597
1034.152206	0.005752
1034.320410	0.004861
1034.488596	0.005820
1034.656764	0.006247
1034.824914	0.007065
1034.993045	0.008277
1035.161158	0.010262
1035.329253	0.010443
1035.497330	0.007747
1035.665388	0.009104
1035.833428	0.008628
1036.001450	0.007534
1036.169454	0.007081
1036.337440	0.008164
1036.505407	0.006471
1036.673356	0.004477
1036.841287	0.003894
1037.009200	0.004704
1037.177094	0.004814
1037.344970	0.005350
1037.512828	0.006583
1037.680668	0.006917
1037.848489	0.005993
1038.016293	0.007699
1038.184078	0.008458
1038.351845	0.009573
1038.519593	0.009693
1038.687324	0.009757
1038.855036	0.008435
1039.022730	0.007626
1039.190406	0.008125
1039.358063	0.007561
1039.525702	0.007358
1039.693323	0.006036
1039.860926	0.004808
1040.028511	0.004204
1040.196077	0.004145
1040.363625	0.005810
1040.531155	0.006469
1040.698667	0.006866
1040.866161	0.006947
1041.033636	0.006661
1041.201093	0.006785
1041.368532	0.008279
1041.535952	0.008725
1041.703355	0.008253
1041.870739	0.008673
1042.038105	0.008487
1042.205452	0.006922
1042.372782	0.006225
1042.540093	0.007173
1042.707386	0.008854
1042.874661	0.008861
1043.041918	0.009198
1043.209156	0.009670
1043.376376	0.008689
1043.543578	0.008076
1043.710762	0.007897
1043.877927	0.007401
1044.045074	0.006244
1044.212203	0.004877
1044.379314	0.005523
1044.546407	0.006136
1044.713481	0.006112
1044.880537	0.005838
1045.047575	0.006426
1045.214595	0.006836
1045.381596	0.008186
1045.548579	0.008235
1045.715544	0.009128
1045.882491	0.007934
1046.049420	0.007407
1046.216330	0.006468
1046.383222	0.006802
1046.550096	0.006613
1046.716951	0.006486
1046.883789	0.005481
1047.050608	0.005258
1047.217409	0.004293
1047.384192	0.006157
1047.550956	0.004670
1047.717703	0.006133
1047.884431	0.007863
1048.051140	0.008734
1048.217832	0.010748
1048.384505	0.011115
1048.551161	0.012393
1048.717798	0.013631
1048.884416	0.011495
1049.051017	0.011205
1049.217599	0.010310
1049.384163	0.007678
1049.550709	0.006066
1049.717237	0.004374
1049.883746	0.004609
1050.050237	0.003471
1050.216710	0.003882
1050.383165	0.003895
1050.549601	0.005407
1050.716019	0.006055
1050.882420	0.006703
1051.048801	0.008378
1051.215165	0.009376
1051.381510	0.009777
1051.547837	0.010923
1051.714146	0.010348
1051.880437	0.009501
1052.046709	0.008847
1052.212964	0.008534
1052.379200	0.007214
1052.545417	0.005955
1052.711617	0.006045
1052.877798	0.006543
1053.043961	0.005618
1053.210106	0.004092
1053.376233	0.005660
1053.542341	0.005390
1053.708432	0.004558
1053.874504	0.005231
1054.040557	0.004647
1054.206593	0.002302
1054.372610	0.002845
1054.538609	0.001472
1054.704590	0.002075
1054.870553	0.001819
1055.036497	0.003875
1055.202424	0.003843
1055.368331	0.004916
1055.534221	0.006472
1055.700093	0.008382
1055.865946	0.007780
1056.031781	0.008934
1056.197598	0.010746
1056.363397	0.010208
1056.529177	0.008947
1056.694939	0.009960
1056.860683	0.010812
1057.026409	0.010066
1057.192116	0.009790
1057.357806	0.006971
1057.523477	0.007396
1057.689130	0.006702
1057.854764	0.009378
1058.020381	0.009940
1058.185979	0.010501
1058.351559	0.010959
1058.517120	0.012091
1058.682664	0.012522
1058.848189	0.017688
1059.013696	0.016810
1059.179185	0.015746
1059.344656	0.013460
1059.510108	0.013406
1059.675542	0.013769
1059.840958	0.013591
1060.006356	0.012361
1060.171735	0.011668
1060.337096	0.009102
1060.502439	0.009777
1060.667764	0.011335
1060.833071	0.010821
1060.998359	0.010375
1061.163629	0.008577
1061.328881	0.007664
1061.494115	0.006593
1061.659330	0.006129
1061.824527	0.004536
1061.989706	0.004151
1062.154867	0.001756
1062.320010	0.002913
1062.485134	0.004478
1062.650240	0.004879
1062.815328	0.004094
1062.980398	0.004520
1063.145449	0.005786
1063.310482	0.008126
1063.475497	0.008983
1063.640494	0.010386
1063.805473	0.010660
1063.970433	0.009633
1064.135375	0.010838
1064.300299	0.011624
1064.465204	0.012181
1064.630092	0.012527
1064.794961	0.012061
1064.959812	0.012450
1065.124645	0.013407
1065.289459	0.012379
1065.454256	0.011208
1065.619034	0.009812
1065.783793	0.009397
1065.948535	0.008758
1066.113258	0.008433
1066.277964	0.007564
1066.442651	0.006524
1066.607319	0.005911
1066.771970	0.007242
1066.936602	0.009176
1067.101216	0.010188
1067.265812	0.010386
1067.430389	0.011140
1067.594949	0.011324
1067.759490	0.013123
1067.924013	0.014123
1068.088518	0.014469
1068.253004	0.012528
1068.417472	0.011591
1068.581922	0.010772
1068.746354	0.008472
1068.910768	0.008126
1069.075163	0.007205
1069.239540	0.005226
1069.403899	0.003454
1069.568240	0.003419
1069.732562	0.003366
1069.896866	0.003551
1070.061152	0.001806
1070.225420	0.004688
1070.389670	0.005581
1070.553901	0.005978
1070.718114	0.005170
1070.882309	0.007564
1071.046486	0.007656
1071.210644	0.008845
1071.374784	0.008562
1071.538906	0.011446
1071.703010	0.010546
1071.867096	0.009540
1072.031163	0.007287
1072.195212	0.009999
1072.359243	0.006920
1072.523256	0.006148
1072.687250	0.006496
1072.851226	0.006773
1073.015184	0.006654
1073.179124	0.006736
1073.343045	0.008311
1073.506949	0.010091
1073.670834	0.006544
1073.834701	0.009137
1073.998549	0.010239
1074.162380	0.008178
1074.326192	0.007975
1074.489986	0.007371
1074.653761	0.007594
1074.817519	0.005817
1074.981258	0.006248
1075.144979	0.007175
1075.308682	0.006908
1075.472367	0.007148
1075.636033	0.008127
1075.799681	0.005731
1075.963311	0.005916
1076.126923	0.004864
1076.290516	0.006794
1076.454092	0.004857
1076.617649	0.008792
1076.781187	0.007597
1076.944708	0.005566
1077.108210	0.006454
1077.271695	0.009832
1077.435160	0.008838
1077.598608	0.009803
1077.762038	0.009208
1077.925449	0.012299
1078.088842	0.010151
1078.252217	0.010218
1078.415573	0.010272
1078.578912	0.011434
1078.742232	0.013289
1078.905534	0.014881
1079.068817	0.014331
1079.232083	0.013049
1079.395330	0.010434
1079.558559	0.008967
1079.721770	0.010723
1079.884962	0.011928
1080.048136	0.011150
1080.211293	0.007959
1080.374430	0.006383
1080.537550	0.005497
1080.700651	0.005887
1080.863735	0.007615
1081.026800	0.007972
1081.189846	0.006347
1081.352875	0.007632
1081.515885	0.006510
1081.678877	0.006341
1081.841851	0.006342
1082.004807	0.008524
1082.167744	0.009888
1082.330663	0.007279
1082.493564	0.005171
1082.656447	0.005473
1082.819312	0.004348
1082.982158	0.003068
1083.144986	0.003544
1083.307796	0.005071
1083.470587	0.004544
1083.633361	0.003966
1083.796116	0.005881
1083.958853	0.009584
1084.121571	0.010181
1084.284272	0.009556
1084.446954	0.012590
1084.609618	0.012122
1084.772264	0.012065
1084.934892	0.011734
1085.097501	0.010773
1085.260092	0.008996
1085.422665	0.010482
1085.585220	0.011206
1085.747756	0.013039
1085.910274	0.011926
1086.072774	0.013823
1086.235256	0.012373
1086.397720	0.012315
1086.560165	0.011395
1086.722592	0.013737
1086.885001	0.011162
1087.047392	0.012553
1087.209764	0.010336
1087.372119	0.009862
1087.534455	0.009013
1087.696772	0.010611
1087.859072	0.009026
1088.021353	0.012118
1088.183616	0.011196
1088.345861	0.009961
1088.508088	0.009027
1088.670296	0.006939
1088.832486	0.007126
1088.994658	0.005613
1089.156812	0.006019
1089.318948	0.007275
1089.481065	0.003119
1089.643164	0.004218
1089.805245	0.005343
1089.967308	0.003459
1090.129352	0.006083
1090.291378	0.004498
1090.453386	0.004623
1090.615376	0.002466
1090.777347	0.002403
1090.939301	0.002254
1091.101236	0.002972
1091.263153	0.002528
1091.425051	0.003039
1091.586932	0.002370
1091.748794	0.002483
1091.910638	0.003669
1092.072463	0.003092
1092.234271	0.000898
1092.396060	0.001959
1092.557831	-0.000632
1092.719584	0.001297
1092.881319	0.003175
1093.043035	0.004283
1093.204733	0.001803
1093.366413	-0.000396
1093.528075	0.004104
1093.689718	0.005296
1093.851343	0.006172
1094.012950	0.007826
1094.174539	0.003608
1094.336110	0.001076
1094.497662	0.002699
1094.659196	0.004503
1094.820712	0.005098
1094.982210	0.002320
1095.143689	0.004131
1095.305151	0.006106
1095.466594	0.004680
1095.628018	0.005623
1095.789425	0.007377
1095.950813	0.005329
1096.112183	0.005325
1096.273535	0.005551
1096.434869	0.002380
1096.596184	0.002678
1096.757482	-0.000369
1096.918761	0.002425
1097.080021	0.005318
1097.241264	0.004009
1097.402488	0.002656
1097.563694	0.004795
1097.724882	0.004080
1097.886052	0.005543
1098.047203	0.003051
1098.208336	0.006682
1098.369451	0.003625
1098.530548	0.003708
1098.691627	0.002671
1098.852687	0.003698
1099.013729	0.002767
1099.174753	0.006347
1099.335758	0.004490
1099.496746	0.006309
1099.657715	0.003060
1099.818666	0.002371
1099.979599	0.001566
1100.140513	0.001851
1100.301409	0.002187
1100.462287	0.000817
1100.623147	-0.001691
1100.783989	-0.000560
1100.944812	-0.002238
1101.105617	0.000196
1101.266404	0.003671
1101.427173	0.002845
1101.587923	0.002607
1101.748656	0.003761
1101.909370	0.005566
1102.070066	0.005495
1102.230743	0.006533
1102.391403	0.005313
1102.552044	0.005790
1102.712667	0.006663
1102.873271	0.010266
1103.033858	0.012857
1103.194426	0.011302
1103.354976	0.011635
1103.515508	0.008994
1103.676021	0.008226
1103.836517	0.010324
1103.996994	0.009138
1104.157453	0.003495
1104.317893	0.001257
1104.478316	0.002968
1104.638720	0.001724
1104.799106	0.002783
1104.959474	0.007645
1105.119823	0.010430
1105.280155	0.010883
1105.440468	0.009065
1105.600763	0.011583
1105.761039	0.012142
1105.921298	0.008055
1106.081538	0.008796
1106.241760	0.003973
1106.401964	-0.001232
1106.562149	-0.002354
1106.722316	-0.000154
1106.882465	0.000410
1107.042596	0.001253
1107.202709	0.002029
1107.362803	0.003466
1107.522879	0.004542
1107.682937	0.008692
1107.842977	0.013099
1108.002999	0.010480
1108.163002	0.008134
1108.322987	0.009937
1108.482954	0.013042
1108.642902	0.012020
1108.802833	0.009662
1108.962745	0.009402
1109.122639	0.006267
1109.282515	0.001970
1109.442372	0.004470
1109.602211	0.003974
1109.762032	0.001601
1109.921835	-0.001482
1110.081620	-0.002029
1110.241386	-0.002000
1110.401134	-0.003828
1110.560864	-0.001238
1110.720576	0.000622
1110.880269	0.000051
1111.039945	-0.000133
1111.199602	0.001940
1111.359240	0.000010
1111.518861	-0.001697
1111.678463	-0.002737
1111.838047	-0.001010
1111.997613	0.001330
1112.157161	0.001729
1112.316690	0.002606
1112.476202	0.005341
1112.635695	0.005062
1112.795169	0.005164
1112.954626	0.003957
1113.114064	0.003510
1113.273484	0.001207
1113.432886	-0.000456
1113.592270	0.002476
1113.751635	0.003430
1113.910983	0.000623
1114.070312	-0.002129
1114.229622	-0.000486
1114.388915	0.001596
1114.548189	0.003078
1114.707445	0.009503
1114.866683	0.010224
1115.025903	0.011641
1115.185104	0.008383
1115.344287	0.010009
1115.503452	0.010680
1115.662599	0.009285
1115.821727	0.007360
1115.980838	0.007321
1116.139930	0.004299
1116.299004	0.003642
1116.458059	-0.002797
1116.617097	-0.000599
1116.776116	0.003355
1116.935117	0.004079
1117.094099	0.004900
1117.253064	0.006024
1117.412010	0.007443
1117.570938	0.009465
1117.729848	0.003619
1117.888740	0.008654
1118.047613	0.010876
1118.206468	0.007545
1118.365305	0.009188
1118.524124	0.010467
1118.682924	0.009941
1118.841707	0.009506
1119.000471	0.009784
1119.159216	0.015909
1119.317944	0.017448
1119.476653	0.015679
1119.635344	0.012079
1119.794017	0.008642
1119.952672	0.012722
1120.111308	0.015825
1120.269927	0.014972
1120.428527	0.014270
1120.587108	0.017194
1120.745672	0.014572
1120.904217	0.019279
1121.062744	0.022629
1121.221253	0.026961
1121.379744	0.020276
1121.538216	0.015643
1121.696671	0.015091
1121.855107	0.014291
1122.013524	0.011560
1122.171924	0.012973
1122.330305	0.004891
1122.488668	0.005935
1122.647013	-0.001273
1122.805340	0.003377
1122.963648	0.005237
1123.121938	0.005018
1123.280210	0.007407
1123.438464	0.005197
1123.596700	0.001220
1123.754917	0.006841
1123.913116	0.003502
1124.071297	0.006135
1124.229459	0.002164
1124.387604	0.003383
1124.545730	0.007796
1124.703838	0.001293
1124.861928	0.003571
1125.019999	0.005658
1125.178052	0.001112
1125.336088	0.002240
1125.494104	0.005628
1125.652103	0.008562
1125.810083	0.010482
1125.968045	0.009388
1126.125989	0.009351
1126.283915	0.011135
1126.441823	0.012232
1126.599712	0.011187
1126.757583	0.010737
1126.915436	0.013381
1127.073270	0.009720
1127.231087	0.009300
1127.388885	0.005751
1127.546665	0.005258
1127.704426	0.002673
1127.862170	0.000707
1128.019895	0.001712
1128.177602	0.001147
1128.335291	0.001668
1128.492961	0.001807
1128.650614	0.000011
1128.808248	-0.000421
1128.965864	0.006271
1129.123461	0.004372
1129.281041	0.008721
1129.438602	0.014264
1129.596145	0.014113
1129.753670	0.014112
1129.911176	0.016511
1130.068665	0.016131
1130.226135	0.015538
1130.383587	0.012687
1130.541020	0.015816
1130.698436	0.012469
1130.855833	0.009649
1131.013212	0.014565
1131.170573	0.013490
1131.327915	0.013815
1131.485239	0.012475
1131.642545	0.014378
1131.799833	0.015178
1131.957103	0.011265
1132.114354	0.015549
1132.271588	0.014214
1132.428803	0.008217
1132.585999	0.004594
1132.743178	0.004139
1132.900338	0.005426
1133.057480	0.004666
1133.214604	0.006214
1133.371710	0.007302
1133.528797	0.000658
1133.685866	-0.003580
1133.842917	-0.001561
1133.999950	0.003676
1134.156964	0.003427
1134.313960	0.005128
1134.470938	0.005846
1134.627898	0.000528
1134.784840	0.004760
1134.941763	0.012650
1135.098668	0.019317
1135.255555	0.019229
1135.412424	0.009443
1135.569274	0.007740
1135.726107	0.009991
1135.882921	0.015379
1136.039716	0.019518
1136.196494	0.016025
1136.353253	0.013133
1136.509995	0.006819
1136.666717	0.007289
1136.823422	0.012009
1136.980109	0.009216
1137.136777	0.007929
1137.293427	0.007636
1137.450059	0.004177
1137.606672	0.003849
1137.763267	0.001219
1137.919844	0.005540
1138.076403	0.005790
1138.232944	0.001499
1138.389466	0.007426
1138.545971	0.008388
1138.702457	0.010466
1138.858924	0.011118
1139.015374	0.007990
1139.171805	0.008069
1139.328218	0.010472
1139.484613	0.009692
1139.640990	0.010238
1139.797348	0.011521
1139.953688	0.008855
1140.110010	0.003814
1140.266314	0.001333
1140.422600	0.008239
1140.578867	0.007838
1140.735116	0.004099
1140.891347	0.001729
1141.047559	0.008899
1141.203754	0.005874
1141.359930	0.002437
1141.516088	0.004981
1141.672228	0.005193
1141.828349	0.003259
1141.984452	0.002140
1142.140537	0.005986
1142.296604	0.009669
1142.452653	0.002113
1142.608683	-0.000079
1142.764695	0.003680
1142.920689	-0.004953
1143.076665	-0.002236
1143.232622	-0.003025
1143.388562	-0.000296
1143.544483	-0.002103
1143.700385	-0.003532
1143.856270	-0.001739
1144.012136	0.002281
1144.167985	-0.002884
1144.323814	0.007381
1144.479626	0.009226
1144.635420	0.010955
1144.791195	0.003131
1144.946952	-0.000952
1145.102691	0.001075
1145.258411	0.005116
1145.414113	0.005445
1145.569798	0.011309
1145.725463	0.008745
1145.881111	0.008444
1146.036741	0.012122
1146.192352	0.026172
1146.347945	0.034306
1146.503519	0.031160
1146.659076	0.032359
1146.814614	0.026409
1146.970134	0.026736
1147.125636	0.020991
1147.281120	0.021199
1147.436585	0.015917
1147.592032	0.006123
1147.747461	-0.000203
1147.902872	-0.001510
1148.058265	-0.002651
1148.213639	0.001372
1148.368995	-0.000887
1148.524333	0.002642
1148.679653	-0.000992
1148.834954	-0.001656
1148.990237	-0.001460
1149.145502	-0.002923
1149.300749	-0.000539
1149.455977	-0.004184
1149.611188	-0.004132
1149.766380	-0.004987
1149.921553	-0.005839
1150.076709	-0.003265
1150.231846	-0.002922
1150.386966	-0.001684
1150.542066	0.000956
1150.697149	-0.006200
1150.852214	-0.000824
1151.007260	0.003926
1151.162288	0.007549
1151.317298	0.001991
1151.472289	0.001085
1151.627263	-0.000466
1151.782218	0.002772
1151.937155	0.002789
1152.092073	0.014187
1152.246974	0.014387
1152.401856	0.012952
1152.556720	0.016713
1152.711566	0.024818
1152.866393	0.027943
1153.021203	0.033359
1153.175994	0.029684
1153.330767	0.028900
1153.485521	0.024268
1153.640258	0.023261
1153.794976	0.020397
1153.949676	0.016615
1154.104358	0.013799
1154.259021	0.009921
1154.413667	0.005022
1154.568294	0.008988
1154.722903	0.019170
1154.877493	0.018805
1155.032066	0.017874
1155.186620	0.007426
1155.341156	0.006655
1155.495674	0.008689
1155.650173	0.009133
1155.804654	0.004635
1155.959118	0.002473
1156.113562	-0.012708
1156.267989	-0.012304
1156.422397	-0.015276
1156.576788	-0.006625
1156.731160	-0.008339
1156.885513	-0.001540
1157.039849	0.006135
1157.194166	0.014438
1157.348465	0.018279
1157.502746	0.027252
1157.657009	0.024405
1157.811253	0.025455
1157.965479	0.030645
1158.119687	0.036888
1158.273877	0.036797
1158.428048	0.031904
1158.582201	0.030875
1158.736337	0.035676
1158.890453	0.026080
1159.044552	0.038375
1159.198632	0.038975
1159.352694	0.031876
1159.506738	0.027211
1159.660764	0.021972
1159.814771	0.023295
1159.968761	0.016328
1160.122732	0.001483
1160.276685	0.003864
1160.430619	-0.000913
1160.584535	0.007667
1160.738434	0.011890
1160.892313	-0.000705
1161.046175	0.003862
1161.200019	0.003599
1161.353844	0.009185
1161.507651	0.014982
1161.661440	0.005403
1161.815210	-0.003250
1161.968962	-0.008702
1162.122697	-0.005873
1162.276412	0.013875
1162.430110	0.007969
1162.583789	0.005493
1162.737451	-0.001141
1162.891094	-0.008032
1163.044718	-0.003721
1163.198325	0.006568
1163.351913	-0.003131
1163.505483	-0.004977
1163.659035	-0.017325
1163.812569	-0.024399
1163.966084	-0.026862
1164.119581	-0.015587
1164.273060	-0.016061
1164.426521	-0.009433
1164.579964	-0.013520
1164.733388	-0.006302
1164.886794	-0.010028
1165.040182	-0.017355
1165.193551	-0.013200
1165.346903	-0.010699
1165.500236	-0.014732
1165.653551	-0.010773
1165.806848	0.002188
1165.960126	0.004993
1166.113386	0.002696
1166.266628	0.007241
1166.419852	0.018535
1166.573058	0.015079
1166.726245	0.008959
1166.879414	0.012959
1167.032565	0.017872
1167.185698	0.010874
1167.338812	0.004061
1167.491909	0.015897
1167.644987	0.009104
1167.798046	0.017995
1167.951088	0.019602
1168.104111	0.013972
1168.257117	0.006170
1168.410103	0.006193
1168.563072	0.006828
1168.716023	0.005135
1168.868955	0.009093
1169.021869	0.008672
1169.174765	-0.002317
1169.327642	0.006721
1169.480501	0.017721
1169.633343	0.019598
1169.786165	0.020003
1169.938970	0.015227
1170.091757	0.010573
1170.244525	0.002553
1170.397275	-0.000076
1170.550007	-0.002504
1170.702720	-0.012653
1170.855415	-0.013722
1171.008092	-0.024361
1171.160751	-0.037577
1171.313392	-0.047272
1171.466014	-0.020605
1171.618619	-0.092591
1171.771205	-0.092591
1171.923772	-0.092591
