sample name	sample
index	18
start time	 02-11-2021  11:56:08 AM
880	0.047424
Peak Time (s)	81.535
Peak Height 	0.04742
calc peak height	80,83
Baseline Time (s)	8.537
Baseline Value 	-0.002353
subtract baseline	10,4
Abs	0.015911
Peak Time (s)	80.037
Peak Height 	0.01591
calc peak height	80,83
Baseline Time (s)	8.537
Baseline Value 	0.008406
subtract baseline	10,3
PK_550	0.004492
Peak Time (s)	80.037
Peak Height 	0.004492
calc peak height	80,83
Baseline Time (s)	9.034
Baseline Value 	2.3652E-4
subtract baseline	10,2
PK_880	-0.010582
Peak Time (s)	80.037
Peak Height 	-0.01058
calc peak height	80,83
Baseline Time (s)	9.534
Baseline Value 	-9.3401E-4
subtract baseline	10,1


Time (s)	A880-A510	A880-A775	A880-A975	A880	I510	I775	I975	I880	
0.035000	-0.005331	-0.000463	-0.008061	0.007700	4420.795454	18954.115237	3217.623321	10176.482233
0.535500	-0.003181	-0.001355	-0.005016	0.004022	4441.017542	19056.817616	3223.189290	10238.322139
1.070000	0.003083	-0.000628	-0.004093	0.001304	4472.720081	19184.748723	3226.240276	10284.356270
1.536000	0.000556	0.000508	-0.008244	0.000804	4465.509411	19245.859074	3223.180649	10292.850646
2.036000	-0.000740	-0.000787	-0.011355	0.001102	4459.858912	19186.356181	3220.348003	10287.782542
2.536500	0.001892	-0.000745	0.006526	0.002345	4464.782366	19141.636689	3234.388104	10266.693253
3.037000	0.000905	0.000460	-0.005344	0.003764	4456.271068	19133.698039	3223.131590	10242.680943
3.540000	0.002150	-0.001183	0.005313	0.002947	4463.561186	19103.019230	3232.830602	10256.495983
4.037500	-0.001078	-0.002263	-0.018779	0.001434	4457.494520	19119.095402	3213.984950	10282.151117
4.534000	-0.002225	-0.000666	0.001926	0.002604	4449.334368	19134.934157	3230.231771	10262.297903
5.035500	-0.001894	-0.000966	-0.003843	0.003029	4449.003134	19108.020462	3225.001263	10255.108753
5.535500	0.003373	0.000575	0.001386	-0.000757	4481.128213	19306.949082	3232.639839	10319.463218
6.035500	0.000663	0.001142	0.002936	0.000717	4466.198264	19272.865933	3232.704460	10294.332720
6.536000	-0.000482	0.000032	0.008271	0.003265	4453.140548	19136.318883	3235.098929	10251.112544
7.036500	0.000578	-0.000751	-0.002519	0.003274	4456.845342	19106.898146	3225.906914	10250.961266
7.555500	0.001588	-0.000792	-0.001096	-0.000452	4473.651924	19244.225322	3230.261447	10314.252535
8.037000	0.001258	0.000694	-0.004381	0.000593	4468.753125	19260.746297	3226.596325	10296.442723
8.537000	0.002658	0.000359	0.000000	0.000000	4475.860284	19270.408476	3230.809465	10306.545996
9.034500	-0.000013	0.000000	-0.005499	0.000146	4465.823402	19251.487795	3226.031335	10304.055319
9.534500	0.000000	0.000392	0.000277	-0.001141	4470.447242	19314.480832	3232.019248	10326.013908
10.035500	0.001424	0.000400	-0.000630	-0.000963	4474.891088	19308.081341	3231.093388	10322.973718
10.536000	-0.000364	-0.000209	0.006845	0.001419	4460.067614	19196.105574	3235.460315	10282.395644
11.036000	0.000984	-0.000258	0.001005	0.001760	4463.636386	19181.564551	3230.166479	10276.611108
11.536500	-0.002206	-0.002230	-0.008312	-0.000300	4459.634795	19184.847381	3224.046932	10311.656634
12.036500	-0.000100	0.000164	-0.006409	0.002581	4456.897765	19166.682767	3223.229484	10262.689553
12.536500	0.001401	-0.000507	-0.012918	0.002009	4464.232746	19163.004372	3218.309806	10272.394585
13.039500	0.001188	-0.000178	-0.004792	0.001453	4465.448639	19196.007374	3225.527264	10281.826037
13.534500	0.002600	0.000488	0.001798	0.002287	4467.502251	19189.729979	3230.393373	10267.682036
14.035000	0.001973	0.000995	-0.006716	0.002784	4463.514841	19190.092237	3222.804838	10259.258767
14.534000	0.004127	-0.000353	-0.003460	0.001625	4475.301425	19183.048705	3226.503388	10278.910982
15.035500	0.000105	-0.001032	-0.002551	0.001264	4462.277159	19171.169140	3227.573810	10285.030016
15.536000	-0.002075	-0.001044	-0.003351	0.001269	4454.557731	19170.569978	3226.894606	10284.951715
16.036000	0.002547	0.000514	-0.001178	0.001777	4469.128531	19209.747780	3228.300334	10276.325735
16.536500	0.003311	0.000193	0.000101	0.001692	4472.153020	19200.929907	3229.457374	10277.775922
17.036500	0.005392	-0.000180	-0.003662	0.001625	4479.827832	19189.480422	3226.332989	10278.901931
17.537500	0.000024	-0.000342	-0.006936	0.001826	4460.002048	19175.991586	3223.419800	10275.495387
18.034500	-0.001122	0.000187	0.006723	0.001942	4455.547629	19191.393962	3234.904861	10273.530851
18.534500	0.001551	0.000160	-0.003925	0.001626	4466.122570	19202.143209	3226.110450	10278.887038
19.035000	0.004444	0.000967	-0.003095	0.002726	4472.502782	19191.229257	3225.883848	10260.235276
19.535500	0.000032	-0.000301	0.000428	0.002836	4456.461093	19139.882032	3228.763453	10258.366095
20.035500	0.002737	-0.000973	-0.004533	-0.001816	4482.648462	19288.580982	3228.502441	10337.565499
20.535500	0.003397	0.000207	0.006080	0.000305	4477.411512	19253.311264	3235.762503	10301.353958
21.066000	0.002136	0.001692	0.001162	0.001975	4466.961031	19246.357271	3230.117643	10272.961213
21.536500	-0.003575	-0.001519	-0.004163	0.001211	4449.485262	19155.029741	3226.259659	10285.937367
22.037000	0.004981	-0.001029	-0.015670	-0.000187	4484.855933	19225.449882	3217.852023	10309.734181
22.540000	0.003973	-0.000919	-0.002680	-0.000175	4481.191357	19229.096124	3228.681034	10309.525001
23.037500	-0.001662	-0.000338	-0.005507	0.000421	4459.010223	19228.551748	3225.793682	10299.371465
23.534000	-0.000331	-0.000436	-0.015864	0.003206	4453.879551	19121.118493	3214.915767	10252.111791
24.035500	0.001052	-0.001022	-0.008455	0.002444	4461.454113	19127.700889	3221.640808	10265.020352
24.605000	0.006035	-0.001823	-0.003852	-0.001106	4491.960078	19230.151351	3228.477274	10325.419785
25.035500	0.003112	-0.000238	-0.005269	-0.000050	4477.661271	19249.919175	3226.389864	10307.392735
25.536000	-0.002679	-0.000152	-0.009476	0.003840	4443.407577	19108.121024	3219.637780	10241.391084
26.036500	0.002286	-0.000020	0.013760	0.000267	4473.579689	19246.238637	3242.484618	10302.004302
26.536500	0.004800	-0.000002	-0.003572	-0.000402	4484.975303	19271.933517	3228.118970	10313.397671
27.039500	-0.000494	0.000238	0.000612	-0.000465	4466.289521	19283.329003	3231.728783	10314.481023
27.537500	0.000996	0.001171	0.001002	0.004456	4454.147196	19134.369364	3227.878235	10230.989714
28.037500	-0.000927	0.000245	-0.007155	0.002879	4452.932144	19158.613361	3222.359449	10257.649754
28.535000	0.001056	0.000258	0.000138	0.002372	4461.723291	19177.972014	3228.911612	10266.233383
29.035500	-0.001410	-0.000140	-0.002203	0.002542	4452.416221	19156.809613	3226.788517	10263.346695
29.536000	-0.003311	-0.000941	-0.006581	0.001885	4448.047575	19151.451524	3223.667282	10274.492711
30.036000	0.001868	0.000378	0.000250	0.003103	4462.011243	19155.249744	3228.387487	10253.861909
30.536000	0.002442	-0.000105	-0.008054	0.002166	4467.371863	19172.151544	3222.204903	10269.732450
31.036500	0.004180	0.000162	0.001300	0.002250	4473.257496	19178.931879	3230.000435	10268.294597
31.536500	0.000709	-0.000456	-0.004077	0.001470	4463.691526	19185.000202	3226.114202	10281.543910
32.037000	-0.000743	0.000287	0.003975	0.002704	4454.195468	19166.691190	3231.893622	10260.605266
32.537500	0.001849	-0.000374	0.000430	0.002096	4465.515439	19164.711531	3229.392840	10270.917597
33.034500	-0.000999	-0.000162	0.006227	0.002154	4455.232502	19170.456818	3234.295391	10269.926079
33.535500	0.001037	-0.000467	-0.005732	0.002618	4460.784382	19141.816976	3223.763903	10262.062824
34.035500	0.000582	0.000223	-0.007958	0.001372	4463.584458	19213.981960	3222.945560	10283.198466
34.535500	-0.002695	-0.001303	0.004780	0.000946	4453.514669	19172.948169	3234.090202	10290.447595
35.036000	0.001393	-0.001190	0.002125	0.001479	4466.085662	19157.339634	3231.360856	10281.392303
35.536000	0.002176	0.000334	-0.003065	0.001824	4467.638718	19201.242085	3226.667401	10275.524204
36.036500	-0.001078	-0.002227	-0.000313	-0.000188	4463.231286	19180.770619	3230.702997	10309.746485
36.539500	0.000191	0.000108	0.002006	0.002106	4459.604854	19182.339862	3230.725014	10270.751944
37.037000	0.000379	-0.001558	-0.000334	-0.003288	4479.470905	19321.881569	3233.334965	10362.795476
37.538000	0.003862	-0.000616	-0.001594	0.006253	4457.919729	19001.738070	3224.184418	10200.746532
38.035000	0.003914	0.000473	0.005180	0.000849	4477.315165	19242.914864	3234.517706	10292.099714
38.535500	-0.002696	-0.000815	-0.009553	-0.001312	4461.483413	19275.599553	3223.855343	10328.943459
39.035500	0.003731	0.000739	0.004217	-0.000360	4480.986164	19298.173818	3234.729057	10312.678442
39.535500	0.001523	-0.001246	-0.005149	0.005558	4452.126144	19004.134938	3221.800242	10212.438930
40.036000	0.000301	0.000464	0.006573	-0.000736	4470.079544	19301.967662	3237.088893	10319.106701
40.536500	0.006195	0.000177	-0.001908	0.000114	4488.139421	19259.340879	3229.091031	10304.607420
41.037000	0.000803	0.001430	0.003071	0.004335	4453.897634	19148.547835	3229.734017	10233.042145
41.537000	0.000621	0.000864	-0.005833	0.005225	4450.124014	19094.456406	3221.508503	10218.038772
42.037000	0.003187	0.000815	-0.013697	0.000270	4476.786248	19277.406213	3219.100348	10301.950457
42.535000	0.002193	-0.001550	0.002289	-0.001385	4479.149405	19250.770365	3233.952406	10330.184949
43.035000	0.002453	-0.000059	-0.008072	-0.000433	4476.675326	19270.973250	3224.358880	10313.927783
43.537000	-0.003256	-0.002532	-0.009212	0.003349	4443.108014	19038.195510	3220.261676	10249.687653
44.035500	0.007890	-0.000025	0.006613	-0.009903	4530.895272	19631.162111	3245.150239	10477.249799
44.536000	0.007401	0.000718	0.008901	-0.007514	4520.282435	19568.192549	3245.060762	10435.704151
45.036000	-0.045046	-0.022712	-0.008506	0.139720	3931.911716	14181.858657	3123.830361	8270.565141
45.536500	-0.050780	-0.029920	0.016899	0.160979	3871.170942	13471.937431	3126.353160	8014.267664
46.039500	-0.028558	-0.023704	0.003077	-0.058227	4575.446132	20602.642644	3286.899690	11368.409786
46.537000	-0.022391	-0.017629	0.004994	-0.201329	5252.819161	27820.478102	3455.801025	14671.257786
47.037500	-0.017033	-0.009181	0.000920	-0.140618	4974.129305	25005.405004	3373.351286	13136.301044
47.535000	-0.030083	-0.014569	-0.009703	-0.110637	4780.734692	23283.742678	3327.607122	12453.868580
48.035000	-0.026909	-0.014677	-0.019313	-0.115881	4817.075894	23525.150150	3322.938455	12569.861374
48.534500	-0.015889	-0.007648	-0.001005	-0.095943	4778.598222	22923.764482	3321.206423	12136.204366
49.035500	-0.015364	-0.003970	-0.009169	-0.102431	4808.788762	23395.836038	3319.432767	12275.140347
49.536000	-0.009067	-0.000553	-0.011630	-0.077377	4729.117287	22404.240456	3291.280439	11749.917967
50.036000	-0.005474	-0.001366	0.006840	-0.058261	4665.738447	21533.606863	3290.640913	11369.074627
50.536500	-0.006751	-0.000738	-0.001900	-0.047796	4619.272812	21118.337926	3272.048303	11167.561343
51.037000	-0.005453	0.001803	0.004734	-0.038609	4588.758350	20843.094133	3269.638806	10994.635876
51.537500	-0.011634	-0.000549	-0.003713	-0.014232	4475.646642	19777.574058	3239.880071	10553.101382
52.037500	-0.007345	0.000607	-0.003836	-0.006392	4463.011814	19521.230200	3232.993565	10416.288458
52.548500	-0.014210	0.001951	0.005316	0.001403	4411.924957	19277.492914	3234.158197	10282.675242
53.035500	-0.004793	0.002119	-0.004834	0.006490	4426.834303	19094.098835	3221.287014	10196.770296
53.570500	-0.004972	0.004294	-0.005052	0.005468	4429.751477	19213.051539	3221.954943	10213.940617
54.035000	-0.008407	0.002786	-0.007994	0.004904	4419.832335	19177.809819	3219.982864	10223.442397
54.544500	0.000680	0.004209	-0.003309	0.005511	4449.327945	19208.275821	3223.372014	10213.225361
55.036500	-0.005743	0.002733	-0.003063	0.003523	4433.830885	19227.420569	3225.241533	10246.754252
55.539500	-0.002643	0.003401	-0.001624	0.009737	4423.040425	19021.368821	3221.255977	10142.454337
56.037500	-0.001567	0.004106	0.001509	0.006145	4439.241309	19180.769905	3226.881007	10202.559102
56.537000	-0.002909	0.003964	0.003447	0.006118	4434.662084	19176.488794	3228.540758	10203.019575
57.035000	-0.004662	0.002368	0.005941	0.007674	4423.193443	19059.466146	3229.335656	10176.918312
57.535000	-0.010768	0.001637	0.014356	0.014877	4377.947555	18768.612226	3230.365883	10057.316866
58.035500	-0.004780	0.004415	0.002412	0.011691	4408.986241	18986.721977	3222.988388	10109.972282
58.536000	-0.008555	0.002113	0.003058	0.012323	4393.993493	18879.024518	3223.000111	10099.489816
59.036000	-0.010281	0.001626	0.001280	0.013677	4383.605860	18811.846319	3220.397441	10077.097646
59.536500	-0.012998	0.001113	0.003584	0.022028	4346.874876	18492.212920	3215.426293	9940.513575
60.039500	-0.011409	0.001657	0.004785	0.018747	4362.924915	18629.386195	3219.104635	9993.873692
60.537000	-0.008854	0.001928	0.003560	0.020348	4366.088242	18581.535100	3216.781086	9967.784885
61.036500	-0.009404	0.003049	0.009586	0.022184	4358.186200	18555.907859	3220.231552	9937.999679
61.537500	-0.016416	0.001795	0.008567	0.029014	4313.194221	18268.861553	3213.794634	9828.258058
62.035000	-0.005585	0.003776	0.007682	0.026731	4355.783269	18419.586580	3214.932292	9864.745439
62.535500	-0.010475	0.000623	0.010932	0.025523	4343.693762	18350.652662	3218.586294	9884.130750
63.035000	-0.005964	0.000901	0.019042	0.027008	4353.620414	18308.033203	3224.085095	9860.307433
63.535500	-0.011131	0.000828	-0.001716	0.032067	4320.354939	18128.150984	3203.121684	9779.774583
64.036000	-0.006347	0.002669	-0.002117	0.027741	4349.952825	18344.613635	3206.228787	9848.588922
64.536500	-0.007343	0.002836	0.001269	0.027853	4346.318833	18346.533839	3208.841975	9846.793200
65.039500	-0.005140	0.004184	0.004043	0.028079	4352.808386	18386.251550	3210.889639	9843.183343
65.534000	-0.010377	0.002456	-0.002147	0.032958	4319.913227	18153.827646	3202.080871	9765.678020
66.034500	-0.002849	0.002952	-0.003375	0.026491	4365.627854	18398.844756	3206.221729	9868.588719
66.537500	-0.009427	0.003110	0.006003	0.025634	4346.760298	18434.916243	3214.457984	9882.344079
67.035500	-0.010200	0.004205	0.015047	0.025775	4343.772618	18468.898061	3221.782960	9880.089778
67.535500	-0.009589	0.003890	0.004904	0.029653	4333.131865	18320.173933	3210.316076	9818.086443
68.036000	-0.007144	0.005322	0.012980	0.025385	4355.080928	18522.667331	3220.391278	9886.348802
68.536000	-0.010300	0.004083	-0.000636	0.024327	4348.185632	18516.216644	3210.143645	9903.382921
69.036500	-0.011468	0.004484	-0.006225	0.024417	4344.065906	18527.331592	3205.605717	9901.925424
69.539500	-0.012428	0.003869	0.017999	0.028581	4327.408588	18357.317840	3221.903921	9835.169412
70.037000	-0.007662	0.004345	0.009917	0.024872	4355.065611	18506.107538	3218.286292	9894.606327
70.537500	-0.011235	0.004166	0.010747	0.024952	4343.077095	18496.850264	3218.904336	9893.314696
71.037500	-0.010906	0.003945	-0.007517	0.025425	4342.608554	18472.101807	3203.784879	9885.711877
71.535000	-0.010469	0.002776	0.009625	0.026700	4339.873303	18385.220568	3216.545842	9865.241588
72.035000	-0.013891	0.004975	0.001433	0.027443	4326.357967	18436.911008	3209.302236	9853.352009
72.535500	-0.010467	0.003106	0.000439	0.026545	4340.386014	18402.423486	3209.225601	9867.733075
73.036000	-0.013405	0.005698	0.011821	0.028831	4323.449587	18413.302227	3216.598964	9831.185654
73.536000	-0.011124	0.005465	-0.004340	0.029355	4329.124247	18386.446486	3203.190952	9822.835813
74.036500	-0.014445	0.002639	0.010904	0.028134	4322.343777	18329.644619	3216.419166	9842.307336
74.536500	-0.008164	0.005147	0.008980	0.031867	4330.575027	18286.464926	3211.817598	9782.940176
75.036500	-0.012200	0.004302	-0.004363	0.031543	4318.604051	18268.123761	3201.451931	9788.073467
75.537000	-0.012765	0.003957	0.010665	0.037123	4299.004509	18061.085231	3208.942951	9700.198417
76.035000	-0.011924	0.003417	-0.005240	0.032920	4315.070704	18188.726224	3199.688570	9766.276474
76.535000	-0.010234	0.003462	0.018466	0.033694	4318.007049	18163.260758	3218.061566	9754.064909
77.035500	-0.010094	0.003734	0.011960	0.035522	4312.599837	18108.998326	3211.271612	9725.294415
77.535000	-0.010750	0.003433	0.009358	0.036803	4306.418988	18054.034356	3208.153235	9705.211536
78.036000	-0.010450	0.002962	0.004662	0.036507	4308.317706	18047.962939	3204.651455	9709.844975
78.536500	-0.012808	0.003232	0.001990	0.037961	4296.220491	18007.001493	3201.401598	9687.113282
79.039000	-0.015685	0.003448	0.003470	0.039224	4283.201858	17970.818622	3201.571550	9667.416218
79.537000	-0.013414	0.004018	0.005288	0.041891	4281.962941	17898.684730	3200.906168	9626.023048
80.037000	-0.010582	0.004492	0.015911	0.042031	4290.407339	17910.155088	3209.214481	9623.849393
80.537500	-0.012158	0.004184	-0.001738	0.042717	4283.305368	17876.028598	3194.812391	9613.241669
81.034500	-0.015854	0.004277	0.012332	0.044312	4266.846672	17824.671649	3204.545142	9588.659240
81.535000	-0.015782	0.003854	-0.000726	0.047424	4257.480114	17704.413778	3191.983566	9540.938819
82.038000	-0.010946	0.003196	-0.007527	0.045759	4277.591676	17738.554899	3188.089984	9566.421503
82.535500	-0.016675	0.003844	0.001399	0.047000	4256.040846	17718.453033	3193.932595	9547.418067
83.036000	-0.013400	0.002385	0.002520	0.047389	4264.923695	17655.925161	3194.494728	9541.473744
83.537000	-0.010544	0.002888	0.004436	0.052106	4259.187621	17514.327055	3192.349324	9469.786586
84.067000	-0.015187	0.002678	-0.009048	0.049160	4253.978488	17606.086882	3184.402174	9514.461341
84.561500	-0.012974	0.004307	0.009451	0.052020	4252.001606	17564.750599	3196.266662	9471.094248
85.037500	-0.009276	0.001305	0.013354	0.050618	4267.690272	17511.159290	3200.389032	9492.323772
85.534500	-0.018008	0.002264	0.006401	0.052382	4235.603287	17484.274874	3193.641527	9465.624749
86.037500	-0.010201	0.001404	0.011988	0.051739	4261.374636	17477.005388	3198.449712	9475.339228
86.535500	-0.012918	0.001352	0.011167	0.052496	4250.717332	17450.067377	3197.225124	9463.900859
87.036000	-0.012721	0.002443	-0.002621	0.054627	4244.821224	17415.474898	3185.118336	9431.792284
