sample name	sample
index	271
start time	 02-25-2021  11:32:32 AM
880	0.431627
Peak Time (s)	92.035
Peak Height 	0.4316
calc peak height	90,93
Baseline Time (s)	8.537
Baseline Value 	-0.002299
subtract baseline	10,4
Abs	0.293393
Peak Time (s)	90.537
Peak Height 	0.2934
calc peak height	90,93
Baseline Time (s)	11.536
Baseline Value 	0.00143
subtract baseline	10,3
PK_550	0.134569
Peak Time (s)	90.537
Peak Height 	0.1346
calc peak height	90,93
Baseline Time (s)	11.038
Baseline Value 	3.178E-5
subtract baseline	10,2
PK_880	0.280703
Peak Time (s)	90.537
Peak Height 	0.2807
calc peak height	90,93
Baseline Time (s)	11.038
Baseline Value 	-2.9573E-4
subtract baseline	10,1


Time (s)	A880-A510	A880-A775	A880-A975	A880	I510	I775	I975	I880	
0.037500	-0.002190	-0.000865	-0.000642	0.006355	6802.826235	45346.672125	3967.692798	23982.879109
0.537500	-0.002102	-0.000754	-0.001758	0.003448	6829.937691	45642.634285	3972.291061	24124.666852
1.035500	-0.001871	-0.000154	0.001167	0.003588	6830.764096	45687.996483	3979.475090	24117.824412
1.538000	0.000743	-0.000173	0.000743	0.000915	6879.085365	45950.236269	3985.313794	24249.000826
2.038500	-0.003684	-0.000859	-0.004330	0.005369	6798.251408	45443.738405	3960.796601	24030.890196
2.536000	0.001254	0.000839	-0.001627	0.001129	6881.814589	46029.379270	3978.608807	24238.450346
3.036000	0.001420	0.000570	0.003037	-0.001188	6904.721088	46233.181625	3996.809528	24352.740490
3.536500	0.002129	0.000180	-0.000063	0.000400	6896.599871	46036.371971	3984.555923	24274.359008
4.036500	-0.002018	-0.000338	-0.002835	0.003710	6828.315018	45657.799409	3968.851113	24111.826335
4.537000	-0.000731	-0.000229	0.001372	-0.000335	6877.018115	46068.693322	3990.211611	24310.601200
5.037000	0.000824	0.000252	0.004702	0.000263	6885.820725	46057.011182	3997.372263	24281.083409
5.534500	-0.001745	0.000027	-0.002913	-0.000236	6866.806426	46084.339979	3978.814150	24305.733072
6.035500	0.000421	-0.000143	0.004277	0.000253	6882.204866	46018.810547	3996.280893	24281.570354
6.535500	0.001237	-0.000324	0.001879	-0.000150	6893.436741	46040.900715	3991.054673	24301.479698
7.035500	0.000926	-0.000223	0.000490	-0.000423	6893.092957	46078.091057	3988.137799	24314.949960
7.536000	0.000645	-0.000421	-0.002695	-0.000542	6891.588717	46070.167130	3980.168633	24320.795918
8.036000	-0.001504	-0.000394	0.002290	-0.000321	6869.799985	46050.909002	3992.577988	24309.925772
8.536500	0.001441	0.000114	-0.002460	0.000000	6893.938880	46069.522686	3979.373288	24294.065879
9.037000	0.001300	0.000116	0.001717	-0.000027	6892.883515	46072.414674	3990.306424	24295.394513
9.537000	-0.000582	-0.000034	-0.001914	0.000170	6873.745596	46037.866342	3980.347605	24285.669983
10.040000	0.001417	-0.000094	0.000104	-0.000108	6894.717853	46059.570319	3986.311401	24299.417071
10.535000	-0.000475	-0.000837	0.000552	-0.000582	6881.646748	46032.831181	3988.715717	24322.790745
11.038000	0.000000	0.000000	-0.001612	0.000104	6879.701883	46047.819844	3981.301488	24288.927929
11.536000	-0.001761	0.000253	0.000000	0.000501	6859.902385	46033.549783	3984.455550	24269.358162
12.036500	-0.001173	0.000339	0.000765	0.000388	6866.324693	46053.248887	3986.740334	24274.915020
12.536000	0.000139	0.000311	-0.003298	0.000897	6873.689319	45999.977337	3974.890874	24249.845433
13.037000	0.002575	0.000758	0.005327	-0.001313	6916.577338	46264.407941	4003.174457	24358.905304
13.537000	0.000629	0.000502	0.000106	0.000606	6880.870492	46047.883052	3984.458184	24264.207725
14.042500	-0.001540	-0.000483	-0.001807	0.004164	6828.537307	45598.880699	3970.325972	24089.672046
14.537500	-0.000927	0.000804	0.000432	0.003383	6841.209043	45802.666557	3978.103083	24127.833109
15.038000	-0.000979	0.000176	0.000109	0.001112	6861.475649	45965.258588	3983.152382	24239.282801
15.546500	0.000374	0.000142	-0.003366	0.000383	6880.577549	46034.209791	3976.044162	24275.188028
16.035500	-0.002736	-0.000088	-0.003558	0.004449	6815.115847	45609.680228	3965.108237	24075.725761
16.535500	-0.000467	-0.000230	0.002228	-0.000021	6876.556294	46037.370636	3991.627254	24295.080317
17.036000	0.000391	-0.000249	-0.000645	-0.000274	6886.782164	46060.650704	3984.794024	24307.602283
17.536500	0.001024	-0.000135	0.003470	-0.000131	6891.294490	46057.763476	3995.169831	24300.532463
18.036500	-0.000194	0.000429	0.003096	0.002460	6856.319679	45856.755495	3987.414270	24173.047966
18.536000	0.002027	-0.000135	-0.001926	0.001254	6887.771766	45920.303913	3977.512324	24232.282255
19.037500	0.000379	0.000269	0.002795	0.001363	6871.622663	45949.576737	3989.493797	24226.951699
19.537000	-0.001669	-0.000494	-0.000439	0.001120	6855.091929	45898.078156	3981.708560	24238.903876
20.035000	-0.001002	0.000164	0.001744	0.003317	6841.129792	45746.056439	3981.672118	24131.092407
20.538000	-0.001503	0.000491	-0.000935	0.001873	6849.731359	45921.072010	3978.474918	24201.898472
21.035500	-0.002421	0.000277	0.000675	0.001649	6843.403865	45922.111891	3983.229534	24212.906331
21.536000	0.000495	0.000823	0.000101	0.001873	6867.997367	45953.963683	3981.156479	24201.858558
22.036000	-0.002491	0.000297	-0.001572	0.003432	6826.551285	45747.746716	3972.808352	24125.437641
22.536500	0.000896	0.000452	-0.001970	0.001892	6871.513075	45915.357998	3975.751218	24200.942752
23.036500	0.000683	0.000610	0.004751	0.001697	6871.342023	45950.298251	3993.736836	24210.534052
23.537000	-0.001124	0.000068	-0.000931	0.001257	6858.817474	45940.131521	3980.078106	24232.131129
24.034500	-0.001157	-0.000209	-0.001493	0.003000	6842.602707	45740.522495	3974.125206	24146.607905
24.537500	0.001227	-0.000307	0.002536	0.001151	6881.357561	45913.507484	3989.368842	24237.346479
25.038000	-0.001460	-0.000182	0.000303	0.001068	6857.471390	45934.144717	3983.770873	24241.452363
25.535000	0.000226	0.000323	0.000524	0.001435	6869.557587	45947.773520	3983.390775	24223.393939
26.035500	-0.003303	-0.000519	-0.002129	0.003034	6822.795402	45706.586088	3972.401436	24144.932835
26.536000	-0.000519	0.000054	0.000494	0.001204	6864.841007	45944.108033	3983.912869	24234.769802
27.036000	-0.001606	-0.000043	0.001167	0.000911	6857.573369	45963.544379	3986.425305	24249.191568
27.536500	0.000082	0.000713	-0.001027	0.001722	6865.607184	45958.025357	3978.628947	24209.310824
28.037000	0.000663	0.000326	-0.000102	-0.000931	6895.345242	46183.241996	3987.918857	24340.027934
28.536500	0.000636	0.000947	-0.000023	0.000416	6882.682350	46110.944315	3984.616481	24273.551131
29.037500	0.000608	0.000729	0.002695	0.000353	6883.006765	46095.582516	3991.872791	24276.674555
29.535000	-0.002693	-0.000049	-0.000634	0.004145	6818.258175	45643.407893	3973.387699	24090.583545
30.035000	0.000014	0.000442	0.002045	-0.000433	6884.778701	46145.255926	3992.228015	24315.452997
30.535500	-0.000136	-0.000375	-0.001277	-0.000955	6888.207944	46115.833577	3984.921751	24341.241088
31.035500	0.001463	0.000439	0.003384	-0.000272	6896.645227	46128.850693	3995.313566	24307.476996
31.567000	-0.001968	0.000056	0.001920	0.004807	6818.822419	45588.570231	3978.270040	24058.243443
32.036000	-0.000781	0.000474	-0.000779	0.002323	6852.212552	45874.909965	3977.715792	24179.810119
32.536500	-0.001084	-0.000406	0.001830	-0.000228	6872.800363	46040.549406	3991.130482	24305.327406
33.050500	0.000506	0.000434	0.003576	0.000421	6881.438294	46059.489368	3994.002117	24273.311027
33.537000	-0.002231	0.000094	-0.001286	0.003992	6823.831992	45672.560343	3972.105187	24098.065743
34.037000	0.002281	-0.000341	-0.000211	-0.000290	6904.374439	46053.087332	3985.964888	24308.357729
34.538000	0.002261	0.000489	0.003805	-0.000019	6901.688447	46108.655846	3995.756769	24295.010654
35.035000	0.000441	0.000288	0.003810	0.001113	6874.480695	45976.214526	3992.800527	24239.226008
35.535500	-0.002020	-0.000219	-0.001855	0.002658	6837.864338	45773.237799	3974.075165	24163.368680
36.035500	-0.001392	-0.000085	-0.003847	0.003316	6837.589577	45721.561476	3967.268152	24131.140928
36.536000	0.001413	0.000128	0.003240	0.001864	6876.513556	45886.007482	3989.346154	24202.317015
37.036500	-0.002621	0.000336	0.005799	0.001809	6840.117363	45912.068210	3996.192535	24205.018017
37.536500	-0.000025	0.000839	-0.001243	0.003390	6849.374234	45805.492499	3973.765920	24127.511129
38.037500	0.000993	0.000896	-0.003223	0.001769	6873.528791	45971.539901	3972.841936	24206.996690
38.534500	0.000678	0.000798	0.001563	0.002053	6868.035214	45933.624529	3984.484555	24193.047372
39.035000	-0.001063	0.000116	0.002774	0.001739	6854.966481	45897.220501	3988.455686	24208.461527
39.535000	0.000226	-0.000133	0.000080	0.001777	6866.422769	45868.861564	3981.352492	24206.616924
40.035500	-0.001381	-0.000172	0.001309	0.003084	6839.799964	45735.823554	3981.148372	24142.490618
40.535500	0.002006	0.000546	-0.004499	0.002066	6880.112270	45907.432861	3968.802277	24192.413572
41.036000	0.000650	0.000641	0.003419	0.002102	6867.322942	45913.236522	3989.191006	24190.614329
41.536500	0.001607	0.000351	0.000931	0.001945	6877.544463	45900.033113	3983.123084	24198.325107
42.036500	-0.000520	-0.000523	0.003137	0.002715	6851.014644	45737.611793	3986.858592	24160.580868
42.537000	0.000277	0.000377	-0.000184	0.001839	6866.324249	45913.140409	3980.505834	24203.563949
43.036500	-0.000740	0.000531	0.003563	0.001990	6855.624107	45913.430634	3989.859917	24196.128500
43.534500	-0.001520	0.000120	0.001805	0.001504	6852.942068	45920.861950	3986.542650	24220.000966
44.038000	-0.002079	0.000033	0.000815	0.003040	6833.852421	45760.473755	3979.982914	24144.653145
44.535500	-0.002241	0.000667	0.000489	0.001740	6844.206703	45951.715974	3982.507365	24208.416015
45.035500	0.002363	0.000561	-0.001777	-0.002126	6922.164298	46325.971281	3986.668208	24399.171923
45.536000	0.001766	0.001378	-0.004599	0.000371	6893.512979	46158.346376	3972.897003	24275.768855
46.036000	-0.002369	0.000385	-0.006040	0.003994	6822.560910	45701.026892	3959.942419	24097.963827
46.536500	0.001491	0.000592	0.003330	0.000168	6892.847842	46100.396888	3994.021208	24285.803755
47.037000	-0.001087	0.000729	0.001003	0.000332	6867.626309	46097.656512	3987.505933	24277.692812
47.537000	-0.001936	0.000363	0.000288	0.005751	6810.578718	45526.094654	3971.630345	24012.285779
48.037000	-0.001065	0.001108	0.000296	0.005252	6822.974014	45648.391437	3972.933600	24036.581782
48.546000	0.001239	0.000162	0.000235	-0.000278	6894.640430	46101.910668	3987.095333	24307.789657
49.035000	-0.000812	0.000247	-0.004555	0.002590	6849.488072	45826.028328	3967.314888	24166.703057
49.535500	-0.002523	0.000018	0.000066	0.004917	6812.805755	45574.125120	3973.203098	24052.903592
50.041000	-0.002959	0.000270	0.000063	0.004908	6808.948783	45599.805847	3973.220828	24053.353686
50.536500	0.000883	-0.000442	0.000132	-0.000501	6893.404675	46063.960249	3987.406386	24318.772816
51.036000	0.000551	-0.000460	0.001034	-0.000719	6892.357809	46083.856431	3990.329043	24329.541953
51.536500	-0.001058	0.001555	-0.006112	0.005266	6822.911265	45691.004103	3956.529600	24035.901865
52.037000	-0.001044	-0.000258	-0.002142	0.005850	6817.755642	45455.507630	3965.148207	24007.462470
52.537000	0.001235	0.000488	0.001257	0.003394	6860.853201	45770.459612	3980.211013	24127.324419
53.034500	-0.028771	-0.017843	0.005530	0.342285	4585.864151	21736.037877	3375.938929	12612.507071
53.538000	-0.017925	-0.015957	-0.011061	0.001754	6703.689313	44333.755186	3952.891676	24207.724160
54.035000	-0.032046	-0.117221	-0.019282	-0.278989	9939.839163	65535.000000	4910.943530	43595.754666
54.535500	-0.026074	-0.183968	-0.003560	-0.345735	11225.598620	65535.000000	5340.795941	50361.126856
55.036000	-0.034111	-0.137937	-0.002153	-0.299704	10249.372887	65535.000000	5098.099983	45585.338582
55.536000	-0.027367	-0.124396	0.003153	-0.286164	10135.022410	65535.000000	5055.975926	44274.138758
56.036500	-0.022795	-0.092469	-0.003545	-0.253441	9680.050955	65420.535793	4865.031446	41269.305827
56.536500	-0.013510	-0.086065	-0.004818	-0.247624	9734.515719	65505.000755	4832.483943	40758.380469
57.037000	0.011050	-0.077728	0.005566	-0.239281	9995.088929	65504.013187	4841.795938	40037.506375
57.537000	0.001614	-0.043800	0.008342	-0.186077	9040.231561	62786.396935	4624.033558	35752.381156
58.040500	0.011199	-0.027660	0.011017	-0.154038	8730.130183	60633.858803	4508.404295	33414.059581
58.534500	0.019704	-0.017930	0.025930	-0.121727	8418.389926	57708.842990	4443.489156	31224.222485
59.035500	0.028639	-0.006076	0.033353	-0.061157	7798.215778	51893.662884	4260.569133	27533.425619
59.536000	0.035423	-0.000068	0.042595	-0.006431	7284.804252	46695.125178	4120.844017	24613.648965
60.035500	0.054643	0.008335	0.059470	0.024830	7164.510531	44449.795229	4079.611186	23103.643382
60.536500	0.070830	0.018331	0.078009	0.070485	6883.833962	41174.874986	4005.513413	21084.809087
61.036500	0.088491	0.027428	0.094713	0.114631	6647.312836	38207.656025	3935.087285	19324.479679
61.536500	0.109427	0.039350	0.111446	0.166706	6387.063598	35090.086711	3850.705593	17465.449864
62.037000	0.136315	0.054521	0.141821	0.208143	6271.718826	33201.168497	3825.672692	16137.432769
62.537500	0.156926	0.067302	0.169213	0.247959	6125.253003	31372.613393	3798.306774	14975.355488
63.035000	0.174082	0.082046	0.187490	0.275795	6046.564510	30527.269740	3777.779888	14223.944171
63.535000	0.192404	0.093530	0.204112	0.305506	5964.752463	29391.899297	3750.393451	13473.311373
64.035500	0.202292	0.101087	0.212898	0.314408	5971.758187	29309.980911	3750.155213	13258.230913
64.535500	0.209257	0.106784	0.226447	0.323531	5956.458513	29102.539656	3759.322062	13042.334998
65.036000	0.216322	0.111356	0.226678	0.332148	5945.507229	28859.626424	3742.034359	12842.532460
65.546500	0.222215	0.114909	0.229397	0.339361	5936.222096	28641.824604	3732.906052	12678.305706
66.035500	0.229729	0.118469	0.241218	0.346503	5938.837384	28430.470101	3742.412872	12518.374890
66.537000	0.235422	0.121223	0.244212	0.351769	5941.838849	28283.209820	3737.783728	12402.118499
67.037000	0.237897	0.122772	0.245865	0.355969	5929.723798	28128.753004	3732.624986	12310.396527
67.540500	0.242427	0.126288	0.248941	0.361571	5922.221865	28007.913220	3727.536698	12189.440341
68.035000	0.246590	0.127043	0.252590	0.365454	5924.178292	27827.712249	3727.065472	12106.493488
68.535500	0.248731	0.129869	0.253439	0.371206	5899.020200	27660.389306	3717.280648	11984.999186
69.036000	0.251589	0.131730	0.260047	0.375108	5891.788383	27544.323482	3722.667061	11903.489950
69.536500	0.254846	0.132587	0.263709	0.378036	5894.067991	27427.131423	3724.135826	11842.821565
70.036500	0.248924	0.132313	0.261891	0.385222	5804.634740	27009.443791	3706.309039	11695.606522
70.536500	0.257493	0.135922	0.267359	0.385141	5863.342999	27215.135332	3717.250524	11697.243839
71.036500	0.256145	0.136570	0.268615	0.388200	5833.287442	27080.543203	3713.681576	11635.312939
71.537000	0.256617	0.136880	0.274316	0.394701	5792.652152	26738.354087	3712.099889	11505.099799
72.035000	0.258435	0.137463	0.262985	0.397964	5782.997049	26591.716095	3683.790158	11440.491901
72.535000	0.262207	0.137894	0.275616	0.395466	5825.127735	26752.029472	3713.157830	11489.912238
73.035000	0.262811	0.138162	0.275822	0.397112	5818.081596	26676.462730	3710.316611	11457.310073
73.536000	0.262879	0.138171	0.271047	0.399331	5803.599386	26555.788713	3696.659017	11413.562252
74.035500	0.261631	0.139102	0.269601	0.407397	5741.693362	26170.431532	3678.435763	11256.398703
74.536500	0.263674	0.139256	0.268958	0.402685	5786.459050	26432.581853	3686.183130	11347.859783
75.036500	0.263684	0.138443	0.269211	0.403115	5783.653737	26365.332627	3685.844656	11339.475167
75.536500	0.266588	0.139095	0.273765	0.404638	5792.880914	26318.326497	3691.659243	11309.828576
76.037000	0.263752	0.138483	0.270216	0.409946	5738.874906	26001.323627	3674.778078	11207.325948
76.537000	0.268714	0.138999	0.274382	0.406537	5794.401063	26211.002117	3689.193543	11273.008262
77.037500	0.270267	0.140154	0.280176	0.408491	5791.715813	26168.196384	3696.601317	11235.303640
77.535000	0.268336	0.139536	0.277250	0.408699	5777.440970	26123.946725	3690.550280	11231.288629
78.035000	0.269079	0.140563	0.285272	0.410072	5773.248169	26105.456474	3703.436354	11204.911013
78.536000	0.272546	0.140329	0.280204	0.410183	5795.646502	26087.051697	3693.382100	11202.780465
79.036000	0.270757	0.139380	0.282409	0.410604	5780.874956	26013.994434	3696.831516	11194.700117
79.536500	0.273083	0.139565	0.276701	0.411413	5791.009223	25980.884534	3684.299702	11179.222189
80.036000	0.269903	0.138572	0.281652	0.417347	5730.675722	25615.700593	3682.427103	11066.493139
80.536500	0.274016	0.139127	0.281837	0.413012	5786.552630	25872.836681	3691.078020	11148.681299
81.037000	0.273534	0.139325	0.284990	0.413813	5777.993159	25840.997744	3695.615793	11133.431171
81.540000	0.273082	0.138884	0.284347	0.415728	5762.280728	25716.951888	3690.683119	11097.100391
82.035000	0.274260	0.140708	0.282915	0.416228	5766.776156	25786.566835	3686.974877	11087.632393
82.536000	0.273546	0.139142	0.281532	0.416949	5757.270958	25666.392626	3682.956030	11074.003252
83.035500	0.276018	0.138752	0.282666	0.416410	5777.245510	25674.173657	3686.149993	11084.182566
83.536500	0.272326	0.138428	0.286686	0.419322	5733.611918	25505.116382	3688.270988	11029.303079
84.035500	0.274330	0.138642	0.282932	0.418584	5751.646151	25554.708017	3682.507714	11043.174998
84.536500	0.274368	0.138742	0.285734	0.418941	5749.551134	25541.356877	3687.177879	11036.476374
85.036500	0.274142	0.137142	0.284950	0.418803	5748.963223	25465.285273	3685.941121	11039.059276
85.537000	0.276227	0.137130	0.288275	0.421314	5746.157317	25334.586928	3687.499673	10991.978735
86.037000	0.274289	0.137710	0.286255	0.426634	5698.759542	25091.158086	3673.554093	10893.130662
86.537500	0.275950	0.136556	0.294117	0.421252	5744.742407	25308.150447	3698.889027	10993.133737
87.035000	0.277179	0.136353	0.286094	0.421149	5753.521548	25302.983485	3683.644099	10995.059230
87.536000	0.278383	0.136619	0.285037	0.422917	5749.803315	25225.699440	3678.275882	10962.072603
88.035500	0.275788	0.137131	0.283376	0.422972	5732.382241	25249.179607	3675.030604	10961.049290
88.536500	0.279955	0.135831	0.287846	0.423105	5758.942742	25175.563447	3683.257392	10958.568480
89.036000	0.278731	0.136129	0.288813	0.424065	5744.537263	25141.642000	3683.270388	10940.714454
89.536000	0.279784	0.134576	0.289637	0.423811	5753.146735	25075.209027	3685.327364	10945.428118
90.036500	0.275916	0.134108	0.293184	0.423302	5731.055031	25077.302689	3693.115614	10954.896329
90.537000	0.280703	0.134569	0.293393	0.424656	5753.640968	25031.794574	3690.910237	10929.742277
91.037500	0.276095	0.132855	0.284577	0.423910	5728.251052	24982.512793	3675.525724	10943.587906
91.535000	0.278675	0.133113	0.288084	0.425859	5732.378782	24896.728015	3678.474752	10907.445852
92.035000	0.274263	0.133224	0.290796	0.431627	5666.438361	24612.118420	3672.702769	10801.436757
92.535500	0.278849	0.131786	0.291403	0.425229	5737.654468	24861.445572	3685.993348	10919.110426
93.035500	0.278838	0.132153	0.287745	0.426312	5730.484462	24825.298114	3676.974727	10899.073121
93.536000	0.278370	0.132398	0.290895	0.427320	5720.825604	24786.753476	3681.035197	10880.454354
94.036000	0.274860	0.130798	0.287803	0.432173	5666.757934	24464.012919	3666.068255	10791.466050
94.536500	0.279207	0.129443	0.288899	0.425873	5735.773488	24710.942781	3679.993334	10907.182407
95.037000	0.280596	0.130962	0.290950	0.427832	5732.037962	24688.850453	3680.167038	10871.017792
95.612500	0.279541	0.130216	0.290294	0.427925	5724.526988	24646.811901	3678.746885	10869.305664
96.034500	0.276216	0.128821	0.296089	0.433376	5667.740076	24306.737192	3679.398202	10769.560856
96.548500	0.278427	0.128381	0.288175	0.428203	5715.443887	24541.282059	3674.215635	10864.191895
97.035000	0.280075	0.129723	0.299239	0.428752	5722.613103	24580.861928	3694.283775	10854.102851
97.535500	0.283460	0.130118	0.295779	0.429929	5737.072585	24541.871004	3685.374479	10832.506255
98.035500	0.275702	0.129141	0.297436	0.436515	5644.443200	24168.315586	3676.007021	10712.694935
98.535500	0.282043	0.129872	0.299708	0.431819	5715.444628	24435.668135	3689.278578	10797.929504
99.036000	0.279440	0.127924	0.295392	0.431300	5701.895941	24364.939588	3682.019429	10807.400541
