sample name	sample
index	1331
start time	 05-03-2021  11:29:11 AM
880	-0.034711
Peak Time (s)	91.537
Peak Height 	-0.03471
calc peak height	90,93
Baseline Time (s)	9.037
Baseline Value 	-0.004586
subtract baseline	10,4
Abs	0.002483
Peak Time (s)	92.535
Peak Height 	0.002483
calc peak height	90,93
Baseline Time (s)	11.035
Baseline Value 	0.001925
subtract baseline	10,3
PK_550	-0.002602
Peak Time (s)	90.543
Peak Height 	-0.002602
calc peak height	90,93
Baseline Time (s)	11.035
Baseline Value 	1.1032E-4
subtract baseline	10,2
PK_880	0.001649
Peak Time (s)	90.543
Peak Height 	0.001649
calc peak height	90,93
Baseline Time (s)	11.035
Baseline Value 	7.1782E-4
subtract baseline	10,1


Time (s)	A880-A510	A880-A775	A880-A975	A880	I510	I775	I975	I880	
0.036500	-0.001398	-0.000691	-0.004359	0.008376	6062.427093	42133.791902	3861.187935	21855.481511
0.537500	-0.001604	-0.000339	-0.002537	0.004720	6087.649071	42496.719199	3873.730645	22015.618022
1.040000	-0.000592	0.000189	0.000793	0.005097	6092.319355	42510.490238	3880.557867	21999.059476
1.536500	0.003809	0.000183	-0.000901	0.002576	6143.601672	42740.039202	3882.477426	22110.162726
2.035500	-0.002402	-0.000585	-0.004954	0.007169	6063.904949	42252.348126	3862.581648	21908.187763
2.535500	0.000860	0.000546	-0.003298	0.002413	6122.860399	42788.165927	3877.298543	22117.378677
3.036000	0.000745	-0.000017	0.000520	-0.000576	6144.253864	43011.120153	3893.159396	22249.980792
3.539000	0.000308	0.000181	0.001269	0.001020	6129.102712	42882.494211	3891.172222	22179.048568
4.036500	-0.000627	0.000481	-0.000330	0.001688	6117.216373	42848.755651	3885.874099	22149.455937
4.537000	0.001389	-0.000087	-0.000080	0.000697	6139.560011	42887.512527	3888.771658	22193.380120
5.037000	-0.000870	-0.000887	0.001674	0.000363	6125.237341	42844.759108	3893.664672	22208.214593
5.535000	0.001009	-0.000225	-0.003999	0.000251	6140.060865	42915.872985	3880.681909	22213.214385
6.035000	-0.000542	0.000690	0.000370	0.000821	6124.271653	42947.548756	3889.535158	22187.890617
6.535500	0.001553	0.000024	-0.000022	0.000755	6140.349608	42892.347828	3888.770763	22190.805611
7.035000	0.001657	0.000704	0.001182	0.000446	6143.438377	42983.412105	3892.315819	22204.549782
7.535500	0.001340	-0.000588	0.001965	-0.000430	6147.619221	42945.119203	3896.216923	22243.506479
8.038500	0.002061	0.001129	-0.001796	0.000731	6144.328618	42996.347373	3884.687605	22191.903040
8.536500	0.000619	0.000913	-0.004470	0.000995	6131.607276	42952.022384	3877.865943	22180.150931
9.036500	-0.000481	-0.000204	-0.002331	0.000000	6130.826376	42940.817439	3885.144854	22224.357904
9.537000	-0.001686	0.000254	-0.002234	0.004868	6085.967404	42537.259425	3874.088347	22009.115098
10.037000	0.000314	-0.000584	0.000386	-0.000120	6137.638665	42916.982649	3891.776442	22229.695800
10.537500	-0.000119	-0.000120	0.000550	-0.000335	6136.016733	42979.427079	3892.665929	22239.254524
11.035000	0.000000	0.000000	0.000000	-0.000239	6136.186155	42981.633278	3891.150205	22234.991917
11.535000	0.001188	0.000875	0.002853	0.000555	6139.121511	42989.136115	3895.987998	22199.707279
12.035000	0.000247	0.000484	0.001161	-0.000024	6136.426675	43006.441061	3893.371349	22225.432083
12.535000	-0.000474	0.000729	0.001426	0.000205	6129.346691	43007.876893	3893.452564	22215.224221
13.036000	0.000421	0.000678	-0.005183	0.000185	6136.159475	43004.988438	3878.090738	22216.114699
13.536000	-0.001821	0.000153	-0.007712	0.006293	6074.545060	42398.500353	3858.305024	21946.561502
14.036500	-0.001770	0.000024	-0.003475	0.002802	6100.535486	42704.783859	3875.989883	22100.172619
14.541000	-0.001956	0.000542	0.003046	0.002994	6097.753692	42734.639383	3890.711581	22091.688348
15.037500	0.000061	0.000284	0.001222	0.000121	6133.961885	42974.689704	3893.174131	22218.989596
15.534500	-0.003690	-0.000568	-0.002724	0.005200	6068.873859	42432.227360	3872.194712	21994.503285
16.035000	-0.001643	0.000009	0.002826	0.000479	6118.641807	42916.431369	3896.103399	22203.091560
16.535500	0.000521	-0.000367	0.000768	-0.000462	6141.730030	42968.327293	3893.473307	22244.890670
17.035500	0.001423	0.000872	-0.001820	-0.001578	6156.824856	43185.682626	3890.023220	22294.634131
17.536000	0.000512	0.000974	0.000150	0.002814	6117.311830	42790.696555	3884.369495	22099.651199
18.036500	0.001410	0.000519	0.002730	0.001617	6132.865956	42858.681723	3893.199745	22152.582699
18.539500	0.000848	0.000321	0.002836	0.001143	6132.209812	42884.088522	3894.565055	22173.618649
19.037000	-0.000414	-0.000136	-0.001901	0.000949	6124.277829	42859.948748	3883.937102	22182.227458
19.537000	-0.001192	0.000005	-0.000695	0.002088	6110.068897	42768.401399	3884.091200	22131.727801
20.037000	-0.001773	0.000381	-0.001756	0.001602	6109.374757	42847.456618	3882.754292	22153.269048
20.535000	-0.000739	0.000316	0.000406	0.001629	6116.820068	42838.967147	3887.730329	22152.076141
21.035000	-0.000746	0.000110	-0.000335	0.001511	6117.644448	42830.889300	3886.274629	22157.293117
21.535000	-0.001492	0.000529	-0.001010	0.002855	6102.197340	42746.159528	3881.576732	22097.829249
22.036000	-0.000566	-0.000450	-0.000991	0.000949	6123.144843	42831.110694	3886.054344	22182.200176
22.539000	0.000400	-0.000060	-0.004366	0.001187	6128.550128	42845.088700	3877.663457	22171.659412
23.036000	0.000177	0.000471	0.000201	0.001583	6123.952919	42857.471021	3887.358494	22154.118735
23.536500	-0.000543	0.001356	0.000139	0.003546	6104.092549	42758.544523	3882.639873	22067.310975
24.037000	0.000286	0.000469	-0.001198	0.001830	6122.927249	42834.627864	3883.521699	22143.174504
24.537500	-0.001659	0.000454	-0.004187	0.002136	6106.266817	42805.068954	3875.884845	22129.604014
25.035000	0.000016	0.000085	0.004292	0.001555	6122.966627	42824.613717	3897.021375	22155.342535
25.535000	-0.000452	0.000078	0.000604	0.002251	6114.343518	42760.176188	3886.740674	22124.546740
26.035500	0.000445	0.001165	-0.000343	0.002280	6120.768099	42857.169499	3884.463482	22123.236489
26.537500	-0.000232	-0.000399	-0.000858	0.000712	6127.381865	42857.466627	3886.918665	22192.705892
27.038500	0.001435	0.001747	-0.000077	0.002821	6124.099020	42860.924928	3883.824782	22099.335894
27.536000	0.000256	-0.000130	-0.002945	-0.000776	6142.102175	43019.119027	3885.520149	22258.887577
28.036500	0.000499	0.000663	0.002061	0.000187	6136.723867	43003.421923	3894.989702	22216.032159
28.539500	-0.000102	0.000172	-0.004478	-0.000462	6137.089638	43018.030219	3881.225348	22244.922648
29.037000	0.002568	0.001123	0.000429	0.000709	6148.282382	42997.780495	3889.934259	22192.879549
29.537500	-0.004204	0.000367	-0.003028	0.005022	6066.422162	42533.419072	3871.904023	22002.316063
30.034500	-0.001167	0.000544	0.000692	0.000245	6123.907167	42987.105699	3891.636167	22213.452656
30.534000	0.000154	0.000644	-0.000368	0.000280	6133.471358	42993.189568	3889.072572	22211.925130
31.035500	0.000573	0.000509	0.002550	0.002969	6116.612058	42733.900364	3889.610141	22092.798081
31.538500	-0.005251	-0.000140	0.002108	0.005747	6053.536882	42421.528613	3882.102596	21970.518828
32.036000	-0.000550	0.000228	-0.000100	0.000254	6128.426904	42957.267368	3889.761089	22213.075862
32.536500	0.001248	-0.000009	0.002480	0.000186	6142.320511	42941.609760	3895.976722	22216.068614
33.036500	0.002038	0.000408	0.001162	0.000072	6149.077463	42990.540434	3893.147157	22221.143485
33.537000	-0.000939	-0.000474	-0.003948	0.004008	6097.777260	42549.306167	3872.122655	22046.981615
34.037500	0.000338	0.000529	0.003349	0.002278	6119.995845	42799.005153	3893.101627	22123.343034
34.535000	-0.000175	0.000612	0.000628	0.001886	6119.093696	42842.510135	3887.646549	22140.671431
35.037000	0.000571	0.000526	0.002214	0.002079	6123.195981	42816.996328	3890.905649	22132.141288
35.535000	-0.000971	0.000169	-0.002141	0.001912	6113.008107	42799.485845	3881.139847	22139.520126
36.035500	-0.001533	-0.000030	-0.000867	0.001509	6111.835051	42818.242041	3885.040350	22157.390093
36.539000	0.000333	-0.000384	0.004460	0.001038	6129.158099	42828.913010	3898.638298	22178.236360
37.036000	-0.002077	0.000458	-0.000615	0.002084	6103.568869	42810.291929	3884.287678	22131.919743
37.536000	-0.000121	0.000255	-0.002072	0.002036	6118.382313	42796.016063	3881.011742	22134.025416
38.036500	0.000922	0.000230	0.004022	0.001683	6128.741289	42826.077363	3896.084463	22149.658800
38.536500	-0.001322	0.000945	0.001463	0.002177	6108.453636	42846.357520	3888.917493	22127.789403
39.037000	0.000456	0.000444	0.001117	0.001607	6125.840322	42852.704990	3889.440568	22153.014325
39.535000	0.000266	0.000548	-0.000550	0.002461	6118.098462	42783.984666	3883.560241	22115.238261
40.034500	0.001479	0.000194	0.000415	0.001584	6133.623684	42831.972321	3887.855800	22154.069884
40.535000	-0.000283	-0.000065	0.000260	0.001863	6118.463294	42782.576373	3886.842408	22141.702778
41.038500	-0.003379	-0.000269	0.000726	0.001288	6099.834035	42816.547149	3889.272493	22167.150688
41.535500	-0.001852	-0.000337	-0.003957	0.002822	6099.782699	42669.946548	3874.831414	22099.261297
42.036000	0.000073	0.000547	0.003781	0.001973	6120.286614	42828.515173	3894.833883	22136.804956
42.536000	-0.001206	-0.000153	-0.000082	0.001360	6115.350710	42820.585386	3887.217771	22163.981575
43.037000	0.000925	0.000088	-0.000344	0.001608	6129.319319	42819.907470	3886.026165	22152.968813
43.537500	-0.002978	0.001036	-0.005568	0.004529	6078.976207	42639.398257	3867.208313	22024.000767
44.035000	0.001307	0.000809	0.002252	-0.001722	6157.040968	43193.202052	3899.943274	22301.082576
44.535000	0.000085	0.000240	0.003690	-0.000686	6140.154000	43044.904106	3900.892493	22254.891064
45.035000	0.002670	0.000529	-0.000219	-0.000130	6155.321505	43020.367962	3890.382574	22230.144785
45.535000	-0.001876	0.000934	-0.002756	0.005414	6080.568839	42549.456937	3871.627759	21985.102696
46.035500	0.000915	0.001132	-0.000443	0.000140	6140.178160	43051.006341	3889.224862	22218.126521
46.536000	0.000906	0.000308	0.001570	-0.000670	6146.161771	43049.742446	3895.852009	22254.185194
47.036500	-0.001581	0.000052	-0.004125	0.001191	6113.830214	42854.953413	3878.213351	22171.479828
47.536000	-0.002181	-0.000165	-0.000679	0.004172	6087.435675	42562.388469	3879.288128	22039.717715
48.036500	-0.000359	0.000167	-0.000937	-0.000831	6137.919552	43051.576956	3890.341485	22261.350400
48.535000	0.001090	0.001200	-0.000218	-0.000165	6143.759927	43085.450503	3890.465372	22231.684280
49.034500	-0.000642	0.000187	-0.001935	-0.000922	6136.489622	43061.839121	3888.219509	22265.403371
49.535500	-0.002652	0.000375	-0.001346	0.004695	6080.150448	42564.057433	3876.537298	22016.726884
50.035000	0.000921	0.001075	-0.001375	0.000464	6137.811397	43015.847623	3886.290259	22203.730203
50.538500	0.007810	-0.002723	0.004898	0.032442	5956.070608	39850.889650	3828.065217	20834.359707
51.036000	0.033955	-0.022989	0.008624	0.317134	4585.157067	21255.015073	3373.195467	12217.297734
51.536000	0.018391	-0.026040	-0.011815	-0.043407	6628.970887	44590.283708	3967.359058	24254.216236
52.036500	0.015559	-0.087827	-0.015194	-0.278957	9272.310718	65056.277841	4740.678158	39621.542667
52.537000	0.018525	-0.092716	-0.015652	-0.285907	9419.477993	65351.578162	4768.804270	40213.791576
53.037000	0.016142	-0.080074	-0.013229	-0.270210	9153.641696	64914.475828	4711.740021	38889.630004
53.535000	0.009256	-0.051498	-0.015975	-0.228855	8496.210067	63118.981331	4534.209716	35621.912599
54.035000	0.003747	-0.041488	-0.012175	-0.216430	8269.832644	62785.489549	4501.545899	34699.390517
54.535500	-0.000685	-0.042583	-0.015630	-0.219019	8247.091169	62991.594967	4498.302876	34889.440257
55.035500	-0.007068	-0.046306	-0.020602	-0.227860	8277.439075	63702.841318	4512.844260	35547.061200
55.536000	-0.003625	-0.041869	-0.019069	-0.217183	8188.616760	62836.728888	4478.683207	34754.525336
56.035000	0.002309	-0.030405	-0.013561	-0.191370	7952.010356	60891.863403	4405.347797	32917.168219
56.536500	0.001772	-0.020261	-0.016295	-0.156203	7553.299563	57649.975532	4277.301003	30583.326520
57.037000	-0.000195	-0.017286	-0.013036	-0.140198	7364.680377	56034.409983	4236.691396	29582.195942
57.536500	-0.002649	-0.012795	-0.015708	-0.122608	7163.307831	54458.327951	4174.535641	28523.570723
58.037000	0.002713	-0.008590	-0.013755	-0.106648	7060.529604	53083.984588	4133.235040	27599.492243
58.535000	-0.000052	-0.007437	-0.008369	-0.096947	6942.823454	52107.753167	4120.779930	27054.225694
59.035000	0.001808	-0.004740	-0.012039	-0.083997	6840.896485	50961.704632	4073.934842	26344.994276
59.535000	-0.004422	-0.006150	-0.014704	-0.067874	6643.197853	49063.622216	4023.095488	25491.027181
60.038500	-0.001276	-0.003584	-0.006930	-0.064505	6641.279027	48978.548754	4034.819701	25316.581711
60.535500	-0.002448	-0.004893	-0.013742	-0.054848	6549.154152	47831.955439	3991.594049	24823.923469
61.036000	-0.002915	-0.004529	-0.012143	-0.044137	6456.426345	46776.186349	3968.371176	24290.140625
61.536500	-0.007567	-0.004227	-0.016641	-0.028127	6291.195242	45220.724760	3917.855406	23516.408191
62.039500	-0.005779	0.000075	-0.010170	-0.040055	6400.002041	46828.829935	3963.066512	24090.149903
62.536500	-0.010406	-0.001913	-0.020293	-0.050094	6443.884306	47649.092316	3962.855161	24585.362918
63.034500	-0.011088	-0.001251	-0.016305	-0.058340	6506.148590	48574.537349	3993.988829	25000.804396
63.537500	-0.013449	-0.003030	-0.024007	-0.061409	6512.034520	48710.097215	3982.093907	25157.419692
64.041000	-0.011390	-0.003194	-0.016935	-0.070464	6605.654940	49655.782690	4024.048993	25626.108243
64.535500	-0.010531	-0.002160	-0.023121	-0.073255	6636.930786	50068.670800	4015.085680	25772.542063
65.036000	-0.010102	-0.002190	-0.021758	-0.073630	6643.856567	50106.016087	4019.664405	25792.266202
65.536000	-0.014506	-0.000619	-0.024193	-0.065698	6539.006792	49420.886861	3992.619163	25378.168367
66.036500	-0.013347	0.000241	-0.021497	-0.067969	6567.863601	49756.833940	4005.497559	25495.963864
66.536500	-0.011458	0.000920	-0.017440	-0.067677	6581.369846	49798.542480	4015.355627	25480.773179
67.037000	-0.012536	-0.000951	-0.009735	-0.068701	6580.916079	49707.390019	4038.545604	25534.055927
67.534500	-0.016692	-0.000437	-0.019010	-0.063237	6500.278619	49177.949221	3999.658097	25251.244213
68.034500	-0.010067	0.000750	-0.018588	-0.067649	6592.949112	49777.172380	4012.267907	25479.330240
68.535000	-0.011969	0.001647	-0.019484	-0.067882	6578.786772	49899.189998	4010.531812	25491.454659
69.035500	-0.011845	0.001035	-0.018830	-0.069549	6593.982934	50013.242453	4016.624092	25578.286814
69.538500	-0.017650	0.000429	-0.019212	-0.063793	6496.954122	49329.445146	4000.577794	25279.878200
70.036000	-0.011563	0.002116	-0.018664	-0.067081	6575.435100	49863.252674	4010.579373	25449.837179
70.538500	-0.013192	0.002143	-0.018294	-0.065900	6551.733619	49738.933824	4008.456279	25388.633176
71.036500	-0.011193	0.001860	-0.017514	-0.065231	6562.937578	49636.564992	4008.749825	25354.074686
71.537000	-0.014987	0.001529	-0.026285	-0.059930	6487.025049	49035.514317	3972.542985	25081.783703
72.037000	-0.010475	0.002762	-0.022022	-0.065512	6571.370020	49763.808221	3997.749745	25368.584499
72.543000	-0.009175	0.002559	-0.009958	-0.065464	6581.966947	49736.777503	4029.298883	25366.086092
73.035000	-0.012026	0.002815	-0.016291	-0.064749	6551.856151	49687.326788	4010.686959	25329.142690
73.543000	-0.012127	0.002172	-0.018494	-0.062270	6530.228343	49352.888637	3998.490539	25201.568764
74.038000	-0.009878	0.002319	-0.019157	-0.063484	6559.291827	49498.373111	3999.919575	25263.956104
74.535000	-0.012570	0.001847	-0.019948	-0.062969	6532.378154	49392.912832	3996.537104	25237.489663
75.036000	-0.011762	0.002536	-0.008035	-0.060970	6522.421610	49253.045507	4022.474432	25134.943990
75.536500	-0.014322	0.002115	-0.019338	-0.056352	6463.052019	48719.420518	3981.106215	24899.921550
76.036000	-0.013018	0.001648	-0.020488	-0.059583	6500.445620	49011.360006	3986.424857	25064.093764
76.542500	-0.013482	0.002784	-0.016110	-0.057617	6480.364345	48923.545654	3992.627271	24964.048422
77.037000	-0.013000	0.001824	-0.013606	-0.056377	6474.114176	48691.353691	3995.888850	24901.158884
77.537500	-0.015067	0.002090	-0.020472	-0.049195	6398.803787	47969.380578	3960.153770	24540.531592
78.034000	-0.012868	0.000324	-0.012316	-0.053558	6452.068371	48239.152151	3991.943643	24758.901733
78.535500	-0.012918	0.001452	-0.011857	-0.051175	6432.236955	48108.681317	3986.999246	24639.391787
79.035500	-0.011229	0.000380	-0.016850	-0.051008	6444.626470	47980.055081	3973.841729	24631.006721
79.535500	-0.011430	-0.000170	-0.015261	-0.050298	6437.202406	47849.753364	3976.072410	24595.542713
80.036000	-0.013355	-0.000724	-0.011591	-0.049817	6417.663833	47743.039188	3984.200924	24571.568423
80.536000	-0.012036	-0.000832	-0.014257	-0.048653	6418.921377	47612.100241	3974.446019	24513.576914
81.036500	-0.010008	-0.001173	-0.009506	-0.048096	6430.857669	47519.868419	3985.132499	24485.876116
81.536500	-0.013842	-0.001584	-0.020268	-0.042600	6355.819076	46918.344524	3944.275703	24214.617826
82.037000	-0.008468	-0.001041	-0.009091	-0.047319	6437.061246	47453.869557	3984.205297	24447.321984
82.534500	-0.010658	-0.001748	-0.014450	-0.046986	6416.575168	47347.493927	3969.738586	24430.828083
83.035000	-0.006481	-0.001022	-0.010913	-0.045510	6438.520475	47271.012823	3974.956166	24357.841565
83.538000	-0.006200	-0.002798	-0.009919	-0.043794	6426.849655	46916.371750	3973.127444	24273.275260
84.038500	-0.005413	-0.001896	-0.006181	-0.044388	6438.080147	47067.967963	3984.153896	24302.508189
84.535500	-0.006438	-0.002351	-0.012793	-0.044456	6430.289472	47028.678465	3967.535843	24305.828214
85.036500	-0.006844	-0.002196	-0.008257	-0.043682	6420.708926	46965.930041	3977.058002	24267.724572
85.537000	-0.006939	-0.002331	-0.011007	-0.037978	6374.013245	46378.705503	3955.777220	23989.118879
86.037000	-0.004028	-0.002203	-0.007297	-0.042784	6436.289980	46874.365278	3977.215404	24223.633440
86.536500	-0.004257	-0.003252	-0.004378	-0.042826	6434.765531	46772.785580	3984.769684	24225.692911
87.035000	-0.000956	-0.003305	-0.010445	-0.042020	6455.132338	46686.192881	3967.315335	24186.161131
87.535000	-0.006704	-0.004149	-0.010637	-0.037311	6370.559495	46131.135005	3955.038148	23956.777608
88.035500	-0.001086	-0.003511	-0.003667	-0.041139	6446.871640	46577.034760	3982.273326	24143.068436
88.535500	-0.002604	-0.003843	-0.004994	-0.040878	6432.363885	46517.461572	3978.224355	24130.296321
89.035500	-0.000859	-0.002953	-0.003223	-0.039715	6437.106455	46490.214532	3979.774421	24073.568619
89.541500	-0.001840	-0.003618	-0.007380	-0.036435	6402.570540	46096.854376	3960.984661	23914.348998
90.036000	-0.000123	-0.004110	-0.005647	-0.040488	6449.419732	46451.745280	3975.575706	24111.269422
90.542500	0.001649	-0.002602	-0.001315	-0.038843	6450.449751	46437.990994	3982.415925	24031.108128
91.037000	0.000797	-0.003504	-0.003758	-0.040062	6453.452599	46469.692638	3979.295000	24090.474563
91.536500	0.000480	-0.003772	-0.005462	-0.034711	6407.382330	45910.878418	3961.469642	23831.149890
92.035000	0.000534	-0.003719	-0.007628	-0.039821	6449.331390	46424.092695	3968.873129	24078.724501
92.534500	0.000898	-0.003000	0.002483	-0.039422	6449.051936	46456.211565	3993.652454	24059.308870
93.037500	0.000407	-0.003938	-0.005860	-0.039787	6448.019151	46398.838278	3973.257184	24077.096113
93.535500	-0.000746	-0.004384	-0.006544	-0.035992	6407.833627	45977.100800	3961.971303	23892.971838
94.035000	-0.000636	-0.003429	-0.002213	-0.039092	6433.845398	46380.215896	3980.758652	24043.216662
94.536500	0.003403	-0.003903	-0.001599	-0.039259	6468.236151	46349.597714	3982.754176	24051.365595
95.036500	0.001859	-0.003800	-0.003125	-0.039175	6454.885592	46351.536705	3978.648709	24047.278599
95.542000	-0.000752	-0.003862	0.001319	-0.035748	6405.813760	46004.597341	3981.240396	23881.174095
96.034500	0.003905	-0.003397	0.000654	-0.038906	6469.461876	46364.892129	3987.619924	24034.200415
