sample name	sample
index	519
start time	 03-11-2021  03:51:03 PM
880	-0.040743
Peak Time (s)	92.535
Peak Height 	-0.04074
calc peak height	90,93
Baseline Time (s)	11.036
Baseline Value 	-0.003903
subtract baseline	10,4
Abs	-0.016794
Peak Time (s)	92.037
Peak Height 	-0.01679
calc peak height	90,93
Baseline Time (s)	11.537
Baseline Value 	0.005125
subtract baseline	10,3
PK_550	-0.003679
Peak Time (s)	90.537
Peak Height 	-0.003679
calc peak height	90,93
Baseline Time (s)	9.038
Baseline Value 	6.1272E-4
subtract baseline	10,2
PK_880	-0.013374
Peak Time (s)	91.035
Peak Height 	-0.01337
calc peak height	90,93
Baseline Time (s)	9.038
Baseline Value 	0.001145
subtract baseline	10,1


Time (s)	A880-A510	A880-A775	A880-A975	A880	I510	I775	I975	I880	
0.038500	-0.001744	-0.001095	-0.010771	0.007360	6952.848626	44497.985456	3948.697404	23722.856928
0.536000	-0.004926	-0.000241	-0.002426	0.005751	6938.238942	44734.258851	3973.332924	23800.105847
1.036000	-0.002180	-0.000070	-0.001923	0.004738	6973.224573	44848.404727	3977.133880	23848.908834
1.537000	-0.000794	-0.000010	-0.002227	0.002428	7007.920522	45077.710836	3982.185725	23960.605361
2.037000	-0.003665	-0.000310	-0.005251	0.006125	6946.467228	44691.725324	3965.354979	23782.148369
2.537000	0.001478	-0.000593	-0.006977	0.001786	7035.496812	45083.543850	3971.867688	23991.791637
3.037500	0.000989	-0.000182	-0.001376	-0.001081	7058.134134	45402.772638	3993.247793	24131.456744
3.534500	0.001469	0.000049	0.000695	0.001146	7041.497073	45208.126116	3992.850344	24022.899216
4.035000	-0.003400	-0.000533	-0.006750	0.005156	6957.946343	44763.472879	3964.036852	23828.775777
4.538000	0.000043	-0.000171	-0.001449	0.001213	7027.325346	45180.178949	3987.229514	24019.611826
5.035500	-0.000525	-0.000110	-0.000221	0.001108	7022.937134	45196.286267	3990.613346	24024.717080
5.536000	-0.000855	0.000228	0.001362	0.001159	7019.332689	45224.284814	3994.516706	24022.239699
6.036500	0.000609	0.000126	-0.002019	0.000697	7037.591977	45259.418209	3987.093010	24044.751620
6.536500	0.000653	-0.000197	-0.001179	0.000735	7037.644795	45224.211022	3989.128348	24042.900036
7.036500	0.001374	0.000317	-0.000591	0.000645	7045.353057	45282.938531	3990.849640	24047.241334
7.534500	0.000973	-0.000349	0.001282	0.000519	7042.736682	45230.440919	3995.948358	24053.414633
8.037500	0.003258	0.000499	-0.002872	0.001055	7059.403437	45260.817236	3984.026772	24027.323024
8.535000	-0.001198	-0.000877	-0.003391	-0.000077	7027.789835	45237.064038	3985.576907	24082.450199
9.038000	0.000000	0.000000	-0.001861	0.000570	7033.013345	45259.452120	3987.815558	24050.923262
9.535500	0.000280	-0.000229	-0.001894	-0.000277	7043.717242	45319.672499	3989.881107	24092.197644
10.035500	0.000069	0.000680	0.000367	0.000814	7031.355643	45301.986562	3992.861309	24039.055672
10.536000	-0.000825	0.000040	0.001879	-0.000158	7032.093657	45334.312124	3999.208216	24086.385436
11.036000	-0.000953	-0.000026	0.000138	0.000000	7029.376686	45312.526500	3994.352091	24078.687589
11.536500	0.001920	0.000136	0.000000	0.000315	7053.696564	45297.584657	3993.197305	24063.354714
12.037000	0.000339	0.000401	-0.000595	0.000665	7035.324377	45289.227901	3990.787429	24046.267536
12.537500	-0.002496	-0.000632	-0.004006	0.004123	6976.025143	44853.502402	3973.451786	23878.582501
13.037500	0.000159	0.000237	-0.004320	-0.000295	7042.738362	45366.990020	3983.777259	24093.081562
13.537500	0.001101	0.000484	-0.002084	0.000622	7042.975374	45301.550603	3987.115474	24048.366618
14.035000	-0.000773	-0.000254	-0.003688	0.002535	7007.119858	45043.758956	3978.237438	23955.440641
14.535500	-0.001680	-0.000077	-0.008445	0.004314	6981.876240	44888.689099	3961.920884	23869.385501
15.040500	0.001074	-0.000349	-0.000107	0.000224	7046.500173	45259.105517	3993.155751	24067.765164
15.536000	0.000465	-0.000071	-0.002996	0.000221	7040.740531	45286.495399	3985.821618	24067.895020
16.036500	-0.000659	-0.000445	-0.000493	-0.000535	7037.244537	45323.801886	3994.106485	24104.790235
16.537000	-0.001038	-0.000444	-0.006379	0.003882	6991.948252	44894.974312	3968.127894	23890.248762
17.037000	0.001527	-0.000287	0.000885	-0.003021	7081.850191	45582.588078	4004.008654	24226.498170
17.534500	-0.000368	-0.000767	0.002294	0.000292	7032.157443	45211.771022	3999.120081	24064.459215
18.038000	0.001334	0.000491	-0.004717	0.002627	7026.163753	45107.088287	3975.422211	23950.999778
18.535500	-0.000803	0.000177	-0.000163	0.002869	7003.688491	45053.191446	3986.292845	23939.270018
19.035000	0.000462	-0.000256	-0.006815	0.000915	7034.121528	45200.855477	3974.452474	24034.113544
19.535500	-0.001780	-0.000031	-0.004208	0.000854	7013.472698	45228.670386	3981.158511	24037.070682
20.035500	-0.000003	-0.000110	-0.009118	0.001214	7026.878693	45186.010186	3967.952003	24019.579008
20.536000	-0.000630	0.000423	0.000462	0.002600	7007.851647	45103.096980	3988.557041	23952.267434
21.036500	0.001907	0.000278	-0.002375	0.001347	7043.745306	45210.909211	3984.545629	24013.128187
21.534000	-0.000598	-0.000388	0.001416	0.000606	7026.997175	45218.167381	3996.066685	24049.155485
22.034500	0.001465	0.000994	0.000216	0.002097	7032.421432	45207.561305	3989.211526	23976.694170
22.537500	-0.001339	-0.000010	0.000066	0.002439	7002.693009	45076.678462	3987.962511	23960.085963
23.035000	-0.000042	-0.000571	-0.001050	0.000764	7030.770400	45184.894901	3989.381614	24041.454332
23.535000	0.000871	0.000235	-0.000537	0.001646	7031.068431	45177.522821	3988.444566	23998.578819
24.035500	-0.001123	-0.000193	-0.001872	0.000885	7019.387038	45209.949420	3986.986921	24035.568306
24.536000	-0.002242	0.000187	-0.000661	0.003634	6982.982100	44979.984658	3983.096179	23902.231528
25.036000	-0.000888	-0.000649	-0.001493	0.001199	7018.640279	45134.976934	3987.152207	24020.280968
25.536500	0.000314	-0.000191	-0.006031	0.001544	7026.761990	45146.123614	3974.843088	24003.548229
26.039500	0.000913	0.000036	0.000071	0.001588	7032.017370	45163.809074	3990.137075	24001.395058
26.537000	0.000775	-0.000085	-0.002678	0.001402	7032.464467	45170.145906	3983.638860	24010.419754
27.040000	0.002001	0.000733	-0.003792	-0.000629	7063.483340	45448.221683	3985.959862	24109.402708
27.534500	0.002695	-0.000158	0.000480	-0.001190	7075.494683	45415.845620	3998.268826	24136.804179
28.035000	0.003179	0.000998	-0.001983	0.000919	7059.948759	45322.817211	3986.622230	24033.948494
28.535500	0.002199	0.001179	0.001528	0.001204	7047.889539	45312.640045	3994.828430	24020.075187
29.035500	0.001083	-0.000088	-0.002774	0.000458	7044.363949	45261.797718	3985.784126	24056.375767
29.536000	0.000251	-0.000009	-0.000277	0.000141	7039.462631	45300.326956	3992.932764	24071.809718
30.036000	-0.001708	-0.000318	-0.000740	0.002202	7001.445890	45069.782129	3986.517347	23971.567257
30.537000	-0.001354	0.000309	0.006389	0.002975	6997.505418	45055.645407	4002.745369	23934.129960
31.037000	0.000555	-0.000415	-0.001460	0.001616	7028.356797	45117.287317	3986.179922	24000.053822
31.537000	0.000242	-0.000192	-0.001609	0.000554	7035.454419	45242.279139	3988.495277	24051.678257
32.037000	-0.002875	-0.000155	-0.001370	0.004435	6969.563259	44869.488375	3979.286961	23863.525490
32.535500	0.000789	0.000329	-0.003259	0.000617	7040.056619	45286.940971	3984.155996	24048.637043
33.035000	0.003787	0.001061	-0.002080	-0.000001	7074.564520	45418.815539	3988.708212	24078.745704
33.535000	0.000039	0.000316	-0.002426	0.001693	7022.738265	45180.850347	3983.541189	23996.308212
34.036000	-0.000628	0.000548	0.001811	0.003130	7002.885257	45063.825354	3990.641973	23926.639131
34.536000	-0.002350	-0.000338	-0.005571	0.002972	6988.180363	44993.273175	3972.418408	23934.271943
35.035500	0.001323	0.000147	-0.004906	0.002202	7030.076655	45114.957924	3976.011336	23971.568128
35.536500	-0.000554	0.000051	0.003259	0.002006	7014.174842	45124.663243	3997.199696	23981.099930
36.039500	0.000259	0.000532	-0.005032	0.002509	7017.101551	45122.533088	3974.924682	23956.678579
36.537000	-0.000626	-0.000466	-0.000463	0.002810	7005.916268	44996.538519	3985.680964	23942.114952
37.035000	0.000995	0.000490	-0.002076	0.002097	7027.969138	45158.503775	3983.405648	23976.690077
37.535000	0.000679	0.000173	-0.004839	0.002031	7025.598916	45134.104650	3976.609084	23979.878895
38.035500	-0.001100	-0.000056	-0.003020	0.001797	7010.993036	45134.559652	3981.777002	23991.229523
38.535500	-0.001853	0.000824	-0.000877	0.003627	6986.692971	45042.347075	3982.568146	23902.567171
39.036000	0.000142	0.000209	-0.006826	0.001787	7022.824285	45161.344805	3972.241778	23991.734004
39.536000	0.000023	0.000062	-0.002813	0.001897	7020.657478	45136.311251	3982.049203	23986.388165
40.036500	-0.001117	-0.000870	-0.000336	0.001292	7015.600671	45104.549145	3989.853151	24015.762315
40.540000	-0.001434	-0.000658	-0.003139	0.002718	6999.164010	44986.841293	3979.154948	23946.548536
41.037000	0.000497	-0.000643	-0.004424	0.000952	7034.101715	45159.613182	3980.367813	24032.317280
41.534500	-0.003000	0.000154	-0.008695	0.002193	6989.387313	45116.510505	3966.567534	23972.029509
42.034500	-0.000505	0.000709	-0.003356	0.001888	7015.759074	45200.181498	3980.701020	23986.835341
42.535000	-0.002194	0.000173	-0.007169	0.002949	6989.859065	45045.014612	3968.486491	23935.400205
43.035500	-0.001191	-0.000655	0.002526	0.001090	7016.810634	45145.145274	3997.670923	24025.615349
43.536000	0.003806	0.000514	-0.003315	-0.002815	7101.793122	45641.108640	3992.723892	24216.391413
44.036000	0.002271	0.000308	0.000296	-0.000024	7060.284687	45347.483764	3994.817534	24079.870361
44.536000	-0.000481	0.000070	0.000085	0.003936	6996.674170	44939.470304	3984.219033	23887.630093
45.039500	0.001508	-0.000527	0.001420	0.000071	7052.090690	45256.629895	3997.444923	24075.212649
45.537000	0.001272	0.000445	0.003729	0.000327	7047.407213	45326.459571	4002.711493	24062.726749
46.037000	-0.000923	-0.000455	-0.004302	0.000770	7022.366269	45195.603315	3981.134842	24041.167722
46.536000	-0.004320	-0.000259	-0.003259	0.003560	6964.239448	44943.968854	3976.736586	23905.790336
47.035000	-0.000690	0.000228	-0.001069	0.002406	7009.116750	45102.972852	3985.169164	23961.694013
47.534500	-0.000289	0.000154	-0.000457	0.001327	7023.102257	45200.749971	3989.457510	24014.090918
48.035500	0.001602	0.000483	-0.000606	0.001312	7041.181501	45234.239561	3989.117899	24014.818235
48.535500	-0.001484	-0.000388	-0.005446	0.003439	6991.922115	44943.242799	3971.561748	23911.670472
49.036500	0.003205	-0.000057	0.007583	-0.001338	7081.798411	45440.179834	4016.993517	24144.007704
49.539500	0.004405	0.000348	0.003347	-0.001576	7095.622451	45503.098585	4006.630931	24155.658354
50.037000	0.000235	0.000403	-0.000842	0.001228	7028.999946	45234.561719	3988.731502	24018.880264
50.534000	-0.001342	0.000059	-0.005881	0.008324	6947.616172	44516.163748	3958.344431	23676.667791
51.037000	0.010784	0.004756	-0.000461	0.013640	7011.383758	44456.947765	3958.601604	23423.929695
51.535000	-0.037666	-0.007798	-0.005562	0.331125	4677.727408	22355.169779	3396.334647	12781.641087
52.035000	-0.042688	-0.012991	-0.019204	0.062521	6150.869853	38551.445641	3803.939998	21239.397554
52.535000	-0.061028	-0.030809	-0.029745	-0.121217	7651.683550	55122.558541	4253.765046	30896.539224
53.035500	-0.044359	-0.122989	-0.006001	-0.292407	10216.253611	65535.000000	5028.616034	44422.374952
53.536000	-0.031453	-0.063771	-0.001233	-0.223912	9338.797844	64212.164154	4736.196209	38364.319432
54.039000	-0.033290	-0.067429	-0.013566	-0.230954	9416.277708	64691.374164	4713.790388	38944.013678
54.536500	-0.028707	-0.057855	-0.014746	-0.219124	9308.655971	64371.442648	4659.849492	37975.492543
55.037000	-0.014286	-0.054541	-0.021966	-0.217123	9494.202891	64557.558756	4622.582610	37814.298701
55.537000	-0.011905	-0.045174	-0.021235	-0.203738	9329.550460	63990.052750	4572.716281	36754.746158
56.034500	-0.012461	-0.043581	-0.022845	-0.201875	9293.908635	63952.138623	4559.281606	36609.807312
56.535000	-0.003507	-0.045001	-0.018193	-0.205465	9480.900702	64257.625943	4591.340444	36889.584946
57.038000	0.001025	-0.044424	-0.011935	-0.205528	9550.758967	64348.151557	4616.343513	36894.542144
57.535000	0.006462	-0.031375	-0.018174	-0.185794	9335.804631	63410.085797	4515.892009	35384.538455
58.036000	-0.002362	-0.009470	-0.019401	-0.130789	8457.921036	58972.237522	4317.945467	31520.364883
58.539000	-0.010394	-0.010344	-0.020153	-0.113253	8140.902870	56646.542481	4258.899001	30387.856496
59.036000	-0.012409	-0.010638	-0.016181	-0.112931	8112.839808	56570.358011	4270.486553	30367.498319
59.536500	-0.013886	-0.012831	-0.023702	-0.118053	8156.670194	56933.346409	4262.863142	30693.357972
60.036500	-0.018552	-0.008335	-0.023728	-0.082615	7694.133810	53220.102748	4154.895763	28515.657112
60.537000	-0.017332	-0.005746	-0.022403	-0.064283	7509.410826	51429.948615	4106.167247	27456.984066
61.036000	-0.015700	-0.005975	-0.021633	-0.063036	7513.492112	51265.368594	4104.828085	27386.598284
61.537000	-0.012245	-0.002424	-0.022180	-0.050562	7418.947557	50282.663634	4068.829806	26693.387327
62.035500	-0.007903	-0.004331	-0.022316	-0.077911	7760.030653	53139.115514	4145.313270	28239.731486
62.535500	-0.007534	-0.003424	-0.028502	-0.072160	7700.343958	52582.252865	4111.174079	27906.445978
63.044500	-0.004816	-0.003045	-0.023137	-0.071670	7724.972738	52569.562777	4125.003811	27878.252759
63.538500	-0.006121	-0.003231	-0.023317	-0.066291	7651.465560	51937.668645	4109.244002	27570.791687
64.036500	-0.006973	-0.003116	-0.021876	-0.062221	7598.075479	51493.436919	4101.861171	27340.685676
64.537000	-0.010009	-0.002720	-0.028130	-0.054272	7481.063171	50656.313260	4062.743620	26897.487966
65.037000	-0.006275	-0.001833	-0.024998	-0.055788	7536.610920	50921.069337	4075.405638	26981.389125
65.534500	-0.007306	-0.002165	-0.019120	-0.053750	7504.045908	50659.812431	4085.967181	26868.623048
66.035000	-0.006686	-0.001338	-0.019398	-0.050787	7479.357295	50425.727308	4077.045783	26705.699778
66.535500	-0.009954	-0.001700	-0.024396	-0.045363	7388.868433	49797.151326	4048.803375	26410.236510
67.035500	-0.006521	-0.000146	-0.018241	-0.048606	7458.204697	50317.736878	4074.242969	26586.473013
67.539000	-0.008380	-0.001270	-0.021573	-0.049229	7445.293231	50263.165984	4066.851720	26620.471794
68.036000	-0.009170	-0.001745	-0.019732	-0.048905	7433.668114	50176.039509	4070.983335	26602.746064
68.536500	-0.011067	-0.001836	-0.022885	-0.045071	7374.409197	49751.058331	4052.072993	26394.449868
69.036500	-0.008235	-0.001109	-0.019294	-0.049438	7448.980040	50303.407215	4073.636648	26631.865674
69.537000	-0.008763	-0.001335	-0.016834	-0.050259	7452.050825	50368.356272	4082.644665	26676.789829
70.037000	-0.007711	-0.001705	-0.019741	-0.050959	7470.399839	50404.496790	4076.579135	26715.141006
70.534000	-0.006503	-0.001032	-0.020647	-0.051914	7493.144773	50582.696111	4076.709719	26767.529487
71.035000	-0.007110	-0.002294	-0.021931	-0.053385	7502.260830	50605.598156	4077.222277	26848.487317
71.535000	-0.006741	-0.002073	-0.022223	-0.054477	7517.739460	50750.032622	4079.422609	26908.818347
72.038000	-0.006813	-0.002089	-0.024213	-0.055439	7527.185171	50854.302781	4076.600928	26962.057989
72.535500	-0.007745	-0.001780	-0.014805	-0.056159	7524.925920	50967.843891	4104.689238	27001.938976
73.036000	-0.006255	-0.001789	-0.018543	-0.056835	7547.988797	51041.681941	4096.129158	27039.489165
73.536500	-0.004871	-0.001298	-0.015183	-0.057617	7571.158792	51182.944412	4107.723992	27082.992759
74.037000	-0.006275	-0.001360	-0.020293	-0.057991	7560.128058	51217.552546	4094.473761	27103.831418
74.536500	-0.008278	-0.002380	-0.022800	-0.054146	7497.968668	50679.817232	4076.929556	26890.519130
75.034000	-0.004248	-0.001258	-0.015831	-0.058986	7592.568462	51339.715679	4109.754975	27159.326475
75.534500	-0.006405	-0.002244	-0.021789	-0.060062	7580.935489	51349.721623	4096.075365	27219.490531
76.035000	-0.005303	-0.002113	-0.019912	-0.060492	7597.437220	51412.290199	4102.521663	27243.601627
76.538000	-0.007714	-0.002214	-0.017874	-0.055852	7522.002076	50886.088507	4095.254320	26984.945734
77.035500	-0.005819	-0.002546	-0.015959	-0.061627	7604.119862	51490.751713	4116.858238	27307.314982
77.536000	-0.005310	-0.002183	-0.017321	-0.060802	7600.711815	51439.146106	4110.673623	27260.999748
78.036000	-0.006551	-0.001737	-0.016103	-0.060440	7583.429875	51448.405376	4113.088388	27240.658687
78.536500	-0.009090	-0.001900	-0.016399	-0.055819	7507.063480	50916.959890	4099.274423	26983.070359
79.037000	-0.007799	-0.002780	-0.015647	-0.061307	7579.343697	51428.868999	4116.835016	27289.333567
79.537000	-0.007736	-0.003142	-0.016990	-0.060320	7569.417934	51278.447692	4110.247548	27233.944421
80.034500	-0.008108	-0.002909	-0.016803	-0.060811	7570.698700	51359.129704	4112.162373	27261.513226
80.534500	-0.009815	-0.002540	-0.022551	-0.055246	7493.354314	50783.151659	4080.632393	26951.329796
81.038000	-0.008134	-0.002486	-0.018135	-0.059914	7560.805201	51306.260019	4105.883908	27211.223894
81.535500	-0.007536	-0.003371	-0.017706	-0.059163	7559.179268	51124.366995	4104.980151	27169.231399
82.036000	-0.008089	-0.002585	-0.019123	-0.059024	7551.773386	51196.260230	4100.619835	27161.443039
82.536500	-0.009803	-0.002645	-0.016703	-0.053030	7470.168657	50528.135343	4090.664544	26828.929343
83.036000	-0.007715	-0.002955	-0.016122	-0.058295	7547.981880	51074.311697	4106.991529	27120.774359
83.536500	-0.010846	-0.003696	-0.016760	-0.056641	7497.199972	50809.529327	4100.563184	27028.707486
84.037000	-0.009101	-0.003256	-0.019210	-0.057014	7519.610361	50899.283108	4094.768581	27049.458154
84.537000	-0.012510	-0.002700	-0.021039	-0.051615	7427.121494	50367.443045	4074.819079	26751.125801
85.035000	-0.009505	-0.003837	-0.019678	-0.056482	7509.696012	50776.542145	4091.991381	27019.907338
85.538000	-0.010687	-0.003778	-0.016440	-0.053665	7467.564338	50473.649832	4093.159765	26863.968400
86.035500	-0.009475	-0.004410	-0.015815	-0.055357	7498.114472	50589.800801	4099.616134	26957.474004
86.535500	-0.012695	-0.003219	-0.019322	-0.048901	7397.085206	50015.532790	4072.093124	26602.539589
87.035500	-0.011577	-0.003630	-0.017049	-0.053904	7460.737473	50515.983865	4092.130227	26877.152052
87.536000	-0.010923	-0.004148	-0.015514	-0.053378	7462.086323	50401.859980	4094.937483	26848.148397
88.036500	-0.012939	-0.003799	-0.018508	-0.052640	7433.316968	50359.292816	4084.592404	26807.456706
88.535500	-0.014156	-0.004074	-0.026956	-0.047246	7365.032115	49744.242859	4046.991179	26512.379374
89.037500	-0.012397	-0.004693	-0.016868	-0.051446	7426.542575	50131.831746	4085.822551	26741.830887
89.536500	-0.010705	-0.004183	-0.018750	-0.050391	7433.167458	50072.652878	4077.738052	26684.020459
90.038000	-0.013395	-0.004074	-0.018737	-0.049840	7399.553406	50024.659620	4076.259149	26653.816320
90.536500	-0.014794	-0.003679	-0.019463	-0.043525	7320.565349	49387.160020	4057.117832	26310.951822
91.035500	-0.013374	-0.004148	-0.021300	-0.048803	7389.083409	49904.385251	4066.436920	26597.213065
91.534500	-0.015066	-0.004633	-0.021711	-0.045233	7335.169202	49467.869279	4055.665008	26403.215754
92.036500	-0.014512	-0.004268	-0.016794	-0.047438	7363.346843	49744.057866	4075.004282	26522.836125
92.534500	-0.016460	-0.003689	-0.022574	-0.040743	7275.655832	49089.453255	4041.334820	26161.484762
93.042000	-0.013407	-0.004007	-0.016408	-0.046543	7365.502188	49675.767239	4073.610793	26474.208079
93.535500	-0.015147	-0.004190	-0.019569	-0.041750	7299.024943	49143.208500	4052.057742	26215.470012
94.037000	-0.012599	-0.003846	-0.019901	-0.044652	7354.408211	49489.959611	4058.979398	26371.772776
94.538500	-0.015662	-0.004275	-0.019737	-0.038833	7264.507655	48825.095088	4043.807285	26059.459845
95.038000	-0.012720	-0.002923	-0.018782	-0.043347	7339.850554	49449.014828	4058.476687	26301.356399
95.535500	-0.016815	-0.004072	-0.021890	-0.039816	7262.800544	48950.424558	4040.690560	26111.892785
