sample name	sample
index	69
start time	 02-11-2021  03:37:36 PM
880	-0.042230
Peak Time (s)	92.535
Peak Height 	-0.04223
calc peak height	90,93
Baseline Time (s)	10.535
Baseline Value 	-0.003392
subtract baseline	10,4
Abs	0.006400
Peak Time (s)	92.535
Peak Height 	0.0064
calc peak height	90,93
Baseline Time (s)	10.535
Baseline Value 	9.936E-4
subtract baseline	10,3
PK_550	0.002158
Peak Time (s)	92.535
Peak Height 	0.002158
calc peak height	90,93
Baseline Time (s)	9.037
Baseline Value 	9.1274E-4
subtract baseline	10,2
PK_880	0.002860
Peak Time (s)	92.535
Peak Height 	0.00286
calc peak height	90,93
Baseline Time (s)	9.537
Baseline Value 	0.004172
subtract baseline	10,1


Time (s)	A880-A510	A880-A775	A880-A975	A880	I510	I775	I975	I880	
0.037000	-0.001690	-0.000920	-0.007485	0.001310	4572.881042	20181.792153	3303.157028	11025.446679
0.540000	-0.006233	-0.001113	0.005453	0.003613	4547.261970	20082.954334	3312.623431	10982.619566
1.034500	-0.003549	-0.000212	0.003866	0.003870	4556.297689	20108.394989	3310.965555	10977.855334
1.538000	-0.006095	-0.002163	0.001954	0.005371	4541.258991	19972.416467	3307.914501	10950.081925
2.035000	0.001995	0.000876	-0.004287	0.001551	4585.920872	20243.619477	3305.765172	11020.942828
2.535500	-0.003431	-0.000466	0.011824	0.001465	4565.748735	20193.670968	3320.376134	11022.561075
3.036500	0.001580	-0.000181	0.009698	-0.001390	4595.552704	20318.841850	3321.046317	11075.932923
3.536500	-0.002064	0.001362	0.000736	0.000852	4573.197849	20290.912462	3310.864803	11033.987652
4.036500	-0.000831	0.000120	-0.001358	0.000202	4580.317805	20267.284363	3309.570947	11046.121848
4.537000	-0.004002	0.000418	0.000950	0.000623	4566.761806	20262.361317	3311.262028	11038.252544
5.040000	-0.005235	-0.001257	0.003627	-0.000151	4565.041749	20226.488464	3314.373640	11052.731164
5.534500	0.001019	0.001465	0.005947	0.001393	4582.818565	20273.454640	3315.076806	11023.905199
6.037500	-0.001284	0.000889	0.002454	0.001438	4573.930379	20248.635102	3311.881345	11023.048623
6.535000	-0.003586	0.000251	-0.005068	0.000092	4570.325341	20276.883937	3306.365932	11048.174461
7.035500	0.000040	0.000379	0.004677	0.000504	4582.475522	20265.562061	3314.731274	11040.483504
7.535500	-0.003118	-0.001697	-0.003340	-0.001646	4578.656199	20268.509677	3309.452310	11080.743868
8.036000	-0.000443	0.000402	0.009016	0.001509	4576.838314	20226.438824	3317.763324	11021.736776
8.536000	-0.002248	-0.000673	-0.006805	-0.000994	4579.479245	20283.376318	3305.789822	11068.511581
9.037000	0.001464	0.000000	-0.005757	0.000375	4588.375780	20255.589442	3305.505743	11042.894796
9.536500	0.000000	-0.000339	0.005679	-0.000244	4585.163589	20266.777249	3316.319795	11054.469161
10.037000	-0.000153	0.000489	-0.000537	0.000581	4581.449802	20266.863712	3309.966967	11039.046223
10.535000	0.000566	0.000596	0.000000	0.000000	4586.387041	20294.335772	3310.968860	11049.902804
11.035000	0.000402	-0.001663	0.005935	-0.000763	4588.666944	20234.679435	3317.025370	11064.185176
11.535000	-0.003630	0.000129	0.001630	0.005730	4549.066564	20048.430227	3307.307870	10943.460786
12.035500	-0.002220	-0.000238	-0.004531	-0.000429	4577.447421	20278.187859	3307.305546	11057.932888
12.536000	-0.001706	-0.001052	0.005254	-0.000595	4580.022096	20252.309341	3316.252334	11061.032155
13.036000	0.002523	0.000684	-0.000782	0.000529	4591.829530	20276.749958	3309.794692	11040.022099
13.536000	-0.004725	0.000668	0.001717	0.006410	4542.485902	20042.872991	3306.781198	10930.923781
14.037000	0.000902	-0.001475	-0.002631	0.002135	4579.560423	20127.058935	3306.715682	11010.083781
14.539500	-0.003402	-0.000929	0.004446	0.001304	4566.462094	20181.669032	3313.798425	11025.561137
15.042500	0.001224	0.000124	-0.006160	0.000504	4586.973025	20255.375555	3305.034740	11040.480196
15.535000	-0.003918	-0.000381	-0.008619	0.005210	4549.931064	20048.819952	3298.755536	10953.055874
16.035000	0.001686	0.000708	0.004294	0.000854	4587.398432	20264.736157	3314.068147	11033.953359
16.535500	0.000161	0.000395	0.009758	0.000605	4582.550672	20262.149664	3319.268531	11038.593839
17.036000	0.002894	0.000623	0.000051	-0.002076	4603.221093	20378.603492	3312.881809	11088.816937
17.536000	-0.003086	-0.000101	0.000666	0.002671	4562.515248	20160.251416	3309.173791	11000.111393
18.036000	-0.000538	0.000687	-0.005812	0.001803	4575.367424	20226.026248	3304.194760	11016.249198
18.537000	-0.002091	0.001345	-0.001117	0.002607	4566.489022	20220.268016	3307.641610	11001.305591
19.036500	-0.003013	-0.000350	0.001039	0.001810	4566.017715	20184.550181	3310.277865	11016.124964
19.537000	-0.003444	0.000834	0.003450	0.004196	4555.474593	20136.906217	3310.300329	10971.824110
20.034500	-0.001022	-0.000931	0.003369	0.001102	4576.188543	20189.589060	3313.008107	11029.320012
20.535000	-0.005649	0.000399	-0.001261	0.001872	4555.914724	20211.836131	3308.167543	11014.964060
21.035000	-0.001655	0.000151	0.001968	0.001787	4571.214842	20205.368489	3311.131599	11016.561524
21.535500	-0.005268	-0.002287	-0.011877	0.001680	4558.057519	20112.942629	3298.992208	11018.549584
22.036000	-0.001168	-0.001124	0.007086	0.001283	4574.951701	20174.726832	3316.210780	11025.940483
22.535500	-0.004150	-0.000380	0.006295	0.001473	4563.018029	20196.774756	3315.320243	11022.409651
23.036000	-0.000727	-0.000346	-0.007052	0.001927	4574.187106	20180.038796	3302.994289	11013.942977
23.536000	-0.006320	-0.000642	-0.000150	0.002796	4549.973506	20133.865271	3308.334034	10997.785528
24.039000	-0.000891	0.000799	0.011265	0.002309	4572.125736	20210.379828	3319.088285	11006.837841
24.537500	0.001751	0.000819	0.000318	0.001822	4583.966422	20230.571215	3309.621504	11015.906727
25.037500	-0.003094	0.000678	-0.008821	0.001677	4566.214459	20230.717517	3301.661892	11018.606736
25.535500	0.001068	0.001841	-0.001164	0.002519	4578.737031	20243.508258	3307.678362	11002.941197
26.035000	0.001243	-0.000266	0.002401	0.001588	4582.925929	20196.704699	3311.698999	11020.254311
26.535500	0.001517	-0.000857	-0.007191	0.000994	4586.224339	20196.811579	3303.693099	11031.334934
27.035500	-0.001591	0.000634	0.006184	-0.000236	4579.095835	20305.295701	3316.772173	11054.313193
27.536000	-0.001536	-0.001180	0.013911	-0.001825	4585.334888	20296.322188	3325.347281	11084.098461
28.036500	0.001900	0.000511	0.001702	0.000997	4587.670969	20251.195045	3311.602223	11031.288818
28.537000	-0.001177	0.000641	-0.008609	0.005121	4560.488711	20092.636453	3298.841708	10954.702517
29.037500	0.001051	0.000167	0.010635	0.000128	4587.745131	20272.101664	3320.512122	11047.516235
29.533500	-0.002880	0.000011	-0.001316	0.000418	4571.757840	20254.335564	3309.416626	11042.096908
30.040000	0.000174	0.000155	-0.008673	0.000516	4582.939517	20256.150921	3302.810738	11040.266503
30.535000	-0.002678	-0.001033	-0.000944	0.004274	4558.044376	20060.007905	3306.314997	10970.374044
31.035500	0.000158	-0.000478	-0.009037	0.001843	4577.849112	20178.184492	3301.328219	11015.519499
31.536000	-0.002930	0.000504	0.000496	0.006410	4549.140726	20036.401521	3305.698159	10930.916502
32.036000	0.000855	0.000412	0.006929	0.000073	4587.207270	20284.094243	3317.169845	11048.538945
32.536000	-0.000900	-0.001055	0.008889	0.004052	4565.533907	20067.906307	3315.332861	10974.482998
33.036500	-0.001546	-0.000583	-0.009015	-0.001008	4582.193992	20287.517754	3303.850725	11068.778967
33.540000	0.000609	0.000312	0.000024	0.001482	4580.926369	20223.916620	3309.663058	11022.245740
34.037000	-0.002749	0.000923	0.004911	0.002674	4563.769482	20200.837108	3312.981580	11000.061909
34.534500	-0.003135	0.000646	-0.010315	0.004102	4556.978685	20133.173054	3298.245010	10973.566651
35.035000	-0.004531	-0.000595	-0.005434	0.001227	4562.510456	20197.946603	3305.036995	11026.984524
35.535500	-0.003296	0.000223	0.004698	0.002199	4563.498822	20191.871028	3313.217650	11008.893280
36.035500	-0.003811	0.000241	0.009516	0.001515	4564.130905	20219.764820	3318.214721	11021.621325
36.536000	-0.002288	-0.001349	-0.007512	0.002661	4565.548087	20111.240359	3301.946642	11000.298913
37.035500	0.001931	0.000045	0.004912	0.002194	4583.238833	20184.981251	3313.415557	11008.981205
37.536500	-0.003359	-0.001342	0.001606	0.001078	4567.471706	20174.234091	3311.442721	11029.768425
38.040000	-0.001701	0.000501	0.006671	0.002601	4567.979477	20186.957742	3314.638337	11001.413129
38.537000	-0.003439	-0.001701	0.002088	0.001049	4567.280150	20161.143787	3311.902156	11030.309154
39.037500	0.000106	0.001305	0.013643	0.002180	4576.376641	20235.657958	3321.391023	11009.236409
39.535000	-0.002265	-0.000413	0.004583	0.003432	4562.739760	20117.767676	3312.003356	10985.982309
40.035500	-0.001535	0.000158	-0.001231	0.001716	4571.935464	20208.493682	3308.333811	11017.883117
40.535500	-0.001617	0.000024	0.007121	0.001872	4571.037663	20196.931477	3315.707243	11014.973087
41.036000	0.000832	0.000291	0.013710	0.002637	4577.395691	20177.175134	3321.032340	11000.741101
41.536000	-0.004903	-0.000031	0.003246	0.004180	4550.100881	20103.300775	3310.132409	10972.121397
42.036000	-0.001442	0.001279	-0.000562	0.002207	4570.437646	20233.550032	3308.492797	11008.745133
42.536500	-0.002287	-0.000439	-0.002154	0.003200	4563.525799	20125.916862	3306.194260	10990.278247
43.037000	-0.000904	0.000114	-0.001092	0.001114	4576.592704	20230.711822	3308.994595	11029.105265
43.537000	-0.001350	-0.000037	-0.005105	0.002611	4569.258810	20165.181420	3304.106023	11001.215772
44.037500	0.001247	0.000760	0.000063	0.001156	4584.582990	20254.746327	3309.989947	11028.322660
44.535000	-0.001956	-0.000550	-0.004986	0.005801	4555.036983	20018.910136	3301.408918	10942.142171
45.035500	0.001125	-0.000293	0.005396	0.000785	4585.527581	20227.599391	3315.128809	11035.241774
45.535500	-0.002929	-0.000743	-0.007347	0.004053	4557.929057	20080.180742	3300.872847	10974.462331
46.035500	0.001381	0.000497	0.010915	0.000627	4587.104946	20265.386626	3320.311065	11038.191359
46.536000	-0.002885	0.001116	-0.002957	0.005727	4551.847815	20087.481466	3303.253941	10943.505275
47.036500	-0.002068	0.000048	0.015251	0.003307	4563.947006	20140.966884	3321.834312	10988.296412
47.539500	-0.003496	-0.000170	0.005896	0.005030	4552.170798	20064.234980	3311.746561	10956.383483
48.037000	-0.001113	-0.001261	-0.000272	-0.001294	4584.923760	20271.889389	3311.887507	11074.141952
48.537500	-0.006678	0.001447	0.006055	0.007024	4533.010744	20049.388022	3310.100477	10919.613525
49.037000	0.000060	0.000765	0.005804	-0.000362	4585.840929	20315.565667	3316.540992	11056.672748
49.537500	-0.004574	-0.000898	0.007978	0.002455	4557.756523	20137.262030	3315.956911	11004.129712
50.035500	-0.004218	-0.001770	0.001590	-0.003610	4581.929410	20344.164017	3315.663520	11117.696839
50.536000	-0.050827	-0.024121	-0.009146	0.352068	3587.093984	10226.483666	3090.911179	6539.112383
51.036000	-0.018726	-0.015617	0.002578	-0.026789	4615.142315	20722.224502	3338.230944	11566.613539
51.536500	-0.000036	-0.010693	0.004103	-0.181103	5437.462202	28599.425037	3518.210580	15251.871479
52.037000	-0.009232	-0.012055	0.004529	-0.133684	5131.583369	25872.970240	3456.991203	13977.204543
52.536500	-0.015057	-0.010549	-0.017253	-0.121288	5041.321489	25304.977243	3416.447938	13666.298364
53.037000	-0.024870	-0.009844	-0.003165	-0.141549	5092.615071	26411.330809	3457.201727	14179.110500
53.534500	-0.021809	-0.008706	0.000467	-0.144018	5120.264239	26607.083442	3464.783652	14243.251662
54.034500	-0.024170	-0.006332	-0.003582	-0.120453	4993.621087	25479.832558	3431.302475	13645.688260
54.535000	-0.014717	-0.003321	0.002143	-0.094851	4918.470980	24337.207699	3408.485382	13032.181851
55.035000	-0.013809	-0.002342	-0.002880	-0.088170	4892.273581	24058.042327	3395.529903	12877.932517
55.535000	-0.020542	-0.004292	-0.000690	-0.079422	4823.725085	23544.116442	3388.422733	12679.526863
56.036000	-0.013264	-0.001753	0.001751	-0.095001	4925.805912	24422.012672	3408.214007	13035.660197
56.536000	-0.012293	-0.005368	-0.003574	-0.072114	4827.825592	23150.113471	3377.587715	12516.829469
57.039500	-0.013527	-0.003408	0.000352	-0.071420	4819.438507	23209.153379	3380.996179	12501.522761
57.537000	-0.020378	-0.006008	0.007920	-0.054242	4717.997075	22306.604000	3370.934800	12130.262960
58.034500	-0.021072	-0.005943	-0.000418	-0.054477	4716.111847	22319.992200	3362.623785	12135.244881
58.534500	-0.019448	-0.006489	0.004239	-0.050850	4707.915429	22134.648620	3363.671433	12058.676299
59.034500	-0.017084	-0.005969	-0.002073	-0.054283	4731.741815	22310.202616	3360.748552	12131.129190
59.535000	-0.019252	-0.006090	0.004633	-0.047841	4696.469566	22019.645695	3361.015193	11995.636506
60.035500	-0.021551	-0.005565	0.000421	-0.047716	4686.662532	22037.211751	3356.646011	11993.026773
60.536000	-0.022406	-0.006168	-0.000055	-0.043824	4667.618192	21840.540782	3352.289602	11912.168751
61.036000	-0.007339	-0.002673	-0.013322	-0.049380	4751.885690	22238.624123	3344.703614	12027.822632
61.537000	-0.005453	0.001267	0.003407	-0.055117	4784.063142	22673.573104	3367.184333	12148.824300
62.037000	-0.008479	0.000724	0.000941	-0.048789	4744.663015	22363.795591	3358.246031	12015.463402
62.537000	-0.007693	0.000361	-0.011112	-0.043689	4726.772758	22120.931926	3341.324448	11909.383284
63.054000	-0.005854	0.002297	-0.003330	-0.050237	4761.712784	22499.370033	3355.415106	12045.801130
63.537500	-0.003255	0.003609	-0.000654	-0.051663	4778.723324	22623.091186	3359.534034	12075.780593
64.038000	-0.005769	0.002970	-0.001382	-0.053822	4777.218836	22692.117152	3360.981988	12121.383220
64.535500	-0.003780	0.001349	0.000239	-0.052104	4778.367138	22540.794757	3360.882888	12085.073917
65.036000	0.000902	0.001863	-0.003633	-0.058047	4824.025686	22834.444535	3362.984345	12211.242206
65.536500	-0.006740	0.001088	-0.000843	-0.053897	4773.417746	22610.048984	3361.602733	12122.953846
66.036500	-0.009556	0.000236	-0.003117	-0.060472	4789.404591	22871.074883	3365.985893	12263.220477
66.539500	-0.006031	0.000337	-0.005889	-0.057246	4790.680416	22728.134054	3359.886176	12194.129397
67.037000	-0.004500	0.001310	-0.010200	-0.059277	4805.965662	22865.516896	3357.589980	12237.577495
67.537000	-0.004371	0.001574	-0.000124	-0.059443	4807.237534	22885.232204	3368.001625	12241.131010
68.037500	-0.004238	0.001676	0.002543	-0.057644	4800.065058	22807.429271	3368.894727	12202.625399
68.535000	-0.001669	0.001869	0.001004	-0.056851	4807.711016	22780.028916	3366.497848	12185.712444
69.040500	0.001578	0.002691	-0.001123	-0.055432	4815.612811	22752.753036	3362.877430	12155.517692
69.535500	-0.004229	0.000607	-0.005289	-0.050139	4768.153621	22419.011533	3353.364671	12043.758835
70.035500	-0.004010	0.001615	0.001187	-0.054072	4785.760323	22641.946167	3363.844689	12126.675725
70.536000	-0.004247	0.002105	-0.000528	-0.050109	4767.946451	22484.929298	3358.095617	12043.110568
71.039500	0.000554	0.002372	-0.011298	-0.052713	4799.469884	22614.610613	3349.959512	12097.922103
71.536500	-0.009465	0.000033	-0.013277	-0.047220	4734.043705	22262.910400	3342.647533	11982.684632
72.036500	-0.002446	0.001531	-0.012038	-0.051491	4781.433081	22521.394831	3348.027404	12072.172033
72.537000	-0.001166	0.001296	-0.006347	-0.048292	4773.291112	22367.105594	3350.483189	12005.066874
73.035000	-0.003990	0.001028	-0.000244	-0.050205	4769.437005	22440.860348	3358.478572	12045.131623
73.535000	-0.009497	0.000243	0.002532	-0.044953	4724.545869	22171.613797	3355.994005	11935.557884
74.035000	-0.003326	0.001439	0.001857	-0.049202	4768.006433	22414.270771	3359.584746	12024.097745
74.535500	-0.004339	0.001446	-0.008794	-0.046057	4750.540249	22274.093628	3345.881622	11958.485125
75.036500	-0.002264	0.001021	-0.001650	-0.048377	4769.006411	22358.633152	3355.234723	12006.839827
75.536000	-0.002855	0.000487	-0.008559	-0.048100	4765.345491	22322.365905	3348.113731	12001.049968
76.036500	-0.002756	0.001703	-0.000411	-0.047296	4762.376340	22340.827335	3355.393623	11984.282815
76.534500	-0.003723	0.002757	-0.011868	-0.043231	4741.324090	22206.744646	3340.151708	11899.910925
77.037500	-0.003018	0.001582	-0.010566	-0.046476	4757.825179	22298.775361	3344.559432	11967.185227
77.534000	-0.004415	0.001973	-0.008862	-0.045812	4749.196536	22286.648894	3345.575302	11953.385859
78.037500	-0.004379	0.002287	0.005245	-0.045510	4748.087564	22287.176315	3359.279563	11947.119220
78.535500	-0.004665	0.001534	-0.003549	-0.045402	4746.439347	22248.825771	3350.391749	11944.863567
79.035500	-0.003826	0.003157	0.001339	-0.043472	4741.896932	22235.162617	3353.324098	11904.883344
79.535500	-0.003330	0.002066	0.002322	-0.044464	4748.098038	22230.764942	3355.293921	11925.407357
80.036000	0.001932	0.002802	-0.000852	-0.043146	4764.639296	22204.965672	3350.828274	11898.155270
80.539000	-0.003375	0.002334	0.000870	-0.043765	4744.994941	22211.651249	3353.149860	11910.956621
81.037000	-0.003717	0.001582	0.001562	-0.044951	4748.518109	22230.922798	3355.021944	11935.512372
81.537000	-0.001969	0.002247	0.003080	-0.043529	4749.877286	22197.305491	3355.117291	11906.069812
82.037500	-0.003220	0.000951	-0.004340	-0.044769	4749.831435	22194.810533	3348.987295	11931.733042
82.534500	-0.004546	0.001811	-0.009636	-0.044200	4741.927120	22207.736664	3343.249567	11919.939569
83.037500	-0.003756	0.001808	-0.004058	-0.043995	4744.363501	22198.526722	3348.502693	11915.702714
83.535500	-0.002617	0.001572	-0.003968	-0.044193	4749.944136	22196.826246	3348.787220	11919.807155
84.035500	-0.000396	0.000802	-0.007317	-0.044677	4761.286093	22184.145204	3345.975677	11929.832097
84.536000	-0.003627	0.001432	-0.005780	-0.044505	4747.029729	22204.471540	3347.312516	11926.262848
85.036000	-0.002758	0.000939	-0.001641	-0.045432	4754.541296	22223.727690	3352.311085	11945.494627
85.536500	-0.005365	0.001186	0.000366	-0.039757	4720.165810	21984.185692	3348.685933	11828.436498
86.037000	-0.001097	0.001389	-0.004392	-0.044150	4756.127801	22186.812484	3348.327182	11918.909069
86.537000	-0.002593	0.002072	0.001136	-0.043180	4745.814083	22174.072243	3352.832507	11898.854526
87.035000	-0.001924	0.000179	0.001001	-0.045450	4758.111402	22190.825360	3354.959130	11945.865403
87.535000	-0.005830	0.000788	-0.007360	-0.038532	4713.228863	21913.090876	3339.967176	11803.357707
88.035500	-0.003648	0.001622	-0.013769	-0.043997	4744.824037	22190.364609	3339.058307	11915.752076
88.535500	-0.004236	-0.000006	-0.009023	-0.044824	4745.818826	22154.891332	3344.453790	11932.872737
89.036000	-0.003854	0.001796	-0.003755	-0.044131	4744.523831	22204.041550	3348.935757	11918.521719
89.536500	-0.007556	0.000025	-0.006340	-0.038989	4708.042754	21899.749020	3341.393871	11812.707368
90.039500	-0.004421	0.001522	-0.007212	-0.044450	4743.490848	22206.028021	3345.856592	11925.122221
90.536500	-0.002711	0.002128	-0.003491	-0.042870	4744.030438	22162.847047	3347.954073	11892.452556
91.037000	0.001259	0.001818	-0.005774	-0.044387	4767.035952	22216.343067	3347.202520	11923.814376
91.534000	-0.004389	-0.000675	-0.010657	-0.045728	4748.956263	22165.306500	3343.743947	11951.646358
92.034500	-0.003998	0.001409	-0.001762	-0.044399	4745.039062	22198.737771	3351.167488	11924.062332
92.535500	0.002860	0.002158	0.006400	-0.042230	4764.694041	22135.886147	3357.140683	11879.262740
93.042500	0.003440	0.002094	-0.006203	-0.043579	4772.836307	22192.732271	3345.990928	11907.091773
93.535500	-0.001364	0.001393	-0.004275	-0.043965	4754.235458	22178.792498	3348.260082	11915.082813
94.036000	-0.001191	0.001948	-0.000228	-0.043216	4751.825610	22170.198839	3351.515206	11899.606511
94.536500	-0.000467	0.001495	-0.007484	-0.043177	4754.689966	22148.413435	3344.348236	11898.784618
95.036000	-0.002312	0.000795	0.003880	-0.043601	4748.745487	22136.231505	3355.989650	11907.564642
95.537000	-0.005533	0.000056	-0.001123	-0.044354	4738.467096	22136.852219	3351.756233	11923.134856
96.037000	-0.002250	-0.000102	-0.000965	-0.043934	4750.395433	22111.267532	3351.495600	11914.433462
