sample name	sample
index	262
start time	 02-25-2021  11:07:39 AM
880	-0.018097
Peak Time (s)	91.041
Peak Height 	-0.0181
calc peak height	90,93
Baseline Time (s)	10.036
Baseline Value 	-0.004596
subtract baseline	10,4
Abs	-0.007213
Peak Time (s)	90.538
Peak Height 	-0.007213
calc peak height	90,93
Baseline Time (s)	11.536
Baseline Value 	0.002681
subtract baseline	10,3
PK_550	-0.007015
Peak Time (s)	90.037
Peak Height 	-0.007015
calc peak height	90,93
Baseline Time (s)	9.034
Baseline Value 	3.0367E-4
subtract baseline	10,2
PK_880	-0.007857
Peak Time (s)	92.536
Peak Height 	-0.007857
calc peak height	90,93
Baseline Time (s)	10.036
Baseline Value 	0.002788
subtract baseline	10,1


Time (s)	A880-A510	A880-A775	A880-A975	A880	I510	I775	I975	I880	
0.038000	-0.000951	0.000223	-0.003585	0.002057	6866.938297	46057.433334	3952.533527	24231.045426
0.535500	-0.001945	0.000219	-0.004783	0.005023	6830.802536	45763.324087	3942.065076	24085.688556
1.035500	-0.000296	0.000287	0.002310	0.004206	6853.267967	45850.720277	3962.037042	24125.620379
1.536000	-0.004878	-0.000222	-0.004731	0.006117	6794.402588	45612.165921	3939.460082	24032.344294
2.035500	-0.001639	-0.000671	-0.000566	0.001757	6863.390474	45998.512446	3960.949201	24245.823441
2.536500	-0.001016	-0.000293	0.003919	0.000397	6881.596797	46171.315940	3975.931687	24312.880078
3.037000	0.001007	-0.000211	0.000972	-0.001342	6916.353024	46353.072641	3972.817888	24398.871420
3.537000	-0.001064	-0.000077	-0.001693	0.000376	6881.339774	46194.947500	3961.597213	24313.914519
4.037500	0.000304	0.000773	0.001262	0.001359	6884.888882	46181.690807	3966.631845	24265.429333
4.537500	-0.000043	0.000110	0.003646	0.000534	6889.283220	46197.799425	3974.871715	24306.094760
5.034500	-0.001985	0.000352	-0.004767	0.000408	6872.576938	46234.487689	3953.711981	24312.306079
5.535500	-0.000889	0.000001	-0.003323	0.000379	6882.922277	46202.415565	3957.444856	24313.760689
6.035500	0.000107	0.000691	0.001764	0.000930	6887.019819	46216.294144	3969.015660	24286.566778
6.536000	-0.000105	0.000212	0.003273	0.000379	6890.141296	46223.467279	3974.311304	24313.749347
7.038500	-0.000399	-0.000452	0.000903	-0.000209	6892.861627	46215.917090	3969.731219	24342.819687
7.539000	-0.002798	-0.000496	0.000014	-0.000357	6872.146244	46226.256655	3967.828340	24350.112349
8.036500	-0.000814	-0.000157	-0.006197	0.000028	6886.850002	46221.698266	3951.062507	24331.100214
8.537000	0.000521	0.001071	0.002335	0.000539	6894.440573	46293.240705	3971.485112	24305.846086
9.034500	0.000238	0.000000	-0.004349	-0.000081	6897.551477	46248.135425	3956.009606	24336.449214
9.535000	0.000612	-0.000005	0.000494	-0.000130	6901.462502	46252.550367	3968.477110	24338.871489
10.035500	0.000000	-0.000388	0.001239	0.000000	6894.611032	46201.443836	3970.054665	24332.470749
10.535500	-0.000939	0.000272	-0.002215	0.000208	6884.037772	46246.515846	3960.697054	24322.215571
11.038500	-0.000074	-0.000479	-0.001171	-0.000048	6894.369968	46197.148627	3964.009120	24334.848833
11.536000	-0.001630	0.000058	0.000000	0.000235	6877.433245	46222.457536	3966.278429	24320.862183
12.039000	-0.002138	-0.000591	-0.001505	0.000340	6871.795592	46147.253200	3962.166800	24315.652668
12.536500	-0.000231	-0.000297	0.001755	0.000020	6892.286908	46208.454207	3971.326504	24331.458053
13.037000	0.001063	0.000135	-0.002219	-0.001835	6921.452026	46437.109609	3965.897884	24423.341859
13.537500	0.000148	0.000298	-0.002958	-0.000160	6897.459479	46285.870401	3959.743393	24340.399069
14.037000	-0.000460	0.000307	0.000926	0.001017	6880.999942	46169.328572	3966.645375	24282.266302
14.535000	-0.002054	0.000124	0.001453	0.002900	6849.145572	45963.970615	3963.183031	24189.633909
15.035500	0.000825	0.000077	0.002519	0.000351	6898.991289	46212.765767	3972.443127	24315.144490
15.539000	-0.001423	0.000169	0.001293	-0.000059	6882.040040	46262.875118	3970.345957	24335.391036
16.035500	-0.000975	0.000208	-0.000707	0.001167	6874.891971	46144.558857	3962.094450	24274.892909
16.536000	-0.002013	-0.000472	-0.004540	-0.000817	6883.583856	46274.544898	3957.392423	24372.878627
17.039500	0.000947	0.000311	-0.000724	-0.000295	6906.088369	46300.587956	3965.781055	24347.036782
17.536000	0.003344	0.000128	0.001117	-0.002973	6953.348492	46550.633637	3977.397681	24479.884776
18.037000	0.000727	-0.000042	0.000764	-0.001066	6911.191471	46342.426025	3971.573471	24385.202633
18.537500	-0.001802	-0.000104	0.001930	0.000747	6871.147650	46155.209611	3969.910930	24295.575808
19.035000	-0.000596	0.000124	-0.002235	0.001463	6875.651675	46106.723832	3957.454255	24260.295562
19.535000	-0.001341	-0.000018	0.000826	0.001365	6869.718362	46102.365872	3965.501244	24265.143266
20.037500	-0.000788	0.000017	0.003927	0.001112	6877.109323	46130.970978	3974.107010	24277.574987
20.536000	-0.001290	0.000135	0.002071	0.001647	6867.591081	46089.518312	3967.965826	24251.230342
21.036000	-0.001581	-0.000848	-0.004001	0.000649	6874.084390	46090.989099	3955.043174	24300.433227
21.539000	-0.000609	-0.000351	0.001231	0.001010	6879.695856	46104.489636	3967.444111	24282.616350
22.036500	-0.003477	-0.000353	-0.001356	0.000736	6855.910429	46131.637707	3961.537860	24296.145713
22.537000	-0.000848	-0.000982	0.001678	0.000699	6880.353186	46072.678183	3969.388234	24297.949171
23.037500	-0.000935	-0.001092	-0.002182	0.000615	6880.328877	46070.145011	3959.743325	24302.103242
23.537500	-0.003453	-0.000834	0.000946	0.000553	6857.803119	46101.960583	3967.886643	24305.174173
24.035000	-0.004036	0.000235	0.005547	0.001217	6846.417978	46142.157100	3978.017514	24272.409511
24.535500	-0.000140	0.000703	-0.001058	0.001832	6876.448386	46127.570777	3959.509286	24242.140307
25.036000	-0.000822	0.000203	-0.001957	0.001544	6872.836035	46106.490352	3957.957413	24256.326964
25.536000	-0.001166	-0.000274	-0.007541	0.000905	6875.540802	46122.580293	3945.473093	24287.804028
26.036000	-0.001653	-0.000598	-0.004032	0.000969	6870.488788	46084.075994	3954.154289	24284.660990
26.536500	-0.001817	-0.000083	-0.000315	0.001104	6867.734564	46121.801174	3963.252833	24277.975450
27.037000	-0.003423	-0.000344	-0.002567	0.001075	6853.314509	46098.819697	3957.598506	24279.435268
27.537000	-0.002211	-0.000488	0.000454	0.001008	6865.002128	46091.036524	3965.462634	24282.703343
28.038000	0.000460	-0.000229	-0.001185	-0.000985	6907.968656	46315.624667	3966.369043	24381.199742
28.534000	-0.000559	-0.000020	-0.001928	-0.000633	6895.297661	46301.338474	3963.571701	24363.778067
29.068000	-0.003484	-0.000010	0.000519	0.004686	6819.904662	45774.004284	3956.266264	24102.147622
29.535500	-0.000775	-0.000737	0.002513	-0.000984	6896.543051	46264.753080	3975.865948	24381.167947
30.036000	-0.001264	-0.000211	-0.001660	0.000700	6876.517163	46149.243772	3960.855730	24297.894753
30.536000	-0.000955	-0.000355	0.001635	-0.001001	6895.029769	46304.606729	3973.644804	24381.969837
31.038000	-0.003611	0.000070	0.000193	0.003634	6828.285521	45885.883225	3958.107690	24153.638023
31.536500	-0.000554	-0.000367	0.001529	0.002472	6866.784834	45957.805538	3964.470364	24210.688875
32.037000	-0.001361	-0.000358	-0.002434	0.001486	6868.420353	46056.528750	3956.893620	24259.174097
32.537500	-0.000305	0.000635	0.001436	-0.000439	6895.849998	46347.445037	3971.688872	24354.177624
33.037500	-0.003387	0.000320	-0.000217	0.003249	6833.818626	45948.770884	3958.042845	24172.511025
33.535000	-0.001319	0.000292	0.001080	-0.000203	6884.324439	46289.562016	3970.169172	24342.524270
34.037500	-0.001996	-0.000272	0.000711	-0.000131	6877.433640	46226.017572	3969.036918	24338.938174
34.538500	0.000391	-0.000934	0.001260	-0.000953	6907.041309	46242.014769	3972.559889	24379.631278
35.035500	-0.001675	-0.000405	-0.006537	0.002600	6855.349001	45941.231444	3943.738134	24204.375707
35.536500	-0.000627	0.000520	-0.001164	0.002074	6869.761891	46085.355233	3958.623173	24230.236683
36.036500	-0.001643	-0.000063	-0.002418	0.001868	6862.334269	46047.863185	3955.964902	24240.386096
36.537000	0.000067	-0.000469	0.001457	0.001599	6880.496866	46034.196205	3966.516220	24253.596518
37.037000	-0.001172	0.000819	-0.001810	0.003522	6851.521773	45971.259272	3953.316254	24159.143375
37.534500	-0.000914	0.000032	-0.003063	0.001866	6869.038453	46057.549132	3954.336703	24240.479649
38.034500	-0.001409	-0.000460	-0.001955	0.001605	6866.888691	46034.480954	3957.804676	24253.303921
38.535000	-0.003081	-0.000121	-0.001678	0.001581	6851.810220	46070.543780	3958.569828	24254.482782
39.035500	0.000538	-0.000377	-0.000698	0.001947	6881.632222	46008.899124	3960.131908	24236.498625
39.536000	-0.001958	-0.000157	-0.004045	0.001854	6859.582861	46039.900201	3951.883173	24241.049615
40.035500	-0.001653	0.000064	-0.002266	0.002029	6860.770541	46044.482558	3955.942662	24232.456302
40.536000	-0.000615	-0.000117	-0.002887	0.001453	6875.572325	46083.733383	3955.828535	24260.799866
41.036000	-0.002292	-0.000297	-0.001216	0.002026	6854.951461	46008.912472	3958.614222	24232.588295
41.536500	0.000569	0.000792	-0.005241	0.002395	6877.790666	46080.446616	3947.508431	24214.446429
42.037000	-0.001077	0.000135	0.003019	0.001812	6868.032743	46073.125769	3969.972848	24243.135644
42.537500	-0.000634	0.000278	0.002063	0.001874	6871.530417	46081.122226	3967.363568	24240.069707
43.035000	-0.001408	-0.000893	-0.004406	0.001088	6871.630766	46042.850857	3952.905809	24278.758842
43.535000	-0.000425	-0.000161	-0.001094	0.001276	6878.940647	46096.978613	3960.829892	24269.513832
44.035500	-0.000431	-0.000280	-0.005203	0.001694	6875.046669	46043.564021	3949.368258	24248.926046
44.535500	-0.002864	0.000918	0.001573	0.002420	6846.132052	46090.494601	3964.712441	24213.202083
45.039000	0.001684	-0.000171	-0.000273	-0.001824	6927.123177	46405.357593	3970.856328	24422.806003
45.539000	-0.001533	-0.000204	-0.000277	-0.000671	6886.663534	46286.774051	3967.888743	24365.661957
46.036500	-0.000890	0.000103	0.000509	0.000861	6878.479666	46164.487723	3965.979322	24289.952807
46.537000	-0.000671	-0.000594	-0.001917	-0.000977	6897.431415	46278.285586	3964.476147	24380.784362
47.037000	-0.005340	-0.000292	-0.003083	0.004681	6803.175158	45746.713482	3947.187463	24102.427946
47.534500	-0.000571	-0.001408	-0.001552	-0.001347	6901.780248	46234.055154	3966.355065	24399.136163
48.035000	-0.001129	0.000258	0.001546	0.000768	6877.141488	46189.244493	3968.872390	24294.568977
48.550000	0.001950	-0.000468	0.000359	-0.000735	6919.466992	46266.792138	3969.683588	24368.821234
49.036000	-0.002418	0.000592	-0.000501	0.004821	6828.347430	45820.250484	3953.342625	24095.586645
49.535500	-0.000971	0.000044	0.004910	0.002129	6866.101713	46032.525703	3974.020770	24227.530540
50.059500	-0.002594	-0.000851	-0.003314	0.000504	6866.118314	46105.046647	3957.149519	24307.569434
50.536500	-0.000212	0.000631	-0.000975	0.000034	6892.340170	46299.690532	3964.301238	24330.784191
51.037000	-0.005650	-0.000437	-0.001528	0.005342	6794.431888	45667.334512	3949.435203	24070.133892
51.537500	-0.000226	0.000188	0.007109	-0.002470	6915.377108	46506.125834	3991.666243	24454.848519
52.037500	-0.003142	-0.000262	-0.006341	0.003497	6833.798319	45866.640515	3941.985806	24160.372828
52.535000	0.000871	-0.000463	0.003534	0.001407	6889.661442	46053.856307	3972.335697	24263.041077
53.035000	-0.039825	-0.021316	-0.008601	0.330660	4594.048463	22173.791815	3364.300664	12894.699755
53.535500	-0.024847	-0.017028	-0.022310	-0.019766	6847.981410	46514.111542	3960.386156	25331.737324
54.035500	-0.036954	-0.140183	-0.022364	-0.300123	10233.937884	65535.000000	4962.397106	45703.155294
54.538500	-0.114736	-0.286400	-0.083257	-0.446341	11488.046090	65535.000000	5419.819175	62847.914504
55.036000	-0.041127	-0.148932	-0.015950	-0.308872	10311.776009	65535.000000	5037.257174	46574.753519
55.536500	-0.034532	-0.146722	-0.000402	-0.306663	10387.154729	65535.000000	5105.312415	46352.995485
56.036500	-0.037411	-0.105561	-0.008238	-0.265501	9663.774131	65535.000000	4865.265708	42421.223706
56.534500	-0.023166	-0.118777	-0.010852	-0.278717	10106.182005	65535.000000	4914.938864	43643.264190
57.035000	-0.017775	-0.106163	-0.008468	-0.266103	9987.096667	65535.000000	4866.993988	42476.141007
57.535000	-0.012621	-0.085764	-0.003238	-0.245704	9742.132329	65535.000000	4797.940091	40658.886595
58.035500	-0.013155	-0.060399	-0.002973	-0.212290	9226.616794	64384.927511	4655.184422	37860.648404
58.535500	-0.009198	-0.038968	0.002676	-0.179075	8813.520138	62739.163258	4544.497990	35284.502049
59.036000	-0.011804	-0.022755	-0.007956	-0.133710	8193.650889	58854.607398	4340.163607	32069.690446
59.536500	-0.012314	-0.017026	-0.010377	-0.101218	7805.255840	55510.776180	4225.472752	29964.955297
60.036000	-0.010300	-0.013807	-0.004794	-0.079663	7588.815890	53335.941025	4175.999517	28653.101066
60.536500	-0.011328	-0.010997	-0.005856	-0.061193	7382.342614	51549.753296	4117.922031	27579.634095
61.034000	-0.011160	-0.010661	-0.008363	-0.048146	7250.967812	50146.740611	4073.507338	26848.454857
61.537500	-0.013119	-0.008704	-0.006623	-0.041299	7163.342466	49617.717335	4059.265732	26473.395487
62.035000	-0.011277	-0.006964	-0.007943	-0.019854	6974.564876	47545.616181	3997.785205	25336.307567
62.535000	-0.009159	-0.006643	-0.009485	-0.020902	7004.474925	47686.447033	3996.486529	25390.557767
63.035500	-0.013971	-0.008529	-0.011981	-0.017160	6924.155112	47109.937173	3980.215368	25197.400549
63.536000	-0.012716	-0.005447	-0.015093	-0.013596	6902.740353	47060.849906	3963.052844	25014.912392
64.039000	-0.012743	-0.006089	-0.015956	-0.023392	6994.127955	48001.601458	3986.074436	25520.079717
64.536500	-0.008874	-0.005130	-0.011521	-0.027445	7069.744034	48524.937713	4008.388887	25732.391162
65.036500	-0.008474	-0.004693	-0.013676	-0.026994	7069.253309	48523.529182	4001.492310	25708.686816
65.575500	-0.007710	-0.004846	-0.012472	-0.029760	7103.389262	48798.795552	4012.017412	25854.575242
66.040000	-0.009707	-0.005352	-0.014471	-0.030228	7088.572804	48794.746566	4007.946355	25879.353049
66.537500	-0.009922	-0.005959	-0.012743	-0.031840	7102.116007	48901.176799	4016.845582	25964.940705
67.040500	-0.013016	-0.005717	-0.017172	-0.027431	7029.896068	48461.829007	3993.447421	25731.653649
67.535500	-0.010732	-0.005830	-0.012944	-0.032456	7100.228110	48980.088444	4017.955284	25997.676672
68.035500	-0.011295	-0.005484	-0.015410	-0.031211	7082.719928	48884.782974	4008.063856	25931.507803
68.536000	-0.009761	-0.005994	-0.011337	-0.032620	7111.259387	48980.164341	4022.707576	26006.443941
69.038500	-0.012462	-0.006554	-0.015599	-0.027929	7039.951379	48426.392938	3998.887919	25757.915601
69.536500	-0.009892	-0.006119	-0.009504	-0.033150	7115.141952	49023.096089	4029.076189	26034.707761
70.039500	-0.011280	-0.006127	-0.011747	-0.032865	7098.886127	48992.002158	4022.265268	26019.513494
70.537000	-0.008974	-0.005806	-0.012763	-0.032517	7117.921375	48989.119581	4018.603159	26000.947275
71.040000	-0.011960	-0.006137	-0.014663	-0.028367	7048.950931	48516.101401	4002.513139	25780.996823
71.534500	-0.009608	-0.005387	-0.013693	-0.031225	7099.191520	48896.598323	4012.668437	25932.241589
72.035000	-0.010775	-0.005896	-0.013541	-0.030320	7079.142262	48747.076986	4010.663222	25884.243555
72.535500	-0.010345	-0.006605	-0.012425	-0.030519	7085.214857	48693.247253	4014.165828	25894.798938
73.041000	-0.011129	-0.006290	-0.016070	-0.025558	7030.041526	48206.112070	3991.431155	25633.320314
73.539000	-0.010140	-0.005631	-0.014608	-0.028772	7070.338714	48611.884285	4003.727140	25802.381146
74.042000	-0.010926	-0.005961	-0.012459	-0.027438	7049.959555	48437.030490	4005.883285	25732.041443
74.537000	-0.010182	-0.006240	-0.012227	-0.028182	7064.251049	48485.895410	4008.474543	25771.250280
75.037000	-0.015177	-0.006151	-0.019833	-0.023305	6970.337193	47986.039469	3975.800432	25515.522228
75.537000	-0.009763	-0.004973	-0.012932	-0.026537	7052.466441	48446.210127	4002.251231	25684.664065
76.037500	-0.011801	-0.005299	-0.010490	-0.025069	7018.969191	48258.465120	4004.825723	25607.682082
76.537500	-0.009046	-0.005027	-0.010469	-0.025315	7047.621696	48312.542504	4005.531969	25620.546695
77.035000	-0.011903	-0.005843	-0.014133	-0.021389	6983.135612	47819.490170	3985.606807	25415.846517
77.535500	-0.010095	-0.005949	-0.012259	-0.025827	7042.485638	48269.734829	4002.150927	25647.383096
78.038500	-0.009048	-0.005725	-0.010862	-0.024765	7042.339092	48182.234323	4003.036369	25591.761338
78.536000	-0.008753	-0.006245	-0.008280	-0.024778	7045.287245	48129.424147	4009.916179	25592.457768
79.036000	-0.010030	-0.005399	-0.013253	-0.023929	7024.974640	48129.067639	3994.542251	25548.073831
79.537000	-0.008349	-0.005996	-0.013872	-0.024209	7043.702568	48096.101624	3993.652075	25562.680595
80.036500	-0.010953	-0.005888	-0.008579	-0.022648	7004.021652	47945.123232	4003.476043	25481.273299
80.534500	-0.009204	-0.005384	-0.015337	-0.022879	7022.840343	48021.448915	3986.350390	25493.298269
81.037000	-0.010329	-0.006505	-0.016522	-0.020794	6992.384479	47689.648600	3977.867324	25384.985542
81.535500	-0.007955	-0.005337	-0.012426	-0.022474	7030.890215	47984.334470	3992.896614	25472.246014
82.035500	-0.009036	-0.005872	-0.007677	-0.020647	7003.232895	47739.792247	4000.574421	25377.380073
82.536000	-0.007821	-0.006114	-0.007787	-0.021678	7024.584610	47821.411345	4003.008190	25430.879133
83.036000	-0.010805	-0.005527	-0.011495	-0.018068	6962.212615	47509.708026	3983.829399	25244.104425
83.536500	-0.008430	-0.005883	-0.017750	-0.021255	7014.757861	47801.517873	3975.887654	25408.911341
84.036500	-0.009196	-0.006750	-0.011431	-0.021503	7009.837224	47737.511945	3992.959962	25421.785730
84.537000	-0.011351	-0.005883	-0.008979	-0.020836	6983.122568	47758.117610	3997.643725	25387.152667
85.037000	-0.010572	-0.005785	-0.012034	-0.017607	6960.079010	47435.944464	3981.235594	25220.380283
85.537500	-0.007608	-0.006691	-0.011137	-0.020666	7016.980007	47657.320677	3991.538896	25378.373728
86.037500	-0.010548	-0.007394	-0.009600	-0.020908	6991.381932	47609.738492	3996.199077	25390.875661
86.535500	-0.008735	-0.006617	-0.015092	-0.020115	7001.038814	47608.192101	3979.810483	25349.823000
87.038000	-0.010406	-0.007011	-0.012336	-0.018996	6974.695018	47452.678227	3984.056604	25291.988720
87.538500	-0.008261	-0.006865	-0.013292	-0.019921	7003.693530	47562.708339	3983.975906	25339.784524
88.036000	-0.010149	-0.006838	-0.008851	-0.019731	6984.039490	47545.941141	3995.076067	25329.952882
88.536000	-0.009320	-0.007339	-0.009576	-0.019528	6989.954571	47473.582229	3992.643727	25319.453598
89.039000	-0.010864	-0.007283	-0.009598	-0.017627	6957.523259	47284.680243	3987.619390	25221.405794
89.537000	-0.007397	-0.007950	-0.012156	-0.019393	7006.875434	47397.083712	3985.555872	25312.465149
90.037000	-0.009047	-0.007015	-0.009355	-0.018123	6979.259766	47362.748828	3989.546074	25246.927248
90.537500	-0.009626	-0.007908	-0.007213	-0.019203	6983.990922	47382.009208	3997.994817	25302.669780
91.040500	-0.011100	-0.008052	-0.009458	-0.018097	6959.721095	47254.088062	3989.210768	25245.602981
91.535500	-0.010843	-0.008900	-0.012127	-0.019543	6975.724740	47315.233075	3986.021917	25320.234224
92.035500	-0.007945	-0.007568	-0.007625	-0.018361	6991.913122	47330.543933	3994.697399	25259.205742
92.536000	-0.007857	-0.007914	-0.009034	-0.018653	6995.515394	47325.019126	3991.773760	25274.274812
93.036000	-0.007447	-0.007717	-0.011321	-0.018133	6994.471986	47291.980473	3984.451419	25247.452037
93.536500	-0.009029	-0.007987	-0.008863	-0.018408	6982.125950	47292.523091	3991.579779	25261.653282
94.039000	-0.009273	-0.008457	-0.005259	-0.018584	6981.475241	47262.495465	4001.510643	25270.689051
94.537500	-0.009115	-0.008294	-0.004052	-0.018511	6982.287664	47271.680156	4004.507165	25266.957518
95.034500	-0.008556	-0.008644	-0.007525	-0.018422	6986.718169	47226.875464	3995.120616	25262.366102
95.535000	-0.008945	-0.008786	-0.010030	-0.018767	6986.301459	47247.573159	3989.467047	25280.134518
96.038000	-0.009422	-0.009008	-0.010315	-0.018439	6978.705354	47191.482534	3987.866045	25263.223793
96.537500	-0.008396	-0.008592	-0.008972	-0.018677	6990.641250	47258.288147	3991.998486	25275.531219
97.038000	-0.009468	-0.008247	-0.007863	-0.018354	6977.475726	47260.394314	3994.056823	25258.843572
97.536000	-0.008200	-0.008778	-0.006056	-0.018542	6991.215772	47225.444704	3999.300171	25268.555311
98.036500	-0.010555	-0.009456	-0.007734	-0.019072	6974.001966	47210.338211	3996.279775	25295.892076
98.537500	-0.009606	-0.009481	-0.011578	-0.018347	6976.115313	47133.912479	3984.339478	25258.508082
99.037000	-0.012412	-0.009745	-0.008501	-0.017326	6940.226348	47003.206096	3989.697625	25205.927744
