sample name	sample
index	1010
start time	 04-19-2021  11:31:27 AM


Wavelength (nm)	Absorbance
494.344910	0.131525
494.563924	0.131525
494.782919	0.131525
495.001897	-0.016087
495.220856	0.027988
495.439797	0.013708
495.658719	-0.007304
495.877624	-0.022333
496.096510	-0.031068
496.315378	-0.037786
496.534227	-0.033600
496.753059	-0.030898
496.971872	-0.024818
497.190667	0.017109
497.409444	0.034396
497.628203	0.037355
497.846943	0.040013
498.065665	0.041659
498.284369	0.043650
498.503055	0.044102
498.721723	0.043172
498.940372	0.042993
499.159003	0.043546
499.377616	0.042883
499.596210	0.043117
499.814787	0.043562
500.033345	0.043296
500.251885	0.043464
500.470406	0.043448
500.688910	0.044694
500.907395	0.044311
501.125862	0.044352
501.344311	0.044271
501.562742	0.044632
501.781154	0.043858
501.999548	0.043837
502.217924	0.043446
502.436282	0.043064
502.654621	0.043016
502.872942	0.044204
503.091245	0.043015
503.309530	0.043180
503.527797	0.043086
503.746045	0.043045
503.964275	0.043649
504.182487	0.042885
504.400681	0.043837
504.618856	0.043792
504.837013	0.043382
505.055152	0.043820
505.273273	0.043706
505.491376	0.043421
505.709460	0.043382
505.927526	0.042709
506.145574	0.042694
506.363604	0.042444
506.581615	0.042482
506.799608	0.042552
507.017583	0.043683
507.235540	0.043952
507.453478	0.044932
507.671399	0.044742
507.889301	0.045082
508.107185	0.046236
508.325050	0.045178
508.542898	0.045490
508.760727	0.044958
508.978538	0.044731
509.196330	0.044375
509.414105	0.043410
509.631861	0.044259
509.849599	0.043477
510.067319	0.042445
510.285021	0.042525
510.502704	0.042193
510.720369	0.042383
510.938016	0.041900
511.155645	0.041201
511.373255	0.041028
511.590848	0.040027
511.808422	0.041111
512.025977	0.041736
512.243515	0.041686
512.461034	0.041153
512.678536	0.040802
512.896018	0.040528
513.113483	0.041397
513.330930	0.041579
513.548358	0.041644
513.765768	0.040675
513.983160	0.040245
514.200533	0.040899
514.417889	0.041611
514.635226	0.041928
514.852545	0.042557
515.069845	0.042401
515.287128	0.042337
515.504392	0.042304
515.721638	0.043299
515.938866	0.043202
516.156075	0.042652
516.373267	0.041874
516.590440	0.041684
516.807594	0.041323
517.024731	0.041721
517.241850	0.041811
517.458950	0.041674
517.676032	0.040928
517.893095	0.041030
518.110141	0.040700
518.327168	0.041352
518.544177	0.041763
518.761168	0.041643
518.978141	0.040888
519.195095	0.040658
519.412031	0.040731
519.628949	0.040987
519.845849	0.040809
520.062731	0.040620
520.279594	0.039929
520.496439	0.039864
520.713266	0.040413
520.930074	0.040609
521.146865	0.040411
521.363637	0.041037
521.580391	0.041114
521.797127	0.040820
522.013844	0.041178
522.230543	0.041569
522.447224	0.041585
522.663887	0.041086
522.880532	0.040919
523.097158	0.040727
523.313766	0.040645
523.530356	0.040204
523.746928	0.040644
523.963481	0.040192
524.180017	0.039981
524.396534	0.039749
524.613032	0.040213
524.829513	0.040498
525.045975	0.040632
525.262420	0.039902
525.478845	0.040125
525.695253	0.039888
525.911643	0.040619
526.128014	0.040779
526.344367	0.040759
526.560702	0.040556
526.777018	0.040669
526.993316	0.041171
527.209597	0.041867
527.425858	0.041824
527.642102	0.041476
527.858328	0.040986
528.074535	0.040475
528.290724	0.040752
528.506894	0.040346
528.723047	0.039665
528.939181	0.039937
529.155297	0.039780
529.371395	0.039969
529.587475	0.040017
529.803536	0.040315
530.019579	0.041220
530.235604	0.040912
530.451611	0.040754
530.667600	0.040926
530.883570	0.040554
531.099522	0.040851
531.315456	0.041021
531.531372	0.041271
531.747269	0.041187
531.963148	0.040393
532.179009	0.040451
532.394852	0.041148
532.610676	0.041349
532.826482	0.041633
533.042271	0.040977
533.258040	0.040722
533.473792	0.040867
533.689525	0.041552
533.905240	0.042156
534.120937	0.042517
534.336616	0.042986
534.552277	0.043220
534.767919	0.043331
534.983543	0.043740
535.199149	0.043693
535.414736	0.043516
535.630306	0.043131
535.845857	0.042939
536.061390	0.042766
536.276904	0.042219
536.492401	0.042083
536.707879	0.041740
536.923339	0.041559
537.138781	0.041669
537.354204	0.041736
537.569610	0.041918
537.784997	0.042146
538.000366	0.041900
538.215716	0.041466
538.431049	0.041728
538.646363	0.041683
538.861659	0.041620
539.076937	0.041488
539.292196	0.041768
539.507438	0.041608
539.722661	0.041644
539.937866	0.042161
540.153052	0.042661
540.368221	0.042104
540.583371	0.041939
540.798503	0.042701
541.013617	0.042676
541.228712	0.042545
541.443789	0.042049
541.658848	0.041624
541.873889	0.041055
542.088912	0.040615
542.303916	0.040936
542.518902	0.041172
542.733870	0.040565
542.948820	0.040780
543.163752	0.040858
543.378665	0.041611
543.593560	0.041728
543.808437	0.041584
544.023295	0.041853
544.238136	0.041883
544.452958	0.042055
544.667762	0.041806
544.882548	0.041911
545.097315	0.041932
545.312064	0.041522
545.526795	0.041985
545.741508	0.042452
545.956203	0.042253
546.170879	0.042235
546.385537	0.042094
546.600177	0.042640
546.814799	0.042447
547.029402	0.042486
547.243988	0.042485
547.458555	0.042176
547.673103	0.042201
547.887634	0.042041
548.102146	0.042323
548.316640	0.042554
548.531116	0.042398
548.745574	0.042236
548.960013	0.041944
549.174435	0.042268
549.388838	0.042345
549.603222	0.042126
549.817589	0.042662
550.031937	0.042421
550.246267	0.042299
550.460579	0.042195
550.674873	0.042619
550.889148	0.042835
551.103405	0.042502
551.317644	0.042677
551.531865	0.042859
551.746068	0.042762
551.960252	0.042743
552.174418	0.042883
552.388566	0.043096
552.602696	0.043020
552.816807	0.042988
553.030900	0.043574
553.244975	0.043302
553.459032	0.043439
553.673070	0.043782
553.887091	0.043920
554.101093	0.044062
554.315077	0.043876
554.529042	0.043750
554.742990	0.043622
554.956919	0.042867
555.170830	0.043080
555.384722	0.043122
555.598597	0.042747
555.812453	0.042886
556.026291	0.042724
556.240111	0.043023
556.453913	0.042904
556.667696	0.042922
556.881461	0.043267
557.095208	0.042902
557.308937	0.042749
557.522647	0.042810
557.736339	0.042877
557.950013	0.043035
558.163669	0.042866
558.377307	0.043382
558.590926	0.043775
558.804527	0.043956
559.018110	0.044071
559.231675	0.044064
559.445221	0.043958
559.658749	0.044072
559.872259	0.043700
560.085751	0.043611
560.299225	0.043355
560.512680	0.043320
560.726117	0.043200
560.939536	0.043263
561.152937	0.043154
561.366319	0.043097
561.579683	0.042905
561.793029	0.043003
562.006357	0.043369
562.219667	0.043654
562.432958	0.043456
562.646231	0.043660
562.859486	0.043791
563.072723	0.044026
563.285941	0.044258
563.499141	0.044179
563.712323	0.044297
563.925487	0.044294
564.138632	0.044220
564.351760	0.044385
564.564869	0.044465
564.777960	0.044655
564.991032	0.044742
565.204087	0.045084
565.417123	0.045049
565.630141	0.045055
565.843140	0.044652
566.056122	0.044484
566.269085	0.044403
566.482030	0.044052
566.694957	0.043713
566.907866	0.043818
567.120756	0.043306
567.333628	0.043084
567.546482	0.043219
567.759318	0.043354
567.972135	0.043610
568.184935	0.043647
568.397716	0.043880
568.610478	0.044266
568.823223	0.043891
569.035949	0.044113
569.248657	0.044772
569.461347	0.044612
569.674019	0.044787
569.886672	0.044594
570.099308	0.044371
570.311925	0.044480
570.524523	0.044261
570.737104	0.044545
570.949666	0.044697
571.162210	0.044128
571.374736	0.044115
571.587244	0.044097
571.799733	0.044109
572.012205	0.044388
572.224658	0.044400
572.437092	0.044224
572.649509	0.044459
572.861907	0.044445
573.074287	0.044478
573.286649	0.044556
573.498993	0.044476
573.711318	0.044126
573.923625	0.044195
574.135914	0.043951
574.348185	0.044252
574.560438	0.044008
574.772672	0.043938
574.984888	0.043998
575.197086	0.044099
575.409266	0.044216
575.621427	0.044356
575.833570	0.044059
576.045695	0.044161
576.257802	0.043883
576.469890	0.044024
576.681961	0.044100
576.894013	0.044138
577.106046	0.043996
577.318062	0.044084
577.530059	0.044370
577.742039	0.044704
577.954000	0.044868
578.165942	0.044783
578.377867	0.044839
578.589773	0.044834
578.801661	0.045174
579.013531	0.045159
579.225382	0.045209
579.437216	0.045060
579.649031	0.044764
579.860828	0.044768
580.072606	0.045096
580.284367	0.044758
580.496109	0.044658
580.707833	0.044336
580.919539	0.044506
581.131227	0.044600
581.342896	0.044653
581.554547	0.044691
581.766180	0.044439
581.977795	0.044654
582.189391	0.044911
582.400969	0.044904
582.612529	0.045134
582.824071	0.045262
583.035595	0.044771
583.247100	0.045048
583.458587	0.045329
583.670056	0.045513
583.881506	0.045464
584.092939	0.045031
584.304353	0.045235
584.515749	0.045094
584.727127	0.044921
584.938486	0.045365
585.149828	0.045035
585.361151	0.044992
585.572456	0.045140
585.783742	0.045170
585.995011	0.045738
586.206261	0.045680
586.417493	0.045852
586.628706	0.046109
586.839902	0.045990
587.051079	0.046445
587.262238	0.046646
587.473379	0.046472
587.684502	0.046489
587.895606	0.046418
588.106692	0.046478
588.317760	0.046450
588.528810	0.046424
588.739841	0.046628
588.950855	0.046210
589.161850	0.045980
589.372827	0.046102
589.583785	0.046127
589.794726	0.045954
590.005648	0.045732
590.216552	0.045768
590.427437	0.045584
590.638305	0.045312
590.849154	0.045240
591.059985	0.045237
591.270798	0.045002
591.481592	0.045022
591.692369	0.045039
591.903127	0.045076
592.113867	0.045222
592.324588	0.045266
592.535292	0.045281
592.745977	0.045679
592.956644	0.045634
593.167293	0.045717
593.377923	0.045720
593.588536	0.045760
593.799130	0.045900
594.009706	0.045798
594.220263	0.045729
594.430803	0.045885
594.641324	0.045895
594.851827	0.045888
595.062312	0.046203
595.272778	0.045868
595.483227	0.045996
595.693657	0.045891
595.904069	0.045538
596.114462	0.045588
596.324838	0.045788
596.535195	0.045581
596.745534	0.045462
596.955855	0.045337
597.166157	0.045563
597.376441	0.045462
597.586707	0.045733
597.796955	0.046199
598.007185	0.046553
598.217396	0.046173
598.427589	0.046173
598.637764	0.046533
598.847921	0.046346
599.058060	0.046500
599.268180	0.046440
599.478282	0.046207
599.688366	0.046098
599.898431	0.045971
600.108479	0.046445
600.318508	0.046621
600.528519	0.046482
600.738511	0.046503
600.948486	0.046299
601.158442	0.046406
601.368380	0.046586
601.578300	0.046504
601.788202	0.046352
601.998085	0.046059
602.207950	0.046036
602.417797	0.046036
602.627626	0.046531
602.837436	0.046639
603.047228	0.046876
603.257002	0.047008
603.466758	0.047037
603.676496	0.046989
603.886215	0.046999
604.095916	0.047023
604.305599	0.047307
604.515264	0.047156
604.724910	0.047219
604.934538	0.047243
605.144148	0.047096
605.353740	0.047320
605.563314	0.047186
605.772869	0.047118
605.982406	0.046892
606.191925	0.046861
606.401425	0.046423
606.610908	0.046261
606.820372	0.046211
607.029818	0.046077
607.239246	0.046187
607.448655	0.046502
607.658047	0.046573
607.867420	0.046745
608.076775	0.046756
608.286111	0.046925
608.495430	0.047066
608.704730	0.047020
608.914012	0.047178
609.123275	0.047091
609.332521	0.047040
609.541748	0.047171
609.750957	0.047285
609.960148	0.047452
610.169321	0.047443
610.378475	0.047307
610.587611	0.047372
610.796729	0.047289
611.005829	0.047110
611.214910	0.047198
611.423974	0.047225
611.633019	0.047093
611.842045	0.046741
612.051054	0.046791
612.260044	0.047256
612.469017	0.047268
612.677970	0.047473
612.886906	0.047632
613.095824	0.047561
613.304723	0.047590
613.513604	0.047642
613.722467	0.047765
613.931311	0.048097
614.140138	0.047823
614.348946	0.047800
614.557736	0.047704
614.766507	0.047678
614.975261	0.047861
615.183996	0.047997
615.392713	0.048127
615.601412	0.048302
615.810092	0.048216
616.018754	0.048297
616.227399	0.048153
616.436024	0.048258
616.644632	0.048393
616.853222	0.048419
617.061793	0.048296
617.270346	0.048268
617.478880	0.048109
617.687397	0.048271
617.895895	0.048192
618.104375	0.047973
618.312837	0.048033
618.521281	0.047867
618.729706	0.047638
618.938113	0.047650
619.146502	0.047637
619.354873	0.047690
619.563226	0.047236
619.771560	0.047269
619.979876	0.047667
620.188174	0.047520
620.396453	0.047674
620.604715	0.047741
620.812958	0.047829
621.021183	0.047926
621.229390	0.047936
621.437578	0.048267
621.645748	0.048336
621.853900	0.048236
622.062034	0.048238
622.270150	0.048379
622.478247	0.048570
622.686326	0.048302
622.894387	0.048262
623.102430	0.048146
623.310454	0.048035
623.518461	0.048145
623.726449	0.048287
623.934418	0.048393
624.142370	0.048374
624.350303	0.048275
624.558218	0.048394
624.766115	0.048507
624.973994	0.048754
625.181855	0.048817
625.389697	0.048768
625.597521	0.048814
625.805327	0.048651
626.013114	0.048636
626.220883	0.048621
626.428634	0.048875
626.636367	0.048873
626.844082	0.048898
627.051778	0.048854
627.259457	0.048632
627.467117	0.048466
627.674758	0.048612
627.882382	0.048454
628.089987	0.048527
628.297574	0.048458
628.505143	0.048309
628.712694	0.048367
628.920226	0.048568
629.127740	0.048824
629.335236	0.048702
629.542714	0.048503
629.750174	0.048519
629.957615	0.048614
630.165038	0.048600
630.372443	0.048554
630.579829	0.048301
630.787198	0.048188
630.994548	0.048005
631.201880	0.048256
631.409194	0.048573
631.616489	0.048582
631.823766	0.048446
632.031025	0.048374
632.238266	0.048406
632.445489	0.048639
632.652693	0.048732
632.859879	0.048769
633.067047	0.048823
633.274197	0.048660
633.481329	0.048846
633.688442	0.048808
633.895537	0.049106
634.102614	0.049308
634.309672	0.049396
634.516713	0.049605
634.723735	0.049785
634.930739	0.049900
635.137724	0.050175
635.344692	0.050021
635.551641	0.050006
635.758572	0.049748
635.965485	0.049790
636.172379	0.049902
636.379256	0.049632
636.586114	0.049533
636.792954	0.049347
636.999775	0.049413
637.206579	0.049392
637.413364	0.049664
637.620131	0.049718
637.826880	0.049627
638.033610	0.049531
638.240323	0.049616
638.447017	0.049559
638.653692	0.049376
638.860350	0.049228
639.066990	0.049348
639.273611	0.049319
639.480214	0.049203
639.686798	0.049299
639.893365	0.049088
640.099913	0.049018
640.306443	0.049253
640.512955	0.049565
640.719449	0.049404
640.925924	0.049368
641.132381	0.049210
641.338820	0.049669
641.545241	0.049583
641.751644	0.049740
641.958028	0.049855
642.164394	0.049659
642.370742	0.049622
642.577071	0.049826
642.783383	0.049757
642.989676	0.049740
643.195951	0.049440
643.402207	0.049535
643.608446	0.049394
643.814666	0.049314
644.020868	0.049543
644.227052	0.049728
644.433218	0.049686
644.639365	0.049989
644.845494	0.050118
645.051605	0.050339
645.257698	0.050475
645.463772	0.050472
645.669828	0.050529
645.875866	0.050261
646.081886	0.050094
646.287888	0.049981
646.493871	0.049758
646.699836	0.049861
646.905783	0.049669
647.111712	0.049520
647.317622	0.049658
647.523514	0.049788
647.729388	0.050124
647.935244	0.050185
648.141082	0.050260
648.346901	0.050198
648.552702	0.049970
648.758485	0.049878
648.964250	0.049940
649.169996	0.050066
649.375724	0.050125
649.581434	0.049995
649.787126	0.050091
649.992800	0.050202
650.198455	0.050561
650.404092	0.050646
650.609711	0.050652
650.815311	0.050652
651.020894	0.050386
651.226458	0.050218
651.432004	0.050210
651.637532	0.050030
651.843041	0.049990
652.048532	0.049877
652.254006	0.049988
652.459460	0.050131
652.664897	0.050104
652.870315	0.050373
653.075716	0.050615
653.281097	0.050716
653.486461	0.050935
653.691807	0.051014
653.897134	0.050993
654.102443	0.051012
654.307734	0.051001
654.513006	0.051113
654.718261	0.051031
654.923497	0.050889
655.128715	0.050752
655.333915	0.050794
655.539096	0.050900
655.744259	0.051165
655.949404	0.051071
656.154531	0.051148
656.359640	0.051056
656.564730	0.051085
656.769802	0.051260
656.974856	0.051499
657.179892	0.051507
657.384909	0.051285
657.589908	0.051028
657.794889	0.051095
657.999852	0.051252
658.204797	0.051310
658.409723	0.051283
658.614631	0.051136
658.819521	0.050967
659.024393	0.050963
659.229246	0.050973
659.434081	0.051005
659.638898	0.051143
659.843697	0.051014
660.048478	0.051099
660.253240	0.051308
660.457984	0.051249
660.662710	0.051455
660.867417	0.051424
661.072107	0.051592
661.276778	0.051573
661.481431	0.051419
661.686066	0.051464
661.890682	0.051397
662.095281	0.051366
662.299861	0.051487
662.504422	0.051525
662.708966	0.051696
662.913491	0.051807
663.117999	0.051881
663.322488	0.051978
663.526958	0.051940
663.731411	0.052276
663.935845	0.052173
664.140261	0.052240
664.344659	0.052086
664.549038	0.051906
664.753400	0.051970
664.957743	0.051941
665.162068	0.052076
665.366375	0.052049
665.570663	0.051846
665.774933	0.052093
665.979185	0.052004
666.183419	0.052083
666.387635	0.052073
666.591832	0.052000
666.796011	0.051967
667.000172	0.051902
667.204315	0.051871
667.408439	0.051858
667.612545	0.051650
667.816634	0.051662
668.020703	0.051619
668.224755	0.051802
668.428788	0.051744
668.632803	0.051964
668.836800	0.051990
669.040779	0.052239
669.244739	0.052237
669.448681	0.052260
669.652605	0.052366
669.856511	0.052528
670.060399	0.052532
670.264268	0.052555
670.468119	0.052476
670.671952	0.052499
670.875767	0.052295
671.079563	0.052343
671.283341	0.052435
671.487101	0.052506
671.690843	0.052588
671.894567	0.052567
672.098272	0.052668
672.301959	0.052644
672.505628	0.052401
672.709278	0.052540
672.912911	0.052506
673.116525	0.052418
673.320121	0.052303
673.523699	0.052268
673.727258	0.052229
673.930799	0.052193
674.134322	0.052427
674.337827	0.052628
674.541314	0.052593
674.744782	0.052687
674.948232	0.052861
675.151664	0.052798
675.355078	0.052744
675.558474	0.052694
675.761851	0.052763
675.965210	0.052685
676.168551	0.052818
676.371873	0.052963
676.575178	0.052779
676.778464	0.052763
676.981732	0.052910
677.184981	0.052943
677.388213	0.053060
677.591426	0.053049
677.794621	0.053108
677.997798	0.053108
678.200956	0.053128
678.404097	0.053292
678.607219	0.053274
678.810323	0.053290
679.013408	0.053378
679.216476	0.053433
679.419525	0.053467
679.622556	0.053384
679.825569	0.053526
680.028563	0.053423
680.231540	0.053494
680.434498	0.053595
680.637438	0.053738
680.840359	0.053777
681.043263	0.053736
681.246148	0.053969
681.449015	0.053900
681.651864	0.053822
681.854694	0.054061
682.057506	0.054086
682.260301	0.054166
682.463076	0.054114
682.665834	0.054085
682.868573	0.054144
683.071295	0.053934
683.273998	0.053992
683.476682	0.054014
683.679349	0.054012
683.881997	0.054022
684.084627	0.053996
684.287239	0.053890
684.489833	0.053857
684.692408	0.053939
684.894965	0.053890
685.097504	0.054190
685.300025	0.054176
685.502527	0.054103
685.705012	0.054058
685.907478	0.053974
686.109925	0.054137
686.312355	0.054141
686.514766	0.054000
686.717159	0.053962
686.919534	0.053843
687.121891	0.053805
687.324230	0.053795
687.526550	0.053913
687.728852	0.053971
687.931136	0.053872
688.133401	0.053870
688.335649	0.053852
688.537878	0.054051
688.740089	0.054013
688.942281	0.054143
689.144456	0.054173
689.346612	0.054058
689.548750	0.054016
689.750870	0.054100
689.952971	0.054048
690.155055	0.054169
690.357120	0.054235
690.559167	0.054262
690.761195	0.054244
690.963206	0.054199
691.165198	0.054328
691.367172	0.054422
691.569128	0.054363
691.771065	0.054503
691.972984	0.054449
692.174885	0.054280
692.376768	0.054100
692.578633	0.054136
692.780479	0.054193
692.982308	0.054234
693.184118	0.054208
693.385909	0.054307
693.587683	0.054497
693.789438	0.054549
693.991175	0.054467
694.192894	0.054578
694.394595	0.054607
694.596277	0.054703
694.797941	0.054841
694.999587	0.054866
695.201215	0.054760
695.402824	0.054536
695.604416	0.054497
695.805989	0.054781
696.007543	0.054852
696.209080	0.054873
696.410598	0.054892
696.612099	0.054760
696.813580	0.054819
697.015044	0.055006
697.216490	0.055053
697.417917	0.055327
697.619326	0.055333
697.820717	0.055232
698.022089	0.055107
698.223444	0.054996
698.424780	0.054992
698.626098	0.055128
698.827397	0.055120
699.028679	0.055150
699.229942	0.054939
699.431187	0.054826
699.632414	0.054925
699.833622	0.054855
700.034813	0.054910
700.235985	0.054894
700.437139	0.054878
700.638274	0.054812
700.839392	0.054827
701.040491	0.054942
701.241572	0.055000
701.442635	0.055137
701.643679	0.055454
701.844706	0.055446
702.045714	0.055430
702.246704	0.055280
702.447675	0.055262
702.648629	0.055266
702.849564	0.055219
703.050481	0.055193
703.251380	0.055090
703.452260	0.055075
703.653122	0.055152
703.853966	0.055151
704.054792	0.055052
704.255600	0.054913
704.456389	0.054946
704.657160	0.055029
704.857913	0.055020
705.058648	0.055229
705.259365	0.055150
705.460063	0.055075
705.660743	0.055136
705.861405	0.055300
706.062048	0.055306
706.262674	0.055195
706.463281	0.055213
706.663870	0.055094
706.864441	0.054836
707.064993	0.054864
707.265527	0.054753
707.466043	0.054662
707.666541	0.054670
707.867021	0.054832
708.067482	0.054876
708.267925	0.054803
708.468350	0.055029
708.668757	0.055134
708.869145	0.055106
709.069516	0.055124
709.269868	0.055217
709.470201	0.055147
709.670517	0.054991
709.870814	0.054900
710.071093	0.055139
710.271354	0.055151
710.471597	0.055068
710.671821	0.055060
710.872028	0.055089
711.072216	0.055024
711.272385	0.055130
711.472537	0.055375
711.672670	0.055392
711.872785	0.054993
712.072882	0.054963
712.272961	0.055001
712.473021	0.054912
712.673063	0.054906
712.873087	0.054982
713.073093	0.054889
713.273081	0.054850
713.473050	0.054992
713.673001	0.054945
713.872934	0.054986
714.072849	0.055059
714.272745	0.055096
714.472623	0.055013
714.672483	0.055047
714.872325	0.055031
715.072148	0.054998
715.271954	0.054921
715.471741	0.054907
715.671509	0.054767
715.871260	0.054640
716.070992	0.054632
716.270707	0.054711
716.470403	0.054459
716.670080	0.054482
716.869740	0.054478
717.069381	0.054532
717.269004	0.054822
717.468609	0.054981
717.668195	0.054978
717.867764	0.054956
718.067314	0.054850
718.266846	0.055041
718.466360	0.054956
718.665855	0.055005
718.865332	0.054937
719.064791	0.054774
719.264232	0.054561
719.463655	0.054657
719.663059	0.054542
719.862445	0.054578
720.061813	0.054514
720.261163	0.054583
720.460494	0.054560
720.659807	0.054490
720.859102	0.054604
721.058379	0.054574
721.257638	0.054473
721.456878	0.054572
721.656100	0.054845
721.855304	0.054771
722.054490	0.054753
722.253657	0.054603
722.452806	0.054634
722.651937	0.054487
722.851050	0.054579
723.050145	0.054545
723.249221	0.054394
723.448279	0.054090
723.647319	0.054137
723.846340	0.053907
724.045344	0.053907
724.244329	0.053911
724.443296	0.053921
724.642245	0.053859
724.841175	0.053720
725.040088	0.053888
725.238982	0.053866
725.437857	0.053740
725.636715	0.053888
725.835554	0.053952
726.034376	0.053963
726.233179	0.053927
726.431963	0.053919
726.630730	0.054008
726.829478	0.053878
727.028208	0.053762
727.226920	0.053808
727.425614	0.053764
727.624289	0.053662
727.822946	0.053522
728.021585	0.053434
728.220206	0.053403
728.418808	0.053300
728.617392	0.053065
728.815958	0.053176
729.014506	0.053309
729.213036	0.053275
729.411547	0.053263
729.610040	0.053399
729.808515	0.053368
730.006972	0.053219
730.205410	0.053340
730.403831	0.053527
730.602233	0.053575
730.800616	0.053491
730.998982	0.053458
731.197329	0.053549
731.395658	0.053489
731.593969	0.053456
731.792262	0.053421
731.990536	0.053356
732.188793	0.053419
732.387031	0.053380
732.585250	0.053224
732.783452	0.053239
732.981635	0.053200
733.179800	0.053174
733.377947	0.053102
733.576076	0.052990
733.774186	0.053061
733.972278	0.052888
734.170352	0.052797
734.368408	0.052903
734.566446	0.052763
734.764465	0.052706
734.962466	0.052753
735.160449	0.052922
735.358413	0.053041
735.556360	0.052901
735.754288	0.052923
735.952198	0.052995
736.150090	0.052837
736.347963	0.052873
736.545818	0.052850
736.743655	0.052539
736.941474	0.052460
737.139275	0.052626
737.337057	0.052721
737.534821	0.052700
737.732567	0.052531
737.930295	0.052531
738.128005	0.052478
738.325696	0.052445
738.523369	0.052536
738.721024	0.052642
738.918660	0.052418
739.116279	0.052215
739.313879	0.052121
739.511461	0.052104
739.709024	0.052090
739.906570	0.052035
740.104097	0.051888
740.301606	0.051792
740.499097	0.051461
740.696569	0.051542
740.894024	0.051577
741.091460	0.051602
741.288878	0.051663
741.486277	0.051684
741.683659	0.051608
741.881022	0.051632
742.078367	0.051666
742.275694	0.051897
742.473002	0.051851
742.670293	0.051822
742.867565	0.051799
743.064819	0.051716
743.262054	0.051686
743.459272	0.051985
743.656471	0.052068
743.853652	0.051967
744.050815	0.051732
744.247959	0.051676
744.445085	0.051724
744.642194	0.051760
744.839283	0.051861
745.036355	0.051922
745.233408	0.051624
745.430444	0.051328
745.627461	0.051543
745.824459	0.051610
746.021440	0.051626
746.218402	0.051637
746.415346	0.051616
746.612272	0.051610
746.809180	0.051578
747.006069	0.051700
747.202940	0.051877
747.399793	0.051706
747.596628	0.051589
747.793444	0.051610
747.990243	0.051486
748.187023	0.051600
748.383784	0.051513
748.580528	0.051523
748.777253	0.051494
748.973960	0.051367
749.170649	0.051231
749.367320	0.051316
749.563973	0.051324
749.760607	0.051307
749.957223	0.051133
750.153821	0.051147
750.350400	0.051174
750.546962	0.051173
750.743505	0.051289
750.940030	0.051535
751.136536	0.051428
751.333025	0.051379
751.529495	0.051235
751.725947	0.051299
751.922381	0.051173
752.118796	0.050941
752.315194	0.050853
752.511573	0.050838
752.707934	0.050887
752.904276	0.051045
753.100601	0.051049
753.296907	0.051228
753.493195	0.051161
753.689465	0.051348
753.885716	0.051415
754.081949	0.051422
754.278164	0.051413
754.474361	0.051266
754.670540	0.051266
754.866700	0.051258
755.062843	0.051178
755.258967	0.051134
755.455072	0.051041
755.651160	0.051217
755.847229	0.051186
756.043280	0.051236
756.239313	0.051415
756.435328	0.051260
756.631324	0.051136
756.827302	0.051077
757.023262	0.051006
757.219204	0.050927
757.415127	0.050742
757.611033	0.050769
757.806920	0.050852
758.002788	0.050854
758.198639	0.050967
758.394471	0.051094
758.590286	0.051045
758.786081	0.051416
758.981859	0.051378
759.177619	0.051295
759.373360	0.051284
759.569083	0.050965
759.764788	0.050821
759.960474	0.050785
760.156143	0.050694
760.351793	0.050866
760.547425	0.050516
760.743038	0.050666
760.938634	0.050684
761.134211	0.050717
761.329770	0.050947
761.525311	0.051010
761.720833	0.051240
761.916338	0.051145
762.111824	0.051173
762.307292	0.051295
762.502741	0.051335
762.698173	0.051292
762.893586	0.051324
763.088981	0.051204
763.284358	0.050985
763.479716	0.050739
763.675057	0.050857
763.870379	0.050729
764.065683	0.050601
764.260968	0.050444
764.456236	0.050626
764.651485	0.050562
764.846716	0.050524
765.041929	0.050419
765.237123	0.050210
765.432299	0.050288
765.627457	0.050316
765.822597	0.050508
766.017719	0.050524
766.212822	0.050543
766.407907	0.050557
766.602974	0.050642
766.798023	0.050833
766.993054	0.051090
767.188066	0.051001
767.383060	0.051106
767.578036	0.050998
767.772993	0.050939
767.967933	0.050800
768.162854	0.050804
768.357757	0.050756
768.552642	0.050821
768.747508	0.050769
768.942356	0.050732
769.137186	0.050628
769.331998	0.050589
769.526792	0.050683
769.721567	0.050744
769.916324	0.050803
770.111063	0.050849
770.305784	0.050863
770.500486	0.050897
770.695171	0.050963
770.889837	0.050923
771.084484	0.050981
771.279114	0.050891
771.473725	0.050793
771.668318	0.050715
771.862893	0.050613
772.057450	0.050448
772.251988	0.050346
772.446509	0.050405
772.641011	0.050428
772.835494	0.050541
773.029960	0.050383
773.224407	0.050395
773.418836	0.050363
773.613247	0.050360
773.807640	0.050439
774.002014	0.050363
774.196370	0.050122
774.390708	0.050064
774.585028	0.049970
774.779330	0.050051
774.973613	0.050081
775.167878	0.050108
775.362125	0.049984
775.556354	0.050027
775.750564	0.050091
775.944756	0.050204
776.138930	0.050264
776.333086	0.049961
776.527223	0.050017
776.721343	0.049986
776.915444	0.049874
777.109526	0.049936
777.303591	0.049863
777.497637	0.049751
777.691666	0.049891
777.885676	0.049991
778.079667	0.050119
778.273641	0.050065
778.467596	0.050219
778.661533	0.050285
778.855452	0.050535
779.049352	0.050655
779.243235	0.051209
779.437099	0.051138
779.630945	0.051064
779.824773	0.051253
780.018582	0.051243
780.212373	0.051422
780.406146	0.051517
780.599901	0.051285
780.793638	0.051298
780.987356	0.051032
781.181056	0.051092
781.374738	0.051112
781.568402	0.051106
781.762047	0.051301
781.955674	0.051007
782.149283	0.051075
782.342874	0.051276
782.536447	0.051289
782.730001	0.051354
782.923537	0.051359
783.117055	0.051212
783.310555	0.050970
783.504036	0.050866
783.697499	0.050808
783.890944	0.050604
784.084371	0.050574
784.277780	0.050406
784.471170	0.050401
784.664542	0.050456
784.857896	0.050477
785.051231	0.050762
785.244549	0.050916
785.437848	0.050679
785.631129	0.051000
785.824392	0.051143
786.017636	0.051224
786.210863	0.051114
786.404071	0.051050
786.597260	0.051254
786.790432	0.051148
786.983585	0.051041
787.176721	0.051445
787.369838	0.051336
787.562936	0.051264
787.756017	0.051242
787.949079	0.051288
788.142123	0.051269
788.335149	0.051159
788.528156	0.051186
788.721146	0.051296
788.914117	0.051276
789.107070	0.051036
789.300005	0.051040
789.492921	0.051218
789.685819	0.051228
789.878699	0.051351
790.071561	0.051639
790.264405	0.051860
790.457230	0.051815
790.650037	0.051734
790.842826	0.052024
791.035597	0.051913
791.228349	0.051918
791.421084	0.052094
791.613800	0.052051
791.806497	0.052011
791.999177	0.052189
792.191838	0.052376
792.384481	0.052696
792.577106	0.052761
792.769713	0.052994
792.962301	0.052878
793.154871	0.052695
793.347423	0.052897
793.539957	0.052908
793.732473	0.052541
793.924970	0.052485
794.117449	0.052351
794.309910	0.052285
794.502353	0.052136
794.694777	0.052194
794.887183	0.052339
795.079571	0.052403
795.271941	0.052589
795.464293	0.052695
795.656626	0.052771
795.848941	0.052771
796.041238	0.052757
796.233516	0.052936
796.425777	0.053117
796.618019	0.053336
796.810243	0.053178
797.002449	0.053012
797.194636	0.053255
797.386805	0.053235
797.578956	0.053443
797.771089	0.053620
797.963204	0.053653
798.155300	0.053711
798.347378	0.053681
798.539438	0.053552
798.731480	0.053392
798.923503	0.053212
799.115509	0.053151
799.307496	0.053035
799.499465	0.053039
799.691415	0.053038
799.883348	0.052995
800.075262	0.053009
800.267158	0.053259
800.459035	0.053513
800.650895	0.053436
800.842736	0.053598
801.034559	0.053724
801.226364	0.053684
801.418150	0.053660
801.609919	0.053777
801.801669	0.053722
801.993401	0.053644
802.185114	0.053601
802.376810	0.053670
802.568487	0.053611
802.760146	0.053482
802.951787	0.053384
803.143409	0.053474
803.335014	0.053476
803.526600	0.053264
803.718168	0.053333
803.909717	0.053410
804.101249	0.053697
804.292762	0.053932
804.484257	0.054051
804.675734	0.054047
804.867192	0.054182
805.058632	0.054172
805.250054	0.054455
805.441458	0.054715
805.632844	0.054890
805.824211	0.054993
806.015561	0.054910
806.206891	0.055035
806.398204	0.055340
806.589499	0.055326
806.780775	0.055365
806.972033	0.055299
807.163273	0.055213
807.354495	0.055273
807.545698	0.055173
807.736883	0.055245
807.928050	0.055356
808.119199	0.055439
808.310329	0.055579
808.501441	0.055553
808.692535	0.055730
808.883611	0.055822
809.074669	0.055747
809.265708	0.055863
809.456729	0.055809
809.647732	0.055582
809.838717	0.055593
810.029683	0.055693
810.220632	0.055761
810.411562	0.055759
810.602474	0.055770
810.793367	0.055753
810.984242	0.055997
811.175100	0.056290
811.365938	0.056415
811.556759	0.056573
811.747562	0.056572
811.938346	0.056431
812.129112	0.056437
812.319860	0.056519
812.510589	0.056660
812.701300	0.056319
812.891994	0.056541
813.082668	0.056748
813.273325	0.056750
813.463964	0.056577
813.654584	0.056944
813.845186	0.057290
814.035769	0.057331
814.226335	0.057068
814.416882	0.057342
814.607411	0.057150
814.797922	0.056928
814.988415	0.056866
815.178889	0.057054
815.369345	0.057085
815.559783	0.056988
815.750203	0.056982
815.940605	0.057354
816.130988	0.057488
816.321353	0.057702
816.511700	0.057932
816.702028	0.058041
816.892339	0.058125
817.082631	0.058051
817.272905	0.058092
817.463161	0.058243
817.653398	0.058140
817.843617	0.057915
818.033819	0.057675
818.224001	0.057763
818.414166	0.058107
818.604312	0.058193
818.794440	0.058326
818.984550	0.058381
819.174642	0.058387
819.364716	0.058727
819.554771	0.059151
819.744808	0.059455
819.934827	0.059504
820.124827	0.059243
820.314810	0.059337
820.504774	0.059590
820.694720	0.059527
820.884647	0.059845
821.074557	0.059808
821.264448	0.059643
821.454321	0.059453
821.644176	0.059565
821.834012	0.059541
822.023831	0.059491
822.213631	0.059593
822.403413	0.059800
822.593176	0.059628
822.782922	0.059612
822.972649	0.059732
823.162358	0.059976
823.352049	0.060130
823.541721	0.060511
823.731376	0.060561
823.921012	0.060645
824.110629	0.060609
824.300229	0.060585
824.489811	0.060606
824.679374	0.060479
824.868919	0.060568
825.058445	0.060728
825.247954	0.060639
825.437444	0.060936
825.626916	0.060999
825.816370	0.061209
826.005806	0.061326
826.195223	0.061678
826.384622	0.062086
826.574003	0.062158
826.763366	0.061945
826.952711	0.061903
827.142037	0.061854
827.331345	0.061669
827.520635	0.061793
827.709906	0.061961
827.899160	0.061676
828.088395	0.061545
828.277612	0.061539
828.466810	0.061649
828.655991	0.061926
828.845153	0.061771
829.034297	0.061858
829.223423	0.061720
829.412531	0.061590
829.601620	0.062017
829.790691	0.062071
829.979744	0.062105
830.168779	0.062282
830.357795	0.062334
830.546793	0.062437
830.735773	0.062460
830.924735	0.062652
831.113679	0.062763
831.302604	0.062610
831.491511	0.062608
831.680400	0.062659
831.869271	0.062785
832.058123	0.062786
832.246957	0.062871
832.435773	0.063036
832.624571	0.063057
832.813351	0.063201
833.002112	0.063287
833.190855	0.063273
833.379580	0.063368
833.568287	0.063136
833.756975	0.063216
833.945645	0.063335
834.134297	0.063481
834.322931	0.063539
834.511547	0.063327
834.700144	0.063464
834.888723	0.063666
835.077284	0.063792
835.265826	0.063932
835.454351	0.063872
835.642857	0.063983
835.831345	0.063886
836.019815	0.064057
836.208266	0.064339
836.396699	0.064400
836.585114	0.064405
836.773511	0.064479
836.961890	0.064720
837.150250	0.064745
837.338592	0.064646
837.526916	0.064768
837.715222	0.064817
837.903510	0.064901
838.091779	0.064664
838.280030	0.064681
838.468263	0.064593
838.656477	0.064340
838.844674	0.064532
839.032852	0.064776
839.221012	0.064943
839.409153	0.065105
839.597277	0.064987
839.785382	0.065049
839.973469	0.065338
840.161538	0.065418
840.349589	0.065674
840.537621	0.065626
840.725635	0.065725
840.913631	0.065653
841.101609	0.065399
841.289568	0.065590
841.477509	0.065707
841.665432	0.065681
841.853337	0.065650
842.041224	0.065531
842.229092	0.065290
842.416942	0.065386
842.604774	0.065579
842.792588	0.065810
842.980383	0.065698
843.168160	0.066232
843.355919	0.066369
843.543660	0.066522
843.731382	0.067093
843.919087	0.067737
844.106773	0.067920
844.294441	0.068099
844.482090	0.068220
844.669722	0.068640
844.857335	0.068261
845.044930	0.068524
845.232507	0.068742
845.420065	0.068793
845.607605	0.068755
845.795127	0.068850
845.982631	0.068682
846.170117	0.068623
846.357584	0.068754
846.545033	0.068877
846.732464	0.068703
846.919877	0.068745
847.107272	0.068544
847.294648	0.068323
847.482006	0.068448
847.669346	0.068731
847.856667	0.068784
848.043971	0.068694
848.231256	0.068983
848.418523	0.069277
848.605771	0.069209
848.793002	0.069460
848.980214	0.069835
849.167408	0.069724
849.354584	0.069751
849.541742	0.069958
849.728881	0.070173
849.916002	0.070284
850.103105	0.070326
850.290190	0.070606
850.477256	0.070759
850.664304	0.070966
850.851334	0.071164
851.038346	0.071255
851.225340	0.071480
851.412315	0.071456
851.599272	0.071465
851.786211	0.071480
851.973132	0.071636
852.160034	0.071663
852.346918	0.071795
852.533784	0.071636
852.720632	0.071823
852.907462	0.071804
853.094273	0.071914
853.281066	0.071926
853.467841	0.072104
853.654598	0.071981
853.841336	0.072017
854.028056	0.072199
854.214758	0.072445
854.401442	0.072423
854.588107	0.072597
854.774755	0.072633
854.961384	0.072786
855.147995	0.072930
855.334587	0.073160
855.521162	0.073127
855.707718	0.072815
855.894256	0.072933
856.080775	0.072689
856.267277	0.072766
856.453760	0.073051
856.640225	0.073106
856.826672	0.072888
857.013101	0.073034
857.199511	0.073394
857.385903	0.073548
857.572277	0.073544
857.758633	0.074114
857.944970	0.074127
858.131290	0.074414
858.317591	0.074678
858.503873	0.075066
858.690138	0.075212
858.876384	0.075074
859.062612	0.075459
859.248822	0.075473
859.435014	0.075325
859.621188	0.075407
859.807343	0.075221
859.993480	0.075081
860.179599	0.074912
860.365699	0.074608
860.551781	0.074894
860.737846	0.074600
860.923891	0.074932
861.109919	0.075031
861.295929	0.075106
861.481920	0.075097
861.667893	0.075336
861.853848	0.075586
862.039784	0.075986
862.225702	0.075963
862.411603	0.076125
862.597484	0.075961
862.783348	0.076053
862.969193	0.076179
863.155021	0.076399
863.340830	0.076386
863.526620	0.076342
863.712393	0.076227
863.898147	0.076227
864.083883	0.076366
864.269601	0.076742
864.455301	0.076848
864.640982	0.076851
864.826645	0.076855
865.012290	0.076797
865.197917	0.076828
865.383526	0.076904
865.569116	0.077002
865.754688	0.077139
865.940242	0.076923
866.125777	0.077044
866.311295	0.077108
866.496794	0.076993
866.682275	0.077232
866.867737	0.077149
867.053182	0.077355
867.238608	0.077254
867.424016	0.077235
867.609406	0.077352
867.794778	0.077139
867.980131	0.077248
868.165466	0.077222
868.350783	0.077270
868.536082	0.077583
868.721362	0.077662
868.906625	0.077632
869.091869	0.077727
869.277094	0.077709
869.462302	0.077999
869.647491	0.077835
869.832662	0.078065
870.017815	0.078010
870.202950	0.077961
870.388066	0.077948
870.573165	0.078304
870.758245	0.078346
870.943306	0.078338
871.128350	0.078508
871.313375	0.078921
871.498382	0.079086
871.683371	0.079201
871.868342	0.079511
872.053294	0.079593
872.238229	0.079485
872.423144	0.079563
872.608042	0.079866
872.792922	0.079749
872.977783	0.079588
873.162626	0.079667
873.347451	0.079608
873.532258	0.079438
873.717046	0.079881
873.901816	0.079958
874.086568	0.080035
874.271302	0.080139
874.456017	0.080361
874.640715	0.080525
874.825394	0.080462
875.010055	0.080977
875.194697	0.081048
875.379322	0.080674
875.563928	0.080734
875.748516	0.080730
875.933085	0.080697
876.117637	0.080677
876.302170	0.080773
876.486685	0.080835
876.671182	0.080656
876.855661	0.081016
877.040121	0.081036
877.224563	0.081236
877.408987	0.081588
877.593393	0.081878
877.777780	0.081867
877.962150	0.081845
878.146501	0.081747
878.330833	0.081628
878.515148	0.081313
878.699444	0.081415
878.883722	0.081366
879.067982	0.081038
879.252224	0.080757
879.436447	0.081068
879.620653	0.081096
879.804840	0.081388
879.989008	0.081384
880.173159	0.081509
880.357291	0.081924
880.541405	0.081925
880.725501	0.081680
880.909579	0.081635
881.093638	0.081204
881.277680	0.081171
881.461703	0.081022
881.645707	0.081324
881.829694	0.081249
882.013662	0.081182
882.197612	0.081426
882.381544	0.081920
882.565458	0.081866
882.749353	0.081961
882.933230	0.081782
883.117089	0.081817
883.300930	0.081855
883.484753	0.081712
883.668557	0.081248
883.852343	0.080878
884.036111	0.081060
884.219861	0.081178
884.403592	0.081571
884.587305	0.081748
884.771000	0.081680
884.954677	0.081605
885.138335	0.081823
885.321976	0.082239
885.505598	0.082517
885.689201	0.082373
885.872787	0.082658
886.056354	0.082647
886.239904	0.082775
886.423434	0.083014
886.606947	0.083072
886.790442	0.083291
886.973918	0.083332
887.157376	0.083400
887.340816	0.083528
887.524237	0.083407
887.707641	0.083354
887.891026	0.083071
888.074393	0.082998
888.257741	0.082848
888.441072	0.082468
888.624384	0.082225
888.807678	0.082206
888.990954	0.082317
889.174211	0.082407
889.357451	0.082259
889.540672	0.082361
889.723875	0.082524
889.907059	0.082751
890.090226	0.083043
890.273374	0.082920
890.456504	0.082583
890.639616	0.081910
890.822709	0.081821
891.005785	0.081960
891.188842	0.082190
891.371881	0.081972
891.554901	0.081644
891.737904	0.081928
891.920888	0.081960
892.103854	0.082112
892.286802	0.082369
892.469731	0.082386
892.652643	0.082084
892.835536	0.082215
893.018410	0.081960
893.201267	0.082171
893.384106	0.081964
893.566926	0.082516
893.749728	0.082600
893.932511	0.082836
894.115277	0.082579
894.298024	0.082652
894.480753	0.082275
894.663464	0.082675
894.846157	0.082629
895.028831	0.082468
895.211487	0.082037
895.394125	0.082137
895.576745	0.082069
895.759346	0.082254
895.941930	0.082032
896.124495	0.082374
896.307041	0.082215
896.489570	0.081989
896.672080	0.082200
896.854573	0.082105
897.037046	0.082214
897.219502	0.082090
897.401940	0.082068
897.584359	0.082211
897.766760	0.081947
897.949143	0.081870
898.131507	0.081889
898.313854	0.081371
898.496182	0.081532
898.678492	0.081430
898.860783	0.081185
899.043057	0.080995
899.225312	0.081031
899.407549	0.081213
899.589768	0.081253
899.771968	0.081202
899.954151	0.081302
900.136315	0.081010
900.318461	0.080740
900.500588	0.080725
900.682698	0.080858
900.864789	0.080756
901.046862	0.080880
901.228917	0.080918
901.410953	0.081111
901.592971	0.081172
901.774972	0.081389
901.956953	0.081361
902.138917	0.081354
902.320862	0.081343
902.502790	0.081304
902.684699	0.081118
902.866589	0.081112
903.048462	0.081305
903.230316	0.081124
903.412152	0.081112
903.593970	0.081171
903.775770	0.081141
903.957551	0.080957
904.139314	0.081013
904.321059	0.080846
904.502786	0.080885
904.684494	0.080570
904.866185	0.080640
905.047857	0.080488
905.229510	0.080264
905.411146	0.080288
905.592763	0.080533
905.774363	0.080218
905.955943	0.079941
906.137506	0.079820
906.319051	0.079737
906.500577	0.079508
906.682085	0.079311
906.863575	0.079333
907.045046	0.079152
907.226500	0.078699
907.407935	0.078752
907.589352	0.078696
907.770750	0.078497
907.952131	0.078536
908.133493	0.078787
908.314837	0.078568
908.496163	0.078534
908.677470	0.078607
908.858760	0.078693
909.040031	0.078649
909.221284	0.078163
909.402518	0.078088
909.583735	0.077759
909.764933	0.077401
909.946113	0.077357
910.127275	0.077410
910.308418	0.077760
910.489544	0.077775
910.670651	0.077678
910.851740	0.078544
911.032810	0.078161
911.213863	0.078035
911.394897	0.077841
911.575913	0.077961
911.756911	0.077915
911.937890	0.077330
912.118851	0.077014
912.299794	0.077111
912.480719	0.076725
912.661626	0.077051
912.842514	0.077123
913.023384	0.077263
913.204236	0.077007
913.385070	0.077052
913.565886	0.076921
913.746683	0.076708
913.927462	0.076468
914.108223	0.076395
914.288965	0.076178
914.469690	0.075764
914.650396	0.075357
914.831084	0.075399
915.011754	0.074782
915.192405	0.074684
915.373038	0.074576
915.553653	0.074547
915.734250	0.074590
915.914829	0.074718
916.095389	0.074767
916.275931	0.074561
916.456455	0.073817
916.636961	0.073714
916.817448	0.073931
916.997917	0.073503
917.178368	0.073164
917.358801	0.072654
917.539216	0.072001
917.719612	0.072294
917.899990	0.072593
918.080350	0.072860
918.260692	0.072494
918.441015	0.072142
918.621320	0.072482
918.801607	0.072613
918.981876	0.072429
919.162127	0.072182
919.342359	0.071543
919.522573	0.071108
919.702769	0.070966
919.882947	0.070917
920.063106	0.070165
920.243247	0.069988
920.423370	0.069573
920.603475	0.069434
920.783562	0.069468
920.963630	0.069219
921.143680	0.069345
921.323712	0.069155
921.503725	0.068808
921.683721	0.068766
921.863698	0.068576
922.043657	0.068564
922.223598	0.068205
922.403520	0.068264
922.583424	0.068389
922.763311	0.068083
922.943178	0.067835
923.123028	0.067990
923.302859	0.068139
923.482673	0.068530
923.662467	0.068291
923.842244	0.068053
924.022003	0.067910
924.201743	0.067909
924.381465	0.067761
924.561169	0.067729
924.740854	0.067130
924.920522	0.067152
925.100171	0.066093
925.279802	0.065820
925.459414	0.066061
925.639009	0.066313
925.818585	0.065639
925.998143	0.065205
926.177683	0.065144
926.357205	0.065181
926.536708	0.064921
926.716193	0.065199
926.895660	0.064931
927.075109	0.064166
927.254539	0.063162
927.433951	0.062883
927.613345	0.063065
927.792721	0.063029
927.972079	0.063245
928.151418	0.062833
928.330739	0.062231
928.510042	0.062305
928.689327	0.062512
928.868593	0.062243
929.047841	0.062397
929.227071	0.062256
929.406283	0.062047
929.585476	0.062059
929.764652	0.061968
929.943809	0.061630
930.122948	0.061544
930.302068	0.061141
930.481171	0.060697
930.660255	0.060491
930.839321	0.060359
931.018369	0.059676
931.197398	0.059200
931.376409	0.058825
931.555402	0.059333
931.734377	0.058316
931.913334	0.058352
932.092272	0.058128
932.271192	0.057875
932.450094	0.057427
932.628978	0.057665
932.807844	0.057120
932.986691	0.056684
933.165520	0.055732
933.344331	0.056762
933.523123	0.056188
933.701898	0.056858
933.880654	0.056455
934.059392	0.056696
934.238111	0.056331
934.416813	0.055992
934.595496	0.055910
934.774161	0.056146
934.952808	0.055293
935.131437	0.055050
935.310047	0.054022
935.488639	0.053543
935.667213	0.053185
935.845769	0.052721
936.024306	0.052981
936.202825	0.052773
936.381326	0.052895
936.559809	0.052421
936.738274	0.052718
936.916720	0.053270
937.095148	0.053291
937.273558	0.053118
937.451950	0.053164
937.630323	0.053655
937.808678	0.053194
937.987015	0.052374
938.165334	0.052670
938.343635	0.052043
938.521917	0.051286
938.700181	0.051435
938.878427	0.050970
939.056655	0.050920
939.234864	0.049965
939.413055	0.050430
939.591228	0.049987
939.769383	0.048412
939.947519	0.048882
940.125638	0.049501
940.303738	0.049443
940.481820	0.048469
940.659883	0.048188
940.837929	0.047137
941.015956	0.047206
941.193965	0.047456
941.371955	0.048422
941.549928	0.046643
941.727882	0.045549
941.905818	0.044802
942.083736	0.044876
942.261636	0.044144
942.439517	0.044321
942.617380	0.043276
942.795225	0.042586
942.973052	0.042728
943.150860	0.043936
943.328651	0.043064
943.506423	0.043523
943.684176	0.044180
943.861912	0.044317
944.039629	0.043836
944.217328	0.044323
944.395009	0.044293
944.572672	0.043240
944.750317	0.042673
944.927943	0.043848
945.105551	0.043705
945.283141	0.042669
945.460712	0.041997
945.638265	0.041375
945.815801	0.040399
945.993317	0.040801
946.170816	0.041225
946.348297	0.040377
946.525759	0.040405
946.703203	0.039499
946.880629	0.039501
947.058036	0.038726
947.235425	0.039717
947.412797	0.039733
947.590149	0.040103
947.767484	0.038897
947.944800	0.039769
948.122099	0.038659
948.299379	0.038600
948.476640	0.037914
948.653884	0.038870
948.831109	0.038697
949.008316	0.039413
949.185505	0.039234
949.362676	0.039299
949.539828	0.037486
949.716962	0.037046
949.894078	0.036653
950.071176	0.036221
950.248256	0.035467
950.425317	0.034739
950.602360	0.033685
950.779385	0.032712
950.956391	0.033267
951.133380	0.034740
951.310350	0.034612
951.487302	0.034119
951.664235	0.034829
951.841151	0.036281
952.018048	0.037882
952.194927	0.038174
952.371788	0.038022
952.548631	0.037560
952.725455	0.037748
952.902261	0.038119
953.079049	0.038747
953.255819	0.037810
953.432570	0.037079
953.609303	0.036650
953.786018	0.036557
953.962715	0.036413
954.139394	0.036930
954.316054	0.035947
954.492696	0.037462
954.669320	0.038335
954.845926	0.038777
955.022513	0.039812
955.199083	0.039839
955.375634	0.039776
955.552166	0.038998
955.728681	0.039379
955.905177	0.039472
956.081655	0.038735
956.258115	0.037721
956.434557	0.037594
956.610980	0.036008
956.787385	0.033225
956.963772	0.032843
957.140141	0.034506
957.316492	0.033865
957.492824	0.035425
957.669138	0.034056
957.845434	0.034542
958.021712	0.036023
958.197971	0.035672
958.374212	0.037243
958.550435	0.036740
958.726640	0.034485
958.902826	0.034659
959.078995	0.034015
959.255145	0.034778
959.431277	0.033677
959.607390	0.033419
959.783486	0.034378
959.959563	0.035857
960.135622	0.036914
960.311662	0.037834
960.487685	0.036815
960.663689	0.036377
960.839675	0.037191
961.015643	0.037970
961.191593	0.038430
961.367524	0.038288
961.543437	0.036889
961.719332	0.038496
961.895209	0.039812
962.071067	0.041515
962.246907	0.043060
962.422730	0.044464
962.598533	0.046460
962.774319	0.046835
962.950086	0.047293
963.125835	0.046931
963.301566	0.047322
963.477279	0.045041
963.652973	0.045076
963.828650	0.044118
964.004308	0.042058
964.179947	0.041992
964.355569	0.039825
964.531172	0.040296
964.706757	0.040892
964.882324	0.039990
965.057873	0.042053
965.233403	0.042601
965.408916	0.041797
965.584410	0.043688
965.759885	0.041958
965.935343	0.043627
966.110782	0.043095
966.286203	0.043468
966.461606	0.044337
966.636991	0.044076
966.812357	0.043385
966.987705	0.045202
967.163035	0.042352
967.338347	0.043016
967.513641	0.043772
967.688916	0.043891
967.864173	0.045110
968.039412	0.042447
968.214632	0.044408
968.389835	0.043399
968.565019	0.041774
968.740185	0.042944
968.915333	0.042498
969.090462	0.042124
969.265573	0.041299
969.440667	0.039053
969.615741	0.041600
969.790798	0.039470
969.965836	0.038609
970.140856	0.038738
970.315858	0.038783
970.490842	0.039618
970.665808	0.038616
970.840755	0.039336
971.015684	0.038113
971.190595	0.035977
971.365487	0.036276
971.540362	0.038270
971.715218	0.038116
971.890056	0.038561
972.064875	0.038075
972.239677	0.039153
972.414460	0.038182
972.589225	0.040210
972.763972	0.042010
972.938700	0.042589
973.113411	0.041031
973.288103	0.043009
973.462777	0.042872
973.637432	0.043885
973.812070	0.042121
973.986689	0.042717
974.161290	0.043113
974.335873	0.040782
974.510437	0.040071
974.684984	0.041537
974.859512	0.041281
975.034022	0.039303
975.208513	0.039255
975.382987	0.039427
975.557442	0.038422
975.731879	0.039422
975.906298	0.039958
976.080698	0.040974
976.255080	0.039960
976.429445	0.040098
976.603790	0.041967
976.778118	0.040544
976.952427	0.040842
977.126719	0.041630
977.300992	0.040702
977.475246	0.042208
977.649483	0.042539
977.823701	0.042993
977.997901	0.043190
978.172083	0.043705
978.346247	0.044527
978.520392	0.044523
978.694519	0.045231
978.868628	0.045793
979.042719	0.044173
979.216791	0.043889
979.390845	0.045013
979.564882	0.044356
979.738899	0.043852
979.912899	0.042713
980.086880	0.041899
980.260843	0.042390
980.434788	0.042065
980.608715	0.042901
980.782623	0.043390
980.956514	0.041973
981.130386	0.041248
981.304240	0.041952
981.478075	0.041712
981.651892	0.043320
981.825692	0.043026
981.999472	0.043659
982.173235	0.044216
982.346980	0.043698
982.520706	0.045689
982.694414	0.046247
982.868104	0.046178
983.041775	0.048240
983.215428	0.047842
983.389064	0.046885
983.562680	0.046040
983.736279	0.046215
983.909860	0.045504
984.083422	0.043490
984.256966	0.042874
984.430491	0.042560
984.603999	0.042403
984.777488	0.041885
984.950959	0.042152
985.124412	0.043120
985.297847	0.043452
985.471263	0.043045
985.644661	0.043988
985.818041	0.044438
985.991403	0.043686
986.164747	0.042716
986.338072	0.044050
986.511379	0.044780
986.684668	0.042986
986.857938	0.042608
987.031191	0.043289
987.204425	0.043374
987.377641	0.042568
987.550839	0.043150
987.724018	0.043390
987.897179	0.041971
988.070322	0.042267
988.243447	0.041878
988.416554	0.041797
988.589642	0.042333
988.762712	0.043305
988.935764	0.042669
989.108798	0.042782
989.281813	0.044044
989.454811	0.044759
989.627790	0.043616
989.800751	0.044784
989.973693	0.045165
990.146617	0.043400
990.319524	0.040737
990.492412	0.042346
990.665281	0.041220
990.838133	0.038827
991.010966	0.039052
991.183781	0.038641
991.356578	0.038524
991.529356	0.036857
991.702117	0.038108
991.874859	0.039065
992.047583	0.038218
992.220288	0.038632
992.392976	0.039912
992.565645	0.040916
992.738296	0.039498
992.910929	0.038577
993.083543	0.038710
993.256139	0.038973
993.428718	0.039085
993.601277	0.039105
993.773819	0.039250
993.946342	0.039144
994.118848	0.037459
994.291335	0.039750
994.463803	0.040049
994.636254	0.040874
994.808686	0.041452
994.981100	0.041739
995.153496	0.040962
995.325874	0.040181
995.498233	0.039739
995.670574	0.040583
995.842897	0.040862
996.015202	0.041313
996.187488	0.041182
996.359757	0.039311
996.532007	0.040093
996.704239	0.041162
996.876452	0.040784
997.048648	0.040644
997.220825	0.040230
997.392984	0.040750
997.565124	0.040387
997.737247	0.040624
997.909351	0.040085
998.081437	0.038917
998.253505	0.038442
998.425554	0.038809
998.597586	0.039303
998.769599	0.039887
998.941594	0.038755
999.113571	0.039298
999.285529	0.039092
999.457469	0.039585
999.629391	0.041490
999.801295	0.042688
999.973181	0.043457
1000.145048	0.043693
1000.316897	0.042848
1000.488728	0.042229
1000.660541	0.042529
1000.832335	0.043601
1001.004111	0.044308
1001.175869	0.042886
1001.347609	0.040778
1001.519331	0.039874
1001.691034	0.039026
1001.862719	0.038365
1002.034386	0.039730
1002.206035	0.038735
1002.377665	0.037729
1002.549277	0.038368
1002.720871	0.038150
1002.892447	0.040462
1003.064004	0.041482
1003.235544	0.042361
1003.407065	0.043034
1003.578568	0.042863
1003.750052	0.042576
1003.921519	0.042014
1004.092967	0.040779
1004.264397	0.041165
1004.435809	0.040058
1004.607202	0.038775
1004.778577	0.037471
1004.949934	0.037118
1005.121273	0.035327
1005.292594	0.036505
1005.463896	0.036242
1005.635180	0.036891
1005.806446	0.036363
1005.977694	0.037092
1006.148923	0.038180
1006.320135	0.039081
1006.491328	0.039789
1006.662503	0.039703
1006.833659	0.039710
1007.004798	0.039515
1007.175918	0.039748
1007.347020	0.038397
1007.518103	0.037414
1007.689169	0.037845
1007.860216	0.038099
1008.031245	0.036584
1008.202256	0.037747
1008.373248	0.037746
1008.544223	0.037429
1008.715179	0.035492
1008.886117	0.035971
1009.057036	0.035504
1009.227938	0.036283
1009.398821	0.034219
1009.569686	0.036779
1009.740533	0.036870
1009.911361	0.035518
1010.082172	0.035925
1010.252964	0.037258
1010.423738	0.037627
1010.594493	0.039539
1010.765231	0.037947
1010.935950	0.039749
1011.106651	0.039568
1011.277334	0.038940
1011.447998	0.039771
1011.618645	0.039823
1011.789273	0.039991
1011.959882	0.038233
1012.130474	0.036269
1012.301048	0.037841
1012.471603	0.037408
1012.642140	0.036028
1012.812658	0.035814
1012.983159	0.034795
1013.153641	0.034914
1013.324105	0.033623
1013.494551	0.037101
1013.664979	0.037662
1013.835388	0.035732
1014.005779	0.035893
1014.176152	0.035854
1014.346507	0.035970
1014.516843	0.037598
1014.687162	0.037808
1014.857462	0.039329
1015.027744	0.036646
1015.198007	0.036529
1015.368252	0.037197
1015.538480	0.035670
1015.708689	0.035927
1015.878879	0.035846
1016.049052	0.033970
1016.219206	0.035661
1016.389342	0.034859
1016.559460	0.036097
1016.729559	0.033477
1016.899641	0.033271
1017.069704	0.033814
1017.239749	0.033977
1017.409775	0.034346
1017.579784	0.033687
1017.749774	0.032271
1017.919746	0.032028
1018.089700	0.031312
1018.259635	0.033875
1018.429553	0.034689
1018.599452	0.035852
1018.769333	0.036865
1018.939195	0.036874
1019.109040	0.038499
1019.278866	0.038972
1019.448674	0.040904
1019.618464	0.042075
1019.788235	0.042705
1019.957989	0.041792
1020.127724	0.041614
1020.297441	0.039962
1020.467139	0.041291
1020.636820	0.040188
1020.806482	0.039222
1020.976126	0.037792
1021.145752	0.036418
1021.315359	0.035136
1021.484948	0.035447
1021.654519	0.037287
1021.824072	0.037012
1021.993607	0.035847
1022.163123	0.036830
1022.332621	0.036910
1022.502101	0.036249
1022.671563	0.035684
1022.841007	0.036397
1023.010432	0.036443
1023.179839	0.034322
1023.349228	0.035096
1023.518598	0.036102
1023.687951	0.036413
1023.857285	0.035796
1024.026601	0.037338
1024.195899	0.038168
1024.365178	0.038482
1024.534439	0.036532
1024.703682	0.036486
1024.872907	0.036383
1025.042114	0.032910
1025.211302	0.032774
1025.380472	0.035735
1025.549624	0.034926
1025.718758	0.034737
1025.887873	0.034210
1026.056970	0.036152
1026.226049	0.037315
1026.395110	0.036997
1026.564153	0.039497
1026.733177	0.039624
1026.902183	0.036126
1027.071171	0.036041
1027.240141	0.036374
1027.409092	0.036521
1027.578026	0.036609
1027.746940	0.036127
1027.915837	0.035413
1028.084716	0.036046
1028.253576	0.036511
1028.422418	0.037323
1028.591242	0.036619
1028.760048	0.036580
1028.928835	0.035879
1029.097604	0.035045
1029.266355	0.033506
1029.435088	0.034347
1029.603803	0.032886
1029.772499	0.032564
1029.941177	0.031860
1030.109837	0.032743
1030.278478	0.032999
1030.447102	0.033740
1030.615707	0.034019
1030.784294	0.034249
1030.952863	0.033288
1031.121413	0.033721
1031.289945	0.033836
1031.458460	0.036067
1031.626955	0.036185
1031.795433	0.035285
1031.963892	0.035087
1032.132334	0.035305
1032.300756	0.036992
1032.469161	0.038926
1032.637548	0.038925
1032.805916	0.038371
1032.974266	0.037388
1033.142598	0.037618
1033.310911	0.038112
1033.479207	0.038903
1033.647484	0.038690
1033.815743	0.037259
1033.983983	0.036002
1034.152206	0.037020
1034.320410	0.035476
1034.488596	0.035567
1034.656764	0.034653
1034.824914	0.034902
1034.993045	0.033748
1035.161158	0.034101
1035.329253	0.034704
1035.497330	0.034925
1035.665388	0.033344
1035.833428	0.035819
1036.001450	0.036737
1036.169454	0.037537
1036.337440	0.036390
1036.505407	0.037170
1036.673356	0.036029
1036.841287	0.036349
1037.009200	0.036590
1037.177094	0.036549
1037.344970	0.035815
1037.512828	0.034424
1037.680668	0.032916
1037.848489	0.032988
1038.016293	0.032368
1038.184078	0.034245
1038.351845	0.033363
1038.519593	0.034213
1038.687324	0.034702
1038.855036	0.034146
1039.022730	0.034353
1039.190406	0.034831
1039.358063	0.036530
1039.525702	0.037508
1039.693323	0.035820
1039.860926	0.036775
1040.028511	0.034537
1040.196077	0.034956
1040.363625	0.036562
1040.531155	0.036490
1040.698667	0.038143
1040.866161	0.037295
1041.033636	0.036700
1041.201093	0.037868
1041.368532	0.038693
1041.535952	0.040704
1041.703355	0.040100
1041.870739	0.039078
1042.038105	0.037938
1042.205452	0.037417
1042.372782	0.037794
1042.540093	0.039486
1042.707386	0.039261
1042.874661	0.037343
1043.041918	0.035768
1043.209156	0.036531
1043.376376	0.037483
1043.543578	0.039354
1043.710762	0.037996
1043.877927	0.037942
1044.045074	0.036694
1044.212203	0.037409
1044.379314	0.037610
1044.546407	0.039696
1044.713481	0.038052
1044.880537	0.037308
1045.047575	0.036322
1045.214595	0.036229
1045.381596	0.035657
1045.548579	0.035487
1045.715544	0.034405
1045.882491	0.034656
1046.049420	0.034419
1046.216330	0.034897
1046.383222	0.035296
1046.550096	0.036972
1046.716951	0.037968
1046.883789	0.039189
1047.050608	0.037902
1047.217409	0.037667
1047.384192	0.037292
1047.550956	0.036522
1047.717703	0.036863
1047.884431	0.034966
1048.051140	0.032007
1048.217832	0.031807
1048.384505	0.030593
1048.551161	0.030688
1048.717798	0.030835
1048.884416	0.031195
1049.051017	0.029913
1049.217599	0.029640
1049.384163	0.031090
1049.550709	0.033050
1049.717237	0.033306
1049.883746	0.034802
1050.050237	0.034864
1050.216710	0.034759
1050.383165	0.035012
1050.549601	0.036055
1050.716019	0.037153
1050.882420	0.035879
1051.048801	0.035332
1051.215165	0.035726
1051.381510	0.034241
1051.547837	0.034909
1051.714146	0.035611
1051.880437	0.035227
1052.046709	0.034224
1052.212964	0.033068
1052.379200	0.032920
1052.545417	0.033313
1052.711617	0.031177
1052.877798	0.031457
1053.043961	0.030692
1053.210106	0.029299
1053.376233	0.028229
1053.542341	0.029520
1053.708432	0.029877
1053.874504	0.030081
1054.040557	0.028636
1054.206593	0.031058
1054.372610	0.031058
1054.538609	0.030710
1054.704590	0.032180
1054.870553	0.033992
1055.036497	0.033635
1055.202424	0.034330
1055.368331	0.035483
1055.534221	0.036932
1055.700093	0.036038
1055.865946	0.036030
1056.031781	0.036649
1056.197598	0.035563
1056.363397	0.035610
1056.529177	0.035926
1056.694939	0.035001
1056.860683	0.034112
1057.026409	0.033492
1057.192116	0.032733
1057.357806	0.033338
1057.523477	0.032657
1057.689130	0.033817
1057.854764	0.031529
1058.020381	0.031653
1058.185979	0.032282
1058.351559	0.033043
1058.517120	0.034220
1058.682664	0.033904
1058.848189	0.032966
1059.013696	0.034448
1059.179185	0.035473
1059.344656	0.037154
1059.510108	0.036398
1059.675542	0.036435
1059.840958	0.036851
1060.006356	0.036116
1060.171735	0.036447
1060.337096	0.035663
1060.502439	0.035115
1060.667764	0.033421
1060.833071	0.031958
1060.998359	0.031582
1061.163629	0.031789
1061.328881	0.029934
1061.494115	0.028803
1061.659330	0.029043
1061.824527	0.031718
1061.989706	0.032839
1062.154867	0.032357
1062.320010	0.033884
1062.485134	0.035413
1062.650240	0.033037
1062.815328	0.034164
1062.980398	0.034475
1063.145449	0.032437
1063.310482	0.031083
1063.475497	0.029816
1063.640494	0.032023
1063.805473	0.031571
1063.970433	0.030481
1064.135375	0.032694
1064.300299	0.032391
1064.465204	0.033769
1064.630092	0.036083
1064.794961	0.035345
1064.959812	0.034289
1065.124645	0.031753
1065.289459	0.031503
1065.454256	0.030911
1065.619034	0.030243
1065.783793	0.029483
1065.948535	0.026934
1066.113258	0.027731
1066.277964	0.027468
1066.442651	0.028328
1066.607319	0.030596
1066.771970	0.031446
1066.936602	0.033093
1067.101216	0.033783
1067.265812	0.034124
1067.430389	0.036541
1067.594949	0.035225
1067.759490	0.036042
1067.924013	0.036346
1068.088518	0.035130
1068.253004	0.036667
1068.417472	0.034808
1068.581922	0.035259
1068.746354	0.036554
1068.910768	0.035450
1069.075163	0.037765
1069.239540	0.038283
1069.403899	0.037705
1069.568240	0.040354
1069.732562	0.038519
1069.896866	0.039137
1070.061152	0.039601
1070.225420	0.038621
1070.389670	0.038285
1070.553901	0.036562
1070.718114	0.034835
1070.882309	0.036392
1071.046486	0.032911
1071.210644	0.033148
1071.374784	0.032132
1071.538906	0.030991
1071.703010	0.030708
1071.867096	0.033980
1072.031163	0.034061
1072.195212	0.034548
1072.359243	0.033487
1072.523256	0.033921
1072.687250	0.033600
1072.851226	0.034781
1073.015184	0.036760
1073.179124	0.036039
1073.343045	0.032878
1073.506949	0.032627
1073.670834	0.032866
1073.834701	0.033534
1073.998549	0.033932
1074.162380	0.034593
1074.326192	0.033960
1074.489986	0.031288
1074.653761	0.032095
1074.817519	0.032935
1074.981258	0.032042
1075.144979	0.033249
1075.308682	0.034071
1075.472367	0.031744
1075.636033	0.031752
1075.799681	0.034318
1075.963311	0.036032
1076.126923	0.036762
1076.290516	0.036577
1076.454092	0.037650
1076.617649	0.037431
1076.781187	0.035842
1076.944708	0.038713
1077.108210	0.038278
1077.271695	0.037278
1077.435160	0.035223
1077.598608	0.033806
1077.762038	0.033193
1077.925449	0.032201
1078.088842	0.031240
1078.252217	0.033311
1078.415573	0.034118
1078.578912	0.033650
1078.742232	0.031979
1078.905534	0.033525
1079.068817	0.034696
1079.232083	0.037841
1079.395330	0.039039
1079.558559	0.039375
1079.721770	0.036139
1079.884962	0.037229
1080.048136	0.036802
1080.211293	0.036831
1080.374430	0.035428
1080.537550	0.035797
1080.700651	0.033685
1080.863735	0.032572
1081.026800	0.033478
1081.189846	0.036458
1081.352875	0.033636
1081.515885	0.034039
1081.678877	0.034311
1081.841851	0.034224
1082.004807	0.033233
1082.167744	0.033768
1082.330663	0.035616
1082.493564	0.034062
1082.656447	0.031237
1082.819312	0.030298
1082.982158	0.029302
1083.144986	0.028017
1083.307796	0.029726
1083.470587	0.030909
1083.633361	0.029958
1083.796116	0.028628
1083.958853	0.030476
1084.121571	0.032794
1084.284272	0.033250
1084.446954	0.036110
1084.609618	0.038780
1084.772264	0.037044
1084.934892	0.036046
1085.097501	0.034940
1085.260092	0.034669
1085.422665	0.034493
1085.585220	0.034378
1085.747756	0.034564
1085.910274	0.031541
1086.072774	0.032031
1086.235256	0.031435
1086.397720	0.032136
1086.560165	0.035326
1086.722592	0.034285
1086.885001	0.031902
1087.047392	0.028640
1087.209764	0.029056
1087.372119	0.031138
1087.534455	0.030626
1087.696772	0.030835
1087.859072	0.029706
1088.021353	0.028931
1088.183616	0.028858
1088.345861	0.031493
1088.508088	0.034424
1088.670296	0.033675
1088.832486	0.035617
1088.994658	0.032260
1089.156812	0.033916
1089.318948	0.034163
1089.481065	0.033182
1089.643164	0.035725
1089.805245	0.033518
1089.967308	0.033757
1090.129352	0.034423
1090.291378	0.030037
1090.453386	0.032361
1090.615376	0.033294
1090.777347	0.033404
1090.939301	0.034114
1091.101236	0.034431
1091.263153	0.034502
1091.425051	0.033068
1091.586932	0.032380
1091.748794	0.034410
1091.910638	0.033889
1092.072463	0.033355
1092.234271	0.034532
1092.396060	0.033494
1092.557831	0.032513
1092.719584	0.032742
1092.881319	0.033982
1093.043035	0.035448
1093.204733	0.033553
1093.366413	0.033566
1093.528075	0.032405
1093.689718	0.029320
1093.851343	0.027919
1094.012950	0.028009
1094.174539	0.027718
1094.336110	0.027727
1094.497662	0.026186
1094.659196	0.027680
1094.820712	0.027874
1094.982210	0.028519
1095.143689	0.033218
1095.305151	0.032236
1095.466594	0.033472
1095.628018	0.036498
1095.789425	0.034589
1095.950813	0.032758
1096.112183	0.032227
1096.273535	0.032873
1096.434869	0.034611
1096.596184	0.034142
1096.757482	0.035796
1096.918761	0.032322
1097.080021	0.030151
1097.241264	0.031846
1097.402488	0.035233
1097.563694	0.037108
1097.724882	0.038152
1097.886052	0.033916
1098.047203	0.034162
1098.208336	0.035968
1098.369451	0.038647
1098.530548	0.040725
1098.691627	0.041631
1098.852687	0.040180
1099.013729	0.039284
1099.174753	0.036487
1099.335758	0.037345
1099.496746	0.035488
1099.657715	0.035456
1099.818666	0.035484
1099.979599	0.031804
1100.140513	0.028352
1100.301409	0.028419
1100.462287	0.030412
1100.623147	0.032557
1100.783989	0.035096
1100.944812	0.034162
1101.105617	0.033925
1101.266404	0.034954
1101.427173	0.037925
1101.587923	0.039528
1101.748656	0.040648
1101.909370	0.038300
1102.070066	0.036483
1102.230743	0.034008
1102.391403	0.033837
1102.552044	0.032077
1102.712667	0.032607
1102.873271	0.030390
1103.033858	0.030703
1103.194426	0.029303
1103.354976	0.027316
1103.515508	0.027719
1103.676021	0.029544
1103.836517	0.028475
1103.996994	0.028120
1104.157453	0.024512
1104.317893	0.026408
1104.478316	0.024407
1104.638720	0.023821
1104.799106	0.025062
1104.959474	0.023071
1105.119823	0.021598
1105.280155	0.021995
1105.440468	0.022608
1105.600763	0.030156
1105.761039	0.030207
1105.921298	0.032983
1106.081538	0.031381
1106.241760	0.031449
1106.401964	0.034850
1106.562149	0.035105
1106.722316	0.034101
1106.882465	0.033995
1107.042596	0.025836
1107.202709	0.023729
1107.362803	0.022537
1107.522879	0.026224
1107.682937	0.024987
1107.842977	0.023549
1108.002999	0.022992
1108.163002	0.023116
1108.322987	0.024552
1108.482954	0.026708
1108.642902	0.026473
1108.802833	0.030868
1108.962745	0.029290
1109.122639	0.032712
1109.282515	0.033849
1109.442372	0.033126
1109.602211	0.036268
1109.762032	0.034964
1109.921835	0.032190
1110.081620	0.031206
1110.241386	0.025631
1110.401134	0.027413
1110.560864	0.028439
1110.720576	0.027962
1110.880269	0.030334
1111.039945	0.029205
1111.199602	0.028580
1111.359240	0.032939
1111.518861	0.035982
1111.678463	0.040255
1111.838047	0.042485
1111.997613	0.039284
1112.157161	0.038673
1112.316690	0.036263
1112.476202	0.041022
1112.635695	0.044616
1112.795169	0.041701
1112.954626	0.039156
1113.114064	0.033613
1113.273484	0.031331
1113.432886	0.024002
1113.592270	0.024692
1113.751635	0.025303
1113.910983	0.022678
1114.070312	0.020449
1114.229622	0.019586
1114.388915	0.021457
1114.548189	0.022846
1114.707445	0.018870
1114.866683	0.030005
1115.025903	0.027952
1115.185104	0.033080
1115.344287	0.031856
1115.503452	0.033837
1115.662599	0.034429
1115.821727	0.034654
1115.980838	0.033921
1116.139930	0.037848
1116.299004	0.030530
1116.458059	0.034709
1116.617097	0.031933
1116.776116	0.030844
1116.935117	0.028574
1117.094099	0.030405
1117.253064	0.030111
1117.412010	0.033294
1117.570938	0.035622
1117.729848	0.038338
1117.888740	0.036409
1118.047613	0.033290
1118.206468	0.032846
1118.365305	0.035176
1118.524124	0.035187
1118.682924	0.034941
1118.841707	0.037114
1119.000471	0.034738
1119.159216	0.036531
1119.317944	0.033605
1119.476653	0.039853
1119.635344	0.036768
1119.794017	0.035039
1119.952672	0.034408
1120.111308	0.033711
1120.269927	0.030616
1120.428527	0.029257
1120.587108	0.031290
1120.745672	0.030434
1120.904217	0.024528
1121.062744	0.033308
1121.221253	0.034919
1121.379744	0.037041
1121.538216	0.037094
1121.696671	0.035878
1121.855107	0.035983
1122.013524	0.031854
1122.171924	0.034099
1122.330305	0.040996
1122.488668	0.037314
1122.647013	0.035684
1122.805340	0.031347
1122.963648	0.029593
1123.121938	0.032286
1123.280210	0.026244
1123.438464	0.027161
1123.596700	0.026931
1123.754917	0.018966
1123.913116	0.017625
1124.071297	0.016675
1124.229459	0.017597
1124.387604	0.024028
1124.545730	0.023029
1124.703838	0.031470
1124.861928	0.037243
1125.019999	0.036870
1125.178052	0.039172
1125.336088	0.038348
1125.494104	0.041089
1125.652103	0.039811
1125.810083	0.036437
1125.968045	0.033321
1126.125989	0.027776
1126.283915	0.021628
1126.441823	0.024200
1126.599712	0.024357
1126.757583	0.028124
1126.915436	0.028555
1127.073270	0.028274
1127.231087	0.030749
1127.388885	0.033134
1127.546665	0.034523
1127.704426	0.035781
1127.862170	0.036957
1128.019895	0.036809
1128.177602	0.032239
1128.335291	0.029290
1128.492961	0.036868
1128.650614	0.036108
1128.808248	0.032634
1128.965864	0.036273
1129.123461	0.035362
1129.281041	0.028835
1129.438602	0.030336
1129.596145	0.033321
1129.753670	0.035920
1129.911176	0.030737
1130.068665	0.026323
1130.226135	0.027588
1130.383587	0.029013
1130.541020	0.030211
1130.698436	0.035366
1130.855833	0.033079
1131.013212	0.033202
1131.170573	0.032859
1131.327915	0.031527
1131.485239	0.037542
1131.642545	0.043547
1131.799833	0.043191
1131.957103	0.037963
1132.114354	0.043429
1132.271588	0.044463
1132.428803	0.044798
1132.585999	0.043412
1132.743178	0.043311
1132.900338	0.039262
1133.057480	0.034014
1133.214604	0.030442
1133.371710	0.035041
1133.528797	0.034443
1133.685866	0.034009
1133.842917	0.030961
1133.999950	0.026874
1134.156964	0.028293
1134.313960	0.026916
1134.470938	0.029768
1134.627898	0.028747
1134.784840	0.030563
1134.941763	0.027315
1135.098668	0.027837
1135.255555	0.032562
1135.412424	0.036305
1135.569274	0.035690
1135.726107	0.035785
1135.882921	0.035431
1136.039716	0.038426
1136.196494	0.033093
1136.353253	0.028865
1136.509995	0.027251
1136.666717	0.020316
1136.823422	0.019634
1136.980109	0.016205
1137.136777	0.017780
1137.293427	0.015795
1137.450059	0.013947
1137.606672	0.018421
1137.763267	0.019677
1137.919844	0.024077
1138.076403	0.027451
1138.232944	0.029205
1138.389466	0.035178
1138.545971	0.039339
1138.702457	0.038845
1138.858924	0.040568
1139.015374	0.041009
1139.171805	0.043893
1139.328218	0.043340
1139.484613	0.044553
1139.640990	0.041784
1139.797348	0.042729
1139.953688	0.032669
1140.110010	0.037872
1140.266314	0.039855
1140.422600	0.034022
1140.578867	0.033638
1140.735116	0.029952
1140.891347	0.029724
1141.047559	0.032159
1141.203754	0.028181
1141.359930	0.030922
1141.516088	0.023403
1141.672228	0.017394
1141.828349	0.017359
1141.984452	0.019523
1142.140537	0.018036
1142.296604	0.015133
1142.452653	0.016627
1142.608683	0.022751
1142.764695	0.023610
1142.920689	0.027542
1143.076665	0.028962
1143.232622	0.027215
1143.388562	0.017482
1143.544483	0.023879
1143.700385	0.027098
1143.856270	0.018506
1144.012136	0.009571
1144.167985	0.006992
1144.323814	0.006885
1144.479626	0.012328
1144.635420	0.014574
1144.791195	0.021985
1144.946952	0.016990
1145.102691	0.016276
1145.258411	0.028733
1145.414113	0.028937
1145.569798	0.028549
1145.725463	0.028061
1145.881111	0.024332
1146.036741	0.026965
1146.192352	0.024108
1146.347945	0.022187
1146.503519	0.022563
1146.659076	0.015038
1146.814614	0.018411
1146.970134	0.025766
1147.125636	0.029073
1147.281120	0.026853
1147.436585	0.029471
1147.592032	0.034953
1147.747461	0.037699
1147.902872	0.038129
1148.058265	0.034396
1148.213639	0.033041
1148.368995	0.030926
1148.524333	0.026512
1148.679653	0.034821
1148.834954	0.028577
1148.990237	0.023782
1149.145502	0.029437
1149.300749	0.024862
1149.455977	0.025763
1149.611188	0.026904
1149.766380	0.026458
1149.921553	0.023687
1150.076709	0.015478
1150.231846	0.021908
1150.386966	0.018262
1150.542066	0.006617
1150.697149	0.014506
1150.852214	0.021900
1151.007260	0.020791
1151.162288	0.016479
1151.317298	0.025099
1151.472289	0.030462
1151.627263	0.026743
1151.782218	0.037415
1151.937155	0.042433
1152.092073	0.037182
1152.246974	0.023488
1152.401856	0.026282
1152.556720	0.031378
1152.711566	0.030112
1152.866393	0.025277
1153.021203	0.029991
1153.175994	0.024444
1153.330767	0.031933
1153.485521	0.028205
1153.640258	0.033005
1153.794976	0.034159
1153.949676	0.027429
1154.104358	0.026632
1154.259021	0.027137
1154.413667	0.024105
1154.568294	0.021268
1154.722903	0.014151
1154.877493	0.012688
1155.032066	0.014346
1155.186620	0.004550
1155.341156	0.012440
1155.495674	0.014343
1155.650173	0.019597
1155.804654	0.017114
1155.959118	0.019652
1156.113562	0.023186
1156.267989	0.034222
1156.422397	0.038322
1156.576788	0.043408
1156.731160	0.038542
1156.885513	0.032770
1157.039849	0.026024
1157.194166	0.026106
1157.348465	0.031227
1157.502746	0.031368
1157.657009	0.022981
1157.811253	0.018730
1157.965479	0.022162
1158.119687	0.017622
1158.273877	0.020727
1158.428048	0.015353
1158.582201	0.026054
1158.736337	0.017975
1158.890453	0.014225
1159.044552	0.021232
1159.198632	0.021117
1159.352694	0.023024
1159.506738	0.026792
1159.660764	0.014309
1159.814771	0.021880
1159.968761	0.009508
1160.122732	0.003793
1160.276685	-0.002690
1160.430619	-0.010155
1160.584535	-0.010220
1160.738434	-0.009142
1160.892313	-0.014721
1161.046175	-0.002029
1161.200019	0.001662
1161.353844	0.003337
1161.507651	0.004495
1161.661440	0.009578
1161.815210	0.007838
1161.968962	0.016031
1162.122697	0.016858
1162.276412	0.028424
1162.430110	0.021669
1162.583789	0.016605
1162.737451	0.019771
1162.891094	0.027576
1163.044718	0.034953
1163.198325	0.036718
1163.351913	0.029866
1163.505483	0.023814
1163.659035	0.016621
1163.812569	0.023209
1163.966084	0.023591
1164.119581	0.024172
1164.273060	0.021817
1164.426521	0.016624
1164.579964	0.018426
1164.733388	0.019144
1164.886794	0.018213
1165.040182	0.026310
1165.193551	0.018224
1165.346903	0.014221
1165.500236	0.013241
1165.653551	0.009207
1165.806848	0.015587
1165.960126	0.007434
1166.113386	0.007118
1166.266628	0.009626
1166.419852	0.003432
1166.573058	0.000161
1166.726245	0.001561
1166.879414	0.000875
1167.032565	0.009065
1167.185698	0.004111
1167.338812	0.013613
1167.491909	0.017302
1167.644987	0.021046
1167.798046	0.018659
1167.951088	0.024565
1168.104111	0.023221
1168.257117	0.024375
1168.410103	0.017512
1168.563072	0.019967
1168.716023	0.019094
1168.868955	0.017643
1169.021869	0.013428
1169.174765	0.016766
1169.327642	0.024962
1169.480501	0.039269
1169.633343	0.040643
1169.786165	0.046461
1169.938970	0.045643
1170.091757	0.040475
1170.244525	0.035577
1170.397275	0.036072
1170.550007	0.037214
1170.702720	0.026673
1170.855415	0.015330
1171.008092	0.003182
1171.160751	-0.005603
1171.313392	-0.016430
1171.466014	0.007088
1171.618619	-0.047617
1171.771205	-0.047617
1171.923772	-0.047617
