sample name	sample
index	691
start time	 03-22-2021  12:27:53 PM


Wavelength (nm)	Absorbance
494.344910	0.151424
494.563924	0.151424
494.782919	0.151424
495.001897	NaN
495.220856	-0.738080
495.439797	-0.559665
495.658719	-0.464968
495.877624	-0.357199
496.096510	-0.276071
496.315378	-0.099323
496.534227	-0.295896
496.753059	-0.131678
496.971872	-0.039644
497.190667	0.009010
497.409444	0.014003
497.628203	0.014276
497.846943	0.014907
498.065665	0.013597
498.284369	0.014689
498.503055	0.014399
498.721723	0.014728
498.940372	0.014812
499.159003	0.015353
499.377616	0.015331
499.596210	0.015064
499.814787	0.015118
500.033345	0.015179
500.251885	0.013463
500.470406	0.015256
500.688910	0.015265
500.907395	0.015136
501.125862	0.015213
501.344311	0.014661
501.562742	0.015611
501.781154	0.014988
501.999548	0.014893
502.217924	0.015515
502.436282	0.014696
502.654621	0.014289
502.872942	0.014211
503.091245	0.014337
503.309530	0.014900
503.527797	0.014394
503.746045	0.014692
503.964275	0.014589
504.182487	0.014181
504.400681	0.014761
504.618856	0.014928
504.837013	0.015024
505.055152	0.014981
505.273273	0.014996
505.491376	0.014363
505.709460	0.014335
505.927526	0.014184
506.145574	0.014505
506.363604	0.014050
506.581615	0.013619
506.799608	0.012897
507.017583	0.012607
507.235540	0.012592
507.453478	0.012750
507.671399	0.012229
507.889301	0.012885
508.107185	0.013042
508.325050	0.012425
508.542898	0.012630
508.760727	0.012621
508.978538	0.012780
509.196330	0.012284
509.414105	0.012175
509.631861	0.012333
509.849599	0.012640
510.067319	0.012177
510.285021	0.012890
510.502704	0.012654
510.720369	0.013229
510.938016	0.012724
511.155645	0.012807
511.373255	0.012823
511.590848	0.012974
511.808422	0.011741
512.025977	0.011685
512.243515	0.011476
512.461034	0.011149
512.678536	0.010957
512.896018	0.011302
513.113483	0.011274
513.330930	0.011232
513.548358	0.010641
513.765768	0.011410
513.983160	0.011811
514.200533	0.011105
514.417889	0.010540
514.635226	0.010679
514.852545	0.010456
515.069845	0.009798
515.287128	0.009151
515.504392	0.009136
515.721638	0.008878
515.938866	0.008727
516.156075	0.009246
516.373267	0.009999
516.590440	0.008830
516.807594	0.008785
517.024731	0.008909
517.241850	0.009316
517.458950	0.009056
517.676032	0.008819
517.893095	0.008737
518.110141	0.008266
518.327168	0.007947
518.544177	0.008841
518.761168	0.008134
518.978141	0.007742
519.195095	0.008593
519.412031	0.008995
519.628949	0.008935
519.845849	0.008571
520.062731	0.008202
520.279594	0.008433
520.496439	0.008015
520.713266	0.008720
520.930074	0.009183
521.146865	0.008063
521.363637	0.007540
521.580391	0.007796
521.797127	0.008073
522.013844	0.008442
522.230543	0.008484
522.447224	0.008726
522.663887	0.008691
522.880532	0.008388
523.097158	0.008435
523.313766	0.009354
523.530356	0.008715
523.746928	0.008021
523.963481	0.008247
524.180017	0.008089
524.396534	0.008401
524.613032	0.008318
524.829513	0.008801
525.045975	0.008873
525.262420	0.008643
525.478845	0.008895
525.695253	0.009197
525.911643	0.008715
526.128014	0.008719
526.344367	0.008493
526.560702	0.007952
526.777018	0.007849
526.993316	0.007586
527.209597	0.007180
527.425858	0.007064
527.642102	0.007073
527.858328	0.007652
528.074535	0.007524
528.290724	0.007082
528.506894	0.007166
528.723047	0.007038
528.939181	0.007190
529.155297	0.006993
529.371395	0.007295
529.587475	0.007151
529.803536	0.006477
530.019579	0.006340
530.235604	0.005877
530.451611	0.006006
530.667600	0.006205
530.883570	0.006057
531.099522	0.006060
531.315456	0.005267
531.531372	0.005328
531.747269	0.005602
531.963148	0.005516
532.179009	0.005746
532.394852	0.005760
532.610676	0.005557
532.826482	0.005977
533.042271	0.006139
533.258040	0.006410
533.473792	0.006200
533.689525	0.006204
533.905240	0.006475
534.120937	0.007008
534.336616	0.006530
534.552277	0.006895
534.767919	0.006409
534.983543	0.006356
535.199149	0.006641
535.414736	0.006667
535.630306	0.006667
535.845857	0.006473
536.061390	0.006027
536.276904	0.006721
536.492401	0.006554
536.707879	0.006682
536.923339	0.006939
537.138781	0.006772
537.354204	0.006996
537.569610	0.006869
537.784997	0.006737
538.000366	0.006998
538.215716	0.006365
538.431049	0.005918
538.646363	0.006099
538.861659	0.006158
539.076937	0.006272
539.292196	0.006166
539.507438	0.005798
539.722661	0.005800
539.937866	0.005630
540.153052	0.005628
540.368221	0.005857
540.583371	0.005747
540.798503	0.005814
541.013617	0.006022
541.228712	0.006145
541.443789	0.006288
541.658848	0.006567
541.873889	0.006511
542.088912	0.006794
542.303916	0.006399
542.518902	0.006009
542.733870	0.005745
542.948820	0.005665
543.163752	0.005224
543.378665	0.005027
543.593560	0.004558
543.808437	0.004527
544.023295	0.004548
544.238136	0.004674
544.452958	0.004809
544.667762	0.004428
544.882548	0.004220
545.097315	0.004539
545.312064	0.004421
545.526795	0.004744
545.741508	0.004826
545.956203	0.004688
546.170879	0.004862
546.385537	0.004946
546.600177	0.005365
546.814799	0.005191
547.029402	0.004984
547.243988	0.005051
547.458555	0.005046
547.673103	0.004843
547.887634	0.005102
548.102146	0.004940
548.316640	0.005020
548.531116	0.004853
548.745574	0.004750
548.960013	0.004922
549.174435	0.005253
549.388838	0.004927
549.603222	0.005191
549.817589	0.004667
550.031937	0.004853
550.246267	0.004786
550.460579	0.004316
550.674873	0.004514
550.889148	0.004354
551.103405	0.004362
551.317644	0.004198
551.531865	0.004050
551.746068	0.004087
551.960252	0.003982
552.174418	0.003617
552.388566	0.003662
552.602696	0.003451
552.816807	0.003635
553.030900	0.003592
553.244975	0.003871
553.459032	0.003731
553.673070	0.003999
553.887091	0.004300
554.101093	0.004130
554.315077	0.004196
554.529042	0.004058
554.742990	0.003852
554.956919	0.003592
555.170830	0.003106
555.384722	0.003342
555.598597	0.003174
555.812453	0.002466
556.026291	0.002852
556.240111	0.002943
556.453913	0.002842
556.667696	0.002821
556.881461	0.002662
557.095208	0.003136
557.308937	0.003014
557.522647	0.002848
557.736339	0.002867
557.950013	0.002991
558.163669	0.002904
558.377307	0.003136
558.590926	0.003393
558.804527	0.003746
559.018110	0.003594
559.231675	0.003705
559.445221	0.003867
559.658749	0.004306
559.872259	0.004039
560.085751	0.004298
560.299225	0.004135
560.512680	0.003836
560.726117	0.003843
560.939536	0.003813
561.152937	0.003652
561.366319	0.003653
561.579683	0.003237
561.793029	0.003047
562.006357	0.003189
562.219667	0.003649
562.432958	0.003478
562.646231	0.003416
562.859486	0.003766
563.072723	0.003726
563.285941	0.003661
563.499141	0.003853
563.712323	0.004178
563.925487	0.003653
564.138632	0.003131
564.351760	0.003230
564.564869	0.003289
564.777960	0.002911
564.991032	0.002933
565.204087	0.002746
565.417123	0.002447
565.630141	0.002336
565.843140	0.002354
566.056122	0.002364
566.269085	0.002374
566.482030	0.002232
566.694957	0.001965
566.907866	0.001758
567.120756	0.001949
567.333628	0.002036
567.546482	0.002022
567.759318	0.002255
567.972135	0.002663
568.184935	0.002441
568.397716	0.002248
568.610478	0.002426
568.823223	0.002534
569.035949	0.002398
569.248657	0.002699
569.461347	0.002698
569.674019	0.002259
569.886672	0.001907
570.099308	0.002122
570.311925	0.002151
570.524523	0.002210
570.737104	0.002318
570.949666	0.002297
571.162210	0.002319
571.374736	0.002243
571.587244	0.002540
571.799733	0.002641
572.012205	0.002319
572.224658	0.002337
572.437092	0.002219
572.649509	0.002114
572.861907	0.002010
573.074287	0.002206
573.286649	0.002419
573.498993	0.002200
573.711318	0.002293
573.923625	0.002752
574.135914	0.002897
574.348185	0.003096
574.560438	0.003205
574.772672	0.003478
574.984888	0.003142
575.197086	0.003124
575.409266	0.003221
575.621427	0.003395
575.833570	0.003359
576.045695	0.003395
576.257802	0.003371
576.469890	0.003196
576.681961	0.002895
576.894013	0.002811
577.106046	0.002679
577.318062	0.002532
577.530059	0.002004
577.742039	0.001820
577.954000	0.001631
578.165942	0.001585
578.377867	0.001365
578.589773	0.001340
578.801661	0.001164
579.013531	0.001040
579.225382	0.001323
579.437216	0.001442
579.649031	0.001247
579.860828	0.001349
580.072606	0.001299
580.284367	0.001429
580.496109	0.001539
580.707833	0.001563
580.919539	0.001386
581.131227	0.001223
581.342896	0.001234
581.554547	0.001437
581.766180	0.001159
581.977795	0.001293
582.189391	0.001188
582.400969	0.001083
582.612529	0.000860
582.824071	0.001312
583.035595	0.001169
583.247100	0.001164
583.458587	0.001183
583.670056	0.001204
583.881506	0.001016
584.092939	0.001281
584.304353	0.001572
584.515749	0.001895
584.727127	0.001873
584.938486	0.002037
585.149828	0.002060
585.361151	0.002024
585.572456	0.002229
585.783742	0.002386
585.995011	0.002417
586.206261	0.002203
586.417493	0.002193
586.628706	0.001994
586.839902	0.002068
587.051079	0.001856
587.262238	0.001532
587.473379	0.001383
587.684502	0.000989
587.895606	0.000918
588.106692	0.000854
588.317760	0.000655
588.528810	0.000595
588.739841	0.000649
588.950855	0.000463
589.161850	0.000700
589.372827	0.000722
589.583785	0.001125
589.794726	0.001359
590.005648	0.001406
590.216552	0.001471
590.427437	0.001405
590.638305	0.001143
590.849154	0.001488
591.059985	0.001505
591.270798	0.001633
591.481592	0.001581
591.692369	0.001079
591.903127	0.001282
592.113867	0.001324
592.324588	0.001426
592.535292	0.001348
592.745977	0.001384
592.956644	0.001209
593.167293	0.001045
593.377923	0.000880
593.588536	0.000855
593.799130	0.000605
594.009706	0.000525
594.220263	0.000422
594.430803	0.000661
594.641324	0.000620
594.851827	0.000663
595.062312	0.000474
595.272778	0.000606
595.483227	0.000804
595.693657	0.000693
595.904069	0.000716
596.114462	0.000601
596.324838	0.000598
596.535195	0.000482
596.745534	0.000500
596.955855	0.000699
597.166157	0.000410
597.376441	0.000076
597.586707	0.000272
597.796955	0.000320
598.007185	0.000393
598.217396	0.000268
598.427589	0.000313
598.637764	0.000193
598.847921	0.000238
599.058060	0.000267
599.268180	0.000537
599.478282	0.000279
599.688366	0.000355
599.898431	0.000490
600.108479	0.000613
600.318508	0.000507
600.528519	0.000702
600.738511	0.000770
600.948486	0.000929
601.158442	0.000751
601.368380	0.000766
601.578300	0.000699
601.788202	0.000844
601.998085	0.000776
602.207950	0.000779
602.417797	0.000694
602.627626	0.000068
602.837436	-0.000213
603.047228	-0.000168
603.257002	-0.000057
603.466758	-0.000289
603.676496	-0.000534
603.886215	-0.000836
604.095916	-0.000780
604.305599	-0.000830
604.515264	-0.000360
604.724910	0.000005
604.934538	0.000172
605.144148	0.000492
605.353740	0.000900
605.563314	0.001118
605.772869	0.001550
605.982406	0.001733
606.191925	0.002014
606.401425	0.002235
606.610908	0.002283
606.820372	0.002498
607.029818	0.002238
607.239246	0.002066
607.448655	0.001702
607.658047	0.001522
607.867420	0.001209
608.076775	0.000925
608.286111	0.000663
608.495430	0.000573
608.704730	0.000225
608.914012	0.000233
609.123275	0.000308
609.332521	0.000389
609.541748	0.000429
609.750957	0.000729
609.960148	0.000863
610.169321	0.000825
610.378475	0.000618
610.587611	0.000500
610.796729	0.000404
611.005829	0.000269
611.214910	0.000317
611.423974	0.000319
611.633019	0.000115
611.842045	-0.000236
612.051054	-0.000330
612.260044	-0.000212
612.469017	-0.000079
612.677970	-0.000032
612.886906	0.000167
613.095824	0.000101
613.304723	0.000030
613.513604	-0.000039
613.722467	0.000235
613.931311	0.000427
614.140138	0.000472
614.348946	0.000321
614.557736	0.000142
614.766507	-0.000187
614.975261	-0.000111
615.183996	-0.000209
615.392713	-0.000177
615.601412	-0.000238
615.810092	-0.000276
616.018754	-0.000392
616.227399	-0.000333
616.436024	-0.000257
616.644632	-0.000099
616.853222	-0.000094
617.061793	0.000070
617.270346	0.000151
617.478880	0.000129
617.687397	0.000012
617.895895	0.000040
618.104375	0.000142
618.312837	0.000136
618.521281	0.000195
618.729706	0.000198
618.938113	0.000142
619.146502	0.000074
619.354873	0.000084
619.563226	0.000109
619.771560	-0.000043
619.979876	0.000036
620.188174	0.000142
620.396453	0.000072
620.604715	0.000128
620.812958	0.000104
621.021183	0.000249
621.229390	0.000352
621.437578	0.000454
621.645748	0.000576
621.853900	0.000611
622.062034	0.000603
622.270150	0.000453
622.478247	0.000441
622.686326	0.000351
622.894387	-0.000000
623.102430	-0.000273
623.310454	-0.000289
623.518461	-0.000099
623.726449	-0.000071
623.934418	-0.000072
624.142370	0.000186
624.350303	0.000214
624.558218	0.000291
624.766115	0.000562
624.973994	0.000635
625.181855	0.000506
625.389697	0.000210
625.597521	0.000141
625.805327	0.000134
626.013114	0.000054
626.220883	-0.000241
626.428634	-0.000345
626.636367	-0.000321
626.844082	-0.000201
627.051778	-0.000134
627.259457	-0.000043
627.467117	-0.000073
627.674758	-0.000098
627.882382	-0.000137
628.089987	0.000151
628.297574	0.000201
628.505143	0.000287
628.712694	0.000289
628.920226	0.000360
629.127740	0.000362
629.335236	0.000343
629.542714	0.000235
629.750174	0.000059
629.957615	0.000025
630.165038	0.000126
630.372443	-0.000060
630.579829	0.000109
630.787198	0.000156
630.994548	0.000029
631.201880	-0.000112
631.409194	0.000029
631.616489	0.000082
631.823766	-0.000026
632.031025	-0.000006
632.238266	0.000115
632.445489	-0.000068
632.652693	-0.000032
632.859879	0.000316
633.067047	0.000405
633.274197	0.000424
633.481329	0.000430
633.688442	0.000376
633.895537	0.000390
634.102614	0.000195
634.309672	0.000160
634.516713	0.000059
634.723735	-0.000300
634.930739	-0.000373
635.137724	-0.000465
635.344692	-0.000564
635.551641	-0.000332
635.758572	-0.000351
635.965485	-0.000337
636.172379	-0.000307
636.379256	-0.000147
636.586114	0.000086
636.792954	0.000133
636.999775	0.000179
637.206579	0.000336
637.413364	0.000145
637.620131	-0.000033
637.826880	0.000004
638.033610	0.000161
638.240323	-0.000079
638.447017	-0.000131
638.653692	-0.000316
638.860350	-0.000352
639.066990	-0.000189
639.273611	-0.000177
639.480214	0.000045
639.686798	0.000160
639.893365	0.000021
640.099913	0.000117
640.306443	0.000050
640.512955	0.000315
640.719449	0.000462
640.925924	0.000347
641.132381	0.000442
641.338820	0.000309
641.545241	0.000118
641.751644	0.000019
641.958028	-0.000160
642.164394	-0.000142
642.370742	-0.000162
642.577071	-0.000271
642.783383	-0.000330
642.989676	-0.000330
643.195951	-0.000217
643.402207	-0.000111
643.608446	0.000071
643.814666	0.000115
644.020868	0.000171
644.227052	0.000248
644.433218	0.000290
644.639365	0.000559
644.845494	0.000653
645.051605	0.000576
645.257698	0.000574
645.463772	0.000500
645.669828	0.000732
645.875866	0.000836
646.081886	0.000901
646.287888	0.000873
646.493871	0.000818
646.699836	0.000604
646.905783	0.000738
647.111712	0.000832
647.317622	0.000839
647.523514	0.000892
647.729388	0.000726
647.935244	0.000662
648.141082	0.000636
648.346901	0.000371
648.552702	0.000339
648.758485	0.000190
648.964250	0.000080
649.169996	-0.000138
649.375724	-0.000535
649.581434	-0.000527
649.787126	-0.000495
649.992800	-0.000557
650.198455	-0.000639
650.404092	-0.000746
650.609711	-0.000866
650.815311	-0.000824
651.020894	-0.000653
651.226458	-0.000567
651.432004	-0.000630
651.637532	-0.000793
651.843041	-0.000625
652.048532	-0.000579
652.254006	-0.000464
652.459460	-0.000373
652.664897	-0.000438
652.870315	-0.000432
653.075716	-0.000540
653.281097	-0.000501
653.486461	-0.000515
653.691807	-0.000704
653.897134	-0.000739
654.102443	-0.000566
654.307734	-0.000491
654.513006	-0.000348
654.718261	-0.000276
654.923497	-0.000101
655.128715	0.000006
655.333915	0.000038
655.539096	0.000125
655.744259	0.000282
655.949404	0.000167
656.154531	0.000271
656.359640	0.000282
656.564730	0.000162
656.769802	0.000080
656.974856	-0.000067
657.179892	-0.000290
657.384909	-0.000262
657.589908	-0.000186
657.794889	-0.000250
657.999852	-0.000425
658.204797	-0.000662
658.409723	-0.000513
658.614631	-0.000424
658.819521	-0.000479
659.024393	-0.000264
659.229246	-0.000358
659.434081	-0.000514
659.638898	-0.000608
659.843697	-0.000656
660.048478	-0.000622
660.253240	-0.000907
660.457984	-0.000979
660.662710	-0.000916
660.867417	-0.001064
661.072107	-0.001047
661.276778	-0.001047
661.481431	-0.001019
661.686066	-0.001068
661.890682	-0.001016
662.095281	-0.001161
662.299861	-0.001119
662.504422	-0.001163
662.708966	-0.001257
662.913491	-0.001423
663.117999	-0.001260
663.322488	-0.001117
663.526958	-0.001051
663.731411	-0.000980
663.935845	-0.000675
664.140261	-0.000762
664.344659	-0.000669
664.549038	-0.000405
664.753400	-0.000219
664.957743	-0.000370
665.162068	-0.000451
665.366375	-0.000469
665.570663	-0.000547
665.774933	-0.000586
665.979185	-0.000406
666.183419	-0.000605
666.387635	-0.000733
666.591832	-0.000813
666.796011	-0.001008
667.000172	-0.000883
667.204315	-0.000868
667.408439	-0.000720
667.612545	-0.000614
667.816634	-0.000544
668.020703	-0.000259
668.224755	-0.000155
668.428788	-0.000038
668.632803	0.000206
668.836800	0.000097
669.040779	0.000118
669.244739	-0.000021
669.448681	-0.000132
669.652605	-0.000302
669.856511	-0.000386
670.060399	-0.000373
670.264268	-0.000312
670.468119	-0.000364
670.671952	-0.000258
670.875767	-0.000125
671.079563	0.000010
671.283341	0.000007
671.487101	0.000210
671.690843	0.000407
671.894567	0.000395
672.098272	0.000334
672.301959	0.000465
672.505628	0.000483
672.709278	0.000492
672.912911	0.000422
673.116525	0.000593
673.320121	0.000460
673.523699	0.000225
673.727258	0.000261
673.930799	0.000346
674.134322	0.000127
674.337827	0.000018
674.541314	-0.000306
674.744782	-0.000246
674.948232	-0.000380
675.151664	-0.000458
675.355078	-0.000526
675.558474	-0.000511
675.761851	-0.000595
675.965210	-0.000627
676.168551	-0.000617
676.371873	-0.000471
676.575178	-0.000563
676.778464	-0.000637
676.981732	-0.000465
677.184981	-0.000275
677.388213	-0.000279
677.591426	-0.000173
677.794621	0.000018
677.997798	-0.000050
678.200956	-0.000015
678.404097	-0.000077
678.607219	0.000042
678.810323	-0.000283
679.013408	-0.000337
679.216476	-0.000498
679.419525	-0.000644
679.622556	-0.000772
679.825569	-0.000705
680.028563	-0.000746
680.231540	-0.000785
680.434498	-0.000884
680.637438	-0.000757
680.840359	-0.000691
681.043263	-0.000491
681.246148	-0.000444
681.449015	-0.000380
681.651864	-0.000313
681.854694	-0.000127
682.057506	0.000054
682.260301	0.000147
682.463076	0.000229
682.665834	0.000132
682.868573	0.000033
683.071295	0.000133
683.273998	-0.000031
683.476682	-0.000062
683.679349	-0.000190
683.881997	-0.000133
684.084627	-0.000107
684.287239	-0.000089
684.489833	-0.000044
684.692408	-0.000074
684.894965	-0.000291
685.097504	-0.000168
685.300025	-0.000086
685.502527	-0.000180
685.705012	-0.000281
685.907478	-0.000249
686.109925	-0.000256
686.312355	-0.000289
686.514766	-0.000190
686.717159	-0.000163
686.919534	-0.000191
687.121891	-0.000162
687.324230	-0.000121
687.526550	-0.000184
687.728852	-0.000309
687.931136	-0.000352
688.133401	-0.000409
688.335649	-0.000650
688.537878	-0.000613
688.740089	-0.000517
688.942281	-0.000681
689.144456	-0.000681
689.346612	-0.000794
689.548750	-0.000822
689.750870	-0.000789
689.952971	-0.000876
690.155055	-0.000604
690.357120	-0.000684
690.559167	-0.000825
690.761195	-0.000847
690.963206	-0.000817
691.165198	-0.000748
691.367172	-0.000623
691.569128	-0.000707
691.771065	-0.000639
691.972984	-0.000774
692.174885	-0.000699
692.376768	-0.000567
692.578633	-0.000605
692.780479	-0.000467
692.982308	-0.000380
693.184118	-0.000513
693.385909	-0.000380
693.587683	-0.000391
693.789438	-0.000350
693.991175	-0.000426
694.192894	-0.000424
694.394595	-0.000360
694.596277	-0.000386
694.797941	-0.000309
694.999587	-0.000177
695.201215	-0.000256
695.402824	-0.000100
695.604416	-0.000073
695.805989	0.000061
696.007543	0.000150
696.209080	0.000156
696.410598	0.000136
696.612099	0.000092
696.813580	0.000081
697.015044	0.000119
697.216490	0.000045
697.417917	0.000125
697.619326	0.000107
697.820717	0.000045
698.022089	-0.000013
698.223444	-0.000045
698.424780	-0.000058
698.626098	-0.000139
698.827397	-0.000133
699.028679	-0.000058
699.229942	-0.000109
699.431187	-0.000170
699.632414	-0.000278
699.833622	-0.000260
700.034813	-0.000321
700.235985	-0.000309
700.437139	-0.000397
700.638274	-0.000499
700.839392	-0.000569
701.040491	-0.000746
701.241572	-0.000735
701.442635	-0.000640
701.643679	-0.000629
701.844706	-0.000637
702.045714	-0.000680
702.246704	-0.000603
702.447675	-0.000562
702.648629	-0.000757
702.849564	-0.000769
703.050481	-0.000808
703.251380	-0.001016
703.452260	-0.001060
703.653122	-0.000979
703.853966	-0.001014
704.054792	-0.001123
704.255600	-0.001128
704.456389	-0.000992
704.657160	-0.000923
704.857913	-0.000919
705.058648	-0.000701
705.259365	-0.000628
705.460063	-0.000629
705.660743	-0.000598
705.861405	-0.000297
706.062048	-0.000282
706.262674	-0.000427
706.463281	-0.000331
706.663870	-0.000392
706.864441	-0.000494
707.064993	-0.000454
707.265527	-0.000566
707.466043	-0.000484
707.666541	-0.000616
707.867021	-0.000564
708.067482	-0.000378
708.267925	-0.000483
708.468350	-0.000325
708.668757	-0.000256
708.869145	-0.000341
709.069516	-0.000333
709.269868	-0.000551
709.470201	-0.000621
709.670517	-0.000696
709.870814	-0.000739
710.071093	-0.000663
710.271354	-0.000844
710.471597	-0.000992
710.671821	-0.001221
710.872028	-0.001267
711.072216	-0.001336
711.272385	-0.001303
711.472537	-0.001382
711.672670	-0.001357
711.872785	-0.001378
712.072882	-0.001167
712.272961	-0.001090
712.473021	-0.000941
712.673063	-0.001001
712.873087	-0.001095
713.073093	-0.001254
713.273081	-0.001137
713.473050	-0.001282
713.673001	-0.001520
713.872934	-0.001627
714.072849	-0.001829
714.272745	-0.001817
714.472623	-0.001853
714.672483	-0.001716
714.872325	-0.001656
715.072148	-0.001819
715.271954	-0.001780
715.471741	-0.001814
715.671509	-0.001922
715.871260	-0.001863
716.070992	-0.001915
716.270707	-0.001874
716.470403	-0.001852
716.670080	-0.001851
716.869740	-0.001686
717.069381	-0.001578
717.269004	-0.001452
717.468609	-0.001393
717.668195	-0.001215
717.867764	-0.001158
718.067314	-0.001102
718.266846	-0.000950
718.466360	-0.000902
718.665855	-0.001026
718.865332	-0.001144
719.064791	-0.000976
719.264232	-0.000930
719.463655	-0.000860
719.663059	-0.000793
719.862445	-0.000920
720.061813	-0.000933
720.261163	-0.000870
720.460494	-0.000625
720.659807	-0.000534
720.859102	-0.000526
721.058379	-0.000611
721.257638	-0.000718
721.456878	-0.000773
721.656100	-0.000752
721.855304	-0.001012
722.054490	-0.001078
722.253657	-0.001300
722.452806	-0.001337
722.651937	-0.001528
722.851050	-0.001602
723.050145	-0.001671
723.249221	-0.001822
723.448279	-0.001658
723.647319	-0.001638
723.846340	-0.001703
724.045344	-0.001812
724.244329	-0.001944
724.443296	-0.001810
724.642245	-0.001756
724.841175	-0.001657
725.040088	-0.001501
725.238982	-0.001656
725.437857	-0.001581
725.636715	-0.001508
725.835554	-0.001457
726.034376	-0.001486
726.233179	-0.001706
726.431963	-0.001837
726.630730	-0.001944
726.829478	-0.002045
727.028208	-0.001931
727.226920	-0.002131
727.425614	-0.002250
727.624289	-0.002143
727.822946	-0.002119
728.021585	-0.002124
728.220206	-0.001916
728.418808	-0.001892
728.617392	-0.001950
728.815958	-0.001995
729.014506	-0.001937
729.213036	-0.001913
729.411547	-0.002042
729.610040	-0.002038
729.808515	-0.001982
730.006972	-0.002148
730.205410	-0.002237
730.403831	-0.002098
730.602233	-0.002184
730.800616	-0.002181
730.998982	-0.002365
731.197329	-0.002399
731.395658	-0.002560
731.593969	-0.002534
731.792262	-0.002738
731.990536	-0.002810
732.188793	-0.002945
732.387031	-0.002955
732.585250	-0.002819
732.783452	-0.002658
732.981635	-0.002609
733.179800	-0.002573
733.377947	-0.002594
733.576076	-0.002377
733.774186	-0.002470
733.972278	-0.002316
734.170352	-0.002279
734.368408	-0.002326
734.566446	-0.002338
734.764465	-0.002324
734.962466	-0.002142
735.160449	-0.002271
735.358413	-0.002164
735.556360	-0.002166
735.754288	-0.002351
735.952198	-0.002342
736.150090	-0.002466
736.347963	-0.002478
736.545818	-0.002509
736.743655	-0.002451
736.941474	-0.002278
737.139275	-0.002132
737.337057	-0.001978
737.534821	-0.001882
737.732567	-0.001960
737.930295	-0.001914
738.128005	-0.001768
738.325696	-0.001757
738.523369	-0.001798
738.721024	-0.001777
738.918660	-0.002125
739.116279	-0.002190
739.313879	-0.002321
739.511461	-0.002331
739.709024	-0.002244
739.906570	-0.002424
740.104097	-0.002435
740.301606	-0.002479
740.499097	-0.002454
740.696569	-0.002265
740.894024	-0.002028
741.091460	-0.001707
741.288878	-0.001717
741.486277	-0.001705
741.683659	-0.001807
741.881022	-0.001699
742.078367	-0.001682
742.275694	-0.001884
742.473002	-0.001867
742.670293	-0.001935
742.867565	-0.002041
743.064819	-0.002016
743.262054	-0.001998
743.459272	-0.001830
743.656471	-0.002120
743.853652	-0.002185
744.050815	-0.002052
744.247959	-0.002096
744.445085	-0.002186
744.642194	-0.002148
744.839283	-0.002052
745.036355	-0.002000
745.233408	-0.001821
745.430444	-0.001555
745.627461	-0.001518
745.824459	-0.001475
746.021440	-0.001332
746.218402	-0.001312
746.415346	-0.001340
746.612272	-0.001273
746.809180	-0.001257
747.006069	-0.001376
747.202940	-0.001359
747.399793	-0.001389
747.596628	-0.001339
747.793444	-0.001440
747.990243	-0.001306
748.187023	-0.001323
748.383784	-0.001389
748.580528	-0.001349
748.777253	-0.001244
748.973960	-0.001246
749.170649	-0.001077
749.367320	-0.001124
749.563973	-0.001121
749.760607	-0.001109
749.957223	-0.001065
750.153821	-0.000874
750.350400	-0.000977
750.546962	-0.000972
750.743505	-0.001098
750.940030	-0.001076
751.136536	-0.000961
751.333025	-0.000943
751.529495	-0.000927
751.725947	-0.000937
751.922381	-0.000872
752.118796	-0.000767
752.315194	-0.000848
752.511573	-0.000523
752.707934	-0.000553
752.904276	-0.000662
753.100601	-0.000665
753.296907	-0.000669
753.493195	-0.000738
753.689465	-0.000953
753.885716	-0.001067
754.081949	-0.001178
754.278164	-0.001282
754.474361	-0.001455
754.670540	-0.001331
754.866700	-0.001195
755.062843	-0.001057
755.258967	-0.001094
755.455072	-0.001173
755.651160	-0.001042
755.847229	-0.001008
756.043280	-0.001032
756.239313	-0.001010
756.435328	-0.001093
756.631324	-0.001315
756.827302	-0.001548
757.023262	-0.001473
757.219204	-0.001408
757.415127	-0.001377
757.611033	-0.001302
757.806920	-0.001205
758.002788	-0.000991
758.198639	-0.000905
758.394471	-0.000628
758.590286	-0.000481
758.786081	-0.000391
758.981859	-0.000422
759.177619	-0.000528
759.373360	-0.000540
759.569083	-0.000611
759.764788	-0.000729
759.960474	-0.000768
760.156143	-0.001028
760.351793	-0.001226
760.547425	-0.001300
760.743038	-0.001283
760.938634	-0.001174
761.134211	-0.001153
761.329770	-0.001215
761.525311	-0.001165
761.720833	-0.001328
761.916338	-0.001202
762.111824	-0.001183
762.307292	-0.001102
762.502741	-0.000898
762.698173	-0.000914
762.893586	-0.001011
763.088981	-0.000937
763.284358	-0.000946
763.479716	-0.000908
763.675057	-0.001104
763.870379	-0.001066
764.065683	-0.001202
764.260968	-0.001368
764.456236	-0.001388
764.651485	-0.001387
764.846716	-0.001489
765.041929	-0.001541
765.237123	-0.001429
765.432299	-0.001300
765.627457	-0.001118
765.822597	-0.001032
766.017719	-0.001016
766.212822	-0.001090
766.407907	-0.000984
766.602974	-0.000919
766.798023	-0.000796
766.993054	-0.000934
767.188066	-0.001054
767.383060	-0.001055
767.578036	-0.000982
767.772993	-0.000872
767.967933	-0.000741
768.162854	-0.000795
768.357757	-0.000687
768.552642	-0.000641
768.747508	-0.000344
768.942356	-0.000198
769.137186	-0.000207
769.331998	-0.000269
769.526792	-0.000280
769.721567	-0.000439
769.916324	-0.000369
770.111063	-0.000737
770.305784	-0.000702
770.500486	-0.000870
770.695171	-0.000808
770.889837	-0.000691
771.084484	-0.000555
771.279114	-0.000432
771.473725	-0.000384
771.668318	-0.000319
771.862893	0.000123
772.057450	0.000327
772.251988	0.000394
772.446509	0.000366
772.641011	0.000250
772.835494	0.000250
773.029960	0.000269
773.224407	0.000442
773.418836	0.000555
773.613247	0.000286
773.807640	0.000149
774.002014	0.000218
774.196370	0.000183
774.390708	0.000142
774.585028	0.000092
774.779330	-0.000000
774.973613	-0.000076
775.167878	-0.000203
775.362125	0.000120
775.556354	0.000046
775.750564	0.000044
775.944756	0.000158
776.138930	0.000100
776.333086	0.000083
776.527223	0.000112
776.721343	0.000227
776.915444	0.000298
777.109526	0.000138
777.303591	0.000097
777.497637	0.000058
777.691666	0.000122
777.885676	0.000172
778.079667	0.000187
778.273641	0.000190
778.467596	0.000152
778.661533	0.000190
778.855452	0.000014
779.049352	0.000067
779.243235	0.000097
779.437099	0.000119
779.630945	0.000168
779.824773	0.000135
780.018582	-0.000050
780.212373	-0.000030
780.406146	0.000048
780.599901	0.000211
780.793638	0.000277
780.987356	0.000316
781.181056	0.000327
781.374738	0.000189
781.568402	0.000254
781.762047	0.000405
781.955674	0.000485
782.149283	0.000421
782.342874	0.000434
782.536447	0.000430
782.730001	0.000393
782.923537	0.000285
783.117055	0.000521
783.310555	0.000458
783.504036	0.000392
783.697499	0.000245
783.890944	0.000147
784.084371	0.000118
784.277780	0.000101
784.471170	0.000094
784.664542	0.000163
784.857896	0.000024
785.051231	0.000095
785.244549	0.000250
785.437848	0.000319
785.631129	0.000398
785.824392	0.000621
786.017636	0.000663
786.210863	0.000602
786.404071	0.000652
786.597260	0.000726
786.790432	0.000761
786.983585	0.000563
787.176721	0.000447
787.369838	0.000438
787.562936	0.000180
787.756017	0.000117
787.949079	0.000238
788.142123	0.000287
788.335149	0.000264
788.528156	0.000196
788.721146	0.000152
788.914117	0.000243
789.107070	0.000081
789.300005	0.000123
789.492921	-0.000034
789.685819	-0.000306
789.878699	-0.000458
790.071561	-0.000438
790.264405	-0.000417
790.457230	-0.000242
790.650037	-0.000310
790.842826	-0.000032
791.035597	0.000046
791.228349	0.000180
791.421084	0.000386
791.613800	0.000454
791.806497	0.000415
791.999177	0.000333
792.191838	0.000372
792.384481	0.000435
792.577106	0.000306
792.769713	0.000350
792.962301	0.000137
793.154871	0.000018
793.347423	0.000073
793.539957	-0.000117
793.732473	0.000007
793.924970	-0.000106
794.117449	-0.000149
794.309910	-0.000173
794.502353	-0.000105
794.694777	0.000140
794.887183	0.000205
795.079571	-0.000002
795.271941	0.000362
795.464293	0.000549
795.656626	0.000669
795.848941	0.000918
796.041238	0.001001
796.233516	0.001060
796.425777	0.000999
796.618019	0.001174
796.810243	0.001495
797.002449	0.001387
797.194636	0.001094
797.386805	0.000863
797.578956	0.000536
797.771089	0.000622
797.963204	0.000476
798.155300	0.000519
798.347378	0.000543
798.539438	0.000614
798.731480	0.000603
798.923503	0.000784
799.115509	0.000893
799.307496	0.001146
799.499465	0.001110
799.691415	0.000997
799.883348	0.001139
800.075262	0.000806
800.267158	0.000589
800.459035	0.000377
800.650895	0.000321
800.842736	0.000486
801.034559	0.000306
801.226364	0.000245
801.418150	0.000294
801.609919	-0.000021
801.801669	0.000132
801.993401	-0.000006
802.185114	0.000180
802.376810	-0.000007
802.568487	-0.000251
802.760146	-0.000380
802.951787	-0.000499
803.143409	-0.000657
803.335014	-0.000680
803.526600	-0.000816
803.718168	-0.000765
803.909717	-0.000931
804.101249	-0.001053
804.292762	-0.001083
804.484257	-0.001009
804.675734	-0.001141
804.867192	-0.001132
805.058632	-0.001118
805.250054	-0.000970
805.441458	-0.001082
805.632844	-0.001004
805.824211	-0.001021
806.015561	-0.000955
806.206891	-0.000817
806.398204	-0.000785
806.589499	-0.000957
806.780775	-0.000917
806.972033	-0.000940
807.163273	-0.000985
807.354495	-0.000795
807.545698	-0.000688
807.736883	-0.000883
807.928050	-0.001202
808.119199	-0.001167
808.310329	-0.000972
808.501441	-0.001039
808.692535	-0.001174
808.883611	-0.001054
809.074669	-0.001201
809.265708	-0.001263
809.456729	-0.001168
809.647732	-0.001290
809.838717	-0.001473
810.029683	-0.001481
810.220632	-0.001567
810.411562	-0.001557
810.602474	-0.001713
810.793367	-0.001818
810.984242	-0.001678
811.175100	-0.001813
811.365938	-0.001535
811.556759	-0.001264
811.747562	-0.001449
811.938346	-0.001523
812.129112	-0.001655
812.319860	-0.001743
812.510589	-0.001838
812.701300	-0.001886
812.891994	-0.001611
813.082668	-0.001572
813.273325	-0.001667
813.463964	-0.001638
813.654584	-0.001550
813.845186	-0.001427
814.035769	-0.001313
814.226335	-0.001284
814.416882	-0.001332
814.607411	-0.001579
814.797922	-0.001704
814.988415	-0.001754
815.178889	-0.001690
815.369345	-0.001754
815.559783	-0.001600
815.750203	-0.001771
815.940605	-0.001847
816.130988	-0.001915
816.321353	-0.001829
816.511700	-0.001824
816.702028	-0.001916
816.892339	-0.002038
817.082631	-0.002042
817.272905	-0.002281
817.463161	-0.002174
817.653398	-0.002346
817.843617	-0.002454
818.033819	-0.002642
818.224001	-0.002834
818.414166	-0.002813
818.604312	-0.002923
818.794440	-0.002834
818.984550	-0.002940
819.174642	-0.003007
819.364716	-0.002912
819.554771	-0.002877
819.744808	-0.002696
819.934827	-0.002658
820.124827	-0.002745
820.314810	-0.002692
820.504774	-0.002866
820.694720	-0.002880
820.884647	-0.002864
821.074557	-0.002549
821.264448	-0.002555
821.454321	-0.002518
821.644176	-0.002468
821.834012	-0.002449
822.023831	-0.002446
822.213631	-0.002472
822.403413	-0.002512
822.593176	-0.002549
822.782922	-0.002806
822.972649	-0.002822
823.162358	-0.003049
823.352049	-0.003168
823.541721	-0.003197
823.731376	-0.003116
823.921012	-0.003081
824.110629	-0.002994
824.300229	-0.003170
824.489811	-0.003324
824.679374	-0.003440
824.868919	-0.003524
825.058445	-0.003550
825.247954	-0.003456
825.437444	-0.003464
825.626916	-0.003542
825.816370	-0.003834
826.005806	-0.003841
826.195223	-0.003849
826.384622	-0.003928
826.574003	-0.003818
826.763366	-0.003746
826.952711	-0.003747
827.142037	-0.003874
827.331345	-0.003741
827.520635	-0.003588
827.709906	-0.003512
827.899160	-0.003426
828.088395	-0.003368
828.277612	-0.003611
828.466810	-0.003710
828.655991	-0.003772
828.845153	-0.003735
829.034297	-0.003770
829.223423	-0.003623
829.412531	-0.003520
829.601620	-0.003563
829.790691	-0.003198
829.979744	-0.002908
830.168779	-0.002588
830.357795	-0.002538
830.546793	-0.002433
830.735773	-0.002349
830.924735	-0.002510
831.113679	-0.002612
831.302604	-0.002535
831.491511	-0.002827
831.680400	-0.002730
831.869271	-0.002982
832.058123	-0.003128
832.246957	-0.003221
832.435773	-0.003123
832.624571	-0.002919
832.813351	-0.002724
833.002112	-0.002855
833.190855	-0.002759
833.379580	-0.003008
833.568287	-0.003177
833.756975	-0.003226
833.945645	-0.003319
834.134297	-0.003680
834.322931	-0.003965
834.511547	-0.004095
834.700144	-0.004392
834.888723	-0.004556
835.077284	-0.004573
835.265826	-0.004614
835.454351	-0.004654
835.642857	-0.004892
835.831345	-0.005012
836.019815	-0.004831
836.208266	-0.004935
836.396699	-0.004809
836.585114	-0.004966
836.773511	-0.005092
836.961890	-0.004924
837.150250	-0.004950
837.338592	-0.004942
837.526916	-0.004862
837.715222	-0.004896
837.903510	-0.004832
838.091779	-0.004769
838.280030	-0.004515
838.468263	-0.004521
838.656477	-0.004547
838.844674	-0.004476
839.032852	-0.004297
839.221012	-0.004105
839.409153	-0.004085
839.597277	-0.003956
839.785382	-0.003894
839.973469	-0.003805
840.161538	-0.003559
840.349589	-0.003566
840.537621	-0.003606
840.725635	-0.003581
840.913631	-0.003690
841.101609	-0.003966
841.289568	-0.004290
841.477509	-0.004232
841.665432	-0.004342
841.853337	-0.004351
842.041224	-0.004445
842.229092	-0.004670
842.416942	-0.004683
842.604774	-0.004813
842.792588	-0.004706
842.980383	-0.004460
843.168160	-0.004641
843.355919	-0.004624
843.543660	-0.004602
843.731382	-0.004490
843.919087	-0.004137
844.106773	-0.004117
844.294441	-0.003926
844.482090	-0.003929
844.669722	-0.004240
844.857335	-0.004210
845.044930	-0.004473
845.232507	-0.004532
845.420065	-0.004363
845.607605	-0.004502
845.795127	-0.004586
845.982631	-0.004657
846.170117	-0.004568
846.357584	-0.004457
846.545033	-0.004313
846.732464	-0.004178
846.919877	-0.004303
847.107272	-0.004376
847.294648	-0.004447
847.482006	-0.004293
847.669346	-0.004091
847.856667	-0.004219
848.043971	-0.004167
848.231256	-0.004502
848.418523	-0.004580
848.605771	-0.004473
848.793002	-0.004702
848.980214	-0.004604
849.167408	-0.004483
849.354584	-0.004857
849.541742	-0.004616
849.728881	-0.004609
849.916002	-0.004406
850.103105	-0.004373
850.290190	-0.004547
850.477256	-0.004466
850.664304	-0.004544
850.851334	-0.004731
851.038346	-0.004643
851.225340	-0.004910
851.412315	-0.004821
851.599272	-0.004694
851.786211	-0.004806
851.973132	-0.004521
852.160034	-0.004468
852.346918	-0.004371
852.533784	-0.004191
852.720632	-0.004149
852.907462	-0.003830
853.094273	-0.003787
853.281066	-0.003811
853.467841	-0.003449
853.654598	-0.003579
853.841336	-0.003748
854.028056	-0.003866
854.214758	-0.003925
854.401442	-0.003534
854.588107	-0.003476
854.774755	-0.003383
854.961384	-0.003080
855.147995	-0.003102
855.334587	-0.003102
855.521162	-0.002545
855.707718	-0.002125
855.894256	-0.002295
856.080775	-0.002452
856.267277	-0.002346
856.453760	-0.002648
856.640225	-0.002854
856.826672	-0.002790
857.013101	-0.002737
857.199511	-0.002914
857.385903	-0.003277
857.572277	-0.003222
857.758633	-0.003254
857.944970	-0.003535
858.131290	-0.003364
858.317591	-0.003444
858.503873	-0.003703
858.690138	-0.003838
858.876384	-0.004097
859.062612	-0.004216
859.248822	-0.004359
859.435014	-0.004317
859.621188	-0.004407
859.807343	-0.004523
859.993480	-0.004425
860.179599	-0.004547
860.365699	-0.004626
860.551781	-0.004766
860.737846	-0.004687
860.923891	-0.004536
861.109919	-0.004870
861.295929	-0.004931
861.481920	-0.004896
861.667893	-0.005048
861.853848	-0.004811
862.039784	-0.004753
862.225702	-0.004359
862.411603	-0.004253
862.597484	-0.004339
862.783348	-0.004201
862.969193	-0.004263
863.155021	-0.004221
863.340830	-0.004233
863.526620	-0.004368
863.712393	-0.004135
863.898147	-0.004383
864.083883	-0.004236
864.269601	-0.004067
864.455301	-0.004227
864.640982	-0.003961
864.826645	-0.003972
865.012290	-0.003779
865.197917	-0.003596
865.383526	-0.003439
865.569116	-0.003216
865.754688	-0.003529
865.940242	-0.003509
866.125777	-0.003293
866.311295	-0.003396
866.496794	-0.003169
866.682275	-0.003139
866.867737	-0.003288
867.053182	-0.003345
867.238608	-0.003119
867.424016	-0.003122
867.609406	-0.003095
867.794778	-0.002988
867.980131	-0.003201
868.165466	-0.003540
868.350783	-0.003833
868.536082	-0.003855
868.721362	-0.003972
868.906625	-0.004539
869.091869	-0.004711
869.277094	-0.004672
869.462302	-0.004716
869.647491	-0.004402
869.832662	-0.004305
870.017815	-0.004247
870.202950	-0.004137
870.388066	-0.004254
870.573165	-0.004000
870.758245	-0.003719
870.943306	-0.004102
871.128350	-0.004319
871.313375	-0.004667
871.498382	-0.004675
871.683371	-0.004638
871.868342	-0.004851
872.053294	-0.004925
872.238229	-0.005218
872.423144	-0.004945
872.608042	-0.004854
872.792922	-0.004808
872.977783	-0.004612
873.162626	-0.004631
873.347451	-0.004762
873.532258	-0.004768
873.717046	-0.004819
873.901816	-0.004564
874.086568	-0.004958
874.271302	-0.004705
874.456017	-0.004598
874.640715	-0.004432
874.825394	-0.004411
875.010055	-0.004141
875.194697	-0.003932
875.379322	-0.003894
875.563928	-0.003910
875.748516	-0.003810
875.933085	-0.003678
876.117637	-0.003456
876.302170	-0.003644
876.486685	-0.003877
876.671182	-0.004029
876.855661	-0.004018
877.040121	-0.003793
877.224563	-0.003754
877.408987	-0.003545
877.593393	-0.003803
877.777780	-0.003825
877.962150	-0.003796
878.146501	-0.003374
878.330833	-0.002992
878.515148	-0.002857
878.699444	-0.002662
878.883722	-0.002493
879.067982	-0.002662
879.252224	-0.002836
879.436447	-0.002899
879.620653	-0.002758
879.804840	-0.003076
879.989008	-0.003086
880.173159	-0.003390
880.357291	-0.003730
880.541405	-0.004020
880.725501	-0.003966
880.909579	-0.003772
881.093638	-0.004182
881.277680	-0.004541
881.461703	-0.004472
881.645707	-0.004779
881.829694	-0.004857
882.013662	-0.004982
882.197612	-0.004862
882.381544	-0.004979
882.565458	-0.004669
882.749353	-0.004338
882.933230	-0.004441
883.117089	-0.004619
883.300930	-0.004743
883.484753	-0.004577
883.668557	-0.004600
883.852343	-0.004737
884.036111	-0.004508
884.219861	-0.004906
884.403592	-0.004741
884.587305	-0.004289
884.771000	-0.004007
884.954677	-0.003881
885.138335	-0.003795
885.321976	-0.003572
885.505598	-0.003662
885.689201	-0.003666
885.872787	-0.003497
886.056354	-0.003641
886.239904	-0.003618
886.423434	-0.003921
886.606947	-0.003983
886.790442	-0.004150
886.973918	-0.004272
887.157376	-0.004051
887.340816	-0.004296
887.524237	-0.004355
887.707641	-0.004493
887.891026	-0.004846
888.074393	-0.004847
888.257741	-0.005048
888.441072	-0.005036
888.624384	-0.005052
888.807678	-0.005507
888.990954	-0.005586
889.174211	-0.005605
889.357451	-0.006027
889.540672	-0.006070
889.723875	-0.006051
889.907059	-0.005879
890.090226	-0.005876
890.273374	-0.005948
890.456504	-0.005847
890.639616	-0.005798
890.822709	-0.005848
891.005785	-0.005678
891.188842	-0.005182
891.371881	-0.005096
891.554901	-0.005290
891.737904	-0.005230
891.920888	-0.005112
892.103854	-0.005093
892.286802	-0.005017
892.469731	-0.005249
892.652643	-0.005235
892.835536	-0.005619
893.018410	-0.005586
893.201267	-0.005337
893.384106	-0.005761
893.566926	-0.005827
893.749728	-0.005678
893.932511	-0.005753
894.115277	-0.005248
894.298024	-0.005025
894.480753	-0.004743
894.663464	-0.004739
894.846157	-0.004649
895.028831	-0.004386
895.211487	-0.004497
895.394125	-0.004713
895.576745	-0.004629
895.759346	-0.005199
895.941930	-0.005052
896.124495	-0.005397
896.307041	-0.005180
896.489570	-0.005356
896.672080	-0.005248
896.854573	-0.005091
897.037046	-0.004858
897.219502	-0.004911
897.401940	-0.004697
897.584359	-0.004841
897.766760	-0.004677
897.949143	-0.005104
898.131507	-0.005141
898.313854	-0.005023
898.496182	-0.005075
898.678492	-0.005094
898.860783	-0.005179
899.043057	-0.005508
899.225312	-0.005359
899.407549	-0.005099
899.589768	-0.004883
899.771968	-0.004928
899.954151	-0.004945
900.136315	-0.005135
900.318461	-0.005177
900.500588	-0.005050
900.682698	-0.005013
900.864789	-0.005438
901.046862	-0.006166
901.228917	-0.006092
901.410953	-0.006076
901.592971	-0.006650
901.774972	-0.006612
901.956953	-0.006741
902.138917	-0.006837
902.320862	-0.006515
902.502790	-0.006533
902.684699	-0.006199
902.866589	-0.006213
903.048462	-0.006318
903.230316	-0.005955
903.412152	-0.005761
903.593970	-0.005710
903.775770	-0.005696
903.957551	-0.005554
904.139314	-0.005494
904.321059	-0.005325
904.502786	-0.005440
904.684494	-0.005132
904.866185	-0.005188
905.047857	-0.005508
905.229510	-0.005481
905.411146	-0.005659
905.592763	-0.005915
905.774363	-0.005899
905.955943	-0.006210
906.137506	-0.006106
906.319051	-0.006201
906.500577	-0.006048
906.682085	-0.005737
906.863575	-0.005473
907.045046	-0.005431
907.226500	-0.005375
907.407935	-0.005411
907.589352	-0.005284
907.770750	-0.005327
907.952131	-0.005177
908.133493	-0.005301
908.314837	-0.005680
908.496163	-0.006012
908.677470	-0.005886
908.858760	-0.006316
909.040031	-0.006257
909.221284	-0.006171
909.402518	-0.006279
909.583735	-0.006327
909.764933	-0.006341
909.946113	-0.006106
910.127275	-0.006230
910.308418	-0.006209
910.489544	-0.005807
910.670651	-0.005765
910.851740	-0.005958
911.032810	-0.006368
911.213863	-0.006811
911.394897	-0.007025
911.575913	-0.007057
911.756911	-0.007326
911.937890	-0.007647
912.118851	-0.007875
912.299794	-0.007997
912.480719	-0.007936
912.661626	-0.007658
912.842514	-0.007395
913.023384	-0.007283
913.204236	-0.007656
913.385070	-0.007649
913.565886	-0.007574
913.746683	-0.007364
913.927462	-0.007649
914.108223	-0.007751
914.288965	-0.007541
914.469690	-0.008153
914.650396	-0.008533
914.831084	-0.008530
915.011754	-0.008757
915.192405	-0.009098
915.373038	-0.009324
915.553653	-0.009170
915.734250	-0.009123
915.914829	-0.009703
916.095389	-0.009337
916.275931	-0.009157
916.456455	-0.009228
916.636961	-0.008576
916.817448	-0.008089
916.997917	-0.008420
917.178368	-0.008509
917.358801	-0.008743
917.539216	-0.008499
917.719612	-0.008782
917.899990	-0.008865
918.080350	-0.008851
918.260692	-0.009410
918.441015	-0.009600
918.621320	-0.009539
918.801607	-0.009683
918.981876	-0.009891
919.162127	-0.009907
919.342359	-0.009952
919.522573	-0.010027
919.702769	-0.009732
919.882947	-0.009488
920.063106	-0.009844
920.243247	-0.009592
920.423370	-0.009323
920.603475	-0.009164
920.783562	-0.009508
920.963630	-0.009630
921.143680	-0.009614
921.323712	-0.009845
921.503725	-0.010240
921.683721	-0.010034
921.863698	-0.010130
922.043657	-0.010715
922.223598	-0.010819
922.403520	-0.010753
922.583424	-0.010496
922.763311	-0.010520
922.943178	-0.010843
923.123028	-0.010905
923.302859	-0.011012
923.482673	-0.011286
923.662467	-0.011413
923.842244	-0.011530
924.022003	-0.011684
924.201743	-0.011822
924.381465	-0.012118
924.561169	-0.011644
924.740854	-0.011733
924.920522	-0.012591
925.100171	-0.012664
925.279802	-0.012584
925.459414	-0.012812
925.639009	-0.013213
925.818585	-0.013126
925.998143	-0.012939
926.177683	-0.013135
926.357205	-0.013269
926.536708	-0.012292
926.716193	-0.012027
926.895660	-0.011983
927.075109	-0.011729
927.254539	-0.011339
927.433951	-0.011223
927.613345	-0.011564
927.792721	-0.011979
927.972079	-0.011480
928.151418	-0.012035
928.330739	-0.012480
928.510042	-0.012845
928.689327	-0.013127
928.868593	-0.013364
929.047841	-0.014301
929.227071	-0.013970
929.406283	-0.013890
929.585476	-0.014632
929.764652	-0.014585
929.943809	-0.015167
930.122948	-0.015730
930.302068	-0.015596
930.481171	-0.015372
930.660255	-0.015175
930.839321	-0.015386
931.018369	-0.015774
931.197398	-0.015737
931.376409	-0.015980
931.555402	-0.015732
931.734377	-0.014651
931.913334	-0.014921
932.092272	-0.015629
932.271192	-0.015727
932.450094	-0.016063
932.628978	-0.015779
932.807844	-0.015865
932.986691	-0.016047
933.165520	-0.016074
933.344331	-0.016698
933.523123	-0.016788
933.701898	-0.016254
933.880654	-0.016353
934.059392	-0.016368
934.238111	-0.016717
934.416813	-0.017220
934.595496	-0.017428
934.774161	-0.017110
934.952808	-0.017107
935.131437	-0.017548
935.310047	-0.018084
935.488639	-0.018485
935.667213	-0.018693
935.845769	-0.018862
936.024306	-0.017990
936.202825	-0.017683
936.381326	-0.018009
936.559809	-0.017949
936.738274	-0.017796
936.916720	-0.017163
937.095148	-0.017078
937.273558	-0.017007
937.451950	-0.016730
937.630323	-0.017321
937.808678	-0.017548
937.987015	-0.017699
938.165334	-0.017563
938.343635	-0.017675
938.521917	-0.018354
938.700181	-0.018490
938.878427	-0.018845
939.056655	-0.019117
939.234864	-0.018239
939.413055	-0.018271
939.591228	-0.018066
939.769383	-0.018534
939.947519	-0.019081
940.125638	-0.018629
940.303738	-0.018637
940.481820	-0.018528
940.659883	-0.018773
940.837929	-0.019354
941.015956	-0.020209
941.193965	-0.020585
941.371955	-0.020880
941.549928	-0.020334
941.727882	-0.021500
941.905818	-0.020419
942.083736	-0.020320
942.261636	-0.019842
942.439517	-0.020798
942.617380	-0.020090
942.795225	-0.020060
942.973052	-0.019501
943.150860	-0.019912
943.328651	-0.019544
943.506423	-0.020637
943.684176	-0.021035
943.861912	-0.021724
944.039629	-0.020569
944.217328	-0.020938
944.395009	-0.021528
944.572672	-0.022464
944.750317	-0.022290
944.927943	-0.021337
945.105551	-0.021439
945.283141	-0.021004
945.460712	-0.021359
945.638265	-0.022387
945.815801	-0.021460
945.993317	-0.021290
946.170816	-0.019898
946.348297	-0.018585
946.525759	-0.018871
946.703203	-0.018553
946.880629	-0.018285
947.058036	-0.018132
947.235425	-0.017055
947.412797	-0.017354
947.590149	-0.017067
947.767484	-0.017112
947.944800	-0.017982
948.122099	-0.018028
948.299379	-0.018538
948.476640	-0.019267
948.653884	-0.018619
948.831109	-0.019176
949.008316	-0.018383
949.185505	-0.018743
949.362676	-0.018440
949.539828	-0.017613
949.716962	-0.016851
949.894078	-0.015998
950.071176	-0.015344
950.248256	-0.015583
950.425317	-0.015621
950.602360	-0.016245
950.779385	-0.014889
950.956391	-0.015486
951.133380	-0.016582
951.310350	-0.015855
951.487302	-0.015808
951.664235	-0.015925
951.841151	-0.015922
952.018048	-0.015435
952.194927	-0.014578
952.371788	-0.015243
952.548631	-0.014460
952.725455	-0.014213
952.902261	-0.014424
953.079049	-0.013658
953.255819	-0.014651
953.432570	-0.013351
953.609303	-0.012412
953.786018	-0.012356
953.962715	-0.011970
954.139394	-0.012802
954.316054	-0.011924
954.492696	-0.014149
954.669320	-0.015388
954.845926	-0.013527
955.022513	-0.014925
955.199083	-0.016364
955.375634	-0.017276
955.552166	-0.017580
955.728681	-0.017979
955.905177	-0.018847
956.081655	-0.017089
956.258115	-0.015835
956.434557	-0.016226
956.610980	-0.014188
956.787385	-0.012247
956.963772	-0.012311
957.140141	-0.011070
957.316492	-0.009466
957.492824	-0.006893
957.669138	-0.006428
957.845434	-0.006724
958.021712	-0.005582
958.197971	-0.005130
958.374212	-0.005189
958.550435	-0.004796
958.726640	-0.005324
958.902826	-0.004399
959.078995	-0.005133
959.255145	-0.005594
959.431277	-0.003660
959.607390	-0.003146
959.783486	-0.003536
959.959563	-0.003089
960.135622	-0.001427
960.311662	-0.000655
960.487685	-0.000978
960.663689	-0.000623
960.839675	-0.000158
961.015643	0.000674
961.191593	0.000145
961.367524	0.000203
961.543437	0.001192
961.719332	-0.000337
961.895209	0.000591
962.071067	0.001068
962.246907	0.000890
962.422730	0.000274
962.598533	-0.001380
962.774319	-0.000354
962.950086	0.000717
963.125835	-0.001226
963.301566	0.000479
963.477279	0.000908
963.652973	0.000905
963.828650	0.000432
964.004308	0.001503
964.179947	0.001782
964.355569	0.001369
964.531172	0.003685
964.706757	0.005111
964.882324	0.004298
965.057873	0.003994
965.233403	0.006250
965.408916	0.007927
965.584410	0.008910
965.759885	0.009148
965.935343	0.009558
966.110782	0.006926
966.286203	0.008369
966.461606	0.009646
966.636991	0.010672
966.812357	0.008983
966.987705	0.010031
967.163035	0.010610
967.338347	0.012280
967.513641	0.013046
967.688916	0.013437
967.864173	0.012029
968.039412	0.012079
968.214632	0.012111
968.389835	0.011832
968.565019	0.010057
968.740185	0.009665
968.915333	0.008205
969.090462	0.007406
969.265573	0.007472
969.440667	0.007127
969.615741	0.007318
969.790798	0.005744
969.965836	0.005901
970.140856	0.007394
970.315858	0.007426
970.490842	0.006760
970.665808	0.009341
970.840755	0.009994
971.015684	0.012148
971.190595	0.011055
971.365487	0.012150
971.540362	0.011892
971.715218	0.012804
971.890056	0.013347
972.064875	0.014313
972.239677	0.011263
972.414460	0.012329
972.589225	0.010889
972.763972	0.012982
972.938700	0.012400
973.113411	0.013213
973.288103	0.012536
973.462777	0.012197
973.637432	0.012330
973.812070	0.013378
973.986689	0.011542
974.161290	0.011281
974.335873	0.009433
974.510437	0.011212
974.684984	0.010281
974.859512	0.010850
975.034022	0.011064
975.208513	0.010728
975.382987	0.011347
975.557442	0.012604
975.731879	0.014081
975.906298	0.016447
976.080698	0.016090
976.255080	0.016267
976.429445	0.015560
976.603790	0.015550
976.778118	0.014106
976.952427	0.014771
977.126719	0.014478
977.300992	0.013094
977.475246	0.011855
977.649483	0.011173
977.823701	0.012833
977.997901	0.011164
978.172083	0.009481
978.346247	0.009746
978.520392	0.006548
978.694519	0.006834
978.868628	0.007098
979.042719	0.007917
979.216791	0.007869
979.390845	0.007569
979.564882	0.009263
979.738899	0.010104
979.912899	0.012456
980.086880	0.013744
980.260843	0.013475
980.434788	0.013611
980.608715	0.012430
980.782623	0.011996
980.956514	0.010984
981.130386	0.008470
981.304240	0.008224
981.478075	0.009386
981.651892	0.009247
981.825692	0.008044
981.999472	0.009051
982.173235	0.010324
982.346980	0.010741
982.520706	0.012598
982.694414	0.012723
982.868104	0.012096
983.041775	0.010583
983.215428	0.010843
983.389064	0.012437
983.562680	0.010878
983.736279	0.008226
983.909860	0.008975
984.083422	0.009685
984.256966	0.010978
984.430491	0.013339
984.603999	0.012720
984.777488	0.012345
984.950959	0.010952
985.124412	0.011048
985.297847	0.011185
985.471263	0.010006
985.644661	0.008373
985.818041	0.007727
985.991403	0.005234
986.164747	0.005992
986.338072	0.005884
986.511379	0.006979
986.684668	0.008046
986.857938	0.010142
987.031191	0.009854
987.204425	0.009025
987.377641	0.008260
987.550839	0.008814
987.724018	0.008623
987.897179	0.007709
988.070322	0.007176
988.243447	0.006543
988.416554	0.005251
988.589642	0.006426
988.762712	0.007572
988.935764	0.008339
989.108798	0.009654
989.281813	0.008510
989.454811	0.010717
989.627790	0.010438
989.800751	0.011364
989.973693	0.012069
990.146617	0.011174
990.319524	0.010315
990.492412	0.010907
990.665281	0.009388
990.838133	0.010050
991.010966	0.010527
991.183781	0.011764
991.356578	0.010446
991.529356	0.012025
991.702117	0.012411
991.874859	0.012461
992.047583	0.012948
992.220288	0.015386
992.392976	0.015169
992.565645	0.013675
992.738296	0.013677
992.910929	0.013311
993.083543	0.011182
993.256139	0.011705
993.428718	0.012176
993.601277	0.012288
993.773819	0.011439
993.946342	0.011007
994.118848	0.012208
994.291335	0.011028
994.463803	0.011106
994.636254	0.011915
994.808686	0.010749
994.981100	0.009802
995.153496	0.008457
995.325874	0.007216
995.498233	0.008263
995.670574	0.007031
995.842897	0.006890
996.015202	0.007293
996.187488	0.006898
996.359757	0.007944
996.532007	0.009181
996.704239	0.009879
996.876452	0.010331
997.048648	0.009797
997.220825	0.010344
997.392984	0.009488
997.565124	0.010193
997.737247	0.010232
997.909351	0.009664
998.081437	0.009833
998.253505	0.009614
998.425554	0.008943
998.597586	0.009425
998.769599	0.008919
998.941594	0.010461
999.113571	0.010803
999.285529	0.010965
999.457469	0.010743
999.629391	0.009681
999.801295	0.009286
999.973181	0.009330
1000.145048	0.009234
1000.316897	0.009709
1000.488728	0.008544
1000.660541	0.006813
1000.832335	0.007003
1001.004111	0.007534
1001.175869	0.007523
1001.347609	0.008327
1001.519331	0.006742
1001.691034	0.006398
1001.862719	0.005869
1002.034386	0.006556
1002.206035	0.006490
1002.377665	0.005656
1002.549277	0.004232
1002.720871	0.004564
1002.892447	0.005158
1003.064004	0.007185
1003.235544	0.008054
1003.407065	0.008210
1003.578568	0.007673
1003.750052	0.008347
1003.921519	0.007262
1004.092967	0.009082
1004.264397	0.009064
1004.435809	0.007967
1004.607202	0.007335
1004.778577	0.006392
1004.949934	0.006389
1005.121273	0.008557
1005.292594	0.009917
1005.463896	0.011393
1005.635180	0.009937
1005.806446	0.010929
1005.977694	0.011820
1006.148923	0.010868
1006.320135	0.012728
1006.491328	0.012871
1006.662503	0.011728
1006.833659	0.009373
1007.004798	0.009198
1007.175918	0.010221
1007.347020	0.008742
1007.518103	0.008817
1007.689169	0.010402
1007.860216	0.009931
1008.031245	0.010266
1008.202256	0.009212
1008.373248	0.010053
1008.544223	0.009052
1008.715179	0.010174
1008.886117	0.010942
1009.057036	0.010188
1009.227938	0.009232
1009.398821	0.006791
1009.569686	0.006784
1009.740533	0.006971
1009.911361	0.007708
1010.082172	0.008789
1010.252964	0.007014
1010.423738	0.006553
1010.594493	0.006863
1010.765231	0.006878
1010.935950	0.007092
1011.106651	0.006173
1011.277334	0.005661
1011.447998	0.004342
1011.618645	0.004547
1011.789273	0.005438
1011.959882	0.004690
1012.130474	0.003400
1012.301048	0.002660
1012.471603	0.004032
1012.642140	0.004413
1012.812658	0.005083
1012.983159	0.005962
1013.153641	0.004799
1013.324105	0.004246
1013.494551	0.005197
1013.664979	0.005905
1013.835388	0.007627
1014.005779	0.006528
1014.176152	0.006254
1014.346507	0.005304
1014.516843	0.005493
1014.687162	0.005831
1014.857462	0.004166
1015.027744	0.003824
1015.198007	0.004373
1015.368252	0.004422
1015.538480	0.004787
1015.708689	0.004985
1015.878879	0.006248
1016.049052	0.007150
1016.219206	0.007947
1016.389342	0.010711
1016.559460	0.010911
1016.729559	0.011049
1016.899641	0.012530
1017.069704	0.012932
1017.239749	0.012580
1017.409775	0.011830
1017.579784	0.010283
1017.749774	0.010669
1017.919746	0.008814
1018.089700	0.007291
1018.259635	0.007020
1018.429553	0.005307
1018.599452	0.005060
1018.769333	0.004897
1018.939195	0.006657
1019.109040	0.006806
1019.278866	0.005107
1019.448674	0.005884
1019.618464	0.007327
1019.788235	0.007340
1019.957989	0.007576
1020.127724	0.007329
1020.297441	0.008214
1020.467139	0.006860
1020.636820	0.007503
1020.806482	0.008378
1020.976126	0.007571
1021.145752	0.007327
1021.315359	0.007250
1021.484948	0.006136
1021.654519	0.006095
1021.824072	0.006623
1021.993607	0.006171
1022.163123	0.005250
1022.332621	0.004825
1022.502101	0.005685
1022.671563	0.006292
1022.841007	0.005219
1023.010432	0.005513
1023.179839	0.005164
1023.349228	0.004737
1023.518598	0.005517
1023.687951	0.005540
1023.857285	0.006002
1024.026601	0.006246
1024.195899	0.005310
1024.365178	0.005896
1024.534439	0.007558
1024.703682	0.008313
1024.872907	0.006502
1025.042114	0.006097
1025.211302	0.007985
1025.380472	0.007461
1025.549624	0.006872
1025.718758	0.006746
1025.887873	0.007079
1026.056970	0.005870
1026.226049	0.004210
1026.395110	0.005401
1026.564153	0.006050
1026.733177	0.004918
1026.902183	0.004817
1027.071171	0.004854
1027.240141	0.005700
1027.409092	0.005447
1027.578026	0.005515
1027.746940	0.006172
1027.915837	0.006401
1028.084716	0.006367
1028.253576	0.005964
1028.422418	0.007870
1028.591242	0.006908
1028.760048	0.006505
1028.928835	0.006757
1029.097604	0.006274
1029.266355	0.007097
1029.435088	0.007028
1029.603803	0.007698
1029.772499	0.007393
1029.941177	0.005984
1030.109837	0.006588
1030.278478	0.004954
1030.447102	0.004924
1030.615707	0.005462
1030.784294	0.005552
1030.952863	0.006158
1031.121413	0.004307
1031.289945	0.004207
1031.458460	0.004363
1031.626955	0.005066
1031.795433	0.005011
1031.963892	0.003955
1032.132334	0.003654
1032.300756	0.003352
1032.469161	0.002540
1032.637548	0.002827
1032.805916	0.003631
1032.974266	0.004431
1033.142598	0.003295
1033.310911	0.005241
1033.479207	0.005226
1033.647484	0.004896
1033.815743	0.004507
1033.983983	0.005395
1034.152206	0.006239
1034.320410	0.004997
1034.488596	0.003989
1034.656764	0.004980
1034.824914	0.004258
1034.993045	0.004435
1035.161158	0.004926
1035.329253	0.005449
1035.497330	0.004630
1035.665388	0.004595
1035.833428	0.004390
1036.001450	0.004712
1036.169454	0.004561
1036.337440	0.003682
1036.505407	0.004887
1036.673356	0.005729
1036.841287	0.005554
1037.009200	0.003747
1037.177094	0.002596
1037.344970	0.004709
1037.512828	0.003758
1037.680668	0.003156
1037.848489	0.004702
1038.016293	0.003941
1038.184078	0.003852
1038.351845	0.001906
1038.519593	0.003913
1038.687324	0.004173
1038.855036	0.003578
1039.022730	0.002879
1039.190406	0.002554
1039.358063	0.001406
1039.525702	0.000749
1039.693323	-0.000530
1039.860926	0.002769
1040.028511	0.003410
1040.196077	0.002958
1040.363625	0.002944
1040.531155	0.002558
1040.698667	0.002912
1040.866161	0.003095
1041.033636	0.003496
1041.201093	0.003626
1041.368532	0.002171
1041.535952	0.002012
1041.703355	0.003001
1041.870739	0.001583
1042.038105	0.003205
1042.205452	0.003022
1042.372782	0.003892
1042.540093	0.004296
1042.707386	0.005059
1042.874661	0.005467
1043.041918	0.004690
1043.209156	0.003951
1043.376376	0.003268
1043.543578	0.002896
1043.710762	0.002741
1043.877927	0.001632
1044.045074	0.000790
1044.212203	0.000264
1044.379314	-0.000935
1044.546407	-0.001079
1044.713481	-0.002406
1044.880537	-0.000876
1045.047575	-0.000253
1045.214595	-0.001501
1045.381596	-0.000022
1045.548579	-0.000358
1045.715544	-0.001529
1045.882491	-0.000832
1046.049420	0.000398
1046.216330	0.002638
1046.383222	0.003364
1046.550096	0.002858
1046.716951	0.006001
1046.883789	0.005378
1047.050608	0.006733
1047.217409	0.007879
1047.384192	0.007460
1047.550956	0.004623
1047.717703	0.003004
1047.884431	0.002124
1048.051140	0.001466
1048.217832	0.000046
1048.384505	-0.000375
1048.551161	-0.000016
1048.717798	-0.000625
1048.884416	0.000062
1049.051017	0.000989
1049.217599	0.001199
1049.384163	0.000654
1049.550709	0.002390
1049.717237	0.003083
1049.883746	0.002586
1050.050237	0.001093
1050.216710	0.000841
1050.383165	-0.001714
1050.549601	-0.000562
1050.716019	-0.000015
1050.882420	0.001161
1051.048801	-0.000657
1051.215165	-0.002407
1051.381510	-0.001806
1051.547837	-0.001254
1051.714146	0.000634
1051.880437	0.003375
1052.046709	0.002564
1052.212964	0.000811
1052.379200	-0.000760
1052.545417	0.000179
1052.711617	-0.000526
1052.877798	0.000282
1053.043961	0.000553
1053.210106	-0.002153
1053.376233	-0.001636
1053.542341	-0.000037
1053.708432	0.002730
1053.874504	0.004378
1054.040557	0.003925
1054.206593	0.006005
1054.372610	0.004697
1054.538609	0.004056
1054.704590	0.005717
1054.870553	0.003872
1055.036497	0.002447
1055.202424	0.001089
1055.368331	-0.000808
1055.534221	-0.001388
1055.700093	-0.001603
1055.865946	-0.000735
1056.031781	-0.000142
1056.197598	0.000259
1056.363397	0.000863
1056.529177	-0.000655
1056.694939	-0.000912
1056.860683	-0.001589
1057.026409	-0.000978
1057.192116	-0.001387
1057.357806	-0.001947
1057.523477	-0.000973
1057.689130	-0.002494
1057.854764	-0.003822
1058.020381	-0.001520
1058.185979	0.000150
1058.351559	0.002180
1058.517120	0.000402
1058.682664	0.000869
1058.848189	0.001151
1059.013696	-0.000785
1059.179185	-0.000081
1059.344656	0.000215
1059.510108	0.000075
1059.675542	-0.000535
1059.840958	-0.001068
1060.006356	0.000744
1060.171735	-0.000487
1060.337096	-0.001437
1060.502439	-0.001271
1060.667764	-0.001718
1060.833071	-0.000854
1060.998359	-0.001982
1061.163629	-0.002733
1061.328881	-0.002740
1061.494115	-0.003502
1061.659330	-0.003078
1061.824527	-0.002071
1061.989706	-0.001047
1062.154867	-0.001158
1062.320010	-0.001596
1062.485134	-0.000232
1062.650240	0.000679
1062.815328	0.001180
1062.980398	-0.000684
1063.145449	0.001042
1063.310482	0.001390
1063.475497	0.000654
1063.640494	0.001520
1063.805473	0.002272
1063.970433	0.001352
1064.135375	-0.001871
1064.300299	-0.002260
1064.465204	0.000617
1064.630092	0.000232
1064.794961	-0.000858
1064.959812	-0.000696
1065.124645	0.000031
1065.289459	-0.001886
1065.454256	-0.001521
1065.619034	0.001105
1065.783793	0.000591
1065.948535	0.001339
1066.113258	0.001072
1066.277964	0.002103
1066.442651	0.001017
1066.607319	-0.000969
1066.771970	0.002092
1066.936602	0.001581
1067.101216	0.001895
1067.265812	0.003164
1067.430389	0.002513
1067.594949	0.001657
1067.759490	-0.000250
1067.924013	0.000374
1068.088518	0.000293
1068.253004	-0.001645
1068.417472	-0.001898
1068.581922	-0.001238
1068.746354	-0.001017
1068.910768	-0.000855
1069.075163	-0.000554
1069.239540	0.001508
1069.403899	-0.000336
1069.568240	-0.000259
1069.732562	0.001586
1069.896866	0.001845
1070.061152	0.001011
1070.225420	0.001825
1070.389670	0.002037
1070.553901	0.003118
1070.718114	0.004504
1070.882309	0.007614
1071.046486	0.008851
1071.210644	0.007905
1071.374784	0.006666
1071.538906	0.005047
1071.703010	0.001528
1071.867096	0.001842
1072.031163	0.000225
1072.195212	-0.002330
1072.359243	-0.002110
1072.523256	-0.001649
1072.687250	-0.002208
1072.851226	0.000620
1073.015184	0.002192
1073.179124	0.005128
1073.343045	0.003418
1073.506949	0.003141
1073.670834	0.002080
1073.834701	0.001422
1073.998549	0.000013
1074.162380	0.000969
1074.326192	-0.001599
1074.489986	-0.002103
1074.653761	-0.003717
1074.817519	-0.002723
1074.981258	-0.001087
1075.144979	0.000792
1075.308682	-0.001054
1075.472367	-0.000269
1075.636033	-0.001665
1075.799681	0.000729
1075.963311	0.001324
1076.126923	0.001793
1076.290516	0.000823
1076.454092	0.001187
1076.617649	0.001216
1076.781187	0.001822
1076.944708	0.001978
1077.108210	0.004418
1077.271695	0.001482
1077.435160	0.002577
1077.598608	0.001055
1077.762038	0.002410
1077.925449	0.002986
1078.088842	0.003765
1078.252217	0.006564
1078.415573	0.006022
1078.578912	0.004225
1078.742232	0.006106
1078.905534	0.003589
1079.068817	0.004956
1079.232083	0.002295
1079.395330	0.001392
1079.558559	-0.000129
1079.721770	-0.002109
1079.884962	-0.001061
1080.048136	-0.000649
1080.211293	-0.000867
1080.374430	0.000524
1080.537550	0.001554
1080.700651	0.004931
1080.863735	0.004456
1081.026800	0.004031
1081.189846	0.004789
1081.352875	0.003630
1081.515885	0.004519
1081.678877	0.005438
1081.841851	0.005800
1082.004807	0.002397
1082.167744	0.000725
1082.330663	0.000587
1082.493564	0.002646
1082.656447	0.001537
1082.819312	0.000646
1082.982158	-0.000259
1083.144986	-0.000616
1083.307796	-0.001665
1083.470587	0.000324
1083.633361	-0.000026
1083.796116	-0.000460
1083.958853	-0.001057
1084.121571	-0.002572
1084.284272	-0.000719
1084.446954	-0.001940
1084.609618	-0.004359
1084.772264	-0.006123
1084.934892	-0.004899
1085.097501	-0.004652
1085.260092	-0.007615
1085.422665	-0.009665
1085.585220	-0.008171
1085.747756	-0.010152
1085.910274	-0.008127
1086.072774	-0.007081
1086.235256	-0.005317
1086.397720	-0.007749
1086.560165	-0.008532
1086.722592	-0.005736
1086.885001	-0.002964
1087.047392	-0.001247
1087.209764	-0.000309
1087.372119	-0.000879
1087.534455	-0.001060
1087.696772	-0.001917
1087.859072	-0.000557
1088.021353	-0.000131
1088.183616	-0.003385
1088.345861	-0.005074
1088.508088	-0.005786
1088.670296	-0.005553
1088.832486	-0.006678
1088.994658	-0.005560
1089.156812	-0.005730
1089.318948	-0.004389
1089.481065	-0.002974
1089.643164	-0.001027
1089.805245	-0.000883
1089.967308	0.000148
1090.129352	-0.000371
1090.291378	0.001421
1090.453386	-0.000682
1090.615376	-0.001191
1090.777347	-0.001989
1090.939301	-0.002927
1091.101236	-0.002160
1091.263153	-0.003302
1091.425051	-0.003843
1091.586932	-0.003562
1091.748794	-0.005062
1091.910638	-0.004531
1092.072463	-0.002742
1092.234271	-0.003871
1092.396060	-0.001833
1092.557831	0.000911
1092.719584	0.002212
1092.881319	-0.000604
1093.043035	0.000010
1093.204733	0.000173
1093.366413	0.003020
1093.528075	0.001054
1093.689718	0.000282
1093.851343	-0.000992
1094.012950	-0.003301
1094.174539	-0.004297
1094.336110	-0.003408
1094.497662	-0.006048
1094.659196	-0.005148
1094.820712	-0.006857
1094.982210	-0.004654
1095.143689	-0.005202
1095.305151	-0.006617
1095.466594	-0.006230
1095.628018	-0.005165
1095.789425	-0.002698
1095.950813	0.000295
1096.112183	-0.000061
1096.273535	-0.000589
1096.434869	0.000902
1096.596184	0.003177
1096.757482	0.001177
1096.918761	0.004121
1097.080021	0.004502
1097.241264	0.001445
1097.402488	-0.000002
1097.563694	-0.001074
1097.724882	-0.000534
1097.886052	-0.002721
1098.047203	-0.004768
1098.208336	-0.002145
1098.369451	-0.005066
1098.530548	-0.006932
1098.691627	-0.006692
1098.852687	-0.003402
1099.013729	-0.002455
1099.174753	-0.001783
1099.335758	-0.002316
1099.496746	-0.000174
1099.657715	-0.002844
1099.818666	-0.003020
1099.979599	-0.000713
1100.140513	0.001085
1100.301409	-0.001944
1100.462287	-0.003045
1100.623147	-0.005437
1100.783989	-0.006619
1100.944812	-0.009489
1101.105617	-0.010036
1101.266404	-0.012231
1101.427173	-0.011821
1101.587923	-0.011434
1101.748656	-0.009385
1101.909370	-0.010143
1102.070066	-0.007575
1102.230743	-0.007028
1102.391403	-0.005739
1102.552044	-0.003457
1102.712667	-0.000399
1102.873271	-0.004340
1103.033858	-0.006000
1103.194426	-0.008689
1103.354976	-0.008559
1103.515508	-0.011919
1103.676021	-0.011015
1103.836517	-0.010494
1103.996994	-0.010315
1104.157453	-0.010311
1104.317893	-0.006866
1104.478316	-0.005023
1104.638720	-0.003372
1104.799106	-0.005865
1104.959474	-0.004118
1105.119823	-0.004450
1105.280155	-0.002505
1105.440468	-0.003203
1105.600763	-0.006392
1105.761039	-0.009319
1105.921298	-0.009275
1106.081538	-0.009515
1106.241760	-0.005043
1106.401964	-0.003288
1106.562149	-0.001270
1106.722316	-0.002701
1106.882465	-0.002888
1107.042596	0.002870
1107.202709	0.004077
1107.362803	0.003741
1107.522879	0.003133
1107.682937	0.001349
1107.842977	-0.000270
1108.002999	0.000631
1108.163002	0.000845
1108.322987	0.001085
1108.482954	-0.003237
1108.642902	-0.003013
1108.802833	-0.005318
1108.962745	-0.003746
1109.122639	-0.001127
1109.282515	-0.000836
1109.442372	-0.004948
1109.602211	-0.004185
1109.762032	-0.001061
1109.921835	-0.003275
1110.081620	-0.001547
1110.241386	-0.000480
1110.401134	-0.002850
1110.560864	-0.005221
1110.720576	-0.002751
1110.880269	-0.002935
1111.039945	-0.002004
1111.199602	-0.000821
1111.359240	0.002300
1111.518861	-0.000775
1111.678463	-0.002601
1111.838047	-0.000496
1111.997613	0.001300
1112.157161	-0.003620
1112.316690	-0.001594
1112.476202	-0.003352
1112.635695	-0.005767
1112.795169	-0.004498
1112.954626	-0.004508
1113.114064	-0.003766
1113.273484	-0.005348
1113.432886	-0.007116
1113.592270	-0.002278
1113.751635	-0.001112
1113.910983	-0.002067
1114.070312	-0.002378
1114.229622	-0.002703
1114.388915	-0.001382
1114.548189	-0.001064
1114.707445	0.000224
1114.866683	0.000395
1115.025903	-0.001907
1115.185104	-0.002886
1115.344287	-0.002763
1115.503452	-0.003271
1115.662599	-0.004542
1115.821727	-0.005382
1115.980838	-0.005374
1116.139930	-0.007333
1116.299004	-0.003351
1116.458059	-0.006551
1116.617097	-0.010434
1116.776116	-0.009389
1116.935117	-0.006867
1117.094099	-0.008472
1117.253064	-0.007858
1117.412010	-0.009958
1117.570938	-0.011130
1117.729848	-0.015433
1117.888740	-0.016862
1118.047613	-0.013684
1118.206468	-0.015548
1118.365305	-0.015704
1118.524124	-0.013512
1118.682924	-0.014916
1118.841707	-0.007563
1119.000471	-0.007703
1119.159216	-0.008749
1119.317944	-0.002821
1119.476653	-0.001325
1119.635344	0.002746
1119.794017	-0.000792
1119.952672	-0.000798
1120.111308	0.004720
1120.269927	-0.000643
1120.428527	0.001508
1120.587108	0.000541
1120.745672	0.000047
1120.904217	-0.001139
1121.062744	-0.006505
1121.221253	-0.003577
1121.379744	-0.010724
1121.538216	-0.009461
1121.696671	-0.010294
1121.855107	-0.012078
1122.013524	-0.010265
1122.171924	-0.011140
1122.330305	-0.008452
1122.488668	-0.006777
1122.647013	-0.006698
1122.805340	-0.000358
1122.963648	-0.006647
1123.121938	-0.005276
1123.280210	-0.001164
1123.438464	0.002302
1123.596700	0.004058
1123.754917	0.004397
1123.913116	0.007819
1124.071297	0.010138
1124.229459	0.008012
1124.387604	0.010875
1124.545730	0.010469
1124.703838	0.012619
1124.861928	0.011224
1125.019999	0.010682
1125.178052	0.006703
1125.336088	0.003264
1125.494104	-0.000966
1125.652103	0.000392
1125.810083	-0.001377
1125.968045	0.000706
1126.125989	-0.006845
1126.283915	-0.008426
1126.441823	-0.014744
1126.599712	-0.015049
1126.757583	-0.012050
1126.915436	-0.011721
1127.073270	-0.012800
1127.231087	-0.010698
1127.388885	-0.012671
1127.546665	-0.009860
1127.704426	-0.003088
1127.862170	0.002474
1128.019895	0.004677
1128.177602	0.002655
1128.335291	-0.000964
1128.492961	0.004530
1128.650614	0.002419
1128.808248	0.002139
1128.965864	0.008997
1129.123461	0.003360
1129.281041	-0.000644
1129.438602	-0.003774
1129.596145	-0.006681
1129.753670	-0.003621
1129.911176	-0.009415
1130.068665	-0.011106
1130.226135	-0.010860
1130.383587	-0.014679
1130.541020	-0.016175
1130.698436	-0.009553
1130.855833	-0.006700
1131.013212	-0.001460
1131.170573	-0.005402
1131.327915	-0.002322
1131.485239	-0.005092
1131.642545	-0.004099
1131.799833	-0.010037
1131.957103	-0.010477
1132.114354	-0.007796
1132.271588	-0.011781
1132.428803	-0.015421
1132.585999	-0.010674
1132.743178	-0.008478
1132.900338	-0.003536
1133.057480	-0.003494
1133.214604	0.000137
1133.371710	0.001427
1133.528797	-0.007844
1133.685866	-0.001227
1133.842917	0.000443
1133.999950	-0.001660
1134.156964	-0.004213
1134.313960	-0.008852
1134.470938	-0.011731
1134.627898	-0.010335
1134.784840	-0.013388
1134.941763	-0.002938
1135.098668	-0.004723
1135.255555	-0.005489
1135.412424	-0.002744
1135.569274	-0.005878
1135.726107	-0.002099
1135.882921	-0.003381
1136.039716	-0.008634
1136.196494	-0.008363
1136.353253	-0.014162
1136.509995	-0.010979
1136.666717	-0.010214
1136.823422	-0.010412
1136.980109	-0.009856
1137.136777	-0.008250
1137.293427	-0.004016
1137.450059	-0.006239
1137.606672	-0.006264
1137.763267	-0.010031
1137.919844	-0.012327
1138.076403	-0.015055
1138.232944	-0.012671
1138.389466	-0.014019
1138.545971	-0.013126
1138.702457	-0.017670
1138.858924	-0.010380
1139.015374	-0.004369
1139.171805	-0.001682
1139.328218	0.001476
1139.484613	0.002804
1139.640990	-0.002149
1139.797348	0.003036
1139.953688	0.004045
1140.110010	0.011826
1140.266314	0.012471
1140.422600	0.010931
1140.578867	0.010014
1140.735116	0.008526
1140.891347	0.008899
1141.047559	0.007501
1141.203754	0.009979
1141.359930	0.008488
1141.516088	0.008080
1141.672228	0.005217
1141.828349	-0.001433
1141.984452	-0.005915
1142.140537	-0.006480
1142.296604	-0.003385
1142.452653	-0.000165
1142.608683	-0.007110
1142.764695	-0.011457
1142.920689	-0.011071
1143.076665	-0.012650
1143.232622	-0.003080
1143.388562	0.002230
1143.544483	-0.002504
1143.700385	-0.007951
1143.856270	-0.012493
1144.012136	-0.009694
1144.167985	-0.007910
1144.323814	-0.011004
1144.479626	-0.009042
1144.635420	-0.015102
1144.791195	-0.021545
1144.946952	-0.013361
1145.102691	-0.009194
1145.258411	-0.006076
1145.414113	-0.007589
1145.569798	-0.011797
1145.725463	-0.012345
1145.881111	-0.010086
1146.036741	-0.004529
1146.192352	-0.001226
1146.347945	-0.011904
1146.503519	-0.010308
1146.659076	-0.011075
1146.814614	-0.008969
1146.970134	-0.005000
1147.125636	-0.007279
1147.281120	-0.010347
1147.436585	-0.012986
1147.592032	-0.013391
1147.747461	-0.015705
1147.902872	-0.016905
1148.058265	-0.011877
1148.213639	-0.012815
1148.368995	-0.003386
1148.524333	-0.005150
1148.679653	-0.008853
1148.834954	-0.008324
1148.990237	-0.006938
1149.145502	-0.001351
1149.300749	0.006360
1149.455977	0.012513
1149.611188	0.016693
1149.766380	0.005758
1149.921553	0.009230
1150.076709	0.018472
1150.231846	0.013467
1150.386966	0.016880
1150.542066	0.013033
1150.697149	0.004481
1150.852214	-0.008794
1151.007260	-0.009497
1151.162288	-0.005006
1151.317298	-0.002835
1151.472289	-0.003254
1151.627263	-0.000919
1151.782218	-0.004495
1151.937155	-0.000296
1152.092073	-0.000592
1152.246974	-0.000340
1152.401856	-0.003209
1152.556720	-0.007784
1152.711566	-0.008299
1152.866393	-0.000826
1153.021203	0.002273
1153.175994	0.011108
1153.330767	0.015263
1153.485521	0.016067
1153.640258	0.024163
1153.794976	0.028608
1153.949676	0.031124
1154.104358	0.028083
1154.259021	0.014954
1154.413667	0.005840
1154.568294	-0.001694
1154.722903	-0.005179
1154.877493	-0.008043
1155.032066	-0.007885
1155.186620	-0.015013
1155.341156	-0.021586
1155.495674	-0.021912
1155.650173	-0.016948
1155.804654	-0.010328
1155.959118	-0.008819
1156.113562	-0.012731
1156.267989	-0.012329
1156.422397	-0.018148
1156.576788	-0.016280
1156.731160	-0.009702
1156.885513	-0.009709
1157.039849	-0.010520
1157.194166	-0.012282
1157.348465	-0.013243
1157.502746	-0.014179
1157.657009	-0.016164
1157.811253	-0.013660
1157.965479	-0.014484
1158.119687	-0.009539
1158.273877	-0.008560
1158.428048	-0.014414
1158.582201	-0.005241
1158.736337	0.002272
1158.890453	0.005687
1159.044552	0.010347
1159.198632	0.005527
1159.352694	0.009902
1159.506738	0.005614
1159.660764	-0.002304
1159.814771	0.007515
1159.968761	-0.002266
1160.122732	0.002037
1160.276685	0.004851
1160.430619	-0.001780
1160.584535	-0.006556
1160.738434	-0.011418
1160.892313	-0.014180
1161.046175	-0.012134
1161.200019	-0.010361
1161.353844	-0.010579
1161.507651	-0.012944
1161.661440	-0.008636
1161.815210	-0.001045
1161.968962	0.009405
1162.122697	0.010322
1162.276412	0.005602
1162.430110	0.015076
1162.583789	0.000082
1162.737451	0.003400
1162.891094	-0.002746
1163.044718	-0.005199
1163.198325	-0.003560
1163.351913	-0.008524
1163.505483	0.003390
1163.659035	0.001207
1163.812569	0.005424
1163.966084	0.008931
1164.119581	-0.002089
1164.273060	-0.010671
1164.426521	-0.016601
1164.579964	-0.020590
1164.733388	-0.015475
1164.886794	-0.021114
1165.040182	-0.012151
1165.193551	-0.017402
1165.346903	-0.013830
1165.500236	-0.000952
1165.653551	0.006718
1165.806848	0.006652
1165.960126	0.007326
1166.113386	0.008613
1166.266628	0.001559
1166.419852	0.007551
1166.573058	0.004889
1166.726245	0.007488
1166.879414	0.004976
1167.032565	0.007441
1167.185698	0.004053
1167.338812	0.009970
1167.491909	0.000557
1167.644987	0.001360
1167.798046	-0.014212
1167.951088	-0.009831
1168.104111	-0.013553
1168.257117	-0.010958
1168.410103	-0.010122
1168.563072	0.001600
1168.716023	0.000045
1168.868955	0.005738
1169.021869	-0.000324
1169.174765	0.011084
1169.327642	0.010331
1169.480501	0.007068
1169.633343	0.000163
1169.786165	-0.005815
1169.938970	-0.015682
1170.091757	-0.019422
1170.244525	-0.014574
1170.397275	-0.016250
1170.550007	-0.018337
1170.702720	-0.024510
1170.855415	-0.030122
1171.008092	-0.021585
1171.160751	-0.013258
1171.313392	-0.004924
1171.466014	-0.096577
1171.618619	0.046962
1171.771205	0.046962
1171.923772	0.046962
