sample name	sample
index	1357
start time	 05-03-2021  01:43:05 PM


Wavelength (nm)	Absorbance
494.344910	-0.236154
494.563924	-0.236154
494.782919	-0.236154
495.001897	-0.282553
495.220856	-0.233358
495.439797	-0.197633
495.658719	-0.188104
495.877624	-0.185928
496.096510	-0.139758
496.315378	-0.129157
496.534227	-0.107032
496.753059	-0.067676
496.971872	-0.060612
497.190667	-0.004767
497.409444	-0.004137
497.628203	0.000682
497.846943	0.003075
498.065665	0.003304
498.284369	0.002814
498.503055	0.004358
498.721723	0.004192
498.940372	0.003621
499.159003	0.003257
499.377616	0.003224
499.596210	0.001838
499.814787	0.002241
500.033345	0.001979
500.251885	0.003070
500.470406	0.002251
500.688910	0.002146
500.907395	0.002030
501.125862	0.001644
501.344311	0.001791
501.562742	0.002909
501.781154	0.002292
501.999548	0.002143
502.217924	0.001771
502.436282	0.001334
502.654621	0.000946
502.872942	0.001844
503.091245	0.001903
503.309530	0.002932
503.527797	0.002706
503.746045	0.002664
503.964275	0.002052
504.182487	0.002224
504.400681	0.003026
504.618856	0.002466
504.837013	0.002045
505.055152	0.002679
505.273273	0.001871
505.491376	0.001115
505.709460	0.000728
505.927526	0.000718
506.145574	0.001049
506.363604	0.000636
506.581615	0.001230
506.799608	0.000573
507.017583	0.000814
507.235540	0.000956
507.453478	0.001897
507.671399	0.001502
507.889301	0.001755
508.107185	0.000860
508.325050	0.000118
508.542898	-0.000014
508.760727	-0.000281
508.978538	-0.001348
509.196330	-0.001628
509.414105	-0.001977
509.631861	-0.001551
509.849599	-0.001668
510.067319	-0.001935
510.285021	-0.001636
510.502704	-0.000782
510.720369	-0.000038
510.938016	0.001032
511.155645	0.001796
511.373255	0.001699
511.590848	0.001845
511.808422	0.001990
512.025977	0.002478
512.243515	0.002878
512.461034	0.002241
512.678536	0.001768
512.896018	0.000821
513.113483	-0.000359
513.330930	-0.000106
513.548358	0.000435
513.765768	0.000676
513.983160	0.000097
514.200533	-0.000032
514.417889	-0.000003
514.635226	0.000673
514.852545	0.001159
515.069845	0.001273
515.287128	0.001372
515.504392	0.001136
515.721638	0.001022
515.938866	0.002243
516.156075	0.002314
516.373267	0.001688
516.590440	0.001251
516.807594	0.001341
517.024731	0.001503
517.241850	0.001622
517.458950	0.001648
517.676032	0.000521
517.893095	-0.000359
518.110141	-0.000472
518.327168	-0.000167
518.544177	0.000332
518.761168	-0.000233
518.978141	-0.000342
519.195095	-0.000404
519.412031	-0.000457
519.628949	0.000478
519.845849	0.000281
520.062731	0.000034
520.279594	0.000627
520.496439	0.000093
520.713266	0.000076
520.930074	0.000614
521.146865	0.000328
521.363637	0.000163
521.580391	-0.000138
521.797127	0.000116
522.013844	0.000521
522.230543	0.000080
522.447224	0.000550
522.663887	0.001028
522.880532	0.001046
523.097158	0.001718
523.313766	0.001871
523.530356	0.002327
523.746928	0.002360
523.963481	0.002019
524.180017	0.001591
524.396534	0.001398
524.613032	0.000619
524.829513	0.000161
525.045975	-0.000755
525.262420	-0.000883
525.478845	-0.000640
525.695253	-0.000119
525.911643	0.000031
526.128014	0.000946
526.344367	0.000863
526.560702	0.001881
526.777018	0.002033
526.993316	0.002803
527.209597	0.003145
527.425858	0.003019
527.642102	0.003579
527.858328	0.004007
528.074535	0.004075
528.290724	0.004696
528.506894	0.004618
528.723047	0.005314
528.939181	0.004848
529.155297	0.004854
529.371395	0.004908
529.587475	0.004247
529.803536	0.004360
530.019579	0.003833
530.235604	0.003635
530.451611	0.004108
530.667600	0.004476
530.883570	0.004879
531.099522	0.005191
531.315456	0.005930
531.531372	0.006030
531.747269	0.005806
531.963148	0.006278
532.179009	0.006373
532.394852	0.006199
532.610676	0.005865
532.826482	0.006266
533.042271	0.006206
533.258040	0.005936
533.473792	0.006080
533.689525	0.005369
533.905240	0.006485
534.120937	0.006671
534.336616	0.006699
534.552277	0.006843
534.767919	0.006907
534.983543	0.007152
535.199149	0.007096
535.414736	0.007643
535.630306	0.009438
535.845857	0.009048
536.061390	0.009455
536.276904	0.009861
536.492401	0.010157
536.707879	0.010525
536.923339	0.010601
537.138781	0.010747
537.354204	0.010993
537.569610	0.011009
537.784997	0.011042
538.000366	0.011118
538.215716	0.011040
538.431049	0.011006
538.646363	0.010731
538.861659	0.010828
539.076937	0.011221
539.292196	0.010951
539.507438	0.010535
539.722661	0.010291
539.937866	0.010953
540.153052	0.010926
540.368221	0.010804
540.583371	0.011116
540.798503	0.010937
541.013617	0.010904
541.228712	0.011397
541.443789	0.011497
541.658848	0.011711
541.873889	0.011490
542.088912	0.011820
542.303916	0.011887
542.518902	0.011918
542.733870	0.012478
542.948820	0.012625
543.163752	0.012507
543.378665	0.012998
543.593560	0.013381
543.808437	0.012975
544.023295	0.012594
544.238136	0.013184
544.452958	0.013420
544.667762	0.013522
544.882548	0.013556
545.097315	0.013557
545.312064	0.013256
545.526795	0.013264
545.741508	0.013443
545.956203	0.013956
546.170879	0.013741
546.385537	0.014023
546.600177	0.013697
546.814799	0.013705
547.029402	0.013841
547.243988	0.013878
547.458555	0.013712
547.673103	0.013945
547.887634	0.013919
548.102146	0.014471
548.316640	0.014253
548.531116	0.014348
548.745574	0.014899
548.960013	0.015301
549.174435	0.015422
549.388838	0.016044
549.603222	0.016175
549.817589	0.016244
550.031937	0.016120
550.246267	0.016262
550.460579	0.016672
550.674873	0.016541
550.889148	0.016626
551.103405	0.016749
551.317644	0.016289
551.531865	0.016305
551.746068	0.016386
551.960252	0.016634
552.174418	0.016759
552.388566	0.017055
552.602696	0.017375
552.816807	0.017363
553.030900	0.017325
553.244975	0.017690
553.459032	0.017615
553.673070	0.018070
553.887091	0.017938
554.101093	0.018081
554.315077	0.017975
554.529042	0.017978
554.742990	0.018095
554.956919	0.018433
555.170830	0.018351
555.384722	0.018840
555.598597	0.018813
555.812453	0.019021
556.026291	0.019169
556.240111	0.019192
556.453913	0.018991
556.667696	0.018935
556.881461	0.019435
557.095208	0.019775
557.308937	0.019761
557.522647	0.019833
557.736339	0.019833
557.950013	0.019464
558.163669	0.019631
558.377307	0.019593
558.590926	0.019609
558.804527	0.019243
559.018110	0.019124
559.231675	0.019303
559.445221	0.019332
559.658749	0.019660
559.872259	0.019985
560.085751	0.019879
560.299225	0.020013
560.512680	0.020008
560.726117	0.020043
560.939536	0.020156
561.152937	0.019924
561.366319	0.019864
561.579683	0.019606
561.793029	0.019754
562.006357	0.019888
562.219667	0.020112
562.432958	0.020256
562.646231	0.020098
562.859486	0.020180
563.072723	0.020323
563.285941	0.020357
563.499141	0.020447
563.712323	0.020447
563.925487	0.020250
564.138632	0.019980
564.351760	0.020011
564.564869	0.020551
564.777960	0.020333
564.991032	0.020641
565.204087	0.020544
565.417123	0.020389
565.630141	0.020427
565.843140	0.020764
566.056122	0.020833
566.269085	0.020830
566.482030	0.020469
566.694957	0.020748
566.907866	0.020497
567.120756	0.020649
567.333628	0.020666
567.546482	0.020550
567.759318	0.020983
567.972135	0.021151
568.184935	0.021114
568.397716	0.021604
568.610478	0.021722
568.823223	0.021415
569.035949	0.021468
569.248657	0.021459
569.461347	0.021538
569.674019	0.021163
569.886672	0.021188
570.099308	0.021314
570.311925	0.020660
570.524523	0.020682
570.737104	0.021063
570.949666	0.021021
571.162210	0.021044
571.374736	0.020850
571.587244	0.020635
571.799733	0.020257
572.012205	0.020150
572.224658	0.020443
572.437092	0.020312
572.649509	0.020022
572.861907	0.020136
573.074287	0.020145
573.286649	0.020196
573.498993	0.020717
573.711318	0.021204
573.923625	0.021169
574.135914	0.021321
574.348185	0.020908
574.560438	0.021039
574.772672	0.021124
574.984888	0.021376
575.197086	0.021709
575.409266	0.021734
575.621427	0.021454
575.833570	0.021579
576.045695	0.021280
576.257802	0.021814
576.469890	0.021832
576.681961	0.021938
576.894013	0.021864
577.106046	0.021482
577.318062	0.021173
577.530059	0.021367
577.742039	0.021389
577.954000	0.021425
578.165942	0.021254
578.377867	0.021629
578.589773	0.021315
578.801661	0.021148
579.013531	0.021536
579.225382	0.021465
579.437216	0.021459
579.649031	0.021482
579.860828	0.021558
580.072606	0.021579
580.284367	0.021473
580.496109	0.021518
580.707833	0.022039
580.919539	0.021840
581.131227	0.022094
581.342896	0.022012
581.554547	0.021980
581.766180	0.022280
581.977795	0.022392
582.189391	0.022380
582.400969	0.022136
582.612529	0.021770
582.824071	0.021915
583.035595	0.021498
583.247100	0.021674
583.458587	0.021780
583.670056	0.021656
583.881506	0.021503
584.092939	0.021624
584.304353	0.021885
584.515749	0.021880
584.727127	0.021791
584.938486	0.022120
585.149828	0.022285
585.361151	0.022209
585.572456	0.022123
585.783742	0.022308
585.995011	0.021895
586.206261	0.022045
586.417493	0.022277
586.628706	0.022459
586.839902	0.022487
587.051079	0.022340
587.262238	0.022088
587.473379	0.022102
587.684502	0.021892
587.895606	0.021942
588.106692	0.021866
588.317760	0.021756
588.528810	0.021580
588.739841	0.021398
588.950855	0.021305
589.161850	0.021482
589.372827	0.021478
589.583785	0.021570
589.794726	0.021756
590.005648	0.021843
590.216552	0.021928
590.427437	0.022003
590.638305	0.021867
590.849154	0.022021
591.059985	0.022353
591.270798	0.022586
591.481592	0.022598
591.692369	0.022801
591.903127	0.022796
592.113867	0.023175
592.324588	0.023396
592.535292	0.023934
592.745977	0.023920
592.956644	0.023802
593.167293	0.023639
593.377923	0.023794
593.588536	0.024012
593.799130	0.024295
594.009706	0.023942
594.220263	0.023994
594.430803	0.023810
594.641324	0.023886
594.851827	0.023854
595.062312	0.023730
595.272778	0.023843
595.483227	0.023544
595.693657	0.023528
595.904069	0.023380
596.114462	0.022984
596.324838	0.022964
596.535195	0.023011
596.745534	0.023084
596.955855	0.023428
597.166157	0.023381
597.376441	0.023417
597.586707	0.023520
597.796955	0.023853
598.007185	0.024187
598.217396	0.024247
598.427589	0.024432
598.637764	0.024706
598.847921	0.024950
599.058060	0.025131
599.268180	0.025295
599.478282	0.025176
599.688366	0.025188
599.898431	0.025312
600.108479	0.025237
600.318508	0.025224
600.528519	0.024980
600.738511	0.025004
600.948486	0.025164
601.158442	0.025180
601.368380	0.025435
601.578300	0.025480
601.788202	0.025661
601.998085	0.026236
602.207950	0.026687
602.417797	0.026920
602.627626	0.027076
602.837436	0.027138
603.047228	0.027567
603.257002	0.027533
603.466758	0.027608
603.676496	0.027662
603.886215	0.027511
604.095916	0.027218
604.305599	0.027254
604.515264	0.027212
604.724910	0.027075
604.934538	0.027078
605.144148	0.027315
605.353740	0.027405
605.563314	0.027467
605.772869	0.027450
605.982406	0.027927
606.191925	0.027944
606.401425	0.027837
606.610908	0.027999
606.820372	0.027784
607.029818	0.027665
607.239246	0.027800
607.448655	0.027777
607.658047	0.027811
607.867420	0.027478
608.076775	0.027546
608.286111	0.027603
608.495430	0.027575
608.704730	0.027330
608.914012	0.027106
609.123275	0.027145
609.332521	0.027105
609.541748	0.027325
609.750957	0.027207
609.960148	0.027159
610.169321	0.027314
610.378475	0.027175
610.587611	0.027590
610.796729	0.027733
611.005829	0.027629
611.214910	0.027350
611.423974	0.027097
611.633019	0.027195
611.842045	0.027355
612.051054	0.027093
612.260044	0.027014
612.469017	0.027272
612.677970	0.027582
612.886906	0.027695
613.095824	0.027958
613.304723	0.028237
613.513604	0.028538
613.722467	0.028681
613.931311	0.028702
614.140138	0.029009
614.348946	0.028962
614.557736	0.028846
614.766507	0.028878
614.975261	0.029033
615.183996	0.028950
615.392713	0.028925
615.601412	0.028849
615.810092	0.029195
616.018754	0.029055
616.227399	0.029093
616.436024	0.029156
616.644632	0.029219
616.853222	0.029377
617.061793	0.029644
617.270346	0.029610
617.478880	0.029761
617.687397	0.029723
617.895895	0.029992
618.104375	0.029869
618.312837	0.029900
618.521281	0.029957
618.729706	0.030076
618.938113	0.030169
619.146502	0.030245
619.354873	0.030344
619.563226	0.030541
619.771560	0.030874
619.979876	0.031172
620.188174	0.031449
620.396453	0.031607
620.604715	0.031599
620.812958	0.031686
621.021183	0.032086
621.229390	0.032395
621.437578	0.032495
621.645748	0.032653
621.853900	0.032770
622.062034	0.032773
622.270150	0.032944
622.478247	0.033264
622.686326	0.033358
622.894387	0.033272
623.102430	0.033205
623.310454	0.033264
623.518461	0.033090
623.726449	0.033017
623.934418	0.033075
624.142370	0.033103
624.350303	0.032769
624.558218	0.032812
624.766115	0.032658
624.973994	0.032821
625.181855	0.032806
625.389697	0.032814
625.597521	0.032860
625.805327	0.032768
626.013114	0.032732
626.220883	0.032922
626.428634	0.032710
626.636367	0.032878
626.844082	0.032668
627.051778	0.032608
627.259457	0.032684
627.467117	0.032719
627.674758	0.032969
627.882382	0.033056
628.089987	0.033217
628.297574	0.033467
628.505143	0.033502
628.712694	0.033520
628.920226	0.033719
629.127740	0.033917
629.335236	0.033940
629.542714	0.033739
629.750174	0.033819
629.957615	0.034126
630.165038	0.034160
630.372443	0.034417
630.579829	0.034618
630.787198	0.034601
630.994548	0.034354
631.201880	0.034593
631.409194	0.035126
631.616489	0.035287
631.823766	0.035087
632.031025	0.035111
632.238266	0.035127
632.445489	0.035140
632.652693	0.035456
632.859879	0.035624
633.067047	0.035565
633.274197	0.035293
633.481329	0.035289
633.688442	0.035400
633.895537	0.035476
634.102614	0.035451
634.309672	0.035495
634.516713	0.035440
634.723735	0.035648
634.930739	0.035654
635.137724	0.035725
635.344692	0.035863
635.551641	0.035740
635.758572	0.035712
635.965485	0.035605
636.172379	0.035709
636.379256	0.035529
636.586114	0.035436
636.792954	0.035277
636.999775	0.035280
637.206579	0.035064
637.413364	0.035116
637.620131	0.035429
637.826880	0.035353
638.033610	0.035016
638.240323	0.035145
638.447017	0.035073
638.653692	0.035155
638.860350	0.035374
639.066990	0.035424
639.273611	0.035440
639.480214	0.035157
639.686798	0.035316
639.893365	0.035814
640.099913	0.036123
640.306443	0.036215
640.512955	0.036418
640.719449	0.036301
640.925924	0.036559
641.132381	0.036773
641.338820	0.037020
641.545241	0.037230
641.751644	0.037147
641.958028	0.036977
642.164394	0.037320
642.370742	0.037463
642.577071	0.037588
642.783383	0.037585
642.989676	0.037724
643.195951	0.037877
643.402207	0.037900
643.608446	0.038058
643.814666	0.038231
644.020868	0.038207
644.227052	0.038306
644.433218	0.038497
644.639365	0.038612
644.845494	0.038497
645.051605	0.038639
645.257698	0.038688
645.463772	0.038776
645.669828	0.038896
645.875866	0.038895
646.081886	0.038989
646.287888	0.038967
646.493871	0.038903
646.699836	0.039196
646.905783	0.039013
647.111712	0.039166
647.317622	0.039355
647.523514	0.039344
647.729388	0.039637
647.935244	0.039696
648.141082	0.039787
648.346901	0.039890
648.552702	0.039967
648.758485	0.040078
648.964250	0.040344
649.169996	0.040358
649.375724	0.040452
649.581434	0.040421
649.787126	0.040620
649.992800	0.040857
650.198455	0.040967
650.404092	0.040865
650.609711	0.041124
650.815311	0.040904
651.020894	0.040892
651.226458	0.041084
651.432004	0.040924
651.637532	0.040850
651.843041	0.040839
652.048532	0.040823
652.254006	0.040905
652.459460	0.040694
652.664897	0.040913
652.870315	0.040889
653.075716	0.040911
653.281097	0.041158
653.486461	0.041225
653.691807	0.041137
653.897134	0.041290
654.102443	0.041427
654.307734	0.041716
654.513006	0.041716
654.718261	0.041917
654.923497	0.041951
655.128715	0.042088
655.333915	0.042076
655.539096	0.042334
655.744259	0.042334
655.949404	0.042539
656.154531	0.042502
656.359640	0.042659
656.564730	0.042771
656.769802	0.042761
656.974856	0.042802
657.179892	0.042874
657.384909	0.042812
657.589908	0.042855
657.794889	0.042636
657.999852	0.042560
658.204797	0.042270
658.409723	0.042064
658.614631	0.041987
658.819521	0.041749
659.024393	0.041829
659.229246	0.041830
659.434081	0.041927
659.638898	0.041866
659.843697	0.041802
660.048478	0.041756
660.253240	0.041723
660.457984	0.041720
660.662710	0.041718
660.867417	0.041815
661.072107	0.041808
661.276778	0.041616
661.481431	0.041529
661.686066	0.041752
661.890682	0.042156
662.095281	0.042406
662.299861	0.042556
662.504422	0.042973
662.708966	0.043067
662.913491	0.043345
663.117999	0.043643
663.322488	0.044068
663.526958	0.044186
663.731411	0.044438
663.935845	0.044517
664.140261	0.044787
664.344659	0.044783
664.549038	0.044721
664.753400	0.044587
664.957743	0.044645
665.162068	0.044726
665.366375	0.044889
665.570663	0.044840
665.774933	0.044930
665.979185	0.044906
666.183419	0.045000
666.387635	0.045135
666.591832	0.045339
666.796011	0.045574
667.000172	0.045752
667.204315	0.045789
667.408439	0.045787
667.612545	0.045833
667.816634	0.045829
668.020703	0.045888
668.224755	0.046119
668.428788	0.046213
668.632803	0.046117
668.836800	0.046148
669.040779	0.046077
669.244739	0.046137
669.448681	0.046261
669.652605	0.046514
669.856511	0.046395
670.060399	0.046233
670.264268	0.046150
670.468119	0.046154
670.671952	0.046148
670.875767	0.046281
671.079563	0.046287
671.283341	0.046331
671.487101	0.046313
671.690843	0.046640
671.894567	0.046854
672.098272	0.046832
672.301959	0.046962
672.505628	0.046964
672.709278	0.047242
672.912911	0.047340
673.116525	0.047556
673.320121	0.047584
673.523699	0.047530
673.727258	0.047428
673.930799	0.047583
674.134322	0.047637
674.337827	0.047925
674.541314	0.047833
674.744782	0.047860
674.948232	0.047767
675.151664	0.047924
675.355078	0.048063
675.558474	0.048227
675.761851	0.048590
675.965210	0.048913
676.168551	0.048581
676.371873	0.048779
676.575178	0.048940
676.778464	0.048961
676.981732	0.049062
677.184981	0.049368
677.388213	0.049315
677.591426	0.049365
677.794621	0.049374
677.997798	0.049705
678.200956	0.049778
678.404097	0.049886
678.607219	0.050096
678.810323	0.049996
679.013408	0.049895
679.216476	0.050099
679.419525	0.050078
679.622556	0.050252
679.825569	0.050370
680.028563	0.050307
680.231540	0.050439
680.434498	0.050614
680.637438	0.050877
680.840359	0.050861
681.043263	0.051038
681.246148	0.051269
681.449015	0.051135
681.651864	0.051226
681.854694	0.051494
682.057506	0.051431
682.260301	0.051482
682.463076	0.051481
682.665834	0.051618
682.868573	0.051781
683.071295	0.051617
683.273998	0.051805
683.476682	0.051740
683.679349	0.051600
683.881997	0.051676
684.084627	0.051704
684.287239	0.051818
684.489833	0.051737
684.692408	0.051541
684.894965	0.051627
685.097504	0.051610
685.300025	0.051756
685.502527	0.051892
685.705012	0.052033
685.907478	0.051951
686.109925	0.051853
686.312355	0.051952
686.514766	0.052077
686.717159	0.052094
686.919534	0.052100
687.121891	0.052225
687.324230	0.052224
687.526550	0.052340
687.728852	0.052389
687.931136	0.052559
688.133401	0.052710
688.335649	0.053012
688.537878	0.053240
688.740089	0.053540
688.942281	0.053597
689.144456	0.053902
689.346612	0.053902
689.548750	0.054124
689.750870	0.054299
689.952971	0.054393
690.155055	0.054433
690.357120	0.054478
690.559167	0.054387
690.761195	0.054566
690.963206	0.054550
691.165198	0.054587
691.367172	0.054602
691.569128	0.054564
691.771065	0.054766
691.972984	0.054786
692.174885	0.054897
692.376768	0.054959
692.578633	0.054975
692.780479	0.054908
692.982308	0.055020
693.184118	0.055116
693.385909	0.055293
693.587683	0.055334
693.789438	0.055291
693.991175	0.055308
694.192894	0.055461
694.394595	0.055454
694.596277	0.055556
694.797941	0.055553
694.999587	0.055621
695.201215	0.055780
695.402824	0.055641
695.604416	0.055865
695.805989	0.055682
696.007543	0.055796
696.209080	0.056040
696.410598	0.056218
696.612099	0.056440
696.813580	0.056482
697.015044	0.056528
697.216490	0.056699
697.417917	0.056753
697.619326	0.056955
697.820717	0.056690
698.022089	0.056546
698.223444	0.056531
698.424780	0.056396
698.626098	0.056668
698.827397	0.056565
699.028679	0.056674
699.229942	0.056662
699.431187	0.056730
699.632414	0.057055
699.833622	0.057090
700.034813	0.057139
700.235985	0.057148
700.437139	0.057090
700.638274	0.057192
700.839392	0.057025
701.040491	0.057025
701.241572	0.057071
701.442635	0.057013
701.643679	0.056969
701.844706	0.056890
702.045714	0.056980
702.246704	0.056779
702.447675	0.056768
702.648629	0.057042
702.849564	0.057073
703.050481	0.057108
703.251380	0.057119
703.452260	0.057238
703.653122	0.057242
703.853966	0.057250
704.054792	0.057446
704.255600	0.057354
704.456389	0.057248
704.657160	0.057032
704.857913	0.057089
705.058648	0.057029
705.259365	0.057049
705.460063	0.057079
705.660743	0.057072
705.861405	0.056910
706.062048	0.056896
706.262674	0.056761
706.463281	0.056834
706.663870	0.056633
706.864441	0.056640
707.064993	0.056516
707.265527	0.056483
707.466043	0.056460
707.666541	0.056377
707.867021	0.056445
708.067482	0.056510
708.267925	0.056492
708.468350	0.056533
708.668757	0.056506
708.869145	0.056465
709.069516	0.056289
709.269868	0.056133
709.470201	0.056159
709.670517	0.056087
709.870814	0.055895
710.071093	0.055870
710.271354	0.055869
710.471597	0.055887
710.671821	0.055878
710.872028	0.056120
711.072216	0.056318
711.272385	0.056424
711.472537	0.056565
711.672670	0.056776
711.872785	0.056849
712.072882	0.056645
712.272961	0.056621
712.473021	0.056621
712.673063	0.056539
712.873087	0.056436
713.073093	0.056509
713.273081	0.056308
713.473050	0.056419
713.673001	0.056422
713.872934	0.056794
714.072849	0.056790
714.272745	0.056796
714.472623	0.056705
714.672483	0.056910
714.872325	0.056997
715.072148	0.057041
715.271954	0.056966
715.471741	0.056867
715.671509	0.056732
715.871260	0.056800
716.070992	0.056966
716.270707	0.057057
716.470403	0.056736
716.670080	0.056625
716.869740	0.056671
717.069381	0.056734
717.269004	0.056868
717.468609	0.056946
717.668195	0.056643
717.867764	0.056665
718.067314	0.056784
718.266846	0.057088
718.466360	0.056980
718.665855	0.056906
718.865332	0.056704
719.064791	0.056418
719.264232	0.056236
719.463655	0.056345
719.663059	0.056023
719.862445	0.055810
720.061813	0.055475
720.261163	0.055232
720.460494	0.055095
720.659807	0.054820
720.859102	0.054798
721.058379	0.054729
721.257638	0.054636
721.456878	0.054453
721.656100	0.054453
721.855304	0.054389
722.054490	0.054169
722.253657	0.054002
722.452806	0.053994
722.651937	0.054059
722.851050	0.053863
723.050145	0.053791
723.249221	0.053732
723.448279	0.053437
723.647319	0.053290
723.846340	0.053398
724.045344	0.053564
724.244329	0.053423
724.443296	0.053233
724.642245	0.053168
724.841175	0.053011
725.040088	0.053040
725.238982	0.053127
725.437857	0.053059
725.636715	0.053117
725.835554	0.052849
726.034376	0.052969
726.233179	0.053026
726.431963	0.053022
726.630730	0.053007
726.829478	0.053077
727.028208	0.052983
727.226920	0.052933
727.425614	0.052830
727.624289	0.052984
727.822946	0.052981
728.021585	0.052914
728.220206	0.052835
728.418808	0.052885
728.617392	0.052785
728.815958	0.052578
729.014506	0.052600
729.213036	0.052479
729.411547	0.052297
729.610040	0.052061
729.808515	0.051910
730.006972	0.051870
730.205410	0.051960
730.403831	0.051873
730.602233	0.052077
730.800616	0.052218
730.998982	0.052256
731.197329	0.052172
731.395658	0.052215
731.593969	0.052305
731.792262	0.052302
731.990536	0.052043
732.188793	0.052130
732.387031	0.051960
732.585250	0.051808
732.783452	0.051652
732.981635	0.051543
733.179800	0.051473
733.377947	0.051176
733.576076	0.051151
733.774186	0.050971
733.972278	0.050778
734.170352	0.050707
734.368408	0.050616
734.566446	0.050490
734.764465	0.050463
734.962466	0.050549
735.160449	0.050743
735.358413	0.050789
735.556360	0.051004
735.754288	0.051011
735.952198	0.050991
736.150090	0.051004
736.347963	0.051155
736.545818	0.051216
736.743655	0.051072
736.941474	0.051028
737.139275	0.050899
737.337057	0.050913
737.534821	0.050939
737.732567	0.050887
737.930295	0.050934
738.128005	0.050908
738.325696	0.051010
738.523369	0.051107
738.721024	0.050992
738.918660	0.050996
739.116279	0.050897
739.313879	0.050722
739.511461	0.050904
739.709024	0.050747
739.906570	0.050706
740.104097	0.050533
740.301606	0.050363
740.499097	0.050450
740.696569	0.050283
740.894024	0.050057
741.091460	0.049993
741.288878	0.049561
741.486277	0.049393
741.683659	0.049382
741.881022	0.049436
742.078367	0.049365
742.275694	0.049112
742.473002	0.049159
742.670293	0.049277
742.867565	0.049370
743.064819	0.049569
743.262054	0.049723
743.459272	0.049586
743.656471	0.049607
743.853652	0.049705
744.050815	0.049828
744.247959	0.049854
744.445085	0.049787
744.642194	0.049849
744.839283	0.049628
745.036355	0.049589
745.233408	0.049550
745.430444	0.049229
745.627461	0.049078
745.824459	0.049113
746.021440	0.049169
746.218402	0.049242
746.415346	0.048888
746.612272	0.049250
746.809180	0.049046
747.006069	0.049216
747.202940	0.049218
747.399793	0.049186
747.596628	0.049204
747.793444	0.049033
747.990243	0.048965
748.187023	0.049088
748.383784	0.048956
748.580528	0.049260
748.777253	0.049211
748.973960	0.049260
749.170649	0.049205
749.367320	0.048904
749.563973	0.048904
749.760607	0.048605
749.957223	0.048524
750.153821	0.048259
750.350400	0.047974
750.546962	0.047823
750.743505	0.047738
750.940030	0.047570
751.136536	0.047511
751.333025	0.047558
751.529495	0.047732
751.725947	0.047525
751.922381	0.047538
752.118796	0.047440
752.315194	0.047479
752.511573	0.047623
752.707934	0.047828
752.904276	0.047792
753.100601	0.047602
753.296907	0.047530
753.493195	0.047750
753.689465	0.047879
753.885716	0.047939
754.081949	0.047946
754.278164	0.047838
754.474361	0.047795
754.670540	0.047749
754.866700	0.047626
755.062843	0.047596
755.258967	0.047413
755.455072	0.047158
755.651160	0.047026
755.847229	0.046668
756.043280	0.046384
756.239313	0.046140
756.435328	0.046076
756.631324	0.045964
756.827302	0.045747
757.023262	0.045698
757.219204	0.045926
757.415127	0.046090
757.611033	0.045969
757.806920	0.045987
758.002788	0.045968
758.198639	0.046055
758.394471	0.046065
758.590286	0.046039
758.786081	0.045989
758.981859	0.045558
759.177619	0.045180
759.373360	0.045207
759.569083	0.045087
759.764788	0.045131
759.960474	0.045003
760.156143	0.044948
760.351793	0.045046
760.547425	0.045126
760.743038	0.045093
760.938634	0.045123
761.134211	0.045185
761.329770	0.045241
761.525311	0.045142
761.720833	0.045026
761.916338	0.045049
762.111824	0.045112
762.307292	0.045047
762.502741	0.045246
762.698173	0.045364
762.893586	0.045357
763.088981	0.045498
763.284358	0.045613
763.479716	0.045695
763.675057	0.045772
763.870379	0.045589
764.065683	0.045553
764.260968	0.045483
764.456236	0.045456
764.651485	0.045367
764.846716	0.045226
765.041929	0.044993
765.237123	0.045008
765.432299	0.044732
765.627457	0.044772
765.822597	0.044607
766.017719	0.044546
766.212822	0.044350
766.407907	0.044282
766.602974	0.044242
766.798023	0.044080
766.993054	0.044055
767.188066	0.044068
767.383060	0.043953
767.578036	0.044048
767.772993	0.043847
767.967933	0.043733
768.162854	0.043689
768.357757	0.043630
768.552642	0.043723
768.747508	0.043624
768.942356	0.043841
769.137186	0.043805
769.331998	0.043793
769.526792	0.043982
769.721567	0.043944
769.916324	0.044110
770.111063	0.044037
770.305784	0.044158
770.500486	0.044117
770.695171	0.044065
770.889837	0.044101
771.084484	0.044041
771.279114	0.043902
771.473725	0.044062
771.668318	0.043913
771.862893	0.043942
772.057450	0.043844
772.251988	0.043723
772.446509	0.043553
772.641011	0.043379
772.835494	0.043368
773.029960	0.043441
773.224407	0.043079
773.418836	0.042883
773.613247	0.042720
773.807640	0.042697
774.002014	0.042769
774.196370	0.042717
774.390708	0.042648
774.585028	0.042449
774.779330	0.042214
774.973613	0.042530
775.167878	0.042631
775.362125	0.042628
775.556354	0.042535
775.750564	0.042355
775.944756	0.042276
776.138930	0.042472
776.333086	0.042456
776.527223	0.042675
776.721343	0.042584
776.915444	0.042599
777.109526	0.042566
777.303591	0.042614
777.497637	0.042737
777.691666	0.042738
777.885676	0.042590
778.079667	0.042611
778.273641	0.042560
778.467596	0.042649
778.661533	0.042630
778.855452	0.042806
779.049352	0.042808
779.243235	0.043005
779.437099	0.043150
779.630945	0.043154
779.824773	0.043227
780.018582	0.043186
780.212373	0.043190
780.406146	0.043449
780.599901	0.043474
780.793638	0.043549
780.987356	0.043423
781.181056	0.043592
781.374738	0.043857
781.568402	0.043925
781.762047	0.044046
781.955674	0.044133
782.149283	0.043861
782.342874	0.043839
782.536447	0.043962
782.730001	0.044035
782.923537	0.043866
783.117055	0.043691
783.310555	0.043723
783.504036	0.043659
783.697499	0.043406
783.890944	0.043480
784.084371	0.043501
784.277780	0.043278
784.471170	0.043191
784.664542	0.043281
784.857896	0.043298
785.051231	0.043417
785.244549	0.043434
785.437848	0.043753
785.631129	0.043816
785.824392	0.043554
786.017636	0.043582
786.210863	0.043451
786.404071	0.043380
786.597260	0.043295
786.790432	0.043169
786.983585	0.043154
787.176721	0.043051
787.369838	0.043030
787.562936	0.043273
787.756017	0.043375
787.949079	0.043534
788.142123	0.043633
788.335149	0.043861
788.528156	0.043971
788.721146	0.044068
788.914117	0.044138
789.107070	0.044212
789.300005	0.044380
789.492921	0.044629
789.685819	0.044821
789.878699	0.044766
790.071561	0.044615
790.264405	0.044528
790.457230	0.044692
790.650037	0.044766
790.842826	0.044712
791.035597	0.044728
791.228349	0.044361
791.421084	0.044379
791.613800	0.044411
791.806497	0.044521
791.999177	0.044780
792.191838	0.044711
792.384481	0.044721
792.577106	0.044894
792.769713	0.044953
792.962301	0.045351
793.154871	0.045360
793.347423	0.045621
793.539957	0.045750
793.732473	0.045647
793.924970	0.045845
794.117449	0.046111
794.309910	0.046506
794.502353	0.046607
794.694777	0.046786
794.887183	0.046989
795.079571	0.047115
795.271941	0.047186
795.464293	0.047264
795.656626	0.047215
795.848941	0.047138
796.041238	0.047011
796.233516	0.047194
796.425777	0.047171
796.618019	0.046944
796.810243	0.046848
797.002449	0.046913
797.194636	0.047006
797.386805	0.046948
797.578956	0.047037
797.771089	0.047135
797.963204	0.047029
798.155300	0.046940
798.347378	0.047287
798.539438	0.047279
798.731480	0.047331
798.923503	0.047383
799.115509	0.047434
799.307496	0.047409
799.499465	0.047338
799.691415	0.047430
799.883348	0.047685
800.075262	0.047638
800.267158	0.047659
800.459035	0.047656
800.650895	0.047754
800.842736	0.047761
801.034559	0.047748
801.226364	0.047664
801.418150	0.047711
801.609919	0.047595
801.801669	0.047522
801.993401	0.047908
802.185114	0.048007
802.376810	0.048130
802.568487	0.048386
802.760146	0.048502
802.951787	0.048711
803.143409	0.048796
803.335014	0.048751
803.526600	0.048956
803.718168	0.048839
803.909717	0.048771
804.101249	0.048728
804.292762	0.048832
804.484257	0.048981
804.675734	0.048947
804.867192	0.049071
805.058632	0.049423
805.250054	0.049566
805.441458	0.049529
805.632844	0.049783
805.824211	0.049671
806.015561	0.049735
806.206891	0.049377
806.398204	0.049441
806.589499	0.049349
806.780775	0.049237
806.972033	0.049127
807.163273	0.049200
807.354495	0.049099
807.545698	0.049393
807.736883	0.049352
807.928050	0.049680
808.119199	0.049898
808.310329	0.049955
808.501441	0.049888
808.692535	0.049964
808.883611	0.050165
809.074669	0.050324
809.265708	0.050239
809.456729	0.050271
809.647732	0.050683
809.838717	0.051004
810.029683	0.051167
810.220632	0.051436
810.411562	0.051589
810.602474	0.051672
810.793367	0.052014
810.984242	0.052213
811.175100	0.052616
811.365938	0.052691
811.556759	0.052447
811.747562	0.052586
811.938346	0.052645
812.129112	0.052718
812.319860	0.052904
812.510589	0.052825
812.701300	0.052887
812.891994	0.052551
813.082668	0.052424
813.273325	0.052514
813.463964	0.052582
813.654584	0.052599
813.845186	0.052632
814.035769	0.052441
814.226335	0.052570
814.416882	0.052621
814.607411	0.052909
814.797922	0.052882
814.988415	0.052963
815.178889	0.053050
815.369345	0.053042
815.559783	0.053108
815.750203	0.053229
815.940605	0.053158
816.130988	0.053244
816.321353	0.053286
816.511700	0.053518
816.702028	0.053508
816.892339	0.053537
817.082631	0.053817
817.272905	0.053875
817.463161	0.053948
817.653398	0.054129
817.843617	0.054218
818.033819	0.054219
818.224001	0.054057
818.414166	0.054058
818.604312	0.053798
818.794440	0.053697
818.984550	0.053855
819.174642	0.053799
819.364716	0.053777
819.554771	0.053871
819.744808	0.054171
819.934827	0.054474
820.124827	0.054787
820.314810	0.055276
820.504774	0.055383
820.694720	0.055552
820.884647	0.055911
821.074557	0.056207
821.264448	0.056422
821.454321	0.056369
821.644176	0.056353
821.834012	0.056406
822.023831	0.056327
822.213631	0.056505
822.403413	0.056715
822.593176	0.056899
822.782922	0.056760
822.972649	0.056852
823.162358	0.057033
823.352049	0.057366
823.541721	0.057647
823.731376	0.057925
823.921012	0.058149
824.110629	0.058346
824.300229	0.058187
824.489811	0.058453
824.679374	0.058748
824.868919	0.058931
825.058445	0.058977
825.247954	0.058981
825.437444	0.059079
825.626916	0.059154
825.816370	0.059314
826.005806	0.059679
826.195223	0.059908
826.384622	0.059816
826.574003	0.059904
826.763366	0.060013
826.952711	0.060100
827.142037	0.059930
827.331345	0.060215
827.520635	0.060068
827.709906	0.059856
827.899160	0.059898
828.088395	0.059927
828.277612	0.059854
828.466810	0.059741
828.655991	0.059770
828.845153	0.059953
829.034297	0.059875
829.223423	0.059820
829.412531	0.059942
829.601620	0.060001
829.790691	0.060187
829.979744	0.060263
830.168779	0.060419
830.357795	0.060325
830.546793	0.060286
830.735773	0.060377
830.924735	0.060769
831.113679	0.060919
831.302604	0.060984
831.491511	0.061122
831.680400	0.061473
831.869271	0.061571
832.058123	0.061777
832.246957	0.062281
832.435773	0.062446
832.624571	0.062437
832.813351	0.062743
833.002112	0.062923
833.190855	0.062833
833.379580	0.062820
833.568287	0.063153
833.756975	0.063475
833.945645	0.063440
834.134297	0.063529
834.322931	0.063659
834.511547	0.063709
834.700144	0.064235
834.888723	0.064753
835.077284	0.064765
835.265826	0.065038
835.454351	0.065102
835.642857	0.065270
835.831345	0.065307
836.019815	0.065280
836.208266	0.065339
836.396699	0.065210
836.585114	0.065255
836.773511	0.065726
836.961890	0.066004
837.150250	0.066199
837.338592	0.066384
837.526916	0.066887
837.715222	0.067345
837.903510	0.067676
838.091779	0.067971
838.280030	0.068266
838.468263	0.068414
838.656477	0.068420
838.844674	0.068574
839.032852	0.068765
839.221012	0.068894
839.409153	0.068963
839.597277	0.069114
839.785382	0.068910
839.973469	0.068822
840.161538	0.068973
840.349589	0.069002
840.537621	0.069125
840.725635	0.069297
840.913631	0.069207
841.101609	0.069357
841.289568	0.069563
841.477509	0.069775
841.665432	0.070102
841.853337	0.070200
842.041224	0.070256
842.229092	0.070444
842.416942	0.070712
842.604774	0.070845
842.792588	0.070932
842.980383	0.071213
843.168160	0.071273
843.355919	0.071367
843.543660	0.071617
843.731382	0.071871
843.919087	0.072140
844.106773	0.072402
844.294441	0.072474
844.482090	0.072631
844.669722	0.072705
844.857335	0.073035
845.044930	0.073373
845.232507	0.073482
845.420065	0.073842
845.607605	0.073921
845.795127	0.074060
845.982631	0.074167
846.170117	0.074367
846.357584	0.074531
846.545033	0.074890
846.732464	0.075095
846.919877	0.075289
847.107272	0.075294
847.294648	0.075445
847.482006	0.075654
847.669346	0.076297
847.856667	0.076430
848.043971	0.076524
848.231256	0.076426
848.418523	0.076442
848.605771	0.076548
848.793002	0.076458
848.980214	0.076733
849.167408	0.076629
849.354584	0.076312
849.541742	0.076376
849.728881	0.076401
849.916002	0.076787
850.103105	0.076797
850.290190	0.076722
850.477256	0.077012
850.664304	0.076898
850.851334	0.076946
851.038346	0.077049
851.225340	0.077185
851.412315	0.077313
851.599272	0.077066
851.786211	0.077267
851.973132	0.077491
852.160034	0.077411
852.346918	0.077779
852.533784	0.077764
852.720632	0.078086
852.907462	0.078510
853.094273	0.078577
853.281066	0.078830
853.467841	0.078599
853.654598	0.078760
853.841336	0.079104
854.028056	0.078971
854.214758	0.079405
854.401442	0.079560
854.588107	0.079363
854.774755	0.079584
854.961384	0.079749
855.147995	0.080145
855.334587	0.080214
855.521162	0.080439
855.707718	0.080652
855.894256	0.080927
856.080775	0.080960
856.267277	0.081174
856.453760	0.081454
856.640225	0.081753
856.826672	0.082199
857.013101	0.082592
857.199511	0.082976
857.385903	0.083107
857.572277	0.083481
857.758633	0.083933
857.944970	0.084412
858.131290	0.084718
858.317591	0.084656
858.503873	0.084883
858.690138	0.084813
858.876384	0.084813
859.062612	0.084997
859.248822	0.084995
859.435014	0.085164
859.621188	0.085080
859.807343	0.085011
859.993480	0.085203
860.179599	0.085032
860.365699	0.085359
860.551781	0.085565
860.737846	0.086107
860.923891	0.086161
861.109919	0.086272
861.295929	0.086802
861.481920	0.087207
861.667893	0.087701
861.853848	0.087984
862.039784	0.088469
862.225702	0.088281
862.411603	0.088255
862.597484	0.088658
862.783348	0.088769
862.969193	0.088363
863.155021	0.088455
863.340830	0.088443
863.526620	0.088567
863.712393	0.088348
863.898147	0.088683
864.083883	0.088614
864.269601	0.088433
864.455301	0.088343
864.640982	0.088489
864.826645	0.088337
865.012290	0.088168
865.197917	0.088191
865.383526	0.088219
865.569116	0.088005
865.754688	0.088166
865.940242	0.088061
866.125777	0.088410
866.311295	0.088621
866.496794	0.088519
866.682275	0.088611
866.867737	0.088609
867.053182	0.088762
867.238608	0.089069
867.424016	0.089154
867.609406	0.089327
867.794778	0.089194
867.980131	0.089286
868.165466	0.089606
868.350783	0.089501
868.536082	0.089584
868.721362	0.089489
868.906625	0.089651
869.091869	0.089528
869.277094	0.089706
869.462302	0.089816
869.647491	0.089706
869.832662	0.089687
870.017815	0.089964
870.202950	0.089965
870.388066	0.089929
870.573165	0.089842
870.758245	0.089654
870.943306	0.089640
871.128350	0.089836
871.313375	0.090186
871.498382	0.090188
871.683371	0.090382
871.868342	0.090489
872.053294	0.090697
872.238229	0.091090
872.423144	0.091729
872.608042	0.091751
872.792922	0.091810
872.977783	0.091746
873.162626	0.092122
873.347451	0.092131
873.532258	0.092336
873.717046	0.092520
873.901816	0.092537
874.086568	0.092597
874.271302	0.092728
874.456017	0.092678
874.640715	0.092738
874.825394	0.092588
875.010055	0.092842
875.194697	0.093060
875.379322	0.093268
875.563928	0.093381
875.748516	0.093571
875.933085	0.093859
876.117637	0.094358
876.302170	0.094580
876.486685	0.094926
876.671182	0.095300
876.855661	0.095424
877.040121	0.095779
877.224563	0.095542
877.408987	0.095688
877.593393	0.095480
877.777780	0.095032
877.962150	0.095160
878.146501	0.095074
878.330833	0.094917
878.515148	0.094624
878.699444	0.094260
878.883722	0.094375
879.067982	0.094555
879.252224	0.094492
879.436447	0.095041
879.620653	0.095118
879.804840	0.095177
879.989008	0.095157
880.173159	0.095462
880.357291	0.095596
880.541405	0.096163
880.725501	0.095543
880.909579	0.095829
881.093638	0.095559
881.277680	0.095491
881.461703	0.095480
881.645707	0.095484
881.829694	0.094974
882.013662	0.094881
882.197612	0.094305
882.381544	0.094943
882.565458	0.094552
882.749353	0.094664
882.933230	0.094889
883.117089	0.094960
883.300930	0.094978
883.484753	0.095421
883.668557	0.095318
883.852343	0.095437
884.036111	0.095437
884.219861	0.095801
884.403592	0.095696
884.587305	0.095641
884.771000	0.095849
884.954677	0.095872
885.138335	0.095743
885.321976	0.096015
885.505598	0.096083
885.689201	0.095842
885.872787	0.096198
886.056354	0.096445
886.239904	0.096442
886.423434	0.096549
886.606947	0.096667
886.790442	0.096725
886.973918	0.096762
887.157376	0.096901
887.340816	0.097090
887.524237	0.097058
887.707641	0.097056
887.891026	0.096916
888.074393	0.096872
888.257741	0.096830
888.441072	0.097161
888.624384	0.097064
888.807678	0.096689
888.990954	0.096448
889.174211	0.095648
889.357451	0.095259
889.540672	0.095080
889.723875	0.094725
889.907059	0.094692
890.090226	0.094395
890.273374	0.094404
890.456504	0.094563
890.639616	0.094518
890.822709	0.094742
891.005785	0.094851
891.188842	0.095136
891.371881	0.095264
891.554901	0.095004
891.737904	0.094861
891.920888	0.094763
892.103854	0.094913
892.286802	0.094823
892.469731	0.094925
892.652643	0.094495
892.835536	0.094349
893.018410	0.094244
893.201267	0.094283
893.384106	0.094345
893.566926	0.094539
893.749728	0.094261
893.932511	0.094143
894.115277	0.094240
894.298024	0.094521
894.480753	0.094586
894.663464	0.094608
894.846157	0.094410
895.028831	0.094484
895.211487	0.094111
895.394125	0.094259
895.576745	0.094525
895.759346	0.094246
895.941930	0.094280
896.124495	0.094229
896.307041	0.093892
896.489570	0.094247
896.672080	0.093849
896.854573	0.093723
897.037046	0.093696
897.219502	0.093322
897.401940	0.093450
897.584359	0.093113
897.766760	0.092889
897.949143	0.093184
898.131507	0.092495
898.313854	0.092465
898.496182	0.092182
898.678492	0.091868
898.860783	0.091693
899.043057	0.091517
899.225312	0.091689
899.407549	0.091581
899.589768	0.091149
899.771968	0.091822
899.954151	0.091837
900.136315	0.091895
900.318461	0.092074
900.500588	0.092104
900.682698	0.091836
900.864789	0.091513
901.046862	0.091198
901.228917	0.090985
901.410953	0.090297
901.592971	0.090327
901.774972	0.090126
901.956953	0.089430
902.138917	0.089259
902.320862	0.089207
902.502790	0.089350
902.684699	0.089322
902.866589	0.089076
903.048462	0.088726
903.230316	0.088244
903.412152	0.088134
903.593970	0.087870
903.775770	0.088039
903.957551	0.088143
904.139314	0.087554
904.321059	0.087238
904.502786	0.087236
904.684494	0.087141
904.866185	0.087338
905.047857	0.087426
905.229510	0.086954
905.411146	0.086263
905.592763	0.085449
905.774363	0.085815
905.955943	0.085899
906.137506	0.085794
906.319051	0.085416
906.500577	0.085094
906.682085	0.084947
906.863575	0.085243
907.045046	0.085387
907.226500	0.085389
907.407935	0.085077
907.589352	0.084403
907.770750	0.084578
907.952131	0.084650
908.133493	0.084650
908.314837	0.084231
908.496163	0.084421
908.677470	0.084254
908.858760	0.084681
909.040031	0.084221
909.221284	0.083935
909.402518	0.083561
909.583735	0.083853
909.764933	0.083392
909.946113	0.083357
910.127275	0.083267
910.308418	0.082839
910.489544	0.082675
910.670651	0.082615
910.851740	0.082877
911.032810	0.082322
911.213863	0.082016
911.394897	0.081897
911.575913	0.081595
911.756911	0.081108
911.937890	0.080816
912.118851	0.080545
912.299794	0.080424
912.480719	0.079849
912.661626	0.079689
912.842514	0.079047
913.023384	0.078732
913.204236	0.078458
913.385070	0.078236
913.565886	0.078140
913.746683	0.077145
913.927462	0.076888
914.108223	0.076893
914.288965	0.076771
914.469690	0.076768
914.650396	0.076383
914.831084	0.075729
915.011754	0.075192
915.192405	0.074795
915.373038	0.074503
915.553653	0.073847
915.734250	0.073874
915.914829	0.073191
916.095389	0.072424
916.275931	0.071827
916.456455	0.071378
916.636961	0.071011
916.817448	0.070649
916.997917	0.069897
917.178368	0.069938
917.358801	0.069258
917.539216	0.068981
917.719612	0.068497
917.899990	0.068299
918.080350	0.067875
918.260692	0.067311
918.441015	0.066931
918.621320	0.066897
918.801607	0.065959
918.981876	0.065619
919.162127	0.065052
919.342359	0.065016
919.522573	0.064555
919.702769	0.064844
919.882947	0.065123
920.063106	0.065087
920.243247	0.065359
920.423370	0.065563
920.603475	0.065040
920.783562	0.065154
920.963630	0.065231
921.143680	0.065183
921.323712	0.064947
921.503725	0.064389
921.683721	0.064079
921.863698	0.063848
922.043657	0.062907
922.223598	0.063031
922.403520	0.062463
922.583424	0.062030
922.763311	0.061410
922.943178	0.060958
923.123028	0.060530
923.302859	0.059948
923.482673	0.059294
923.662467	0.059436
923.842244	0.059051
924.022003	0.059092
924.201743	0.058635
924.381465	0.058843
924.561169	0.058631
924.740854	0.058845
924.920522	0.058990
925.100171	0.058577
925.279802	0.058431
925.459414	0.058305
925.639009	0.057923
925.818585	0.057486
925.998143	0.057113
926.177683	0.056162
926.357205	0.055732
926.536708	0.054954
926.716193	0.054833
926.895660	0.054275
927.075109	0.053697
927.254539	0.053125
927.433951	0.052928
927.613345	0.051946
927.792721	0.052074
927.972079	0.051316
928.151418	0.051021
928.330739	0.049876
928.510042	0.049181
928.689327	0.048714
928.868593	0.048767
929.047841	0.048554
929.227071	0.048495
929.406283	0.047816
929.585476	0.047405
929.764652	0.046745
929.943809	0.046948
930.122948	0.046880
930.302068	0.046285
930.481171	0.045549
930.660255	0.044647
930.839321	0.043852
931.018369	0.043988
931.197398	0.043361
931.376409	0.043609
931.555402	0.043556
931.734377	0.043003
931.913334	0.041920
932.092272	0.041530
932.271192	0.040933
932.450094	0.040965
932.628978	0.039886
932.807844	0.039870
932.986691	0.038577
933.165520	0.038205
933.344331	0.037748
933.523123	0.038476
933.701898	0.037866
933.880654	0.037749
934.059392	0.037257
934.238111	0.036881
934.416813	0.036328
934.595496	0.035542
934.774161	0.034448
934.952808	0.034081
935.131437	0.032397
935.310047	0.031743
935.488639	0.030905
935.667213	0.030737
935.845769	0.030080
936.024306	0.029460
936.202825	0.029760
936.381326	0.029641
936.559809	0.029159
936.738274	0.029388
936.916720	0.029033
937.095148	0.028552
937.273558	0.027461
937.451950	0.026869
937.630323	0.026317
937.808678	0.026410
937.987015	0.026209
938.165334	0.025177
938.343635	0.024476
938.521917	0.023685
938.700181	0.023814
938.878427	0.024211
939.056655	0.024133
939.234864	0.022722
939.413055	0.021471
939.591228	0.020093
939.769383	0.019908
939.947519	0.019603
940.125638	0.019194
940.303738	0.017592
940.481820	0.017206
940.659883	0.016050
940.837929	0.016554
941.015956	0.016060
941.193965	0.015869
941.371955	0.015726
941.549928	0.015467
941.727882	0.015676
941.905818	0.015833
942.083736	0.014814
942.261636	0.015087
942.439517	0.015031
942.617380	0.014883
942.795225	0.013860
942.973052	0.013973
943.150860	0.013527
943.328651	0.012449
943.506423	0.012671
943.684176	0.013161
943.861912	0.012019
944.039629	0.011397
944.217328	0.010119
944.395009	0.009769
944.572672	0.008746
944.750317	0.008777
944.927943	0.008298
945.105551	0.006982
945.283141	0.003782
945.460712	0.004070
945.638265	0.003337
945.815801	0.003556
945.993317	0.004202
946.170816	0.003265
946.348297	0.001352
946.525759	0.001576
946.703203	0.001340
946.880629	0.002026
947.058036	0.002249
947.235425	0.002215
947.412797	0.001064
947.590149	0.000826
947.767484	0.001163
947.944800	0.001855
948.122099	0.000665
948.299379	0.000976
948.476640	0.002123
948.653884	0.000898
948.831109	0.000462
949.008316	0.000214
949.185505	-0.000125
949.362676	-0.001437
949.539828	-0.000662
949.716962	-0.000181
949.894078	-0.001585
950.071176	-0.003245
950.248256	-0.002051
950.425317	-0.003232
950.602360	-0.004075
950.779385	-0.003648
950.956391	-0.003168
951.133380	-0.004019
951.310350	-0.004943
951.487302	-0.002917
951.664235	-0.002754
951.841151	-0.004285
952.018048	-0.001040
952.194927	0.000147
952.371788	-0.000595
952.548631	-0.000032
952.725455	-0.002137
952.902261	-0.001288
953.079049	-0.002491
953.255819	-0.002229
953.432570	-0.001433
953.609303	-0.003937
953.786018	-0.006285
953.962715	-0.006666
954.139394	-0.007143
954.316054	-0.005256
954.492696	-0.006469
954.669320	-0.007403
954.845926	-0.007197
955.022513	-0.008675
955.199083	-0.009180
955.375634	-0.006043
955.552166	-0.005846
955.728681	-0.005371
955.905177	-0.005823
956.081655	-0.004916
956.258115	-0.004005
956.434557	-0.002640
956.610980	-0.002392
956.787385	-0.003405
956.963772	-0.004496
957.140141	-0.004234
957.316492	-0.005256
957.492824	-0.005658
957.669138	-0.004717
957.845434	-0.005605
958.021712	-0.007445
958.197971	-0.006832
958.374212	-0.003642
958.550435	-0.003958
958.726640	-0.006437
958.902826	-0.006826
959.078995	-0.006139
959.255145	-0.005765
959.431277	-0.004550
959.607390	-0.005085
959.783486	-0.005654
959.959563	-0.007504
960.135622	-0.006012
960.311662	-0.004186
960.487685	-0.002452
960.663689	-0.003250
960.839675	-0.003601
961.015643	-0.004786
961.191593	-0.004236
961.367524	-0.002597
961.543437	-0.001715
961.719332	-0.001260
961.895209	-0.000081
962.071067	-0.001367
962.246907	-0.000986
962.422730	0.000402
962.598533	0.000815
962.774319	-0.000435
962.950086	0.000310
963.125835	-0.000050
963.301566	-0.000784
963.477279	-0.001037
963.652973	0.000957
963.828650	0.001938
964.004308	-0.000572
964.179947	-0.001367
964.355569	-0.000137
964.531172	-0.002238
964.706757	-0.002939
964.882324	0.000580
965.057873	0.001231
965.233403	-0.001066
965.408916	-0.002948
965.584410	-0.002059
965.759885	0.000012
965.935343	0.001137
966.110782	0.001882
966.286203	0.002777
966.461606	0.000304
966.636991	0.000780
966.812357	0.001425
966.987705	0.002667
967.163035	0.003243
967.338347	0.003582
967.513641	0.004935
967.688916	0.005530
967.864173	0.005411
968.039412	0.004953
968.214632	0.004558
968.389835	0.006161
968.565019	0.007137
968.740185	0.005868
968.915333	0.005243
969.090462	0.001948
969.265573	0.001708
969.440667	0.001732
969.615741	0.002533
969.790798	0.000734
969.965836	0.000778
970.140856	-0.000481
970.315858	0.001421
970.490842	0.000339
970.665808	0.003898
970.840755	0.003814
971.015684	0.005683
971.190595	0.005768
971.365487	0.006543
971.540362	0.004848
971.715218	0.006227
971.890056	0.005597
972.064875	0.005141
972.239677	0.002152
972.414460	0.002686
972.589225	-0.000141
972.763972	-0.000346
972.938700	-0.001183
973.113411	-0.001753
973.288103	-0.001687
973.462777	-0.002855
973.637432	0.000174
973.812070	0.003872
973.986689	0.004959
974.161290	0.004220
974.335873	0.002862
974.510437	0.006016
974.684984	0.008378
974.859512	0.007744
975.034022	0.009822
975.208513	0.008171
975.382987	0.006962
975.557442	0.006149
975.731879	0.007865
975.906298	0.007904
976.080698	0.005641
976.255080	0.004411
976.429445	0.006102
976.603790	0.004893
976.778118	0.003394
976.952427	0.002208
977.126719	0.002544
977.300992	0.001487
977.475246	0.002446
977.649483	0.002753
977.823701	0.002181
977.997901	-0.000957
978.172083	-0.000876
978.346247	0.002101
978.520392	0.000932
978.694519	-0.001315
978.868628	-0.000096
979.042719	-0.001356
979.216791	-0.002974
979.390845	-0.002229
979.564882	-0.002131
979.738899	-0.002319
979.912899	-0.003493
980.086880	-0.001831
980.260843	-0.001887
980.434788	-0.000732
980.608715	0.000631
980.782623	0.002403
980.956514	0.001962
981.130386	0.003386
981.304240	0.002581
981.478075	0.003144
981.651892	0.004315
981.825692	0.004850
981.999472	0.002285
982.173235	0.001313
982.346980	0.000798
982.520706	0.001323
982.694414	0.001095
982.868104	0.001726
983.041775	0.002489
983.215428	0.000079
983.389064	0.001078
983.562680	0.004331
983.736279	0.005724
983.909860	0.006968
984.083422	0.007199
984.256966	0.006931
984.430491	0.008155
984.603999	0.006353
984.777488	0.006847
984.950959	0.007252
985.124412	0.005263
985.297847	0.002793
985.471263	0.000404
985.644661	-0.000630
985.818041	-0.000696
985.991403	-0.002230
986.164747	-0.000697
986.338072	0.002111
986.511379	0.001411
986.684668	-0.000316
986.857938	0.000905
987.031191	0.001392
987.204425	0.001458
987.377641	0.000547
987.550839	0.001168
987.724018	-0.000640
987.897179	-0.003994
988.070322	-0.004299
988.243447	-0.001943
988.416554	-0.002799
988.589642	-0.002427
988.762712	-0.003420
988.935764	-0.003031
989.108798	-0.002365
989.281813	-0.002066
989.454811	-0.001198
989.627790	-0.000288
989.800751	-0.000535
989.973693	-0.000139
990.146617	0.000111
990.319524	0.001744
990.492412	0.001814
990.665281	0.000526
990.838133	0.000442
991.010966	-0.001065
991.183781	-0.001655
991.356578	-0.002592
991.529356	-0.002259
991.702117	-0.002276
991.874859	-0.004123
992.047583	-0.001822
992.220288	-0.001444
992.392976	-0.002086
992.565645	-0.001687
992.738296	-0.002304
992.910929	-0.002839
993.083543	-0.004312
993.256139	-0.003665
993.428718	-0.002236
993.601277	-0.002210
993.773819	-0.002583
993.946342	-0.001783
994.118848	-0.000716
994.291335	0.000291
994.463803	0.002805
994.636254	0.003838
994.808686	0.003100
994.981100	0.002960
995.153496	0.001849
995.325874	0.001404
995.498233	0.001170
995.670574	-0.000444
995.842897	-0.001559
996.015202	-0.004212
996.187488	-0.003416
996.359757	-0.004778
996.532007	-0.004672
996.704239	-0.005680
996.876452	-0.004161
997.048648	-0.003727
997.220825	-0.004417
997.392984	-0.004008
997.565124	-0.004734
997.737247	-0.006700
997.909351	-0.005934
998.081437	-0.006839
998.253505	-0.006613
998.425554	-0.009073
998.597586	-0.009412
998.769599	-0.007534
998.941594	-0.007834
999.113571	-0.006316
999.285529	-0.006091
999.457469	-0.005517
999.629391	-0.004712
999.801295	-0.003860
999.973181	-0.002684
1000.145048	-0.003193
1000.316897	-0.003536
1000.488728	-0.002223
1000.660541	-0.001193
1000.832335	-0.000008
1001.004111	-0.001649
1001.175869	-0.002817
1001.347609	-0.004067
1001.519331	-0.003364
1001.691034	-0.001639
1001.862719	-0.000892
1002.034386	-0.002795
1002.206035	-0.004155
1002.377665	-0.006462
1002.549277	-0.004632
1002.720871	-0.003519
1002.892447	-0.004672
1003.064004	-0.006104
1003.235544	-0.007884
1003.407065	-0.008953
1003.578568	-0.008791
1003.750052	-0.007851
1003.921519	-0.006025
1004.092967	-0.007066
1004.264397	-0.006838
1004.435809	-0.005569
1004.607202	-0.004860
1004.778577	-0.004842
1004.949934	-0.004758
1005.121273	-0.005273
1005.292594	-0.006682
1005.463896	-0.006803
1005.635180	-0.006536
1005.806446	-0.007968
1005.977694	-0.007130
1006.148923	-0.006089
1006.320135	-0.005313
1006.491328	-0.005374
1006.662503	-0.004091
1006.833659	-0.004315
1007.004798	-0.003478
1007.175918	-0.004317
1007.347020	-0.002564
1007.518103	-0.003557
1007.689169	-0.005713
1007.860216	-0.007386
1008.031245	-0.007842
1008.202256	-0.007648
1008.373248	-0.006296
1008.544223	-0.007591
1008.715179	-0.007301
1008.886117	-0.008834
1009.057036	-0.008942
1009.227938	-0.008009
1009.398821	-0.007349
1009.569686	-0.008471
1009.740533	-0.009480
1009.911361	-0.011790
1010.082172	-0.012165
1010.252964	-0.012858
1010.423738	-0.011705
1010.594493	-0.012046
1010.765231	-0.012524
1010.935950	-0.012997
1011.106651	-0.011004
1011.277334	-0.011031
1011.447998	-0.010705
1011.618645	-0.010251
1011.789273	-0.008650
1011.959882	-0.008845
1012.130474	-0.008534
1012.301048	-0.007898
1012.471603	-0.008655
1012.642140	-0.009255
1012.812658	-0.007964
1012.983159	-0.007672
1013.153641	-0.007625
1013.324105	-0.007390
1013.494551	-0.007744
1013.664979	-0.008154
1013.835388	-0.006932
1014.005779	-0.006168
1014.176152	-0.006012
1014.346507	-0.008273
1014.516843	-0.009498
1014.687162	-0.009523
1014.857462	-0.011399
1015.027744	-0.011622
1015.198007	-0.011601
1015.368252	-0.014273
1015.538480	-0.013865
1015.708689	-0.014845
1015.878879	-0.015397
1016.049052	-0.013925
1016.219206	-0.013090
1016.389342	-0.012016
1016.559460	-0.014409
1016.729559	-0.013474
1016.899641	-0.012872
1017.069704	-0.013895
1017.239749	-0.014472
1017.409775	-0.014252
1017.579784	-0.015047
1017.749774	-0.016412
1017.919746	-0.015824
1018.089700	-0.013830
1018.259635	-0.014281
1018.429553	-0.014940
1018.599452	-0.015044
1018.769333	-0.013296
1018.939195	-0.012823
1019.109040	-0.012496
1019.278866	-0.012000
1019.448674	-0.012540
1019.618464	-0.011666
1019.788235	-0.012653
1019.957989	-0.011547
1020.127724	-0.011059
1020.297441	-0.010671
1020.467139	-0.009683
1020.636820	-0.009417
1020.806482	-0.009718
1020.976126	-0.009503
1021.145752	-0.009988
1021.315359	-0.009543
1021.484948	-0.010060
1021.654519	-0.010744
1021.824072	-0.011454
1021.993607	-0.011251
1022.163123	-0.010697
1022.332621	-0.011130
1022.502101	-0.012013
1022.671563	-0.013075
1022.841007	-0.013401
1023.010432	-0.014312
1023.179839	-0.013461
1023.349228	-0.012713
1023.518598	-0.012166
1023.687951	-0.012820
1023.857285	-0.011833
1024.026601	-0.010553
1024.195899	-0.009035
1024.365178	-0.009023
1024.534439	-0.008397
1024.703682	-0.007305
1024.872907	-0.008403
1025.042114	-0.009530
1025.211302	-0.009796
1025.380472	-0.008982
1025.549624	-0.010104
1025.718758	-0.011229
1025.887873	-0.010080
1026.056970	-0.008577
1026.226049	-0.010831
1026.395110	-0.011032
1026.564153	-0.011443
1026.733177	-0.010617
1026.902183	-0.012890
1027.071171	-0.013274
1027.240141	-0.012778
1027.409092	-0.014449
1027.578026	-0.014730
1027.746940	-0.012839
1027.915837	-0.013996
1028.084716	-0.013149
1028.253576	-0.014756
1028.422418	-0.014083
1028.591242	-0.014704
1028.760048	-0.013322
1028.928835	-0.012012
1029.097604	-0.011226
1029.266355	-0.012452
1029.435088	-0.010022
1029.603803	-0.010621
1029.772499	-0.009554
1029.941177	-0.008544
1030.109837	-0.007512
1030.278478	-0.009172
1030.447102	-0.010726
1030.615707	-0.013253
1030.784294	-0.012509
1030.952863	-0.013326
1031.121413	-0.013090
1031.289945	-0.010563
1031.458460	-0.010963
1031.626955	-0.010853
1031.795433	-0.010865
1031.963892	-0.010407
1032.132334	-0.009890
1032.300756	-0.008982
1032.469161	-0.008421
1032.637548	-0.008796
1032.805916	-0.011095
1032.974266	-0.009854
1033.142598	-0.010310
1033.310911	-0.011059
1033.479207	-0.011229
1033.647484	-0.011237
1033.815743	-0.012458
1033.983983	-0.012939
1034.152206	-0.013163
1034.320410	-0.013112
1034.488596	-0.014540
1034.656764	-0.015136
1034.824914	-0.013981
1034.993045	-0.013809
1035.161158	-0.014611
1035.329253	-0.015237
1035.497330	-0.017112
1035.665388	-0.017360
1035.833428	-0.018037
1036.001450	-0.017742
1036.169454	-0.016793
1036.337440	-0.019156
1036.505407	-0.018516
1036.673356	-0.016040
1036.841287	-0.016092
1037.009200	-0.016907
1037.177094	-0.016390
1037.344970	-0.015242
1037.512828	-0.016808
1037.680668	-0.016560
1037.848489	-0.015383
1038.016293	-0.015088
1038.184078	-0.016831
1038.351845	-0.015123
1038.519593	-0.012897
1038.687324	-0.012205
1038.855036	-0.014171
1039.022730	-0.013619
1039.190406	-0.013728
1039.358063	-0.012808
1039.525702	-0.013966
1039.693323	-0.014556
1039.860926	-0.016562
1040.028511	-0.016240
1040.196077	-0.016681
1040.363625	-0.016915
1040.531155	-0.016710
1040.698667	-0.017655
1040.866161	-0.018984
1041.033636	-0.019901
1041.201093	-0.018333
1041.368532	-0.017193
1041.535952	-0.017702
1041.703355	-0.018219
1041.870739	-0.016156
1042.038105	-0.016034
1042.205452	-0.014570
1042.372782	-0.014379
1042.540093	-0.013290
1042.707386	-0.012621
1042.874661	-0.011928
1043.041918	-0.013389
1043.209156	-0.015200
1043.376376	-0.016240
1043.543578	-0.015790
1043.710762	-0.016018
1043.877927	-0.014376
1044.045074	-0.012261
1044.212203	-0.013946
1044.379314	-0.014672
1044.546407	-0.014002
1044.713481	-0.012935
1044.880537	-0.011252
1045.047575	-0.012278
1045.214595	-0.013169
1045.381596	-0.015012
1045.548579	-0.017865
1045.715544	-0.017318
1045.882491	-0.018095
1046.049420	-0.018862
1046.216330	-0.018548
1046.383222	-0.021366
1046.550096	-0.022208
1046.716951	-0.022496
1046.883789	-0.021948
1047.050608	-0.020338
1047.217409	-0.019631
1047.384192	-0.017609
1047.550956	-0.018292
1047.717703	-0.016833
1047.884431	-0.014502
1048.051140	-0.012788
1048.217832	-0.012587
1048.384505	-0.013425
1048.551161	-0.015784
1048.717798	-0.014982
1048.884416	-0.017760
1049.051017	-0.015925
1049.217599	-0.018585
1049.384163	-0.019004
1049.550709	-0.019428
1049.717237	-0.018412
1049.883746	-0.018023
1050.050237	-0.015982
1050.216710	-0.017857
1050.383165	-0.017546
1050.549601	-0.017439
1050.716019	-0.015677
1050.882420	-0.016865
1051.048801	-0.016636
1051.215165	-0.017391
1051.381510	-0.016733
1051.547837	-0.015320
1051.714146	-0.015157
1051.880437	-0.014106
1052.046709	-0.013112
1052.212964	-0.012024
1052.379200	-0.011240
1052.545417	-0.011512
1052.711617	-0.012521
1052.877798	-0.013771
1053.043961	-0.016111
1053.210106	-0.016998
1053.376233	-0.017425
1053.542341	-0.018101
1053.708432	-0.019609
1053.874504	-0.019429
1054.040557	-0.018689
1054.206593	-0.017264
1054.372610	-0.014860
1054.538609	-0.015016
1054.704590	-0.015374
1054.870553	-0.014712
1055.036497	-0.015727
1055.202424	-0.014372
1055.368331	-0.015603
1055.534221	-0.017999
1055.700093	-0.018798
1055.865946	-0.020396
1056.031781	-0.019828
1056.197598	-0.018441
1056.363397	-0.019015
1056.529177	-0.017465
1056.694939	-0.018707
1056.860683	-0.017286
1057.026409	-0.015890
1057.192116	-0.015202
1057.357806	-0.013938
1057.523477	-0.013065
1057.689130	-0.014295
1057.854764	-0.014019
1058.020381	-0.013924
1058.185979	-0.014052
1058.351559	-0.015176
1058.517120	-0.016083
1058.682664	-0.015419
1058.848189	-0.015270
1059.013696	-0.015940
1059.179185	-0.014174
1059.344656	-0.013738
1059.510108	-0.013921
1059.675542	-0.013308
1059.840958	-0.012491
1060.006356	-0.011161
1060.171735	-0.011927
1060.337096	-0.015084
1060.502439	-0.015606
1060.667764	-0.016284
1060.833071	-0.016870
1060.998359	-0.016638
1061.163629	-0.016924
1061.328881	-0.016908
1061.494115	-0.016926
1061.659330	-0.016188
1061.824527	-0.014267
1061.989706	-0.013858
1062.154867	-0.014131
1062.320010	-0.014727
1062.485134	-0.016238
1062.650240	-0.016450
1062.815328	-0.016439
1062.980398	-0.016316
1063.145449	-0.018484
1063.310482	-0.018263
1063.475497	-0.017073
1063.640494	-0.016071
1063.805473	-0.017100
1063.970433	-0.015361
1064.135375	-0.015439
1064.300299	-0.015542
1064.465204	-0.014190
1064.630092	-0.014117
1064.794961	-0.013939
1064.959812	-0.014157
1065.124645	-0.016030
1065.289459	-0.012620
1065.454256	-0.013474
1065.619034	-0.013240
1065.783793	-0.014401
1065.948535	-0.014785
1066.113258	-0.014815
1066.277964	-0.015240
1066.442651	-0.015641
1066.607319	-0.015869
1066.771970	-0.018095
1066.936602	-0.017832
1067.101216	-0.017074
1067.265812	-0.015837
1067.430389	-0.015922
1067.594949	-0.013942
1067.759490	-0.013135
1067.924013	-0.012801
1068.088518	-0.010955
1068.253004	-0.009613
1068.417472	-0.009520
1068.581922	-0.011517
1068.746354	-0.011180
1068.910768	-0.010770
1069.075163	-0.011289
1069.239540	-0.010320
1069.403899	-0.011926
1069.568240	-0.013906
1069.732562	-0.015231
1069.896866	-0.015630
1070.061152	-0.014858
1070.225420	-0.014561
1070.389670	-0.016573
1070.553901	-0.016904
1070.718114	-0.018512
1070.882309	-0.016005
1071.046486	-0.014483
1071.210644	-0.013925
1071.374784	-0.012562
1071.538906	-0.012335
1071.703010	-0.012015
1071.867096	-0.009518
1072.031163	-0.007768
1072.195212	-0.005144
1072.359243	-0.005358
1072.523256	-0.003234
1072.687250	-0.002456
1072.851226	-0.002921
1073.015184	-0.001492
1073.179124	-0.000197
1073.343045	0.000474
1073.506949	0.000591
1073.670834	-0.000589
1073.834701	-0.002600
1073.998549	-0.001333
1074.162380	0.000013
1074.326192	0.001587
1074.489986	0.002435
1074.653761	0.000211
1074.817519	-0.001535
1074.981258	-0.003723
1075.144979	-0.005306
1075.308682	-0.002439
1075.472367	-0.006038
1075.636033	-0.007568
1075.799681	-0.009368
1075.963311	-0.011705
1076.126923	-0.011071
1076.290516	-0.012323
1076.454092	-0.012122
1076.617649	-0.009743
1076.781187	-0.012081
1076.944708	-0.011809
1077.108210	-0.009983
1077.271695	-0.010437
1077.435160	-0.009431
1077.598608	-0.007862
1077.762038	-0.006407
1077.925449	-0.004949
1078.088842	-0.006222
1078.252217	-0.004795
1078.415573	-0.003226
1078.578912	-0.005677
1078.742232	-0.004519
1078.905534	-0.001452
1079.068817	-0.004705
1079.232083	-0.004204
1079.395330	-0.004729
1079.558559	-0.004081
1079.721770	-0.005523
1079.884962	-0.005521
1080.048136	-0.004399
1080.211293	-0.004336
1080.374430	-0.008599
1080.537550	-0.006692
1080.700651	-0.006074
1080.863735	-0.005178
1081.026800	-0.003607
1081.189846	-0.003898
1081.352875	-0.004853
1081.515885	-0.004751
1081.678877	-0.005006
1081.841851	-0.004647
1082.004807	-0.006570
1082.167744	-0.005866
1082.330663	-0.008648
1082.493564	-0.009501
1082.656447	-0.008916
1082.819312	-0.007772
1082.982158	-0.007801
1083.144986	-0.007955
1083.307796	-0.005846
1083.470587	-0.004622
1083.633361	-0.004013
1083.796116	-0.001170
1083.958853	-0.002232
1084.121571	-0.001118
1084.284272	-0.003128
1084.446954	-0.004104
1084.609618	-0.004383
1084.772264	-0.004003
1084.934892	-0.004173
1085.097501	-0.005510
1085.260092	-0.006239
1085.422665	-0.006438
1085.585220	-0.006562
1085.747756	-0.005543
1085.910274	-0.005427
1086.072774	-0.006982
1086.235256	-0.006742
1086.397720	-0.006774
1086.560165	-0.007486
1086.722592	-0.009136
1086.885001	-0.008026
1087.047392	-0.008543
1087.209764	-0.006598
1087.372119	-0.005373
1087.534455	-0.003969
1087.696772	-0.003873
1087.859072	-0.004129
1088.021353	-0.003756
1088.183616	-0.001633
1088.345861	-0.004772
1088.508088	-0.004939
1088.670296	-0.007923
1088.832486	-0.007649
1088.994658	-0.006054
1089.156812	-0.007230
1089.318948	-0.006677
1089.481065	-0.008054
1089.643164	-0.008008
1089.805245	-0.006402
1089.967308	-0.005453
1090.129352	-0.004617
1090.291378	-0.004211
1090.453386	-0.005700
1090.615376	-0.004865
1090.777347	-0.004480
1090.939301	-0.004867
1091.101236	-0.006668
1091.263153	-0.004955
1091.425051	-0.002135
1091.586932	-0.002077
1091.748794	-0.003356
1091.910638	-0.002871
1092.072463	-0.005922
1092.234271	-0.005173
1092.396060	-0.003997
1092.557831	-0.003810
1092.719584	-0.006448
1092.881319	-0.010430
1093.043035	-0.010136
1093.204733	-0.009493
1093.366413	-0.009816
1093.528075	-0.009507
1093.689718	-0.011046
1093.851343	-0.013948
1094.012950	-0.011668
1094.174539	-0.011476
1094.336110	-0.011344
1094.497662	-0.012101
1094.659196	-0.012983
1094.820712	-0.017481
1094.982210	-0.014930
1095.143689	-0.014984
1095.305151	-0.010280
1095.466594	-0.011468
1095.628018	-0.010191
1095.789425	-0.009099
1095.950813	-0.008834
1096.112183	-0.008561
1096.273535	-0.003764
1096.434869	-0.003923
1096.596184	-0.004653
1096.757482	-0.005664
1096.918761	-0.005631
1097.080021	-0.008179
1097.241264	-0.009303
1097.402488	-0.007747
1097.563694	-0.005395
1097.724882	-0.004714
1097.886052	-0.003935
1098.047203	-0.003918
1098.208336	-0.008983
1098.369451	-0.010440
1098.530548	-0.009268
1098.691627	-0.008558
1098.852687	-0.009761
1099.013729	-0.009363
1099.174753	-0.009444
1099.335758	-0.012174
1099.496746	-0.009770
1099.657715	-0.005113
1099.818666	-0.005062
1099.979599	-0.004674
1100.140513	-0.003259
1100.301409	-0.003513
1100.462287	-0.007200
1100.623147	-0.005323
1100.783989	-0.005853
1100.944812	-0.007974
1101.105617	-0.011067
1101.266404	-0.010099
1101.427173	-0.007494
1101.587923	-0.010388
1101.748656	-0.007880
1101.909370	-0.006397
1102.070066	-0.009289
1102.230743	-0.009907
1102.391403	-0.006497
1102.552044	-0.004512
1102.712667	-0.004309
1102.873271	-0.004913
1103.033858	-0.003537
1103.194426	-0.006418
1103.354976	-0.005922
1103.515508	-0.006361
1103.676021	-0.007078
1103.836517	-0.006583
1103.996994	-0.006566
1104.157453	-0.008005
1104.317893	-0.007793
1104.478316	-0.006879
1104.638720	-0.007766
1104.799106	-0.006527
1104.959474	-0.007988
1105.119823	-0.001187
1105.280155	-0.003440
1105.440468	-0.003673
1105.600763	-0.003663
1105.761039	-0.008072
1105.921298	-0.008301
1106.081538	-0.005797
1106.241760	-0.008417
1106.401964	-0.009117
1106.562149	-0.009886
1106.722316	-0.010468
1106.882465	-0.009365
1107.042596	-0.009725
1107.202709	-0.008228
1107.362803	-0.007437
1107.522879	-0.009523
1107.682937	-0.008333
1107.842977	-0.006959
1108.002999	-0.009134
1108.163002	-0.009049
1108.322987	-0.008220
1108.482954	-0.007023
1108.642902	-0.004040
1108.802833	-0.004399
1108.962745	-0.004314
1109.122639	-0.009049
1109.282515	-0.009104
1109.442372	-0.010794
1109.602211	-0.009307
1109.762032	-0.010688
1109.921835	-0.009069
1110.081620	-0.013538
1110.241386	-0.013424
1110.401134	-0.014422
1110.560864	-0.010511
1110.720576	-0.005873
1110.880269	-0.006244
1111.039945	-0.006564
1111.199602	-0.004592
1111.359240	-0.004491
1111.518861	0.000578
1111.678463	-0.000062
1111.838047	0.000859
1111.997613	-0.002132
1112.157161	-0.001453
1112.316690	-0.000553
1112.476202	-0.000411
1112.635695	-0.003209
1112.795169	-0.003682
1112.954626	-0.004764
1113.114064	-0.004559
1113.273484	-0.004588
1113.432886	-0.002496
1113.592270	-0.005579
1113.751635	-0.006868
1113.910983	-0.007493
1114.070312	-0.005043
1114.229622	-0.005140
1114.388915	-0.003155
1114.548189	-0.005014
1114.707445	-0.002572
1114.866683	-0.000083
1115.025903	0.000420
1115.185104	0.002592
1115.344287	0.003637
1115.503452	0.003294
1115.662599	0.003373
1115.821727	0.001406
1115.980838	0.002581
1116.139930	0.001376
1116.299004	0.000346
1116.458059	0.000366
1116.617097	0.000186
1116.776116	0.003842
1116.935117	-0.001509
1117.094099	-0.002586
1117.253064	-0.000066
1117.412010	-0.001983
1117.570938	0.001999
1117.729848	0.001470
1117.888740	0.000838
1118.047613	0.004894
1118.206468	-0.000960
1118.365305	0.007816
1118.524124	0.005947
1118.682924	0.005307
1118.841707	0.009036
1119.000471	0.002870
1119.159216	0.001948
1119.317944	0.004360
1119.476653	0.004251
1119.635344	0.006438
1119.794017	0.005404
1119.952672	0.006415
1120.111308	0.004952
1120.269927	0.002930
1120.428527	0.003500
1120.587108	0.002270
1120.745672	0.003860
1120.904217	-0.001203
1121.062744	-0.001692
1121.221253	-0.003285
1121.379744	0.000243
1121.538216	0.002367
1121.696671	0.003238
1121.855107	0.005892
1122.013524	0.008705
1122.171924	0.002774
1122.330305	0.005134
1122.488668	0.003842
1122.647013	0.001351
1122.805340	-0.001573
1122.963648	-0.005492
1123.121938	-0.003634
1123.280210	-0.000893
1123.438464	-0.004891
1123.596700	-0.002992
1123.754917	-0.005206
1123.913116	-0.007606
1124.071297	-0.007311
1124.229459	-0.005707
1124.387604	-0.007600
1124.545730	-0.006976
1124.703838	-0.016209
1124.861928	-0.012857
1125.019999	-0.012911
1125.178052	-0.009049
1125.336088	-0.005462
1125.494104	-0.005782
1125.652103	-0.004437
1125.810083	-0.001660
1125.968045	0.001309
1126.125989	0.006048
1126.283915	0.001952
1126.441823	0.006595
1126.599712	0.006453
1126.757583	0.009915
1126.915436	0.009449
1127.073270	0.009581
1127.231087	0.010910
1127.388885	0.002639
1127.546665	0.002684
1127.704426	0.009796
1127.862170	0.005217
1128.019895	0.001569
1128.177602	-0.000233
1128.335291	-0.000640
1128.492961	0.001599
1128.650614	-0.001087
1128.808248	-0.001152
1128.965864	-0.004287
1129.123461	-0.005128
1129.281041	-0.003766
1129.438602	-0.003628
1129.596145	-0.003233
1129.753670	-0.003637
1129.911176	-0.005087
1130.068665	-0.004721
1130.226135	-0.001453
1130.383587	0.002825
1130.541020	-0.001212
1130.698436	-0.002396
1130.855833	0.003446
1131.013212	0.004130
1131.170573	0.005865
1131.327915	0.003568
1131.485239	0.002284
1131.642545	0.000065
1131.799833	-0.001474
1131.957103	-0.001777
1132.114354	-0.002244
1132.271588	-0.005446
1132.428803	-0.015739
1132.585999	-0.014402
1132.743178	-0.016115
1132.900338	-0.017328
1133.057480	-0.015398
1133.214604	-0.009267
1133.371710	-0.009689
1133.528797	-0.006724
1133.685866	-0.009387
1133.842917	-0.004120
1133.999950	-0.003674
1134.156964	-0.005351
1134.313960	-0.004073
1134.470938	-0.001589
1134.627898	-0.011762
1134.784840	-0.006174
1134.941763	-0.009925
1135.098668	-0.009263
1135.255555	-0.009904
1135.412424	-0.013096
1135.569274	-0.008605
1135.726107	-0.004193
1135.882921	-0.008408
1136.039716	0.002283
1136.196494	0.001189
1136.353253	0.009685
1136.509995	0.002796
1136.666717	0.006219
1136.823422	0.008441
1136.980109	0.010148
1137.136777	0.005454
1137.293427	0.005334
1137.450059	-0.001951
1137.606672	-0.003738
1137.763267	-0.006881
1137.919844	0.001479
1138.076403	0.000432
1138.232944	0.000841
1138.389466	-0.003771
1138.545971	-0.002561
1138.702457	0.000516
1138.858924	0.001074
1139.015374	-0.003321
1139.171805	-0.011942
1139.328218	-0.012832
1139.484613	-0.011982
1139.640990	-0.010478
1139.797348	-0.003219
1139.953688	-0.001808
1140.110010	-0.004307
1140.266314	-0.002305
1140.422600	0.004734
1140.578867	0.012045
1140.735116	0.009600
1140.891347	0.008659
1141.047559	0.003782
1141.203754	0.005999
1141.359930	0.007262
1141.516088	0.014910
1141.672228	0.016342
1141.828349	0.017686
1141.984452	0.016826
1142.140537	0.020335
1142.296604	0.023106
1142.452653	0.023642
1142.608683	0.013357
1142.764695	0.013783
1142.920689	0.013176
1143.076665	0.011095
1143.232622	0.006951
1143.388562	0.004304
1143.544483	0.006918
1143.700385	0.009190
1143.856270	0.016933
1144.012136	0.016609
1144.167985	0.010949
1144.323814	0.009317
1144.479626	0.013621
1144.635420	0.011027
1144.791195	0.008250
1144.946952	-0.000009
1145.102691	-0.000592
1145.258411	-0.010127
1145.414113	-0.005795
1145.569798	-0.000982
1145.725463	-0.006482
1145.881111	-0.005927
1146.036741	-0.006183
1146.192352	-0.011642
1146.347945	-0.005232
1146.503519	-0.000588
1146.659076	0.003236
1146.814614	-0.003441
1146.970134	-0.002856
1147.125636	-0.002604
1147.281120	-0.009091
1147.436585	-0.000271
1147.592032	0.005059
1147.747461	0.004907
1147.902872	0.000221
1148.058265	0.002075
1148.213639	0.002544
1148.368995	-0.000181
1148.524333	-0.001620
1148.679653	0.002446
1148.834954	-0.003633
1148.990237	-0.006146
1149.145502	-0.011891
1149.300749	-0.013449
1149.455977	-0.014027
1149.611188	-0.009080
1149.766380	-0.009076
1149.921553	-0.004633
1150.076709	-0.009017
1150.231846	-0.008144
1150.386966	0.000531
1150.542066	0.009337
1150.697149	0.011347
1150.852214	0.010187
1151.007260	0.018419
1151.162288	0.021875
1151.317298	0.024341
1151.472289	0.033511
1151.627263	0.031303
1151.782218	0.031770
1151.937155	0.023654
1152.092073	0.019413
1152.246974	0.010375
1152.401856	-0.004315
1152.556720	-0.006126
1152.711566	-0.014760
1152.866393	-0.023671
1153.021203	-0.023075
1153.175994	-0.028924
1153.330767	-0.025756
1153.485521	-0.021797
1153.640258	-0.010230
1153.794976	-0.011497
1153.949676	-0.016380
1154.104358	-0.022030
1154.259021	-0.016559
1154.413667	-0.018589
1154.568294	-0.016686
1154.722903	-0.017608
1154.877493	-0.020755
1155.032066	-0.020943
1155.186620	-0.012983
1155.341156	-0.007593
1155.495674	-0.000964
1155.650173	-0.004962
1155.804654	0.005818
1155.959118	0.004697
1156.113562	0.002357
1156.267989	0.004293
1156.422397	-0.001832
1156.576788	-0.000802
1156.731160	0.006011
1156.885513	0.005103
1157.039849	0.002738
1157.194166	-0.004207
1157.348465	-0.000844
1157.502746	0.001547
1157.657009	0.001012
1157.811253	-0.004151
1157.965479	-0.013126
1158.119687	-0.024096
1158.273877	-0.015077
1158.428048	-0.016524
1158.582201	-0.010771
1158.736337	-0.008924
1158.890453	-0.004634
1159.044552	-0.012600
1159.198632	0.001257
1159.352694	-0.000078
1159.506738	0.011568
1159.660764	0.004358
1159.814771	0.017820
1159.968761	0.014396
1160.122732	0.008370
1160.276685	-0.003184
1160.430619	0.008318
1160.584535	0.011578
1160.738434	0.018949
1160.892313	0.000521
1161.046175	-0.004312
1161.200019	-0.012312
1161.353844	-0.009347
1161.507651	-0.008867
1161.661440	-0.004379
1161.815210	-0.010499
1161.968962	-0.015721
1162.122697	-0.015039
1162.276412	-0.000159
1162.430110	0.010722
1162.583789	0.009313
1162.737451	0.012034
1162.891094	0.016634
1163.044718	0.018176
1163.198325	0.019144
1163.351913	0.032631
1163.505483	0.032223
1163.659035	0.037556
1163.812569	0.029656
1163.966084	0.034751
1164.119581	0.017022
1164.273060	0.010653
1164.426521	0.014758
1164.579964	0.019494
1164.733388	0.002268
1164.886794	-0.000021
1165.040182	-0.024374
1165.193551	-0.016806
1165.346903	-0.024082
1165.500236	-0.017458
1165.653551	-0.006163
1165.806848	0.002928
1165.960126	0.003809
1166.113386	0.009875
1166.266628	0.013006
1166.419852	0.027746
1166.573058	0.023330
1166.726245	0.024500
1166.879414	0.029780
1167.032565	0.016283
1167.185698	0.009237
1167.338812	0.002219
1167.491909	0.000943
1167.644987	-0.005540
1167.798046	-0.014522
1167.951088	-0.006415
1168.104111	-0.011501
1168.257117	-0.016812
1168.410103	-0.009002
1168.563072	-0.016339
1168.716023	-0.020300
1168.868955	-0.025059
1169.021869	-0.027805
1169.174765	-0.014230
1169.327642	-0.014794
1169.480501	-0.007368
1169.633343	-0.015586
1169.786165	-0.013737
1169.938970	-0.023612
1170.091757	-0.026899
1170.244525	-0.025493
1170.397275	-0.015660
1170.550007	-0.024144
1170.702720	-0.032214
1170.855415	-0.032473
1171.008092	-0.014516
1171.160751	-0.008758
1171.313392	0.013335
1171.466014	-0.008120
1171.618619	0.092137
1171.771205	0.092137
1171.923772	0.092137
