sample name	sample
index	674
start time	 03-22-2021  11:22:49 AM
880	0.137862
Peak Time (s)	182.035
Peak Height 	0.1379
calc peak height	180,183
Baseline Time (s)	11.036
Baseline Value 	-0.001985
subtract baseline	10,4
Abs	0.066995
Peak Time (s)	182.536
Peak Height 	0.06699
calc peak height	180,183
Baseline Time (s)	11.036
Baseline Value 	0.00453
subtract baseline	10,3
PK_550	0.043797
Peak Time (s)	182.536
Peak Height 	0.0438
calc peak height	180,183
Baseline Time (s)	8.535
Baseline Value 	0.001505
subtract baseline	10,2
PK_880	0.066279
Peak Time (s)	180.037
Peak Height 	0.06628
calc peak height	180,183
Baseline Time (s)	9.536
Baseline Value 	0.003753
subtract baseline	10,1


Time (s)	A880-A510	A880-A775	A880-A975	A880	I510	I775	I975	I880	
0.035500	0.000238	-0.000147	-0.000920	-0.000621	7394.036359	45883.637732	3953.862619	24156.622528
0.536000	-0.004480	-0.000606	-0.004584	0.004107	7295.497625	45372.652506	3931.444111	23925.440840
1.036000	-0.004898	-0.001395	-0.002590	0.001239	7320.860416	45576.731132	3944.380965	24065.394122
1.539500	-0.002431	-0.000640	-0.004999	-0.001925	7379.671296	45964.046036	3946.401879	24220.833025
2.036500	-0.000060	-0.001070	0.000839	-0.002270	7408.314908	45955.647844	3963.091523	24237.861217
2.539500	-0.004212	-0.000537	0.000224	0.002652	7313.327554	45522.234837	3948.134669	23996.353061
3.037000	-0.001668	-0.000214	-0.001372	-0.003285	7402.048779	46141.745439	3959.844524	24288.005624
3.535000	-0.000944	-0.000177	-0.002742	-0.000937	7384.913286	45911.907039	3949.807709	24172.148795
4.035000	-0.000053	0.000053	-0.003382	-0.001096	7395.984485	45950.551781	3948.515661	24179.978751
4.535000	-0.003137	-0.000697	-0.009010	0.002594	7325.071399	45512.115074	3923.766081	23999.157538
5.035500	-0.000892	-0.000832	-0.000646	-0.000987	7385.991280	45852.044323	3955.591123	24174.638175
5.536000	-0.000744	-0.001177	-0.002287	-0.001496	7392.909550	45868.250628	3952.535472	24199.673920
6.039000	-0.000266	-0.000312	-0.002449	-0.000608	7388.598811	45865.962691	3949.711690	24156.000970
6.536500	-0.000851	-0.001934	-0.000451	-0.001991	7397.001508	45842.295021	3958.833766	24224.066966
7.037000	-0.001145	-0.001093	0.005242	-0.001058	7384.075615	45833.265605	3971.798868	24178.135141
7.537000	-0.002175	-0.000531	0.001072	-0.000559	7368.015892	45839.476770	3959.079527	24153.572501
8.037500	0.000573	-0.000955	-0.000893	-0.000580	7397.148103	45799.631525	3953.826625	24154.625264
8.535000	-0.000078	0.000000	-0.002375	-0.000357	7387.938318	45872.066793	3949.237159	24143.674741
9.035500	0.000366	-0.000830	-0.002144	-0.000515	7394.272482	45805.571692	3950.283601	24151.432207
9.535500	0.000000	0.000497	0.003832	0.000260	7382.251949	45860.109023	3964.349092	24113.339480
10.035000	-0.000434	0.000513	-0.000964	0.000447	7375.735666	45843.197866	3950.869489	24104.203421
10.538500	0.000409	-0.000820	0.000442	-0.000032	7389.635153	45758.691705	3955.950030	24127.675788
11.036000	-0.000371	-0.000248	0.000000	0.000000	7381.088380	45812.171795	3954.669773	24126.119567
11.537000	0.000675	0.000421	0.004479	0.000808	7383.595414	45798.351847	3964.618970	24086.499978
12.037500	-0.000089	-0.000000	0.000339	0.000240	7381.532068	45812.907115	3954.937309	24114.342309
12.537000	0.001623	0.000045	0.002177	0.000222	7399.758154	45819.181324	3959.957894	24115.216183
13.037500	0.001459	0.000447	0.003382	-0.001654	7417.874455	46045.092065	3968.341792	24207.468322
13.535000	0.000548	-0.000251	0.000641	-0.000904	7400.304661	45901.393084	3958.848570	24170.552866
14.035500	0.000420	0.000077	0.000910	-0.000326	7392.846208	45876.564500	3958.009640	24142.122461
14.535500	-0.001107	0.000050	0.001264	0.003069	7341.249061	45538.910939	3949.808690	23975.995938
15.038500	0.002483	0.000248	0.002271	0.000665	7404.155309	45795.367646	3959.009794	24093.477062
15.570500	-0.000085	0.000225	0.003143	-0.000481	7389.168144	45906.583447	3964.493051	24149.753647
16.036500	0.001090	-0.000136	0.003735	-0.000135	7397.909240	45836.613053	3965.163838	24132.768707
16.536500	0.001693	0.000730	0.003847	0.000175	7401.000876	45891.682803	3964.624082	24117.555040
17.037500	0.001177	0.000841	0.003054	-0.000435	7401.989193	45963.155277	3964.123695	24147.486317
17.534500	0.001828	0.000232	0.001532	-0.000417	7408.685965	45900.960403	3959.942643	24146.620178
18.034500	0.003854	0.000582	0.003021	-0.001132	7437.763827	46006.592729	3965.932140	24181.740875
18.535000	0.000974	0.001153	0.001221	0.002545	7368.484383	45699.073601	3951.101720	24001.560078
19.035000	0.000497	-0.000125	-0.002579	0.002147	7367.658323	45612.375505	3941.983035	24020.995652
19.538500	-0.001596	-0.000277	0.002048	0.001281	7354.819388	45682.774790	3956.742001	24063.342319
20.036000	0.000784	0.001064	-0.001057	0.002739	7364.468019	45671.181750	3944.469926	23992.099961
20.535500	0.001820	0.001009	0.001491	0.003086	7371.692226	45631.614242	3950.375040	23975.187792
21.036500	-0.001159	0.000593	0.002965	0.002827	7343.236466	45616.166218	3955.043552	23987.807246
21.537000	0.001163	0.000157	0.001346	0.002567	7370.240359	45598.857647	3951.380015	24000.501753
22.037000	-0.001051	-0.000172	0.002239	0.001898	7354.054101	45632.231403	3955.591346	24033.145611
22.537500	0.001147	-0.000012	-0.000493	0.002305	7372.817800	45607.969315	3947.143069	24013.267399
23.035000	0.002004	0.000255	-0.000306	0.002464	7380.151299	45618.492846	3947.215711	24005.484820
23.535500	0.000775	0.000693	-0.001708	0.002725	7364.521528	45636.054050	3942.767346	23992.793412
24.038500	0.003004	0.000394	0.000950	0.003193	7383.005724	45560.519883	3948.632491	23969.976079
24.536000	0.001347	0.000702	0.003099	0.003131	7366.250132	45596.926785	3954.581483	23972.963209
25.036500	0.001341	0.001119	0.000640	0.003538	7361.929611	45597.893736	3946.874534	23953.142631
25.536500	0.003049	0.001518	0.004143	0.003781	7377.292329	45613.293053	3955.648444	23941.328046
26.036500	0.001477	0.000856	-0.001017	0.003780	7360.819007	45548.190772	3941.792788	23941.352769
26.537000	0.001190	0.001575	0.003748	0.004448	7350.831780	45553.238294	3952.782214	23908.893276
27.034500	0.000863	0.000963	0.003729	0.003501	7357.314169	45586.195354	3955.285475	23954.945632
27.535000	-0.000521	0.000408	0.005394	0.003519	7342.668170	45529.788156	3959.740399	23954.072787
28.035000	0.001824	0.001158	0.005419	0.002374	7379.208685	45716.443055	3962.915185	24009.888320
28.538500	0.002594	0.000044	-0.000405	0.001118	7400.559510	45730.506352	3950.567611	24071.329991
29.035500	0.002192	0.001166	0.003763	0.001673	7390.456470	45786.458128	3960.322895	24044.131329
29.536000	0.002368	0.000856	0.005516	0.001684	7392.193572	45754.773458	3965.059849	24043.623595
30.036500	0.004459	0.001134	0.002420	0.002426	7406.431902	45708.955398	3954.653540	24007.352496
30.536000	-0.000447	0.001372	-0.000640	0.006517	7312.286864	45330.407152	3935.512689	23808.610748
31.036500	0.003921	0.001176	0.002011	0.002187	7403.277419	45736.710083	3954.192521	24019.011898
31.548000	0.002933	0.000767	0.004574	0.001669	7398.315230	45747.466032	3962.534796	24044.332718
32.040000	0.003456	0.001599	0.005504	0.006497	7353.103037	45354.525245	3951.991138	23809.561267
32.538000	-0.000456	0.001041	0.000191	0.008782	7288.791514	45077.233587	3931.709479	23699.354811
33.046000	0.004772	0.002457	0.006304	0.003468	7398.740538	45736.675403	3962.350040	23956.561113
33.535500	0.002713	0.001515	0.002949	0.002358	7388.735326	45753.299576	3956.266711	24010.688766
34.036000	0.001204	0.000852	0.003839	0.001905	7377.621438	45732.561982	3959.900796	24032.805882
34.536000	-0.001581	0.001714	-0.000239	0.008824	7276.791832	45138.684095	3930.461980	23697.341845
35.036500	0.002754	0.001034	0.006046	0.001029	7403.185618	45837.208645	3968.289583	24075.674237
35.536500	0.000517	0.001677	0.000840	0.005458	7333.284023	45464.039509	3942.271469	23859.879690
36.037000	0.000057	0.000897	0.002872	0.005136	7331.852265	45419.077986	3948.574859	23875.482661
36.537000	0.001732	0.000927	0.005661	0.006201	7338.206883	45317.801349	3953.215725	23823.908497
37.037500	0.001465	0.000931	0.003104	0.005641	7341.253310	45373.029578	3947.842172	23851.005967
37.538000	0.001988	0.000697	-0.001055	0.005101	7352.337355	45402.870545	3938.171786	23877.164621
38.035500	0.002184	0.002402	0.006442	0.006579	7338.973900	45425.154915	3954.299883	23805.598504
38.536000	0.001000	0.001903	-0.000168	0.005883	7333.888041	45444.512159	3938.451268	23839.294705
39.036000	0.001522	0.002246	0.002459	0.006508	7332.810640	45416.794095	3943.791101	23809.016986
39.536500	0.002749	0.001255	0.001326	0.005969	7351.235102	45372.650748	3942.206246	23835.126369
40.036500	0.002414	0.001598	0.005053	0.006478	7342.423104	45356.369131	3950.831016	23810.494432
40.537000	0.002334	0.001663	0.004504	0.006310	7343.339582	45379.160341	3949.805230	23818.609309
41.037000	0.001902	0.001495	0.001887	0.006154	7340.467962	45378.050201	3943.209723	23826.179493
41.535000	0.002283	0.001136	0.001465	0.006172	7344.251760	45341.111666	3942.034952	23825.308628
42.038000	0.000322	0.001531	0.001195	0.006171	7323.847255	45379.905182	3941.318033	23825.356363
42.535000	0.000663	0.001425	-0.000496	0.005862	7330.598031	45399.657021	3937.635112	23840.289652
43.035500	0.002889	0.001774	0.003431	0.006534	7346.790021	45368.075074	3946.323367	23807.768791
43.539000	0.001316	0.001523	0.003628	0.006351	7332.298818	45361.334657	3947.342319	23816.607325
44.036500	0.001138	0.001427	0.006927	0.006283	7331.164697	45358.692719	3956.409310	23819.912075
44.536500	0.001486	0.000838	0.002322	0.005983	7337.908209	45330.363280	3944.829125	23834.436384
45.036500	0.002602	0.001350	0.000734	0.006078	7348.558349	45371.240222	3940.336504	23829.851132
45.537000	0.003747	0.002151	0.002453	0.004611	7375.902271	45593.848577	3948.857888	23900.956203
46.037000	0.003864	0.001636	0.003415	0.004279	7380.623693	45575.796793	3952.338856	23917.091748
46.548500	0.002389	0.001863	0.003918	0.003651	7371.729085	45660.040325	3955.389084	23947.634958
47.035000	0.003307	0.001516	0.008767	0.003819	7379.604990	45609.353822	3968.102641	23939.488042
47.535500	0.004420	0.002660	0.005329	0.004951	7379.401921	45610.454806	3955.688570	23884.451082
48.036000	0.003140	0.001313	0.010991	0.005006	7365.393686	45472.679128	3970.934616	23881.794843
48.536000	0.003104	0.002114	0.002142	0.005227	7362.707744	45529.636489	3946.373855	23871.087975
49.036000	0.001994	0.002415	0.003475	0.007714	7325.193537	45315.399098	3943.285377	23750.804956
49.536500	0.002175	0.001417	0.001653	0.007317	7331.190438	45256.588311	3939.481719	23769.930702
50.039000	0.002127	0.002320	0.006211	0.006384	7340.413366	45436.278762	3954.202970	23815.045056
50.537000	0.002737	0.001671	0.003525	0.007281	7337.418324	45284.886220	3944.575928	23771.672792
51.043000	0.004247	0.001769	0.000602	0.004240	7385.060869	45592.759641	3944.891112	23918.978861
51.538000	0.005192	0.002431	0.009977	0.003937	7398.213547	45687.782870	3971.083377	23933.710876
52.035000	0.002657	0.002220	0.006951	0.005721	7352.866569	45491.534805	3957.995215	23847.151492
52.535500	0.002374	0.001639	0.006677	0.009813	7307.364299	45035.095076	3946.234785	23649.797219
53.036000	-0.011105	-0.004943	0.022164	0.114059	6240.538930	35533.488450	3731.128781	19202.028749
53.536000	-0.042320	-0.012395	0.003347	0.112707	6012.865080	35077.634846	3693.739062	19253.163596
54.036000	-0.042705	-0.049540	-0.018855	-0.193916	9288.604934	62789.383956	4536.582840	36125.280894
54.536500	-0.046721	-0.162768	-0.017450	-0.326595	11521.043772	65535.000000	5171.038460	48030.062322
55.036500	-0.044820	-0.154782	-0.010731	-0.318609	11399.886836	65535.000000	5164.081033	47206.076347
55.540000	-0.055085	-0.143055	-0.015355	-0.306882	10975.966567	65535.000000	5076.084192	46023.290902
56.037500	-0.038518	-0.114583	-0.012743	-0.278410	10755.277095	65535.000000	4943.501414	43280.960780
56.534500	-0.001743	-0.096251	-0.015627	-0.260078	11099.766410	65535.000000	4840.469480	41608.068145
57.038000	-0.010293	-0.114967	-0.017197	-0.278794	11295.989014	65535.000000	4923.344089	43316.742766
57.535500	-0.012002	-0.109701	-0.015071	-0.273527	11160.852895	65535.000000	4907.919295	42828.473778
58.036000	-0.008835	-0.079065	-0.016202	-0.242889	10649.240677	65534.574149	4757.989909	40102.358524
58.536500	-0.013583	-0.050556	-0.009654	-0.203879	9898.285370	64037.079681	4615.716226	36898.435839
59.036500	-0.013527	-0.035323	-0.011535	-0.177856	9487.142719	62535.629118	4501.632002	34915.677485
59.537000	-0.011805	-0.018854	-0.012556	-0.135459	8890.551917	59076.509529	4338.080775	31929.346330
60.040000	-0.014951	-0.013450	-0.007966	-0.101120	8388.086784	55452.341019	4235.090464	29715.369467
60.537500	-0.015355	-0.009643	-0.007227	-0.076496	8075.961636	52990.431707	4157.361755	28232.199628
61.037500	-0.012388	-0.005675	-0.003933	-0.050728	7806.841950	50535.569369	4088.022884	26767.513242
61.535000	-0.010676	-0.003298	-0.001420	-0.031967	7614.654781	48770.176382	4040.086942	25754.544671
62.035500	-0.010129	-0.002989	-0.000009	-0.015862	7445.727284	47129.944976	3998.248169	24919.165060
62.538500	-0.004435	0.000992	-0.004501	0.000763	7330.608308	45859.344406	3940.548681	24088.702274
63.036000	-0.009815	0.000997	-0.003686	0.016970	7111.608655	44284.334629	3900.224495	23309.151133
63.536500	-0.009898	0.000517	-0.000082	0.025686	7025.422626	43416.227050	3887.144440	22901.805048
64.036500	0.006522	0.004671	-0.005077	0.014536	7301.421401	44871.251583	3902.913269	23424.386678
64.534000	0.002748	0.003535	-0.003117	0.011017	7298.786399	45102.411776	3917.135561	23592.098331
65.037000	0.003012	0.003697	-0.003907	0.013197	7279.039620	44906.529064	3909.402843	23488.022488
65.547000	0.002370	0.003217	-0.000295	0.008939	7316.382182	45273.996511	3930.010204	23691.809839
66.035000	0.004951	0.004582	0.001988	0.007632	7356.864058	45535.822257	3939.535289	23754.763960
66.535000	0.005793	0.005459	0.004841	0.007993	7361.896111	45586.607070	3946.193541	23737.355338
67.035500	0.008429	0.005675	0.002664	0.006875	7401.379937	45718.057325	3943.359018	23791.295740
67.536000	0.008040	0.005637	0.001476	0.006587	7400.304315	45742.717323	3940.955218	23805.196359
68.036500	0.009529	0.006443	0.002670	0.006971	7411.996677	45784.444484	3943.119333	23786.677638
68.536500	0.012091	0.007687	0.002947	0.009186	7415.664069	45688.514822	3937.950365	23679.936171
69.039500	0.011779	0.008736	0.005332	0.011083	7392.323417	45605.002930	3939.251967	23588.975753
69.537000	0.012922	0.008741	0.009145	0.013734	7376.447395	45345.241970	3942.348776	23462.475885
70.034500	0.013173	0.008644	0.003878	0.013956	7376.751652	45314.044821	3927.782897	23451.919716
70.537500	0.012632	0.008754	0.004490	0.015117	7358.910013	45211.393455	3926.334720	23396.818294
71.035500	0.014108	0.009568	0.008426	0.016111	7363.953924	45193.813391	3934.109440	23349.732277
71.535500	0.014995	0.010336	0.009518	0.018078	7352.660634	45077.180944	3931.792880	23256.928725
72.036000	0.014912	0.009933	0.005997	0.018814	7344.109316	44966.525174	3920.581964	23222.290223
72.536000	0.016461	0.010223	0.007172	0.020606	7341.585236	44821.178561	3918.966624	23138.247714
73.036500	0.016878	0.010970	0.003705	0.021192	7339.814387	44836.706383	3908.410641	23110.814095
73.539500	0.018802	0.011050	0.007719	0.022721	7343.934361	44696.836622	3914.870539	23039.444464
74.037000	0.019750	0.012421	0.009118	0.024636	7333.866202	44644.464328	3913.527985	22950.458719
74.537000	0.019452	0.012483	0.012699	0.025965	7316.964559	44522.671216	3919.406901	22888.903943
75.037500	0.021379	0.013940	0.013840	0.026987	7326.345495	44564.396766	3919.717265	22841.674414
75.535000	0.020083	0.012964	0.010809	0.026991	7312.870921	44470.511052	3911.799120	22841.532492
76.035000	0.021308	0.013452	0.010930	0.028097	7314.096498	44411.252258	3909.240483	22790.558523
76.536000	0.020776	0.012694	0.012692	0.028389	7305.570427	44310.889013	3913.061113	22777.126380
77.036000	0.019990	0.013185	0.011077	0.028468	7296.632685	44350.202882	3908.660155	22773.492128
77.536000	0.021126	0.014209	0.010341	0.030855	7283.739747	44220.134241	3900.591286	22664.053270
78.039000	0.020646	0.013857	0.014838	0.030791	7279.461568	44192.730608	3912.394476	22666.972503
78.537000	0.019265	0.013784	0.012576	0.030770	7265.502593	44187.838709	3906.579665	22667.953885
79.034000	0.019122	0.013830	0.012409	0.030799	7263.736537	44189.426135	3906.071686	22666.601429
79.537000	0.019988	0.014604	0.013482	0.033376	7246.239967	44018.142738	3902.186280	22549.110017
80.035000	0.021074	0.014184	0.014958	0.033095	7260.215691	44004.961705	3906.724811	22561.895787
80.535000	0.021446	0.014493	0.011432	0.033516	7259.715579	43994.399520	3896.555243	22542.776121
81.035500	0.021791	0.015238	0.019831	0.034385	7254.356590	43982.649997	3916.039010	22503.317854
81.535500	0.023851	0.015472	0.016534	0.035252	7266.563195	43922.683715	3905.224201	22464.041308
82.035500	0.022652	0.015420	0.014531	0.035742	7249.282144	43871.474149	3898.798248	22441.878382
82.539000	0.023683	0.015888	0.025980	0.036542	7251.643078	43840.131230	3926.507374	22405.733502
83.036500	0.023386	0.014727	0.019141	0.036672	7247.289501	43718.467411	3908.298167	22399.879692
83.537000	0.023732	0.015980	0.021817	0.037690	7240.426322	43740.545969	3912.599888	22353.972980
84.037000	0.023215	0.016770	0.022720	0.039992	7211.787602	43598.409236	3908.966922	22250.645183
84.537500	0.025332	0.016363	0.020053	0.039109	7242.274543	43643.173956	3904.350929	22290.235352
85.038000	0.026186	0.017575	0.021379	0.040578	7236.008514	43618.985202	3903.979852	22224.446310
85.535500	0.023150	0.017100	0.022713	0.040443	7206.561917	43587.042314	3907.780428	22230.462167
86.035500	0.022966	0.016281	0.020187	0.042022	7188.778827	43362.785595	3897.195526	22160.002117
86.536000	0.026910	0.017134	0.026103	0.041726	7231.698763	43470.143776	3913.253839	22173.192682
87.038500	0.026230	0.017119	0.023296	0.042177	7220.206604	43426.568719	3904.802549	22153.097919
87.536500	0.024084	0.017540	0.024042	0.044479	7175.308798	43251.216562	3900.788367	22050.829530
88.037000	0.022918	0.016018	0.018112	0.044802	7160.390460	43079.918701	3884.804745	22036.523275
88.537000	0.025370	0.017474	0.021818	0.044024	7192.821031	43287.352430	3896.242021	22070.962794
89.037000	0.025987	0.018040	0.026238	0.045130	7187.899406	43237.091522	3904.772494	22021.973365
89.534500	0.024983	0.017646	0.021419	0.046434	7164.715082	43079.562119	3889.061073	21964.380182
90.035000	0.023780	0.017346	0.022760	0.047813	7138.931232	42924.305254	3888.965502	21903.656027
90.535500	0.026877	0.018170	0.023440	0.046857	7179.473585	43088.892508	3893.141218	21945.714848
91.035500	0.024196	0.018747	0.024852	0.046929	7151.894478	43135.696506	3896.573352	21942.540472
91.539000	0.025019	0.018321	0.024725	0.049308	7136.379088	42876.395181	3890.163116	21838.022747
92.036000	0.024103	0.018044	0.026312	0.051526	7105.303642	42647.043753	3888.554231	21741.073755
92.536000	0.028202	0.019065	0.027017	0.050087	7160.376378	42873.196800	3894.029450	21803.930985
93.036500	0.024353	0.018443	0.024028	0.050167	7121.233619	42808.454855	3886.201900	21800.413115
93.537500	0.026244	0.019487	0.024811	0.052959	7112.304128	42647.935117	3881.108140	21678.689271
94.037500	0.024693	0.019355	0.022184	0.055425	7072.743423	42410.648408	3868.301646	21571.876689
94.535000	0.027092	0.019577	0.028211	0.053101	7119.304960	42643.243280	3889.381662	21672.556039
95.035500	0.028916	0.020999	0.029280	0.054771	7120.827877	42620.525349	3887.850532	21600.156389
95.535500	0.028336	0.020081	0.026934	0.055981	7103.118998	42426.129116	3878.837334	21547.870123
96.038500	0.026313	0.020543	0.029291	0.059816	7045.648421	42119.921271	3875.111051	21383.092535
96.536000	0.028073	0.020903	0.034815	0.056730	7093.133056	42432.711586	3896.989443	21515.558563
97.036000	0.029914	0.020998	0.029517	0.057595	7102.763109	42362.661101	3881.285683	21478.345308
97.536500	0.028826	0.020122	0.029889	0.057383	7094.106995	42302.215153	3882.761884	21487.433510
98.037000	0.025046	0.019424	0.027149	0.061860	7013.513905	41834.989994	3864.633374	21295.886328
98.534000	0.028022	0.020937	0.030971	0.059269	7067.685776	42205.121205	3880.729987	21406.507536
99.037500	0.028857	0.021040	0.030775	0.059962	7069.073511	42151.573732	3878.481731	21376.831433
99.538000	0.029356	0.021305	0.031678	0.061224	7061.603892	42061.545107	3877.577286	21322.952697
100.035000	0.025818	0.020678	0.032505	0.065622	6984.698056	41610.420894	3868.609084	21136.401214
100.538500	0.030246	0.021862	0.036079	0.063280	7050.218950	41926.395601	3883.506895	21235.525366
101.035500	0.029300	0.021585	0.030805	0.063064	7043.100872	41920.848527	3870.755916	21244.667412
101.536000	0.028888	0.022659	0.036010	0.064954	7020.750514	41847.568368	3879.096693	21164.619370
102.036500	0.026591	0.022221	0.032210	0.070046	6949.794146	41354.156138	3856.873080	20950.646541
102.537000	0.030509	0.022410	0.031733	0.065587	7030.328144	41768.449373	3866.767055	21137.877874
103.037000	0.029924	0.021385	0.033534	0.066034	7020.322933	41636.779299	3870.153813	21119.026793
103.537500	0.029092	0.022700	0.035620	0.067711	6996.094906	41604.404078	3871.177120	21048.439714
104.035000	0.028418	0.022442	0.034302	0.073258	6936.625707	41089.902873	3854.105863	20816.972500
104.535000	0.030735	0.022712	0.035370	0.069067	6998.863854	41484.720907	3867.161801	20991.595934
105.038500	0.031616	0.022867	0.038909	0.069811	7000.181874	41432.348631	3874.165051	20960.479115
105.535500	0.031979	0.022666	0.037344	0.071658	6985.896952	41250.827918	3865.620240	20883.421059
106.036000	0.030863	0.023819	0.030234	0.071618	6975.572512	41356.402950	3848.129896	20885.076364
106.536000	0.032087	0.022608	0.036068	0.071554	6987.938608	41254.900323	3862.703056	20887.766116
107.036500	0.032790	0.022637	0.031801	0.072580	6984.833781	41166.750757	3849.616323	20845.074938
107.537000	0.031266	0.022990	0.033345	0.075468	6942.684418	40943.791935	3846.319352	20725.540238
108.037000	0.029362	0.022933	0.032887	0.079658	6885.158751	40573.149728	3834.995893	20553.507083
108.537500	0.029819	0.022885	0.038186	0.074444	6938.670031	41024.514726	3860.783721	20767.857394
109.035000	0.032263	0.022946	0.036225	0.075068	6955.979936	40975.028287	3854.384313	20742.038379
109.589500	0.032036	0.023561	0.041104	0.081228	6895.517826	40491.397548	3851.227910	20489.471741
110.035000	0.028430	0.024028	0.036602	0.083058	6844.756274	40373.391195	3835.757740	20415.103797
110.535500	0.031475	0.022966	0.036356	0.076981	6930.302561	40809.220351	3849.993786	20663.212395
111.035500	0.032544	0.023916	0.041801	0.078604	6925.057311	40750.447101	3859.431339	20596.617766
111.536000	0.031849	0.023878	0.037468	0.081255	6893.504184	40516.517693	3842.250172	20488.357464
112.037000	0.029468	0.024663	0.037225	0.086433	6823.121004	40137.413169	3829.104601	20278.800172
112.537000	0.032884	0.024964	0.037215	0.081321	6902.619500	40605.065442	3841.475173	20485.686668
113.037500	0.034687	0.024529	0.042000	0.081742	6915.658539	40530.735587	3852.169624	20468.562760
113.534500	0.031580	0.024094	0.043623	0.083535	6869.641581	40337.987443	3851.750537	20395.800667
114.038000	0.028748	0.023762	0.034003	0.087902	6802.974609	39934.530376	3817.862891	20219.821263
114.535500	0.033408	0.026014	0.042306	0.084973	6873.287036	40379.531095	3844.988452	20337.655024
115.035500	0.032526	0.024577	0.038696	0.084336	6870.993545	40310.512252	3837.740112	20363.391109
115.535500	0.032649	0.025870	0.041521	0.087978	6838.251848	40108.386184	3835.757138	20216.767989
116.036000	0.029800	0.025129	0.041180	0.092069	6774.465092	39696.147078	3825.063290	20053.544186
116.536500	0.033279	0.026595	0.042142	0.087362	6849.823753	40223.653113	3838.760941	20241.495045
117.037000	0.034270	0.026208	0.039006	0.087853	6854.462267	40148.112721	3829.975239	20221.764109
117.537000	0.032907	0.025430	0.035383	0.090022	6821.743200	39895.918026	3816.100356	20135.026171
118.037500	0.030567	0.025252	0.038446	0.094761	6756.948116	39478.821773	3812.118845	19946.966325
118.538000	0.034446	0.025044	0.043309	0.088703	6848.201574	39975.574201	3838.338842	20187.737839
119.035500	0.034888	0.027220	0.044205	0.091072	6830.343038	39959.137309	3834.764110	20093.186994
119.535500	0.035228	0.026137	0.049110	0.090859	6835.454737	39884.825875	3847.235521	20101.662299
120.036000	0.029856	0.025181	0.040711	0.097120	6729.174093	39274.445891	3811.894584	19854.107636
120.536000	0.034490	0.025819	0.044742	0.091805	6819.892211	39777.224400	3834.287770	20064.037002
121.036500	0.033674	0.027080	0.043652	0.093272	6798.899054	39759.704944	3828.114207	20005.844073
121.536500	0.032897	0.026070	0.039882	0.096036	6766.539878	39440.349043	3812.500234	19896.744464
122.034000	0.031648	0.026329	0.037307	0.100450	6715.336614	39091.845397	3796.055885	19723.907220
122.537000	0.036672	0.027565	0.049594	0.095778	6803.409650	39588.281233	3836.418749	19906.863945
123.037500	0.034052	0.026288	0.041983	0.095178	6784.897588	39531.072686	3819.542404	19930.525757
123.535000	0.031746	0.026153	0.042993	0.098124	6737.171840	39271.750468	3814.929337	19814.750834
124.035000	0.037197	0.028067	0.048024	0.098414	6784.060115	39408.137758	3826.260680	19803.388810
124.536000	0.034816	0.027373	0.045886	0.098104	6765.181689	39375.860902	3821.877744	19815.540725
125.035500	0.035867	0.027247	0.051157	0.097978	6775.905991	39375.976205	3834.874708	19820.496357
125.536000	0.035130	0.026816	0.040493	0.098688	6762.728658	39280.037277	3807.671822	19792.685554
126.036500	0.036588	0.027791	0.048740	0.099951	6764.499852	39255.932404	3824.289428	19743.364362
126.536500	0.036034	0.028711	0.044686	0.101175	6748.363150	39230.418707	3811.706747	19695.701788
127.037000	0.036381	0.027362	0.048213	0.100373	6758.782306	39184.621723	3822.015764	19726.910741
127.540000	0.035837	0.028106	0.045762	0.101568	6743.014389	39146.909654	3813.325702	19680.420200
128.035000	0.035076	0.028317	0.045892	0.102402	6728.619237	39094.926846	3811.656036	19648.050617
128.535000	0.035871	0.027908	0.050465	0.102699	6733.112194	39036.032069	3821.839271	19636.551933
129.035500	0.036459	0.027849	0.051921	0.102833	6737.208106	39019.962618	3825.008826	19631.361040
129.535500	0.034262	0.028860	0.045600	0.103795	6708.773393	39023.979413	3807.668672	19594.103807
130.035500	0.032438	0.028298	0.047668	0.110334	6634.501521	38437.378684	3797.171905	19343.276762
130.536000	0.037696	0.028795	0.051386	0.105284	6726.259143	38894.809406	3817.863941	19536.663431
131.036500	0.035770	0.028669	0.046203	0.105604	6706.075544	38857.839450	3804.827093	19524.345809
131.537000	0.034869	0.028771	0.047873	0.108849	6669.102458	38598.166875	3801.125753	19399.895002
132.037000	0.033592	0.028171	0.046318	0.111938	6630.540643	38295.757580	3790.292611	19282.298817
132.538000	0.037027	0.028847	0.050135	0.107481	6700.524356	38717.242096	3809.676745	19452.246876
133.035000	0.037651	0.029966	0.054853	0.108801	6694.300027	38700.661795	3817.745148	19401.745952
133.535500	0.035128	0.029332	0.045069	0.111133	6651.173514	38456.613704	3789.263521	19312.886273
134.036000	0.033968	0.028925	0.046698	0.114897	6607.904013	38116.222110	3784.325734	19170.417590
134.536000	0.036512	0.029481	0.049195	0.109649	6676.598955	38590.760224	3802.352975	19369.384915
135.036500	0.039608	0.030318	0.045501	0.110908	6692.969260	38556.058357	3790.787662	19321.435220
135.536500	0.034489	0.030343	0.050383	0.113793	6622.133103	38321.689034	3795.433331	19212.082721
136.037000	0.036061	0.029210	0.050422	0.115126	6624.233555	38120.852442	3792.421937	19161.825300
136.540000	0.038987	0.030795	0.049883	0.112290	6675.120111	38481.789751	3797.778450	19268.975083
137.034500	0.040893	0.030065	0.052607	0.112606	6689.275830	38396.034893	3803.420831	19256.992226
137.537500	0.036957	0.030093	0.049274	0.115854	6625.702419	38133.387273	3788.067112	19134.424287
138.035000	0.035971	0.028866	0.046553	0.117921	6599.006489	37866.819355	3777.041778	19056.894447
138.535500	0.040269	0.030925	0.054304	0.114911	6663.228633	38277.895330	3801.994360	19169.912628
139.036000	0.039720	0.030303	0.052325	0.114791	6659.428925	38236.996654	3797.638553	19174.433418
139.535500	0.039690	0.031815	0.044509	0.119249	6619.898705	37997.751472	3769.349478	19007.269919
140.036000	0.037960	0.030777	0.053719	0.122350	6577.797763	37664.361095	3783.330295	18892.008749
140.536500	0.040352	0.031025	0.053235	0.116569	6649.294757	38151.090293	3795.611322	19107.566768
141.040000	0.042930	0.031166	0.055688	0.117493	6663.936606	38087.498094	3799.185072	19072.931092
141.537000	0.040615	0.030980	0.052751	0.117982	6639.153574	38032.690004	3791.196902	19054.613102
142.035000	0.038807	0.030839	0.050798	0.123295	6576.954904	37593.670963	3774.462553	18857.073617
142.535000	0.041485	0.031167	0.052693	0.118889	6638.823624	37974.392484	3788.956822	19020.703269
143.035000	0.042651	0.032627	0.055929	0.120749	6632.717728	37942.110941	3792.150941	18951.424065
143.535500	0.041798	0.031693	0.058191	0.120444	6627.902627	37891.252483	3798.134723	18962.755829
144.036000	0.038494	0.030452	0.053472	0.124393	6564.754179	37475.088427	3778.067185	18816.552848
144.536500	0.043347	0.032965	0.056001	0.122377	6624.541222	37838.048262	3788.540973	18891.032691
145.036500	0.044544	0.032201	0.052880	0.121856	6639.642372	37818.450745	3782.536982	18910.344725
145.539500	0.043652	0.032770	0.059341	0.123047	6621.336540	37768.371260	3794.743765	18866.219391
146.037000	0.043753	0.032100	0.051325	0.123055	6622.150297	37713.918451	3776.213745	18865.938800
146.537000	0.045520	0.033330	0.051683	0.124124	6628.277143	37726.850423	3774.588248	18826.455962
147.034500	0.046058	0.033198	0.055166	0.123831	6635.579317	37739.800632	3783.252989	18837.273255
147.535000	0.047483	0.034531	0.060272	0.125696	6631.709351	37697.082496	3790.747313	18768.565041
148.035500	0.045831	0.034517	0.055006	0.127327	6602.959412	37565.326527	3774.862188	18708.727723
148.536000	0.049608	0.034351	0.053781	0.126225	6645.761312	37640.230642	3774.582396	18749.143299
149.036000	0.050169	0.034253	0.053464	0.126025	6652.480911	37648.421777	3774.314171	18756.482375
149.536000	0.049661	0.034854	0.058489	0.127047	6638.986968	37614.715462	3783.499197	18719.011176
150.039000	0.050072	0.034756	0.053708	0.127008	6642.948785	37609.972410	3772.628271	18720.413688
150.536500	0.047268	0.034604	0.057885	0.126943	6618.881237	37603.007358	3782.345840	18722.800525
151.036500	0.050415	0.036122	0.055778	0.128874	6629.552326	37570.030815	3773.094920	18652.215096
151.535000	0.050360	0.036078	0.054518	0.128939	6628.492218	37561.232552	3770.076313	18649.819897
152.035000	0.050354	0.035757	0.061389	0.128655	6630.944013	37558.360009	3786.482033	18660.210918
152.535500	0.050687	0.035576	0.054976	0.128202	6637.848894	37580.049118	3772.796260	18676.730176
153.035500	0.051399	0.037064	0.054766	0.129378	6633.767114	37604.988555	3769.641149	18633.833577
153.536000	0.051934	0.036565	0.060811	0.129823	6634.564912	37529.564508	3782.453357	18617.623970
154.036000	0.051422	0.035992	0.056370	0.132528	6606.361530	37268.746344	3766.133585	18519.435207
154.539000	0.053765	0.037083	0.061735	0.129967	6649.430087	37559.452425	3784.250371	18612.373969
155.037000	0.053557	0.036075	0.056607	0.129403	6652.576911	37523.954007	3773.777566	18632.909981
155.537000	0.053180	0.037735	0.055896	0.134268	6606.528135	37269.032705	3761.134258	18456.640331
156.037500	0.053702	0.037544	0.058186	0.131938	6631.506331	37438.921578	3771.598802	18540.799252
156.535500	0.054276	0.038250	0.056029	0.130836	6646.264339	37583.227376	3769.198841	18580.771953
157.038000	0.056716	0.037194	0.055791	0.130496	6670.878889	37526.027911	3769.429953	18593.128503
157.535000	0.054386	0.038550	0.060143	0.134655	6613.676896	37302.944558	3769.868801	18442.673653
158.036000	0.054223	0.037392	0.060751	0.132938	6627.306712	37347.346964	3775.170297	18504.628619
158.536000	0.056377	0.038361	0.058581	0.131324	6660.532809	37553.136010	3773.900179	18563.085535
159.039000	0.057195	0.038003	0.056824	0.130516	6674.955482	37589.027081	3771.735169	18592.398926
159.536500	0.053122	0.038617	0.060287	0.134690	6602.337656	37305.521841	3770.118314	18441.435806
160.037000	0.056580	0.039705	0.057435	0.134278	6636.235758	37424.682133	3764.582848	18456.247779
160.537500	0.058045	0.039112	0.060162	0.131540	6673.415025	37595.866596	3777.020141	18555.244658
161.037500	0.058208	0.038953	0.060300	0.131777	6672.749493	37564.248266	3776.793315	18546.644638
161.537500	0.055209	0.039363	0.058848	0.135272	6615.486085	37318.484080	3765.530880	18420.478335
162.035500	0.057517	0.039638	0.057206	0.132328	6661.729136	37574.918118	3768.484177	18526.690080
162.535500	0.059642	0.040199	0.060397	0.132381	6680.125829	37615.551747	3775.633124	18524.759324
163.035500	0.058397	0.038862	0.061741	0.131806	6674.168899	37554.610111	3780.029883	18545.590882
163.538500	0.057465	0.040157	0.058312	0.136611	6623.517973	37275.304790	3761.297221	18372.434155
164.036500	0.057059	0.038769	0.056591	0.132770	6653.771509	37470.264443	3766.086918	18510.711824
164.536500	0.059609	0.039244	0.057264	0.132054	6682.752876	37565.351430	3769.238587	18536.623850
165.036500	0.059486	0.039894	0.062208	0.132248	6679.929677	37601.811121	3780.087875	18529.582244
165.537500	0.060449	0.041206	0.062476	0.133250	6679.575320	37626.616909	3778.404455	18493.341947
166.034000	0.061104	0.040581	0.058842	0.133940	6679.265282	37521.440958	3768.537367	18468.437806
166.535000	0.059821	0.040238	0.057138	0.132720	6678.709684	37591.556904	3767.440592	18512.520271
167.035000	0.061771	0.040846	0.067836	0.133049	6693.162200	37613.948373	3791.238301	18500.627080
167.535000	0.060601	0.040508	0.059414	0.133226	6681.143297	37572.626445	3771.460471	18494.206673
168.039000	0.060267	0.040614	0.061341	0.134295	6668.676211	37495.797347	3773.419261	18455.669328
168.536000	0.061710	0.041033	0.058904	0.133145	6691.759395	37621.202643	3770.486086	18497.140409
169.036500	0.062545	0.041371	0.061628	0.133782	6693.519522	37597.216752	3775.243181	18474.133242
169.537000	0.063577	0.042208	0.062621	0.134344	6697.721958	37619.208188	3776.228772	18453.876402
170.037000	0.063267	0.041759	0.063375	0.134522	6693.360871	37569.098655	3777.547794	18447.472568
170.537500	0.061816	0.041549	0.061126	0.134181	6683.458479	37579.521295	3773.186651	18459.756141
171.034500	0.063192	0.041600	0.061238	0.134206	6695.516611	37581.648940	3773.386056	18458.854985
171.535000	0.059644	0.041073	0.057187	0.138250	6628.260789	37218.028787	3755.088266	18313.797686
172.035500	0.063680	0.041594	0.060983	0.134911	6693.585828	37524.897483	3771.199701	18433.489255
172.538500	0.062638	0.041982	0.066466	0.134923	6684.171690	37554.856847	3783.729707	18433.030616
173.035500	0.062322	0.041501	0.060289	0.134481	6685.291236	37551.756428	3770.596754	18448.940834
173.536000	0.063880	0.042458	0.065475	0.135353	6691.416056	37558.535517	3780.460760	18417.576906
174.036500	0.062702	0.042007	0.064342	0.135854	6676.456510	37482.520091	3776.712393	18399.568507
174.537000	0.062636	0.042237	0.060414	0.135148	6682.151674	37557.267778	3769.364282	18424.956225
175.037500	0.063873	0.042166	0.062855	0.135415	6690.801612	37530.316180	3774.317097	18415.357043
175.537500	0.062410	0.042015	0.061696	0.139408	6642.401043	37200.889039	3762.620530	18272.500987
176.035000	0.065275	0.043054	0.067747	0.136523	6693.428956	37512.696840	3782.997536	18375.590605
176.535500	0.064698	0.042386	0.063604	0.135722	6695.426095	37523.292515	3775.325066	18404.303076
177.041000	0.065408	0.042094	0.065007	0.135584	6703.015974	37510.986751	3778.855025	18409.278832
177.536000	0.061259	0.042448	0.057692	0.140317	6624.286077	37163.251183	3751.594456	18240.160129
178.036500	0.064949	0.042956	0.066247	0.136171	6693.663449	37532.983753	3780.355722	18388.220468
178.536500	0.065630	0.043345	0.066163	0.136693	6695.075740	37522.305551	3778.963369	18369.471395
179.036500	0.064823	0.042569	0.058641	0.136348	6690.947120	37487.950507	3762.630824	18381.837569
179.534500	0.060207	0.042530	0.060921	0.139683	6620.621501	37219.905412	3760.254463	18262.708809
180.037500	0.066279	0.043296	0.064117	0.136791	6700.002059	37510.600578	3774.056240	18365.975934
180.535000	0.064844	0.043390	0.065010	0.137208	6683.473400	37484.880337	3775.145355	18351.051160
181.035000	0.064233	0.042740	0.065753	0.136579	6683.627703	37483.184366	3778.283873	18373.565609
181.538000	0.065698	0.043620	0.065109	0.137358	6689.745260	37491.209497	3775.025599	18345.661161
182.035000	0.066095	0.043553	0.062428	0.137862	6688.795876	37445.750106	3767.776054	18327.662631
182.535500	0.063781	0.043797	0.066995	0.137318	6673.035667	37508.520870	3779.437453	18347.097364
183.036500	0.065420	0.042806	0.060287	0.136753	6692.671623	37474.568368	3765.437253	18367.340152
183.536500	0.064247	0.043129	0.062902	0.141468	6640.442789	37126.195369	3760.695634	18199.324445
184.041500	0.065507	0.042612	0.066889	0.137212	6689.346089	37422.534840	3779.437229	18350.891641
184.534500	0.065185	0.043982	0.063071	0.137974	6679.685748	37470.976600	3768.981259	18323.661184
185.035000	0.064812	0.045092	0.059761	0.138147	6674.823660	37545.760359	3761.100382	18317.464093
185.535000	0.062221	0.043495	0.057556	0.141677	6620.794184	37138.485368	3748.262026	18191.900124
186.090000	0.065628	0.044123	0.067631	0.138251	6681.156638	37460.124007	3778.756838	18313.743390
186.535500	0.066944	0.044312	0.066447	0.138347	6692.038553	37467.552210	3775.825385	18310.328849
187.054500	0.066956	0.044539	0.061014	0.138705	6688.948746	37457.075700	3762.668091	18297.540009
187.536500	0.062305	0.044144	0.068491	0.142752	6612.123000	37104.930831	3770.440177	18153.871591
188.036500	0.062669	0.043364	0.063263	0.138015	6656.993286	37418.518557	3769.324536	18322.194514
188.536500	0.066374	0.043300	0.065532	0.137846	6691.425542	37426.849220	3774.879453	18328.233712
189.054500	0.066487	0.044383	0.064045	0.138543	6686.218435	37457.581203	3769.902609	18303.348611
189.537500	0.068806	0.044442	0.066272	0.138803	6704.616611	37441.590763	3774.383215	18294.053636
