sample name	sample
index	267
start time	 02-25-2021  11:20:52 AM
880	0.052947
Peak Time (s)	91.035
Peak Height 	0.05295
calc peak height	90,93
Baseline Time (s)	8.54
Baseline Value 	-0.002053
subtract baseline	10,4
Abs	0.037389
Peak Time (s)	90.038
Peak Height 	0.03739
calc peak height	90,93
Baseline Time (s)	11.536
Baseline Value 	0.001459
subtract baseline	10,3
PK_550	0.018025
Peak Time (s)	90.038
Peak Height 	0.01802
calc peak height	90,93
Baseline Time (s)	11.036
Baseline Value 	-2.1409E-4
subtract baseline	10,2
PK_880	0.035362
Peak Time (s)	92.035
Peak Height 	0.03536
calc peak height	90,93
Baseline Time (s)	10.536
Baseline Value 	7.2188E-5
subtract baseline	10,1


Time (s)	A880-A510	A880-A775	A880-A975	A880	I510	I775	I975	I880	
0.034500	0.001459	0.000374	0.003931	0.001124	6882.359564	45986.568281	3978.657574	24241.988944
0.535000	-0.000196	0.000405	0.003664	0.003592	6844.589915	45745.463723	3971.602992	24120.859790
1.035500	-0.000694	0.000963	0.002853	0.003647	6839.550895	45795.102855	3969.379077	24118.163271
1.536500	-0.003338	0.000057	-0.001687	0.006373	6790.973543	45437.939980	3950.897134	23985.247837
2.036000	0.001686	0.000374	-0.003345	0.000352	6891.562580	46063.213265	3961.960407	24279.991487
2.536500	-0.000038	0.001118	0.004339	0.001081	6868.998283	46064.630676	3979.822051	24244.072116
3.037000	-0.000426	0.000883	-0.000780	0.005019	6829.516830	45651.963796	3956.614498	24051.154491
3.537500	-0.001255	0.000106	-0.000739	0.002607	6843.913563	45813.168646	3962.852906	24169.108484
4.037000	0.000187	0.000426	0.003041	0.000319	6878.067649	46071.706893	3978.437961	24281.639238
4.535000	0.001103	0.000087	0.002690	-0.000511	6894.144320	46120.412217	3979.674339	24322.565077
5.035500	-0.000856	-0.000229	0.003348	-0.000541	6876.378572	46091.988954	3981.458512	24324.050940
5.535500	0.001817	0.000665	0.004820	0.000294	6893.310256	46097.933717	3983.112704	24282.871524
6.036000	-0.000682	0.000814	-0.002487	0.000286	6870.377767	46113.483383	3964.314682	24283.227017
6.536000	0.002299	0.000497	0.000297	-0.000042	6900.857051	46114.621447	3972.290614	24299.411358
7.036500	0.000649	-0.000197	-0.001998	-0.000454	6889.432927	46086.559673	3967.458984	24319.769298
7.536500	0.000705	-0.000105	0.001666	-0.000355	6889.036277	46085.826806	3976.625454	24314.866152
8.037000	0.000043	0.000696	-0.000753	0.000141	6878.369387	46116.160313	3969.123556	24290.400105
8.539500	0.002278	0.000552	0.004338	0.000000	6900.276008	46115.946041	3982.622989	24297.351917
9.035000	0.000197	0.000927	0.002414	0.000229	6878.981706	46130.473752	3977.048087	24286.063077
9.535000	0.000059	-0.000660	-0.001406	-0.000609	6885.416416	46055.942644	3969.371485	24327.400057
10.035000	-0.000870	-0.000080	-0.001219	0.000036	6870.950658	46049.449238	3968.197988	24295.559051
10.535500	0.000000	-0.000244	0.001826	-0.000259	6881.657519	46062.477377	3976.790603	24310.137900
11.036000	-0.002123	0.000000	-0.002791	0.004244	6821.153609	45641.286986	3953.485534	24088.981604
11.536000	-0.000029	0.000066	0.000000	-0.000597	6884.500235	46126.867976	3972.953653	24326.801243
12.036500	-0.000740	0.001043	0.005263	0.000036	6872.142143	46161.163767	3984.932045	24295.556255
12.536500	-0.000480	0.000501	0.000388	-0.000117	6875.940863	46122.507398	3972.719323	24303.125355
13.039500	-0.001719	0.000673	-0.000924	0.004600	6821.588502	45672.472506	3957.313687	24071.593497
13.537000	0.000454	0.001157	0.003487	0.000244	6881.207655	46151.867619	3979.785386	24285.328237
14.037500	0.000746	0.002019	0.003443	0.000511	6881.439183	46211.084133	3978.979971	24272.159570
14.535000	-0.001942	-0.000077	0.003596	0.002085	6842.411744	45846.689566	3975.309289	24194.721687
15.035000	-0.003375	-0.000455	-0.003554	0.002993	6821.149508	45719.730957	3954.722963	24150.220978
15.535500	0.001277	0.000036	0.001652	-0.000775	6898.190724	46141.627152	3977.674014	24335.615017
16.036000	0.001325	0.000496	0.002580	-0.000705	6897.988149	46180.535366	3979.893350	24332.173943
16.536500	0.002057	0.000353	0.004921	-0.000728	6904.963585	46168.607663	3986.032814	24333.314990
17.036500	-0.002494	-0.000218	-0.000088	0.002555	6833.115790	45786.356668	3964.648578	24171.670451
17.537000	0.001266	0.000869	0.000713	-0.002724	6916.135676	46419.572502	3980.287804	24432.175849
18.037500	0.000330	0.000652	-0.000212	-0.002754	6907.726407	46400.747165	3977.969729	24433.631963
18.537000	-0.000252	0.000414	0.001612	0.000718	6870.366799	46030.767366	3973.717532	24261.945634
19.035000	-0.001850	-0.000202	0.002027	0.002037	6843.693597	45839.134599	3971.393759	24197.102756
19.535000	-0.000047	0.000656	-0.000207	0.001235	6867.499774	46003.439447	3967.719170	24236.496013
20.035500	-0.001270	0.000121	0.001479	0.001135	6857.221433	45960.372841	3972.304436	24241.419307
20.536000	-0.000438	0.001010	0.002693	0.001121	6864.965022	46049.930443	3975.465263	24242.097865
21.036500	-0.002834	0.000265	-0.004761	0.002679	6828.902831	45821.831849	3952.464775	24165.601114
21.536500	0.001235	0.000627	0.003429	0.001006	6881.375595	46023.372397	3977.662291	24247.768303
22.037000	-0.000272	0.000521	0.003616	0.001073	6866.927921	46006.167189	3977.973189	24244.471916
22.539500	0.001012	0.000343	-0.000664	0.000958	6879.772834	45999.917260	3967.257635	24250.128400
23.037500	-0.000172	0.000167	0.004428	0.002761	6852.390719	45803.966377	3975.712453	24161.565619
23.535000	0.000156	0.000685	0.001953	0.001279	6868.958263	46002.016451	3973.152300	24234.344584
24.035000	-0.002227	0.000127	-0.001386	0.001124	6848.578610	45962.044588	3964.989376	24241.973272
24.535500	0.000815	0.000456	-0.000830	0.001279	6875.016727	45979.349204	3966.013733	24234.363594
25.035500	0.001615	0.000790	0.000956	0.001733	6878.192900	45967.379276	3969.423178	24212.022863
25.536000	-0.001277	0.000474	-0.002118	0.000955	6858.797909	46013.229159	3963.549238	24250.272216
26.036000	-0.000706	0.000527	-0.000177	0.001659	6857.581324	45948.599386	3966.710667	24215.640749
26.536500	0.001294	0.001132	0.003606	0.001349	6878.764852	46039.466293	3977.232911	24230.890877
27.036500	0.000067	0.000845	0.000512	0.001380	6867.219530	46007.893464	3969.191240	24229.363771
27.537000	-0.002255	0.000642	0.003185	0.001779	6842.354529	45948.227277	3975.038740	24209.779660
28.037000	0.003056	-0.000029	0.001228	-0.002361	6929.391223	46293.302467	3980.680811	24414.135893
28.535000	0.001316	0.000918	0.001244	-0.000188	6893.128087	46171.051479	3975.106648	24306.630738
29.046500	-0.003338	0.001592	0.000948	0.005169	6801.811583	45707.037592	3960.625375	24043.872391
29.535500	-0.000744	0.000153	0.001951	0.000646	6866.515212	46012.048011	3974.778331	24265.527095
30.035500	0.000592	0.000451	0.006035	-0.000311	6887.592216	46136.796649	3987.848315	24312.722155
30.536000	0.003387	0.000313	0.006440	-0.000197	6912.367244	46111.649221	3988.604895	24307.059568
31.036500	-0.000281	0.000366	0.004635	-0.000465	6880.965653	46143.690052	3984.602280	24320.304039
31.536000	-0.001573	0.000834	0.000681	0.003018	6837.287247	45844.547839	3965.431168	24148.991915
32.040000	-0.000094	-0.000088	-0.000687	0.002152	6858.669694	45838.995804	3964.146917	24191.441217
32.537000	-0.002016	-0.000182	0.006292	-0.000670	6866.920510	46109.551348	3989.454877	24330.431646
33.048000	-0.003331	-0.000342	0.003014	0.004825	6804.980493	45550.667493	3966.777456	24060.652780
33.535000	-0.000367	0.000429	-0.000984	0.000803	6868.531522	46023.902674	3966.836070	24257.775769
34.035500	0.000416	0.000053	0.001121	-0.000574	6888.384085	46123.292981	3975.782995	24325.672798
34.536000	0.000353	0.000119	0.005284	-0.000215	6884.502458	46094.176952	3985.641596	24307.964696
35.036000	0.000086	0.000543	0.003168	0.000940	6871.427994	46021.536586	3977.159959	24251.029044
35.536500	-0.000319	0.000294	0.001049	0.001808	6859.761670	45910.875891	3969.471566	24208.350980
36.036500	-0.001758	0.000756	0.001094	0.002083	6844.110357	45929.273784	3968.879068	24194.820953
36.537000	-0.000692	0.000816	0.004392	0.002091	6853.761409	45934.468322	3977.348088	24194.428371
37.037000	-0.000527	0.000358	0.001004	0.001931	6856.733920	45904.942041	3969.041273	24202.304473
37.537000	-0.000352	0.000950	0.000767	0.002120	6856.608571	45944.919709	3967.947717	24193.032480
38.035000	0.001761	-0.000302	0.000370	0.001452	6882.113955	45887.046924	3968.641501	24225.843136
38.535000	-0.000670	0.000342	0.003538	0.001702	6857.525097	45926.116309	3976.148667	24213.575326
39.035500	-0.001083	0.000543	0.003535	0.004096	6831.939573	45709.440246	3969.981335	24096.256541
39.535000	-0.001685	0.000567	0.002017	0.002174	6843.946667	45901.612538	3971.016588	24190.352717
40.036000	-0.000603	0.000286	0.003538	0.001707	6858.090182	45920.006273	3976.133708	24213.288503
40.536000	0.001095	0.000706	-0.001595	0.002269	6868.489278	45905.982161	3961.533281	24185.690974
41.037000	0.000351	-0.000048	0.003855	0.001234	6871.163807	45933.746734	3978.175519	24236.548231
41.539500	0.000009	0.000403	-0.000456	0.001656	6864.158182	45936.692703	3966.005849	24215.821203
42.037000	-0.001413	0.000472	0.002657	0.001539	6852.220902	45955.033026	3974.296276	24221.545967
42.535000	0.000031	-0.000086	0.001071	0.001485	6865.928487	45905.186068	3970.355046	24224.213127
43.035000	-0.003115	0.000442	0.002494	0.003005	6823.393343	45807.018914	3970.107408	24149.597197
43.535500	-0.000292	0.000351	-0.000299	0.001846	6859.667349	45912.672627	3965.920348	24206.471213
44.035000	0.001189	0.001302	0.004730	0.002741	6865.030982	45918.215745	3976.543344	24162.563002
44.536000	-0.001349	0.000289	0.005268	0.001772	6850.679211	45913.887943	3980.439560	24210.091895
45.036500	-0.003465	0.000178	-0.000856	0.002922	6820.975195	45789.127586	3961.752137	24153.676220
45.536500	0.002029	0.001213	0.004104	-0.000206	6899.881185	46202.300721	3982.550640	24307.528764
46.039500	-0.000410	0.000837	0.001996	0.000191	6873.753106	46125.263522	3976.067900	24287.949434
46.537000	0.000648	0.000391	0.002139	-0.000474	6889.600175	46147.002673	3978.155087	24320.744868
47.037500	-0.000409	0.001201	0.002910	0.004403	6835.276323	45744.048216	3967.590015	24081.250793
47.537500	0.001315	0.000791	0.004561	0.000128	6890.201921	46126.980331	3982.870627	24291.043439
48.035000	0.000357	0.000718	0.004824	-0.000293	6885.255739	46161.604890	3984.645487	24311.801988
48.543500	0.002303	0.000389	0.001513	-0.000152	6901.904807	46114.795069	3975.706445	24304.834023
49.035500	-0.002457	0.000881	0.000416	0.005259	6808.951302	45628.147646	3959.041967	24039.469853
49.535500	0.001075	0.001421	-0.000473	0.002271	6868.291249	45976.657846	3964.390268	24185.608013
50.069500	0.001879	0.000853	0.003076	0.000026	6896.357572	46143.322483	3979.287408	24296.090875
50.537000	0.000027	0.000476	0.000628	-0.000460	6883.755946	46154.125362	3974.217609	24320.053769
51.036500	-0.001424	0.000309	0.000180	0.003903	6830.592007	45705.316059	3961.893617	24105.665523
51.540000	0.001806	0.000703	0.007134	-0.001881	6913.323100	46318.568108	3994.828430	24390.339980
52.037500	0.000813	0.000864	-0.000011	0.000488	6882.263069	46098.377312	3970.139787	24273.309041
52.534500	-0.001970	-0.003802	0.005537	-0.003432	6892.739489	46024.281119	3994.709277	24467.342356
53.035500	-0.022890	-0.014489	-0.007669	0.171291	5439.546794	31040.645206	3594.508239	17314.391687
53.535500	-0.021162	-0.025831	-0.021058	-0.120976	7911.098280	56631.419784	4260.125172	31179.565235
54.036000	-0.038432	-0.176166	-0.011761	-0.337905	10844.017886	65535.000000	5220.334979	49519.684791
54.539000	-0.029747	-0.166469	-0.002461	-0.328208	10825.495349	65535.000000	5218.172964	48489.671935
55.036500	-0.044455	-0.139893	-0.008283	-0.301632	10105.534656	65535.000000	5048.326386	45781.897233
55.539000	-0.033703	-0.120083	-0.003757	-0.281822	9956.515849	65535.000000	4972.494617	43868.588219
56.037000	-0.017794	-0.116318	-0.012241	-0.278056	10157.009122	65535.000000	4913.615400	43514.672908
56.537000	-0.020348	-0.106050	-0.008070	-0.267789	9945.489414	65535.000000	4884.923851	42565.060335
57.037500	-0.010042	-0.091955	-0.005626	-0.253694	9884.152527	65535.000000	4831.196766	41297.509846
57.535000	-0.008755	-0.064749	-0.004129	-0.220784	9392.703651	64717.851368	4693.331427	38493.332174
58.035500	-0.006294	-0.043828	-0.004693	-0.189707	8977.783033	63289.041354	4564.189113	36033.427830
58.536000	-0.003123	-0.024476	0.000440	-0.148208	8463.191386	60286.955658	4426.927375	33011.390102
59.035500	-0.004364	-0.016263	-0.002059	-0.108521	7961.611406	56275.468893	4281.454255	30379.326201
59.536000	-0.001917	-0.012735	0.001709	-0.085783	7729.903800	53966.131423	4220.500400	28976.156961
60.036000	-0.002478	-0.009075	-0.000645	-0.061895	7464.752898	51642.403828	4140.458505	27579.121128
60.537000	-0.001416	-0.007409	0.003314	-0.039178	7242.039656	49336.287755	4086.133604	26319.986989
61.034000	-0.000861	-0.005978	-0.000409	-0.021397	7072.647818	47620.754929	4026.680290	25379.394757
61.537000	0.000654	-0.003693	0.006312	-0.005172	6933.204270	46208.194361	4001.322669	24554.015113
62.035000	0.001256	-0.000080	0.005011	0.002311	6869.586886	45824.080126	3978.378005	24183.635893
62.535500	0.006184	0.001559	0.000653	0.012070	6825.518599	45029.047370	3942.463351	23710.114264
63.035500	0.002027	-0.000838	0.000714	0.021337	6705.602161	43912.696577	3919.661664	23270.147747
63.536000	0.008767	0.002649	0.006606	0.005280	6911.459759	45800.285381	3974.831745	24038.428072
64.063500	0.011236	0.004523	0.002807	-0.005962	7040.587068	47115.687678	3994.182742	24593.521116
64.536500	0.011514	0.003657	0.007052	-0.006564	7049.014767	47088.765945	4006.963466	24623.650054
65.039500	0.010884	0.005281	0.005446	-0.003271	7011.574919	46919.263245	3994.044429	24459.312577
65.540000	0.012349	0.005885	0.008205	-0.004657	7038.754015	47121.425311	4004.967943	24528.350836
66.034500	0.015886	0.006874	0.009783	-0.002572	7052.654440	47009.885996	4003.625183	24424.594958
66.535000	0.014952	0.006718	0.011366	-0.001181	7030.405518	46853.186305	4004.132851	24355.699461
67.035000	0.012369	0.008130	0.007345	0.005698	6941.092281	46303.402985	3975.661655	24018.106320
67.536000	0.016078	0.007608	0.006923	0.002532	7005.794032	46568.353595	3982.761388	24172.811017
68.035500	0.015816	0.008635	0.012524	0.004394	6985.690721	46484.533241	3992.509012	24081.662958
68.536000	0.015779	0.009174	0.011462	0.006041	6969.822900	46373.502671	3985.438216	24001.395028
69.036000	0.014028	0.009307	0.012753	0.012410	6894.174805	45753.709534	3972.300752	23693.785083
69.537000	0.017452	0.010868	0.013460	0.010506	6943.649514	46097.008405	3979.034882	23785.263942
70.037000	0.018771	0.010693	0.015078	0.012133	6940.779278	45918.148288	3979.013400	23707.081651
70.537000	0.019457	0.010736	0.017494	0.013787	6931.748500	45758.788990	3980.986459	23627.854333
71.037500	0.016305	0.010740	0.010132	0.020283	6842.867537	45123.120751	3945.638379	23319.748508
71.534000	0.020746	0.012310	0.024964	0.018160	6903.119266	45483.620912	3989.042314	23419.931922
72.035500	0.019629	0.012034	0.018561	0.019060	6884.507794	45368.421695	3970.138514	23377.386753
72.535500	0.023629	0.013114	0.018192	0.021610	6897.885528	45224.911973	3962.670405	23257.352109
73.035500	0.018210	0.012953	0.015223	0.028137	6789.027048	44578.236490	3938.721972	22953.276280
73.536000	0.021727	0.012720	0.017748	0.023589	6862.196420	44994.365425	3956.511267	23164.692404
74.036500	0.020992	0.013507	0.022461	0.025647	6836.693111	44871.294961	3963.262232	23068.725068
74.539500	0.021542	0.013460	0.023380	0.026495	6833.996743	44785.017333	3963.444802	23029.361438
75.036500	0.018762	0.014160	0.018907	0.033202	6748.679513	44209.666026	3935.282111	22720.443557
75.537000	0.025242	0.015548	0.016248	0.030311	6832.932781	44618.608624	3935.859202	22853.003138
76.034500	0.024592	0.015302	0.019627	0.031032	6820.493512	44525.835302	3942.493406	22819.856663
76.535000	0.025672	0.016320	0.020332	0.033310	6809.655422	44405.203490	3938.561196	22715.488735
77.035000	0.022736	0.015150	0.019680	0.037941	6741.882244	43854.673461	3925.466492	22505.048694
77.535500	0.025503	0.016562	0.024072	0.035140	6791.631664	44253.785697	3943.335194	22632.043962
78.035500	0.026495	0.015853	0.026155	0.035343	6798.744010	44167.127243	3948.057878	22622.851652
78.536000	0.027182	0.015936	0.022590	0.036540	6794.149815	44061.390144	3936.141250	22568.467290
79.039000	0.023685	0.016290	0.018694	0.041931	6714.980379	43586.771481	3913.275253	22325.495503
79.539500	0.028180	0.016916	0.024399	0.039029	6780.752960	43918.550043	3934.449188	22455.908169
80.037500	0.028114	0.015576	0.024253	0.038247	6787.180407	43865.951100	3936.031701	22491.216720
80.537500	0.026867	0.017092	0.028493	0.039965	6760.637445	43846.839530	3942.324281	22413.745416
81.035000	0.028840	0.016699	0.022940	0.040180	6776.354076	43789.629738	3927.984625	22404.065083
81.535000	0.031224	0.017577	0.027477	0.041633	6784.701931	43735.434268	3935.627419	22338.821461
82.035500	0.030668	0.017949	0.028259	0.042562	6771.388922	43683.177148	3935.262573	22297.232523
82.535500	0.029527	0.017490	0.027330	0.042706	6759.909461	43626.568001	3932.598518	22290.787422
83.036000	0.026997	0.017522	0.022074	0.047910	6691.535278	43144.500464	3906.965098	22059.519765
83.536500	0.031494	0.017494	0.023434	0.043338	6771.840664	43567.770051	3921.425026	22262.558108
84.037000	0.030734	0.017834	0.029973	0.044399	6755.578020	43500.300328	3934.958216	22215.252739
84.536500	0.030920	0.017521	0.029416	0.044551	6755.883660	43456.843760	3933.195458	22208.461647
85.033500	0.030571	0.017747	0.023768	0.044774	6750.791625	43457.105438	3918.722740	22198.544182
85.537000	0.031391	0.017801	0.034146	0.045220	6754.120619	43420.531286	3943.320993	22178.726734
86.035000	0.031199	0.017925	0.033327	0.045308	6751.629889	43423.877837	3941.053044	22174.810270
86.535000	0.031984	0.018115	0.032969	0.046461	6748.353022	43334.229433	3937.281008	22123.642307
87.035500	0.031309	0.017807	0.026962	0.051797	6695.269717	42812.220446	3909.390226	21888.562050
87.536000	0.033691	0.017991	0.030709	0.047061	6758.209464	43266.782745	3930.180758	22097.051753
88.036000	0.033597	0.018512	0.029088	0.047623	6752.367360	43263.041525	3924.792246	22072.206957
88.539000	0.034284	0.018389	0.030287	0.047195	6762.303992	43291.394366	3928.804999	22091.123974
89.036500	0.033965	0.018091	0.037112	0.047973	6752.524676	43191.369758	3943.855188	22056.699792
89.537000	0.033614	0.018184	0.033254	0.048107	6748.214925	43187.601310	3933.897486	22050.812353
90.037500	0.033796	0.018025	0.037389	0.047968	6751.060457	43185.693063	3944.560987	22056.926483
90.537500	0.033234	0.017297	0.029127	0.047938	6746.332364	43120.993142	3924.111700	22058.249849
91.035500	0.030456	0.016232	0.026848	0.052947	6677.734065	42562.492730	3906.325262	21838.245582
91.535500	0.033790	0.017536	0.035437	0.048001	6750.723046	43137.439976	3939.595847	22055.498766
92.035500	0.035362	0.017519	0.032754	0.048987	6755.936972	43044.592513	3930.474666	22011.982265
92.536000	0.032656	0.016805	0.034509	0.048550	6735.764292	43018.920448	3935.914648	22031.238469
93.036000	0.029672	0.016418	0.030455	0.054899	6653.923045	42401.588907	3910.339221	21753.195043
93.536500	0.033624	0.017085	0.032145	0.049478	6736.128383	42959.167083	3927.754271	21990.354897
94.036500	0.033178	0.016892	0.034182	0.049204	6734.594991	42966.590049	3933.475990	22002.411273
94.537000	0.034578	0.017319	0.036253	0.049944	6740.449399	42937.756553	3936.786180	21969.846617
95.037000	0.029842	0.016175	0.029330	0.054982	6654.672818	42371.922477	3907.408456	21749.591959
95.596000	0.033728	0.015790	0.034509	0.049372	6737.985004	42849.651373	3933.871115	21995.008582
96.035000	0.032512	0.015981	0.035410	0.049794	6723.486193	42828.386505	3935.061292	21976.431807
96.554500	0.031502	0.015664	0.034034	0.049284	6719.070164	42846.113310	3932.909950	21998.896290
97.036000	0.028762	0.015953	0.032310	0.055569	6640.235273	42298.476972	3913.220789	21724.075792
97.539000	0.032972	0.015969	0.038015	0.050037	6725.402944	42804.999191	3940.948608	21965.764945
98.039000	0.034603	0.016453	0.037883	0.050977	6731.511854	42763.061749	3938.272159	21924.466735
98.559500	0.033870	0.015805	0.030405	0.050711	6727.389806	42728.088170	3920.439813	21936.170060
99.036500	0.032413	0.016347	0.035266	0.056786	6661.331743	42223.925851	3917.465463	21671.326494
