sample name	sample
index	1352
start time	 05-03-2021  01:09:40 PM
880	0.003436
Peak Time (s)	90.537
Peak Height 	0.003436
calc peak height	90,93
Baseline Time (s)	9.037
Baseline Value 	-0.005551
subtract baseline	10,4
Abs	0.013554
Peak Time (s)	91.537
Peak Height 	0.01355
calc peak height	90,93
Baseline Time (s)	11.035
Baseline Value 	0.00171
subtract baseline	10,3
PK_550	0.010220
Peak Time (s)	90.037
Peak Height 	0.01022
calc peak height	90,93
Baseline Time (s)	8.537
Baseline Value 	3.3424E-4
subtract baseline	10,2
PK_880	0.020625
Peak Time (s)	90.037
Peak Height 	0.02062
calc peak height	90,93
Baseline Time (s)	8.537
Baseline Value 	0.001357
subtract baseline	10,1


Time (s)	A880-A510	A880-A775	A880-A975	A880	I510	I775	I975	I880	
0.037000	0.001705	-0.000106	-0.001668	0.002208	5997.228194	40902.878757	3853.499921	21246.454321
0.537500	-0.000624	-0.000664	-0.005289	0.004069	5967.954576	40692.232181	3841.855271	21168.178331
1.037500	-0.002926	-0.000035	0.000046	0.007573	5927.872512	40443.469951	3845.729264	21021.741684
1.534500	0.001026	0.000354	0.002184	0.001818	5995.196617	40977.192938	3862.613132	21262.894316
2.040500	0.000228	-0.000313	-0.001139	0.000756	5997.046766	41011.764707	3857.744458	21307.752534
2.535500	-0.000656	0.000577	-0.005540	0.001267	5987.281037	41044.995073	3847.256332	21286.187490
3.036000	-0.003702	-0.000350	-0.000073	0.004729	5942.084112	40662.233248	3851.522506	21140.503822
3.538500	-0.001423	-0.000156	0.002002	0.000944	5984.169540	41009.069119	3864.108337	21299.812964
4.036500	0.000430	-0.000042	0.000975	0.001215	5995.250868	40995.340359	3861.306193	21288.367315
4.536500	-0.000021	-0.001182	-0.003542	0.000134	5999.671590	40990.221407	3853.928028	21334.105298
5.037000	0.000471	0.000649	0.000388	0.001080	5996.482719	41067.716794	3860.332256	21294.080135
5.537500	0.000791	0.000524	-0.003087	0.001415	5996.378616	41027.382947	3852.162187	21279.903437
6.034500	-0.000787	0.000076	-0.003155	0.000684	5990.444512	41052.223598	3853.580843	21310.830355
6.535000	-0.001096	-0.000184	0.000133	0.000440	5989.983680	41050.732358	3861.161116	21321.120514
7.035500	0.002138	0.000707	0.000586	0.000901	6009.464098	41088.546014	3861.145864	21301.646798
7.536000	0.000704	0.000075	0.001411	0.000719	6000.652891	41049.012125	3863.318397	21309.333540
8.039000	-0.000478	-0.000503	-0.001982	0.000617	5993.077637	41007.383640	3856.235052	21313.659044
8.536500	0.000000	0.000000	-0.000311	0.000457	5997.547570	41065.388610	3860.168156	21320.396176
9.036500	-0.000990	-0.000854	0.001037	0.000000	5993.811698	41030.638238	3864.063633	21339.763859
9.536500	0.000176	-0.000297	-0.001878	-0.000348	6004.446176	41110.022518	3858.528614	21354.513288
10.037500	0.000512	-0.000057	0.006294	-0.000322	6006.625138	41128.745022	3876.201458	21353.389119
10.535000	0.001203	0.000339	0.001593	0.000055	6008.835475	41130.465548	3865.145777	21337.430051
11.035000	-0.000096	0.000677	0.000000	0.000222	5998.531194	41145.492408	3861.345785	21330.381921
11.535500	-0.001414	0.000171	-0.001671	-0.000071	5991.340584	41126.848401	3858.380610	21342.792768
12.035500	-0.002146	-0.000488	-0.002516	0.002580	5967.731546	40837.075214	3850.895977	21230.775576
12.538500	0.000542	-0.000172	-0.000806	-0.000182	6005.852390	41106.391694	3860.477420	21347.462180
13.036000	-0.000620	-0.000376	0.000289	0.002143	5981.402568	40885.012570	3857.832816	21249.183177
13.536500	-0.000326	-0.000359	0.001886	-0.000534	6002.223932	41120.920979	3867.056918	21362.405214
14.037000	-0.003013	-0.001230	-0.003342	0.001913	5966.338870	40830.599606	3850.557279	21258.904844
14.536500	-0.001081	-0.000397	0.001615	0.001526	5982.490443	40937.061772	3862.015521	21275.215100
15.040500	-0.000923	-0.000238	0.000840	0.000613	5989.988522	41030.886292	3862.312286	21313.810681
15.537500	0.002318	-0.000139	0.002076	-0.000675	6021.867250	41152.629709	3867.776161	21368.400977
16.035500	-0.003180	-0.000503	-0.000511	0.002754	5959.339866	40820.618217	3854.806928	21223.444893
16.535500	-0.000171	0.000359	-0.000049	-0.000781	6005.048712	41205.740545	3863.403295	21372.862622
17.038000	0.000054	0.000079	0.001847	0.000035	6000.895339	41109.469169	3865.740667	21338.300794
17.536000	-0.000657	0.000502	0.004259	0.000759	5990.826983	41082.970486	3869.403533	21307.631669
18.035500	0.002186	0.000237	0.000792	0.000759	6010.806576	41059.715357	3861.893734	21307.639009
18.535500	-0.001319	-0.000446	-0.001720	-0.000196	5992.875112	41083.582393	3858.541920	21348.054738
19.036500	-0.001504	-0.000137	0.003346	0.000563	5986.266484	41044.063188	3867.843932	21315.917798
19.537000	-0.000925	0.000330	0.003272	0.000595	5990.099493	41082.313664	3867.615763	21314.595578
20.037000	-0.001332	-0.000549	0.000726	0.000263	5989.569637	41034.315718	3862.823122	21328.622746
20.537500	-0.000253	0.000350	-0.004218	0.001000	5991.971382	41048.493621	3850.637443	21297.459244
21.035000	-0.000898	-0.000422	-0.000800	0.000489	5991.030497	41025.628784	3859.047489	21319.053763
21.538000	-0.000739	-0.000360	0.001309	0.000538	5991.797069	41026.706935	3863.485870	21316.965176
22.036000	0.000121	-0.000309	0.001591	0.000242	5999.913049	41057.173469	3864.738326	21329.526606
22.536000	-0.000440	0.000464	-0.002276	0.001234	5989.020264	41038.018650	3854.282803	21287.567923
23.036500	-0.001039	0.000853	0.000502	0.001213	5984.973317	41073.901976	3860.290409	21288.446846
23.536500	0.000184	-0.000382	0.004363	0.000622	5997.684036	41017.462350	3869.928261	21313.433084
24.036500	-0.000238	0.001355	0.005669	0.002191	5983.740625	41032.161906	3869.355679	21247.178361
24.537000	-0.002560	-0.000167	0.003156	0.000457	5979.634635	41050.775406	3867.662928	21320.429835
25.034500	0.000622	-0.000153	0.006528	0.000817	5999.390407	41020.474182	3874.221409	21305.175169
25.535000	0.000160	0.000781	-0.000170	0.002008	5987.804075	40997.954300	3857.137398	21254.902283
26.038000	-0.000327	0.000572	-0.001851	0.001688	5986.635121	41007.645245	3854.221488	21268.392785
26.536000	-0.000589	-0.000155	0.001679	0.000954	5989.934667	41008.293296	3863.389094	21299.396797
27.036000	0.000422	0.000468	-0.001081	-0.000821	6009.506787	41218.830905	3861.262315	21374.566723
27.537500	-0.000372	-0.000241	0.000995	-0.001243	6006.886756	41193.666375	3866.663377	21392.514929
28.036500	0.000603	0.000376	0.003394	-0.000140	6005.982729	41150.823324	3869.476864	21345.682642
28.537000	0.000154	-0.000269	-0.000331	-0.000426	6004.833440	41119.255549	3862.028070	21357.806970
29.037000	0.001155	0.000189	0.001860	0.001519	5998.204456	40988.954619	3862.558805	21275.519093
29.537500	0.000923	0.000379	-0.000758	-0.000444	6010.384677	41177.863087	3861.145864	21358.587231
30.034500	-0.000069	0.000346	0.001290	0.000023	6000.115822	41133.914310	3864.559286	21338.787800
30.538000	0.000497	0.000414	0.001480	0.002201	5988.808994	40948.957543	3860.269443	21246.771641
31.035000	-0.000934	0.000529	0.000622	0.002612	5975.943774	40923.082503	3857.541611	21229.439937
31.536000	0.000723	0.000620	0.001626	-0.000675	6010.600246	41219.313922	3866.799744	21368.363224
32.036000	-0.000476	-0.000011	0.001107	0.004554	5965.618149	40706.879680	3854.417811	21147.848520
32.536500	0.000863	0.000044	0.004512	-0.000404	6009.680903	41144.896780	3872.486898	21356.896099
33.037000	0.000297	-0.000131	0.002429	0.000870	5996.730849	41017.676932	3865.191152	21302.927964
33.537000	-0.000252	0.000213	0.003155	0.001511	5988.395247	40991.761500	3865.375976	21275.858074
34.037000	-0.002395	-0.000229	0.003835	0.001463	5973.772520	40957.313016	3866.955029	21277.903225
34.534500	0.002545	0.000688	0.006560	0.002485	6001.175534	40948.070646	3870.653064	21234.772777
35.038000	-0.000215	-0.000544	0.002631	0.001445	5989.117204	40931.328644	3864.384824	21278.647031
35.538000	0.001443	0.000695	0.001742	0.002265	5994.994191	40967.971973	3860.697325	21244.067904
36.035500	-0.000736	0.000665	-0.002819	0.002022	5981.441996	40986.573645	3851.439640	21254.314445
36.535500	0.000699	-0.000095	0.003326	0.001740	5993.457440	40944.807757	3865.251779	21266.205894
37.035500	0.001860	0.000365	0.001080	0.002340	5997.393268	40932.525942	3859.109923	21240.915968
37.536500	-0.000793	0.000369	0.003884	0.001929	5981.692991	40968.837867	3866.049465	21258.216060
38.036500	0.000072	0.000170	0.001039	0.001783	5988.759931	40964.178349	3860.221433	21264.400846
38.539500	-0.001243	0.000785	0.003235	0.002454	5974.893647	40959.246734	3863.509229	21236.093018
39.034500	-0.001340	0.000701	0.000791	0.001862	5978.337959	41003.665748	3859.516616	21261.037287
39.538000	0.000483	0.000700	-0.002094	0.001843	5991.221263	41005.324915	3853.371300	21261.863724
40.035000	-0.001945	-0.000017	0.000139	0.002045	5972.852287	40924.987601	3857.721168	21253.348949
40.535000	-0.000093	0.000198	0.000068	0.001572	5989.077134	40985.049117	3858.583320	21273.273064
41.038500	0.001401	0.000371	0.003467	0.001628	5999.166636	40995.377584	3865.798454	21270.931259
41.539000	-0.001185	-0.001112	0.004231	0.000853	5986.474346	40933.353787	3869.137632	21303.656426
42.036500	-0.002172	0.000172	0.002383	0.001372	5975.956966	41000.337819	3864.007585	21281.743709
42.536500	-0.000645	0.000272	-0.000848	0.001159	5988.112532	41027.761704	3857.505841	21290.748256
43.036500	-0.001082	0.000653	0.002681	0.002187	5977.873470	40971.097899	3862.889241	21247.342150
43.537500	0.003030	0.000393	0.002222	-0.003050	6043.789237	41409.035072	3873.265357	21469.438463
44.043000	0.000919	0.000757	0.002722	0.002718	5988.140547	40933.711925	3861.832281	21224.962436
44.534500	0.000354	0.001713	0.002918	0.000166	6002.082179	41241.552552	3867.776540	21332.718312
45.035000	0.000435	0.000389	0.000930	0.000644	5999.295147	41083.211913	3862.441149	21312.515706
45.535500	0.000950	0.000707	0.002145	-0.000327	6009.747456	41196.397192	3867.172250	21353.635418
46.036000	-0.000872	0.000830	0.000558	0.001936	5981.093024	41008.555431	3858.857552	21257.943977
46.536000	0.001006	0.000326	0.002114	-0.000608	6012.126325	41187.601438	3867.713658	21365.554355
47.036500	-0.000994	-0.000615	0.004149	0.001904	5980.460250	40885.035184	3866.678473	21259.279616
47.536500	-0.000306	0.000441	0.003288	0.002180	5983.336118	40953.153453	3864.216457	21247.629240
48.040500	-0.001235	0.000264	0.001261	0.001711	5980.132969	40978.740245	3860.853076	21267.437004
48.540000	0.000500	-0.000487	0.008950	-0.001422	6014.297431	41187.719963	3884.465513	21400.115976
49.035000	0.001540	0.000889	0.001229	0.000580	6007.515083	41132.726679	3863.224479	21315.222428
49.535500	0.001880	0.000932	0.006480	-0.002911	6034.615372	41444.482312	3882.300348	21463.518717
50.035500	-0.001504	-0.001131	0.004513	-0.014951	6096.728269	42338.361841	3904.760771	21984.170676
50.535500	0.006443	-0.003570	0.002099	0.013346	5952.636473	39649.015959	3837.875499	20782.975017
51.035500	0.026727	-0.026714	-0.011444	0.353161	4388.161122	18876.655977	3329.679350	11100.039116
51.536500	0.008915	-0.024664	-0.025681	-0.051678	6457.682110	43552.390729	3919.608405	23664.599324
52.036500	0.005508	-0.050471	-0.032700	-0.238908	8306.586702	61818.377139	4431.081384	34833.777384
52.536500	0.008810	-0.077410	-0.018824	-0.284351	8942.965292	64379.656416	4651.492413	38351.774423
53.039500	0.009875	-0.087791	-0.018524	-0.300336	9182.976729	65177.181676	4717.458367	39679.425439
53.534500	0.006736	-0.065198	-0.014900	-0.271019	8734.055981	64221.563739	4614.494806	37281.212700
54.035000	-0.005776	-0.039378	-0.023108	-0.229187	8053.630003	62004.767742	4430.635840	34127.900913
54.535000	-0.002962	-0.039605	-0.023639	-0.233695	8140.413627	62589.453632	4444.485178	34453.272117
55.035500	-0.009180	-0.049290	-0.023674	-0.250755	8271.656508	63610.424174	4505.232279	35715.799954
55.536000	-0.003975	-0.047397	-0.021186	-0.246263	8280.394788	63248.526470	4497.954866	35378.499075
56.035500	-0.004575	-0.027693	-0.024908	-0.200778	7743.647107	59774.865803	4329.472977	32153.161996
56.536500	-0.001940	-0.016938	-0.017489	-0.147043	7211.406564	54423.087000	4187.407582	28753.424623
57.036500	-0.003244	-0.012175	-0.018285	-0.125749	6995.289745	52501.718766	4124.808693	27518.381095
57.539500	-0.000974	-0.009844	-0.016153	-0.125833	7017.281447	52777.902775	4130.948224	27523.147398
58.037000	-0.005563	-0.009545	-0.023039	-0.116439	6888.377168	51745.747685	4086.579957	26997.100299
58.541000	-0.001746	-0.005901	-0.016134	-0.102820	6800.468118	50638.467856	4068.763619	26254.481998
59.035000	0.000179	-0.003091	-0.014017	-0.082609	6641.668612	48766.618379	4022.092545	25194.405300
59.535000	0.000663	-0.000807	-0.011295	-0.075056	6582.045506	48214.448519	4009.959007	24810.736730
60.035500	-0.000587	-0.002616	-0.018775	-0.067873	6512.177904	47287.364717	3973.941345	24451.981657
60.536000	0.000149	0.001390	-0.015604	-0.051057	6382.662837	45999.561227	3941.500154	23635.031057
61.036500	0.000146	0.000983	-0.013748	-0.045201	6336.645435	45383.533498	3932.181084	23357.849713
61.536000	-0.001189	0.002837	-0.016353	-0.017349	6116.455631	42919.558613	3863.973553	22089.602947
62.039000	-0.001423	0.007474	-0.010007	-0.009268	6056.390714	42604.084337	3860.230522	21736.609727
62.537000	-0.002440	0.007552	-0.014220	-0.013138	6076.869727	42965.872911	3859.493170	21904.842258
63.045500	-0.003956	0.006996	-0.010581	-0.022653	6135.011024	43799.387499	3888.225379	22324.882912
63.534500	-0.001005	0.006720	-0.011618	-0.026874	6188.063350	44171.888441	3895.312925	22514.213302
64.035000	-0.001361	0.007114	-0.012787	-0.027631	6191.060664	44281.221795	3894.394364	22548.362392
64.535500	0.001041	0.007913	-0.006467	-0.028165	6213.052169	44408.188845	3909.814114	22572.502488
65.036000	0.001287	0.008316	-0.009483	-0.024215	6185.326319	44071.150706	3894.142888	22394.720441
65.536500	0.000556	0.007435	-0.012523	-0.024434	6181.514111	44008.557501	3887.869020	22404.550822
66.036500	-0.000740	0.007873	-0.010593	-0.020643	6143.873764	43693.024521	3883.752880	22235.409076
66.539500	0.001407	0.007799	-0.011472	-0.023319	6179.547605	43937.648978	3887.726645	22354.634910
67.037000	0.000730	0.008193	-0.008494	-0.024488	6183.216380	44085.364974	3896.964569	22406.966025
67.537500	0.004005	0.009738	-0.009573	-0.026139	6220.102903	44388.987571	3898.245205	22481.101089
68.035000	0.000978	0.009808	-0.009599	-0.025467	6192.367468	44331.664455	3896.682211	22450.903145
68.535500	0.002187	0.010568	-0.007686	-0.026905	6212.195525	44541.536415	3904.208175	22515.620773
69.035500	0.004706	0.011213	-0.003916	-0.026802	6230.400464	44593.349886	3912.510101	22510.976053
69.538500	0.005265	0.011619	-0.002676	-0.025947	6228.163793	44550.339603	3913.384870	22472.477539
70.035500	0.005632	0.010884	-0.005231	-0.026330	6233.832672	44516.753480	3908.456396	22489.719309
70.536500	0.003967	0.011299	-0.000947	-0.023328	6198.718875	44269.973582	3911.364249	22355.066444
71.039000	0.004236	0.011527	-0.003796	-0.024127	6206.724724	44367.762383	3906.717374	22390.805147
71.537000	0.004629	0.012229	-0.004908	-0.024176	6210.041909	44439.417011	3904.318618	22393.010811
72.037000	0.005088	0.012236	-0.004848	-0.023572	6208.954627	44382.432165	3903.094410	22365.982346
72.537500	0.003199	0.011562	-0.003880	-0.021455	6179.015723	44117.233794	3900.508798	22271.520748
73.037500	0.005462	0.012397	-0.005190	-0.022127	6200.916267	44260.223292	3899.076991	22301.433678
73.535000	0.007157	0.013220	-0.007726	-0.020574	6201.979734	44190.865042	3889.947702	22232.319402
74.035000	0.006669	0.013777	-0.000547	-0.018528	6183.058471	44049.829276	3901.420835	22141.677268
74.536000	0.005489	0.012913	-0.004686	-0.015350	6150.766688	43669.323069	3885.109773	22001.682896
75.036000	0.005975	0.012516	0.001820	-0.017152	6167.679745	43801.131096	3903.650913	22080.919364
75.539500	0.004810	0.012579	-0.002229	-0.016478	6154.078388	43743.839547	3893.066614	22051.254450
76.036500	0.004481	0.012858	-0.001523	-0.012503	6122.472740	43398.279454	3885.806862	21877.125246
76.537000	0.003158	0.012510	-0.002737	-0.010508	6098.319468	43180.877831	3878.734481	21790.350878
77.034000	0.007768	0.013078	-0.002476	-0.011399	6138.465416	43316.103930	3881.268176	21829.068823
77.537500	0.007916	0.012179	0.003398	-0.011322	6138.989492	43225.607174	3894.116809	21825.719347
78.035000	0.008054	0.010550	0.004532	-0.012034	6145.231706	43140.697299	3898.243776	21856.690242
78.535000	0.008966	0.011062	0.001358	-0.011263	6146.273879	43116.748818	3889.444544	21823.151575
79.035000	0.009621	0.009980	0.004745	-0.010585	6146.106631	42954.403853	3895.478521	21793.700506
79.536000	0.010139	0.010275	0.000402	-0.010042	6145.921300	42931.594515	3884.623518	21770.133203
80.039000	0.009844	0.011614	0.004470	-0.008710	6133.963664	42932.201972	3890.685520	21712.463193
80.536500	0.008448	0.010121	0.003320	-0.005235	6098.437505	42477.775575	3880.458096	21562.870249
81.037000	0.011323	0.010081	0.007392	-0.008421	6142.700215	42764.961024	3896.557429	21699.973778
81.537000	0.013389	0.010156	0.005854	-0.007243	6149.236706	42663.969100	3890.500919	21649.165554
82.037000	0.011159	0.009256	0.007598	-0.004112	6109.984359	42297.421710	3887.424233	21514.803812
82.534500	0.013175	0.008868	0.000871	-0.002074	6109.820076	42078.341346	3868.197434	21427.845049
83.038000	0.014685	0.008811	0.007869	-0.006573	6153.855309	42480.256837	3893.495702	21620.326925
83.537500	0.014510	0.009520	0.005261	-0.005096	6141.685464	42410.510712	3884.430948	21556.905709
84.041500	0.013458	0.009257	0.003477	-0.001690	6109.082556	42078.773203	3873.035742	21411.505099
84.695500	0.016049	0.009173	0.010708	-0.002484	6133.808818	42142.799218	3890.714060	21445.291990
85.081000	0.014914	0.009090	0.007276	-0.003323	6131.640133	42211.017994	3884.965522	21481.062824
85.561500	0.017205	0.009270	0.010614	-0.002966	6145.846051	42195.013821	3891.576435	21465.850326
86.040500	0.017724	0.009326	0.010605	-0.002491	6146.163500	42157.164587	3890.500385	21445.575804
86.538000	0.015754	0.009320	0.006611	0.002648	6094.254684	41695.734190	3870.410539	21227.908592
87.038000	0.017083	0.009825	0.012256	-0.002012	6137.932645	42158.981866	3893.108013	21425.182402
87.538000	0.017888	0.009979	0.011353	-0.001805	6142.327379	42154.166158	3890.637132	21416.368506
88.035500	0.018227	0.009391	0.013739	-0.000578	6135.804277	41990.884053	3893.217407	21364.262060
88.535500	0.016092	0.010628	0.011912	0.003977	6087.094065	41693.978544	3879.095712	21172.061586
89.038500	0.018349	0.009883	0.009237	-0.001904	6146.452194	42154.511314	3886.164564	21420.605001
89.536500	0.018626	0.009987	0.006949	-0.001883	6148.338016	42161.990677	3881.067411	21419.709833
90.036500	0.020625	0.010220	0.010849	-0.001999	6163.949258	42193.515183	3889.948013	21424.637068
90.537000	0.015483	0.009852	0.009205	0.003436	6086.602254	41672.996979	3874.350633	21194.778447
91.034000	0.017833	0.010150	0.009503	-0.002251	6145.204235	42209.859789	3887.520251	21435.352031
91.536500	0.018446	0.009282	0.013554	-0.002795	6153.726452	42180.612362	3897.757521	21458.538599
92.035000	0.017679	0.009967	0.008739	-0.000265	6129.490915	42014.487634	3881.446459	21350.988169
92.535000	0.015889	0.009555	0.008679	0.003271	6090.725933	41661.214460	3873.562122	21201.717625
93.035000	0.021249	0.010840	0.007175	-0.001708	6166.418594	42223.242167	3881.179663	21412.269992
93.535000	0.021046	0.011178	0.020390	-0.001029	6159.888872	42192.415829	3909.179770	21383.393909
94.035500	0.016429	0.010206	0.012609	0.001288	6109.032752	41896.611561	3886.563218	21285.290725
94.535500	0.015547	0.008888	0.012119	0.002977	6090.380172	41627.974335	3881.750523	21214.066659
95.036500	0.019220	0.010131	0.014536	-0.001805	6152.139403	42168.000919	3897.741960	21416.406167
95.537000	0.018635	0.009850	0.017862	-0.001941	6148.825035	42154.830671	3905.523221	21422.155479
96.037500	0.017758	0.009230	0.010224	0.000746	6122.678181	41857.729348	3882.490956	21308.203591
