sample name	sample
index	364
start time	 03-04-2021  11:32:53 AM
880	-0.041997
Peak Time (s)	91.036
Peak Height 	-0.042
calc peak height	90,93
Baseline Time (s)	8.536
Baseline Value 	-0.004131
subtract baseline	10,4
Abs	-0.010931
Peak Time (s)	91.536
Peak Height 	-0.01093
calc peak height	90,93
Baseline Time (s)	10.036
Baseline Value 	0.002228
subtract baseline	10,3
PK_550	-0.004757
Peak Time (s)	92.537
Peak Height 	-0.004757
calc peak height	90,93
Baseline Time (s)	9.536
Baseline Value 	3.2253E-4
subtract baseline	10,2
PK_880	-0.012879
Peak Time (s)	92.537
Peak Height 	-0.01288
calc peak height	90,93
Baseline Time (s)	11.037
Baseline Value 	0.001155
subtract baseline	10,1


Time (s)	A880-A510	A880-A775	A880-A975	A880	I510	I775	I975	I880	
0.036000	0.000161	-0.000087	-0.002714	0.002134	6901.379644	47616.809033	3960.401562	25093.440035
0.535500	-0.001655	0.000345	0.000105	0.005403	6854.057118	47325.416778	3959.208304	24926.469508
1.036500	-0.002110	-0.000337	-0.005601	0.004202	6860.960319	47378.554129	3947.320973	24987.676368
1.537500	-0.002590	-0.000259	-0.009639	0.007411	6826.912362	47058.764631	3928.454733	24824.483757
2.036500	-0.001299	-0.000004	-0.000193	0.001269	6895.817241	47714.627094	3969.429788	25137.878956
2.537500	0.000583	0.000197	-0.003326	0.001427	6911.965158	47719.085323	3960.655052	25129.752615
3.038000	-0.000732	0.000697	-0.003658	0.000377	6909.482680	47879.538264	3962.564851	25183.754140
3.538000	-0.000670	-0.000814	-0.003688	0.000645	6907.551007	47695.414395	3961.770849	25169.950533
4.035500	0.000294	-0.000233	-0.002228	0.000801	6915.132092	47739.344917	3965.243399	25161.916661
4.535500	-0.000564	-0.000042	0.002307	0.001126	6904.028234	47725.455700	3976.523204	25145.206301
5.036000	0.000555	-0.000512	-0.001167	0.000327	6922.034650	47759.493493	3969.341964	25186.309432
5.536500	0.000409	-0.000169	0.000912	0.000969	6914.635586	47728.627109	3973.195731	25153.310440
6.036500	-0.001878	-0.000148	-0.003974	0.000549	6897.132938	47774.196730	3961.265659	25174.902017
6.537000	-0.000915	0.000184	0.000513	0.000345	6908.064756	47829.708133	3973.799417	25185.410109
7.037000	0.001228	-0.000032	-0.002420	0.000155	6930.005221	47827.004873	3966.454165	25195.185140
7.537500	-0.000526	-0.000283	-0.000349	0.000016	6914.801697	47815.367631	3972.366647	25202.330916
8.034500	0.000757	-0.000482	-0.003703	0.000121	6925.880950	47783.925267	3963.124883	25196.919470
8.535500	-0.000231	0.000042	0.002378	0.000000	6917.727270	47850.685542	3979.749615	25203.166434
9.035000	-0.000654	0.000186	-0.001930	0.000258	6911.329123	47838.889199	3967.486715	25189.874015
9.535500	0.000358	0.000000	0.000782	0.000329	6920.169481	47812.298743	3974.567048	25186.239281
10.035500	0.000078	-0.000049	0.000000	-0.000051	6921.106858	47846.531582	3973.484320	25205.781705
10.536500	0.000501	-0.000152	-0.001030	0.000291	6921.865772	47800.400776	3969.806270	25188.158908
11.036500	0.000000	-0.000439	-0.001162	-0.000068	6920.533226	47807.914801	3970.412678	25206.654556
11.537000	-0.001390	0.000028	0.005575	-0.000146	6908.214315	47864.349538	3988.813164	25210.707496
12.034500	-0.000224	0.000162	-0.002759	0.000036	6917.452065	47859.411093	3965.867382	25201.336267
12.537500	-0.000252	0.000069	-0.004295	-0.000411	6921.390561	47896.096428	3962.964710	25224.352852
13.035500	-0.000812	-0.000522	0.001458	-0.001063	6922.252986	47902.342823	3980.135875	25257.999569
13.535500	-0.000220	0.000399	-0.001442	-0.000003	6917.852076	47887.972840	3969.489744	25203.307991
14.044000	0.001592	0.000605	-0.001624	0.000205	6932.964689	47887.813006	3968.446830	25192.614061
14.536000	-0.003749	0.000436	-0.000143	0.003356	6853.613924	47544.898714	3963.991390	25030.885446
15.036000	-0.000446	-0.000653	-0.000830	-0.000083	6916.479658	47787.238748	3971.343874	25207.419083
15.539000	0.000057	-0.000040	0.000341	-0.000109	6921.457559	47853.497623	3974.558562	25208.795965
16.036500	-0.001088	-0.000021	0.001961	-0.000675	6916.010327	47914.072881	3980.446704	25237.956337
16.537500	-0.001605	-0.000651	-0.000675	-0.000556	6910.050086	47836.508316	3973.029618	25231.860736
17.037500	-0.000505	0.000153	0.000323	0.000877	6906.923865	47771.355187	3971.860097	25158.015954
17.535000	0.000535	-0.000180	-0.001350	-0.000743	6931.936153	47904.717699	3971.719151	25241.494990
18.035000	-0.000817	0.000246	-0.002037	-0.001270	6924.161091	48003.604664	3971.291044	25268.713685
18.538500	-0.001984	0.000340	-0.002309	0.001649	6885.868799	47710.877085	3962.767939	25118.331934
19.036000	-0.002565	0.000459	0.000831	0.002285	6874.534995	47657.604291	3969.451271	25085.734551
19.535500	-0.001644	-0.000336	0.000374	0.001149	6893.709377	47692.698317	3971.268959	25144.013875
20.036500	-0.000670	0.000257	0.001199	0.001363	6900.815647	47731.859915	3972.906092	25133.018503
20.536500	-0.000788	0.000535	-0.002833	0.001507	6898.366766	47745.716026	3961.751690	25125.639902
21.037000	-0.001672	0.000195	0.001995	0.001485	6890.317536	47712.901752	3974.718444	25126.773762
21.540000	0.000146	-0.000012	0.000646	0.001434	6907.801014	47696.803260	3971.234170	25129.403803
22.035000	-0.000418	0.000618	0.002685	0.001735	6899.692197	47730.723536	3975.899980	25113.917695
22.535000	0.000619	0.000916	0.001610	0.002079	6906.183628	47726.010697	3972.087904	25096.274742
23.035500	-0.001143	-0.000198	-0.004613	0.001140	6898.476453	47707.909602	3958.001222	25144.488997
23.535500	0.000969	-0.000258	0.001163	0.001161	6918.083160	47699.524318	3973.352307	25143.393700
24.036000	-0.000630	0.000339	0.004164	0.001863	6896.520521	47688.774449	3979.542929	25107.389323
24.536000	0.000245	0.000920	-0.002633	0.002227	6901.303110	47711.139368	3960.372333	25088.703901
25.036500	-0.000918	-0.000295	-0.001513	0.001028	6901.632665	47709.505176	3966.545449	25150.240379
25.536500	-0.002039	-0.000300	-0.000685	0.001181	6889.723252	47693.136822	3968.347128	25142.366897
26.040000	-0.001559	0.000427	-0.003027	0.001481	6891.407635	47737.292803	3961.306679	25126.985744
26.534500	-0.001215	-0.000152	-0.003548	0.001050	6898.652495	47721.941679	3961.066410	25149.118342
27.035000	-0.001217	0.000222	-0.000967	0.001283	6896.452584	47736.545489	3967.321945	25137.125259
27.535000	-0.000262	0.000279	-0.001227	0.001536	6903.024600	47716.259106	3965.952951	25124.150190
28.035500	0.002309	0.000951	0.000375	-0.001261	6953.606552	48076.051633	3977.749892	25268.238112
28.536500	-0.000535	0.001182	0.000839	0.000332	6911.749836	47934.396068	3974.709200	25186.048301
29.036000	0.001157	0.000395	0.003313	0.000380	6927.211075	47847.855480	3981.251224	25183.592490
29.536500	-0.001673	0.000087	-0.000102	-0.000091	6905.041996	47864.709471	3973.318344	25207.834799
30.036500	-0.001397	-0.000116	-0.000215	-0.000615	6912.547041	47898.023865	3974.421523	25234.885917
30.537000	-0.001360	-0.000151	-0.001621	-0.000769	6914.339185	47910.393424	3971.063771	25242.835203
31.037000	-0.000886	0.000277	0.000103	0.000549	6906.425433	47818.200385	3972.151388	25174.904813
31.566000	-0.001468	0.000175	0.002246	-0.000157	6907.592757	47880.807084	3979.818522	25211.283420
32.034500	-0.003088	0.000314	-0.002607	0.002838	6864.533736	47585.613222	3958.818291	25057.371976
32.536000	-0.002266	0.000206	0.001355	-0.000159	6900.128968	47884.174839	3977.422400	25211.382960
33.057500	-0.001088	-0.000068	0.000282	0.003107	6880.632887	47518.564992	3965.786460	25043.607985
33.536000	-0.000933	-0.000244	0.003922	-0.000747	6918.147094	47898.451565	3985.953544	25241.713647
34.036000	-0.001352	0.000353	-0.003655	-0.000160	6908.699753	47899.498899	3964.000634	25211.399473
34.536500	0.001538	0.000990	-0.000308	0.000235	6932.167582	47924.562593	3971.889773	25191.056244
35.036500	-0.000423	-0.000893	0.005691	0.000687	6909.466079	47682.914080	3986.862413	25167.790206
35.540000	-0.000448	0.000040	0.004291	0.001854	6898.300015	47658.771121	3979.908757	25107.818122
36.034500	-0.001952	-0.000187	-0.003433	0.001161	6890.722093	47706.833593	3961.077151	25143.393219
36.537500	-0.000101	-0.000006	-0.000655	0.002149	6898.784959	47623.585193	3965.843334	25092.688110
37.035000	-0.000481	-0.000086	-0.001710	0.001920	6897.378449	47639.008094	3963.642398	25104.429152
37.535500	-0.001318	-0.000182	-0.000522	0.001603	6892.517596	47661.841272	3967.655909	25120.726774
38.035500	-0.001678	-0.000003	-0.002310	0.001914	6886.255816	47648.163580	3962.061830	25104.746892
38.535500	-0.002300	-0.000476	-0.002590	0.001488	6884.425480	47643.336628	3962.449226	25126.622216
39.039000	-0.003077	0.000348	-0.002713	0.001619	6875.964480	47714.811922	3961.773775	25119.883044
39.536500	-0.000520	0.000349	0.001487	0.001918	6897.031453	47684.106123	3972.189259	25104.527662
40.037000	-0.001903	-0.000117	-0.001050	0.001712	6886.045781	47657.273893	3965.956187	25115.133400
40.537000	-0.001979	0.000050	-0.000483	0.001824	6884.289804	47662.945790	3967.171979	25109.390588
41.034500	-0.000718	0.000305	-0.002177	0.002099	6893.490597	47660.846142	3961.923449	25095.259342
41.535500	-0.001205	-0.000370	0.000550	0.001285	6896.550166	47675.196074	3971.375719	25137.057459
42.035000	-0.002296	-0.000310	-0.001514	0.001570	6883.698632	47651.969784	3965.096514	25122.382529
42.535000	-0.002953	-0.000190	-0.000188	0.002140	6872.278214	47605.669567	3967.115483	25093.174604
43.035500	-0.001530	0.000605	0.003098	0.002676	6880.528388	47632.340865	3974.482374	25065.688127
43.536000	-0.002983	0.000026	0.000685	0.001783	6875.311053	47664.683877	3970.403502	25111.453971
44.036000	0.000137	-0.000730	-0.002879	0.001569	6906.447370	47608.754019	3961.464392	25122.455360
44.536500	-0.002143	0.000269	-0.000364	0.002167	6879.555140	47650.087080	3966.571218	25091.758320
45.040000	-0.000997	0.001133	-0.001939	0.003775	6875.258532	47573.403716	3958.105882	25009.451280
45.537000	0.001105	-0.000048	0.003071	-0.002945	6958.171597	48147.521653	3989.615205	25355.473831
46.035000	-0.000588	-0.000044	0.000611	-0.000607	6920.078717	47904.676152	3976.621925	25234.462289
46.565000	0.001826	0.000199	-0.002038	-0.000542	6942.226847	47923.132529	3969.338659	25231.123971
47.035500	-0.003514	-0.000003	-0.002343	0.003931	6850.481182	47440.668473	3956.625016	25001.527114
47.535500	0.001210	0.000421	0.001641	-0.000429	6935.338716	47934.454992	3978.917226	25225.266160
48.036000	0.000555	0.000254	0.001832	-0.000455	6929.408664	47919.815000	3979.503940	25226.625054
48.536000	0.000336	0.000410	-0.002430	-0.000217	6925.104397	47911.332340	3967.422474	25214.373361
49.036500	-0.003294	0.000231	-0.001155	0.004328	6848.833953	47423.915613	3958.716781	24981.232375
49.537500	-0.003437	-0.000835	0.000538	0.001545	6873.305959	47600.503594	3970.646561	25123.690198
50.037000	0.001402	0.000526	0.001194	-0.000017	6933.258373	47902.558230	3976.604350	25204.022949
50.537500	-0.000235	-0.000201	0.001914	-0.000828	6925.473923	47911.307401	3980.732212	25245.865738
51.034500	-0.004550	-0.000528	-0.000478	0.004820	6832.717163	47295.743262	3959.210851	24956.165017
51.535000	0.001498	0.000459	0.000517	-0.001830	6951.309158	48083.980779	3979.666748	25297.654864
52.034500	-0.000644	-0.000034	-0.000892	-0.002378	6936.242742	48089.876341	3977.345386	25326.067848
52.535000	0.000623	0.000301	0.002880	0.001510	6911.566234	47721.331641	3977.033661	25125.498255
53.036000	0.016416	0.001106	0.008004	0.052323	6595.782242	42841.770182	3860.218352	22662.887012
53.536500	-0.010265	-0.010031	-0.002111	0.180188	5469.825529	31890.414018	3573.607331	17602.849359
54.080500	-0.028992	-0.031466	-0.015024	-0.092966	7568.139491	54690.203726	4202.587355	30545.447851
54.539500	-0.034443	-0.176666	-0.014491	-0.320676	10730.746639	65535.000000	5167.322335	49655.211378
55.036500	-0.095053	-0.303471	-0.080959	-0.447481	12030.708951	65535.000000	5519.079607	65535.000000
55.538500	-0.009641	-0.175317	0.005156	-0.319327	11168.839031	65535.000000	5268.883541	49509.963849
56.035000	-0.009689	-0.130746	0.000122	-0.274756	10355.190870	65535.000000	5003.177870	44956.176813
56.535000	-0.021282	-0.092172	-0.006648	-0.236182	9534.843467	65535.000000	4785.461915	41375.218787
57.035500	-0.019768	-0.073627	-0.018740	-0.217351	9272.962614	65493.712203	4649.503654	39739.273495
57.538500	-0.006941	-0.073754	-0.013681	-0.217759	9472.157877	65534.377602	4672.844114	39774.004046
58.036000	-0.005933	-0.048973	-0.009891	-0.186015	9018.709486	64537.446160	4556.542636	37169.463168
58.538500	-0.005454	-0.053761	-0.014492	-0.193078	9127.013554	64861.413166	4566.487272	37732.590603
59.039500	-0.003452	-0.039789	-0.012056	-0.172835	8868.224484	63972.443316	4495.810805	36142.707174
59.537000	-0.005851	-0.023142	-0.012125	-0.142585	8431.338548	62087.971117	4381.951220	33900.872942
60.037500	-0.005738	-0.018156	-0.013903	-0.127535	8242.147409	60731.255425	4322.099253	32842.331079
60.534000	-0.006388	-0.014645	-0.010795	-0.114185	8070.624041	59434.802338	4286.790385	31933.531210
61.035500	-0.013027	-0.012643	-0.018015	-0.101110	7838.296161	58010.496787	4219.240868	31070.177366
61.535500	-0.009666	-0.012628	-0.015458	-0.099983	7864.096365	57869.606407	4223.895712	30996.985901
62.035500	-0.014589	-0.012700	-0.016995	-0.099504	7801.924870	57799.817618	4217.333703	30965.906207
62.535500	-0.011850	-0.013255	-0.013910	-0.101229	7853.245726	57947.982025	4233.041010	31077.923155
63.036000	-0.016305	-0.012463	-0.020162	-0.093854	7718.411938	57119.291825	4188.996258	30602.156306
63.536500	-0.010757	-0.012910	-0.015954	-0.101631	7870.551135	58042.798893	4227.659331	31104.087047
64.037000	-0.007578	-0.016730	-0.017878	-0.133615	8295.191088	61740.197446	4329.460136	33265.554228
64.548000	-0.009111	-0.011380	-0.017179	-0.117338	8075.811829	60277.102077	4275.822684	32145.663736
65.037000	-0.011192	-0.009163	-0.018547	-0.109699	7959.832801	59564.760766	4245.681528	31634.417597
65.539500	-0.010116	-0.008518	-0.020944	-0.108789	7961.788239	59530.193776	4234.769582	31574.122845
66.038000	-0.011222	-0.007394	-0.021186	-0.105500	7910.177257	59248.335727	4223.210277	31357.195224
66.544000	-0.012784	-0.007047	-0.016393	-0.101474	7845.286222	58772.627140	4225.711662	31093.863091
67.035500	-0.017588	-0.006352	-0.022115	-0.091549	7678.231354	57596.968059	4175.518220	30455.137718
67.538500	-0.015062	-0.006462	-0.017330	-0.094252	7736.892033	57924.668521	4199.311953	30627.635019
68.036500	-0.014767	-0.006404	-0.020190	-0.090506	7698.100518	57458.990872	4178.295731	30388.830149
68.541500	-0.016568	-0.006402	-0.019303	-0.087654	7646.284392	57101.930060	4172.107880	30208.408980
69.037000	-0.019218	-0.005676	-0.024267	-0.083978	7576.712252	56734.661358	4145.223638	29977.582900
69.534500	-0.016947	-0.005319	-0.021311	-0.082711	7587.685178	56621.955324	4150.435744	29898.471391
70.035000	-0.019584	-0.005826	-0.022346	-0.081659	7547.490068	56429.280404	4143.997777	29832.978888
70.535000	-0.017244	-0.005812	-0.019452	-0.079873	7553.505646	56211.203154	4147.413074	29722.139028
71.035500	-0.022192	-0.005298	-0.022644	-0.072571	7422.271857	55383.663670	4115.416068	29273.591532
71.537500	-0.018858	-0.005098	-0.020473	-0.077094	7506.023481	55958.094280	4135.736803	29550.529702
72.036000	-0.017254	-0.005203	-0.016457	-0.076084	7512.416441	55821.954294	4144.962470	29488.445727
72.536000	-0.016036	-0.005090	-0.019962	-0.075391	7518.069953	55751.174880	4132.096400	29445.929016
73.037000	-0.018716	-0.003720	-0.018044	-0.068082	7411.596271	55032.916473	4115.750548	29001.633359
73.539000	-0.015170	-0.003773	-0.020430	-0.073350	7505.418228	55663.058548	4124.462850	29321.101238
74.036500	-0.015275	-0.004931	-0.017890	-0.074151	7512.912897	55619.770145	4134.638581	29370.046629
74.537000	-0.014954	-0.004217	-0.017959	-0.073854	7513.157222	55670.317231	4133.516037	29351.853172
75.035000	-0.017350	-0.003869	-0.019401	-0.067580	7420.713514	54954.650938	4110.161444	28971.379553
75.535500	-0.015609	-0.004556	-0.016749	-0.073382	7501.046173	55571.885671	4135.774742	29323.084419
76.035500	-0.015172	-0.004349	-0.017783	-0.072870	7500.239283	55534.916228	4131.050784	29291.829052
76.536000	-0.016166	-0.004911	-0.021761	-0.073109	7492.127898	55495.738444	4119.702383	29306.392984
77.036000	-0.017367	-0.004475	-0.017159	-0.067966	7424.605665	54928.207499	4118.069674	28994.602491
77.536500	-0.013915	-0.004290	-0.017346	-0.071685	7501.010648	55398.453754	4128.774710	29219.693969
78.039500	-0.014134	-0.004353	-0.016729	-0.071339	7494.947391	55349.056580	4129.600197	29198.676122
78.537000	-0.014766	-0.004064	-0.017357	-0.070725	7481.590014	55309.730095	4125.821103	29161.412238
79.037000	-0.017381	-0.003898	-0.022164	-0.064514	7388.123748	54584.783493	4092.791322	28787.418922
79.537500	-0.016517	-0.004747	-0.016508	-0.069544	7450.331905	55085.075355	4124.813048	29089.871211
80.037500	-0.016114	-0.004366	-0.020098	-0.068321	7441.628408	54983.989205	4110.293594	29016.052810
80.535500	-0.017075	-0.005408	-0.020303	-0.068060	7428.681220	54827.760317	4108.896594	29000.273806
81.035000	-0.015182	-0.004997	-0.017000	-0.066690	7434.219611	54713.090133	4114.701025	28917.816908
81.535500	-0.015880	-0.005078	-0.015466	-0.065663	7415.989819	54581.125605	4116.231708	28856.226280
82.036500	-0.017681	-0.005567	-0.020540	-0.065005	7390.132004	54444.666611	4099.067290	28816.818612
82.537000	-0.017735	-0.005778	-0.017444	-0.063477	7373.561348	54238.464531	4103.740467	28725.491542
83.036500	-0.016586	-0.006263	-0.018777	-0.062539	7375.769511	54070.360821	4096.977779	28669.602070
83.537000	-0.017195	-0.006133	-0.017461	-0.061328	7356.784708	53943.136561	4097.289814	28597.640210
84.037500	-0.017571	-0.006789	-0.021325	-0.060478	7344.042268	53766.311896	4083.362101	28547.240057
84.535000	-0.016150	-0.006152	-0.016244	-0.058869	7342.089795	53652.417096	4093.604776	28452.118826
85.035000	-0.021221	-0.005813	-0.019041	-0.052482	7224.740966	52949.950184	4066.688086	28077.922914
85.535500	-0.014981	-0.005800	-0.018127	-0.055682	7321.203508	53321.995173	4078.675703	28264.746504
86.035500	-0.016151	-0.006579	-0.017074	-0.055385	7306.067031	53197.122590	4080.892424	28247.338813
86.536000	-0.016209	-0.005793	-0.015804	-0.053826	7289.456749	53107.570738	4080.043803	28156.225888
87.036500	-0.019986	-0.007069	-0.019078	-0.050008	7212.235292	52521.521563	4059.425614	27934.459887
87.539500	-0.017588	-0.006453	-0.018255	-0.051897	7255.665173	52808.929670	4067.272614	28043.970066
88.036500	-0.017500	-0.007403	-0.014907	-0.051710	7254.646914	52678.288419	4076.475389	28033.085332
88.537500	-0.015448	-0.006060	-0.014821	-0.049543	7253.480973	52583.898244	4070.409703	27907.623754
89.035000	-0.019968	-0.005694	-0.017886	-0.043169	7144.023366	51900.677339	4043.248819	27542.106108
89.535000	-0.015619	-0.006348	-0.012859	-0.047906	7235.120052	52363.962057	4071.353741	27813.236370
90.035000	-0.014338	-0.005771	-0.015363	-0.046956	7238.473403	52321.468503	4061.338047	27758.614523
90.535500	-0.016885	-0.005773	-0.016982	-0.046478	7207.914226	52266.771485	4055.300472	27731.206499
91.036000	-0.017134	-0.005743	-0.012627	-0.041997	7160.554545	51763.096248	4054.937726	27475.530337
91.536000	-0.014810	-0.005348	-0.010931	-0.044542	7209.311003	52095.147986	4067.179143	27620.389919
92.039500	-0.013122	-0.004995	-0.013232	-0.043128	7212.069082	51975.053191	4056.448871	27539.775279
92.536500	-0.012879	-0.004757	-0.015014	-0.042777	7210.989606	51962.332139	4050.329841	27519.830917
93.037000	-0.016174	-0.005806	-0.018231	-0.039688	7147.143807	51496.601316	4032.408999	27344.796829
93.537000	-0.012561	-0.005386	-0.013849	-0.041591	7202.255377	51757.565635	4050.268835	27452.504786
94.037500	-0.013954	-0.005374	-0.014330	-0.041242	7184.766317	51719.591193	4047.896072	27432.691821
94.535000	-0.013785	-0.005381	-0.018604	-0.041091	7184.956194	51701.859864	4035.319709	27424.152322
95.035000	-0.017104	-0.005848	-0.019573	-0.036895	7110.327642	51180.073316	4020.798982	27187.565359
95.535500	-0.013276	-0.005285	-0.012602	-0.040357	7182.693781	51630.074772	4050.305879	27382.572503
96.069000	-0.015091	-0.005489	-0.014136	-0.040377	7164.771062	51609.441586	4045.979663	27383.729375
96.536000	-0.013221	-0.004716	-0.009065	-0.039859	7178.270736	51638.027027	4059.035378	27354.443686
97.037000	-0.014613	-0.005700	-0.016419	-0.039927	7165.049578	51535.215003	4038.207198	27358.274515
97.537000	-0.011870	-0.005008	-0.014412	-0.040304	7196.270087	51655.329922	4044.985516	27379.613410
98.037000	-0.012412	-0.005809	-0.011555	-0.040664	7194.432883	51605.673248	4054.187980	27399.958565
98.540500	-0.011658	-0.004576	-0.012630	-0.040063	7195.981591	51676.826402	4049.384598	27365.998017
99.035000	-0.014915	-0.005109	-0.015636	-0.037151	7134.476122	51291.102952	4032.573235	27201.983398
