sample name	sample
index	1142
start time	 04-22-2021  03:05:09 PM
880	0.112495
Peak Time (s)	101.537
Peak Height 	0.1125
calc peak height	100,103
Baseline Time (s)	10.039
Baseline Value 	-0.003042
subtract baseline	10,4
Abs	0.031074
Peak Time (s)	102.037
Peak Height 	0.03107
calc peak height	100,103
Baseline Time (s)	10.039
Baseline Value 	0.004481
subtract baseline	10,3
PK_550	0.033311
Peak Time (s)	102.537
Peak Height 	0.03331
calc peak height	100,103
Baseline Time (s)	9.035
Baseline Value 	1.4804E-4
subtract baseline	10,2
PK_880	0.028609
Peak Time (s)	101.036
Peak Height 	0.02861
calc peak height	100,103
Baseline Time (s)	9.536
Baseline Value 	9.9061E-4
subtract baseline	10,1


Time (s)	A880-A510	A880-A775	A880-A975	A880	I510	I775	I975	I880	
0.035000	-0.004861	-0.000699	-0.004275	0.006714	6213.259486	42715.462518	3906.582367	22534.338532
0.538500	-0.001885	0.000457	-0.004967	0.004332	6253.760632	43040.266726	3910.416304	22642.034787
1.036500	-0.001320	-0.000408	-0.002006	0.003561	6263.936154	43031.620515	3918.935364	22677.021358
1.536500	-0.001551	-0.000468	-0.001860	0.001395	6278.728353	43226.164259	3924.250838	22775.654441
2.036500	-0.002517	-0.000566	-0.004250	0.005394	6240.901193	42848.535996	3909.631011	22593.935989
2.537000	-0.001767	-0.000845	-0.001251	0.000589	6283.253031	43265.893505	3927.516032	22812.468621
3.037000	0.002786	-0.000143	-0.007361	-0.001633	6335.650200	43537.830023	3918.565784	22914.341060
3.537500	0.000910	0.000231	-0.006468	-0.000128	6309.397810	43432.459796	3917.165840	22845.303641
4.035500	0.000045	-0.000294	-0.004859	0.000903	6294.766090	43287.804081	3918.487496	22798.105421
4.535500	0.001481	0.001350	-0.004159	0.000795	6306.678715	43450.702505	3920.340713	22803.050344
5.036000	0.001668	0.000007	0.001072	0.000421	6311.017518	43360.508186	3933.291768	22820.144954
5.536000	0.000442	0.001030	0.000927	0.000684	6299.513550	43431.231753	3932.345097	22808.133456
6.036500	0.000493	-0.000338	-0.001004	-0.000386	6308.164279	43403.398130	3930.344547	22857.089653
6.537000	0.000971	-0.000292	-0.002515	-0.000356	6311.633790	43404.999931	3926.778836	22855.738220
7.037000	0.000487	0.000337	0.000910	-0.000022	6305.306741	43432.361046	3933.946322	22840.420323
7.537000	0.000493	-0.000081	-0.003708	-0.000339	6307.800929	43422.930809	3923.985178	22854.935940
8.034500	0.000111	0.000293	-0.006516	0.000086	6301.576106	43418.248970	3916.563961	22835.477683
8.535000	-0.001145	-0.000457	0.001117	-0.000795	6298.679289	43430.437015	3936.228627	22875.843934
9.035000	0.001976	0.000000	-0.001584	-0.000124	6317.624317	43410.554328	3928.394846	22845.108477
9.535500	0.000000	-0.000104	0.001225	-0.000336	6303.972120	43420.550457	3935.412160	22854.805329
10.038500	0.000451	0.000515	0.000000	0.000000	6304.860632	43446.909137	3931.780175	22839.422093
10.536000	-0.001026	-0.000884	-0.006140	0.001114	6284.905447	43213.617562	3915.074901	22788.460970
11.036500	0.000595	0.001162	0.004223	0.000674	6300.770304	43444.391546	3940.055953	22808.576607
11.536500	-0.001078	0.000838	-0.004777	0.000212	6291.438579	43457.243225	3920.260101	22829.711798
12.037000	-0.000205	0.000007	0.000683	-0.000114	6300.676872	43410.290929	3933.633479	22844.649326
12.537000	-0.002499	-0.000260	-0.005967	0.002098	6266.095205	43180.249482	3913.223783	22743.553390
13.035000	0.002345	0.000557	0.001075	-0.001639	6332.260632	43603.747916	3938.101382	22914.611814
13.535000	0.000954	0.000281	-0.001516	0.000049	6308.369373	43420.589203	3928.151874	22837.167944
14.035000	0.001786	0.000052	-0.001497	0.000047	6314.819004	43399.387176	3928.200107	22837.250156
14.536000	-0.004292	-0.000886	-0.004018	0.002332	6250.662228	43100.796372	3917.142016	22732.912037
15.036000	0.001291	0.001036	-0.000534	0.001396	6300.568964	43365.524470	3927.308589	22775.582463
15.562500	0.000674	0.000057	0.001118	0.000128	6305.594446	43392.465594	3934.083447	22833.575775
16.036500	0.000420	-0.000584	0.002520	-0.000703	6310.058796	43410.097898	3939.292833	22871.655114
16.538000	-0.003185	-0.000170	-0.004054	0.001815	6263.019628	43214.799754	3918.242493	22756.460086
17.037000	0.000966	-0.000469	0.000495	-0.000066	6309.351218	43361.567697	3933.083654	22842.453560
17.537000	-0.000620	-0.000143	0.002163	-0.003813	6326.104982	43741.797119	3945.753332	23014.813995
18.035000	-0.000242	0.000954	-0.001986	0.001827	6285.456549	43317.927473	3922.964195	22755.926812
18.535500	-0.002425	0.000623	-0.001576	0.002125	6266.458308	43259.614755	3923.221902	22742.353624
19.036000	-0.001174	-0.000006	-0.004823	0.001027	6284.444417	43303.111589	3918.287042	22792.465938
19.539000	0.000253	0.000691	-0.000840	0.001357	6292.875871	43337.107268	3926.692956	22777.393224
20.036000	0.000138	0.000145	-0.001143	0.000587	6297.917213	43357.887763	3927.770796	22812.563015
20.536500	-0.001543	0.000306	0.001985	0.001950	6274.542370	43246.448169	3931.861545	22750.336844
21.036000	0.001107	0.000360	-0.005955	0.000938	6302.685672	43345.302486	3915.899630	22796.528082
21.537000	0.000591	0.000514	0.006583	0.001296	6295.944531	43326.317389	3944.133551	22780.159200
22.037000	-0.000832	-0.000334	-0.004778	0.000458	6291.442433	43325.424963	3919.693975	22818.473136
22.535000	0.000480	-0.000224	-0.000786	0.001796	6291.242180	43211.582751	3925.801954	22757.331701
23.035500	0.001360	0.000392	0.000399	0.001256	6302.177753	43318.680737	3929.790591	22781.971557
23.535500	0.001645	0.000790	0.001726	0.001511	6302.417581	43332.002580	3932.279358	22770.363593
24.038000	-0.001983	0.000161	-0.000253	0.000941	6278.895996	43326.504194	3929.011616	22796.364957
24.535500	-0.001641	-0.000269	-0.003818	0.002113	6272.541625	43178.142856	3918.100634	22742.907559
25.036000	-0.001012	-0.000467	0.001362	0.000553	6289.321970	43304.209790	3933.659093	22814.096071
25.536500	0.000112	-0.000470	-0.001997	0.000705	6296.808487	43289.925538	3925.524640	22807.176506
26.036500	-0.000073	0.000302	-0.006013	0.000790	6294.727255	43353.609547	3916.104594	22803.280581
26.536500	-0.000747	0.000706	-0.004473	0.001321	6285.463664	43341.903511	3918.414923	22779.039837
27.037000	0.001311	0.000069	-0.006414	0.000899	6304.562847	43321.944634	3914.941236	22798.302601
27.535000	0.000129	0.000281	-0.004226	0.000243	6300.503251	43402.622289	3921.455907	22828.317892
28.035500	0.003292	0.000810	0.002621	-0.002349	6345.182474	43693.823215	3943.387937	22947.275103
28.540500	0.000721	0.001054	-0.001560	0.000519	6302.934839	43448.763990	3926.962300	22815.656325
29.052000	0.001952	0.000559	0.001016	-0.000082	6317.110074	43458.645091	3934.333029	22843.158681
29.538500	0.000131	-0.000521	-0.004656	-0.000788	6308.479504	43423.843340	3922.838053	22875.550826
30.036000	-0.000098	0.001194	0.001678	0.000616	6295.876594	43452.770421	3934.248957	22811.236878
30.536500	-0.002619	-0.000597	-0.002243	-0.000962	6288.625459	43433.004648	3928.811025	22883.543431
31.050500	-0.002051	-0.000644	-0.002209	-0.000770	6291.511604	43410.710555	3928.443166	22874.702613
31.538500	0.000334	0.000587	-0.001573	0.002678	6283.342263	43205.007954	3921.954934	22717.138357
32.037000	-0.000718	-0.000174	-0.000854	0.001355	6285.422112	43257.038772	3926.663348	22777.466469
32.550000	-0.004480	-0.000013	-0.002219	0.002543	6247.629093	43161.969858	3920.782418	22723.301788
33.062500	-0.002285	0.000071	-0.001622	0.000022	6283.629919	43403.597790	3927.971405	22838.428894
33.538000	-0.000095	0.000682	0.001915	-0.000162	6301.901016	43477.544055	3936.615781	22846.846688
34.035500	-0.001483	0.000131	-0.006179	0.001021	6282.122418	43316.382509	3915.198874	22792.736211
34.536000	-0.001678	0.000395	-0.001889	0.002500	6269.302901	43203.765538	3921.640439	22725.276704
35.036000	0.002391	0.000473	-0.008458	-0.001913	6334.753190	43621.568930	3916.695216	22927.231298
35.536500	0.001655	0.000961	-0.003070	0.002427	6295.428114	43262.876326	3919.095022	22728.572816
36.037000	0.002506	0.000288	0.000620	0.001259	6311.013022	43308.790462	3930.296004	22781.834867
36.534500	0.001152	0.000550	0.002799	0.002895	6287.965165	43181.585960	3931.557412	22707.304852
37.035000	-0.000028	0.000096	-0.001860	0.001250	6291.531911	43291.796011	3924.582995	22782.244205
37.535000	-0.001168	-0.000239	-0.005803	0.001298	6282.412544	43256.389366	3915.424272	22780.089621
38.035000	-0.001563	0.000319	0.004455	0.001334	6279.105439	43304.712253	3939.054594	22778.437563
38.535500	-0.001024	0.000686	-0.003726	0.001566	6281.453674	43317.267758	3919.565870	22767.826953
39.036000	0.000043	0.000086	-0.001942	0.001048	6293.636118	43309.698470	3924.862495	22791.502031
39.536500	-0.003550	0.000060	-0.007648	0.000948	6266.850759	43316.471645	3912.015273	22796.043634
40.036500	-0.000120	0.000702	-0.000460	0.001621	6287.973515	43313.599140	3926.958013	22765.316814
40.537000	-0.000343	0.000376	-0.000132	0.001645	6286.075489	43281.116985	3927.661557	22764.232317
41.037000	-0.001722	0.000263	-0.000383	0.001316	6278.024678	43301.145956	3927.841200	22779.232083
41.535000	-0.001235	-0.001108	-0.001858	0.000348	6289.187332	43263.830697	3926.669734	22823.497744
42.035000	-0.000427	0.000106	0.004344	0.001625	6285.593460	43258.055802	3938.114154	22765.165268
42.535500	-0.002899	-0.000114	0.001760	0.002145	6262.693631	43189.529608	3930.887452	22741.447839
43.038000	-0.000792	-0.000161	-0.001115	0.001195	6286.087841	43273.089309	3926.429981	22784.776607
43.535500	-0.001637	0.000607	-0.001313	0.001689	6275.814342	43298.518502	3924.832819	22762.222122
44.036000	-0.001285	0.000013	0.002481	0.000955	6284.141296	43311.470047	3935.329965	22795.735639
44.536500	-0.000864	0.000250	-0.002115	0.001921	6279.956944	43243.893609	3922.450072	22751.625916
45.036500	-0.000351	-0.000160	-0.003265	0.000850	6292.129507	43305.184540	3922.269895	22800.556360
45.537000	0.000087	0.000583	0.000218	-0.000329	6304.597729	43483.946164	3933.051499	22854.510418
46.039000	-0.000485	-0.000160	-0.003711	-0.000724	6303.220617	43451.431563	3924.866850	22872.590533
46.551000	-0.000797	0.000182	0.003558	0.003439	6268.859114	43097.309286	3932.058247	22682.569159
47.035000	-0.001828	-0.000114	-0.001418	0.000696	6281.963372	43323.773230	3926.884166	22807.579766
47.535000	-0.000809	0.000187	-0.001341	0.000811	6288.906099	43340.978200	3926.795429	22802.300825
48.035500	-0.000061	0.000513	-0.003658	0.000575	6296.478982	43393.253081	3921.997160	22813.100643
48.536000	-0.001018	0.000110	-0.005248	0.002942	6270.970732	43136.527628	3912.940462	22705.169187
49.036500	-0.000949	-0.000246	-0.000740	0.002011	6278.617481	43189.653443	3925.412768	22747.536880
49.536500	0.000719	-0.000212	-0.003104	0.002304	6289.173547	43165.711023	3919.300812	22734.196931
50.037000	-0.000357	-0.000709	-0.002357	-0.000405	6301.753779	43370.805911	3927.257120	22857.986235
50.537500	-0.000925	0.000367	-0.003025	0.003147	6270.109543	43141.317720	3917.549845	22695.828401
51.037500	-0.000983	0.000718	0.002869	0.000883	6287.017412	43383.637576	3936.404138	22799.035394
51.535000	0.001143	0.001458	-0.001677	0.001156	6301.277185	43427.084769	3925.223502	22786.545223
52.035500	0.003679	0.000520	-0.000416	-0.000134	6330.927889	43459.841950	3931.125777	22845.549550
52.538000	-0.003554	0.001337	-0.000146	0.001272	6264.351927	43404.961203	3928.491467	22781.234189
53.035500	0.005216	-0.007639	-0.005071	0.359497	4432.716033	20352.897386	3358.889172	11642.617929
53.536500	-0.007284	-0.017109	-0.022800	-0.031181	6490.917002	44729.149165	3951.431105	24319.863685
54.036500	-0.012172	-0.040536	-0.028109	-0.194203	8045.922680	60544.898020	4401.614078	34054.102905
54.536000	-0.018004	-0.053826	-0.024361	-0.227853	8382.976567	63306.406286	4534.559826	36559.895578
55.037000	-0.000961	-0.055412	-0.007757	-0.235993	8707.283616	64223.302888	4629.029356	37195.777644
55.537000	-0.002692	-0.021065	-0.007518	-0.165082	7820.635604	59280.638346	4372.862126	32036.971991
56.034500	-0.000518	-0.015459	-0.006604	-0.145603	7630.397500	57511.419306	4312.198650	30761.187683
56.534500	-0.003193	-0.009922	-0.006886	-0.106050	7196.797275	53405.552475	4190.468551	28340.296287
57.037500	-0.001011	-0.009419	-0.008296	-0.105373	7211.537842	53385.406535	4184.397393	28300.785594
57.535500	0.003263	-0.008928	-0.005159	-0.113548	7335.435810	54400.617985	4217.672935	28782.436154
58.035500	0.008842	-0.001146	0.001391	-0.048701	6776.095719	48072.902031	4055.078827	25199.563283
58.536000	0.004258	-0.001721	-0.006939	-0.037118	6636.306758	46828.862619	4004.353962	24614.013059
59.036500	0.004047	-0.000626	-0.001484	-0.041998	6676.140741	47435.761138	4030.388153	24858.778893
59.537000	0.001479	0.001376	-0.000182	-0.014962	6430.659837	44947.376123	3966.691955	23536.544647
60.034000	0.002817	0.003994	-0.004180	-0.014355	6436.527536	45142.035279	3955.688638	23507.813647
60.534500	0.003797	0.004259	0.001020	-0.013371	6436.492456	45072.369263	3965.759038	23461.273080
61.037500	0.005860	0.006271	0.004325	-0.000737	6352.663112	44055.991314	3943.602885	22873.185015
61.535000	0.004983	0.007031	0.000746	0.008971	6270.754126	43219.035417	3912.861416	22432.825137
62.035500	0.011311	0.011754	0.010499	0.031454	6149.521793	41607.803017	3884.273321	21449.901728
62.535000	0.009258	0.010896	0.004020	0.020437	6216.231602	42521.405619	3894.369714	21925.199442
63.038500	0.011659	0.009660	0.009187	0.008744	6323.947512	43484.315857	3932.809043	22443.003489
63.536500	0.014605	0.012121	0.006341	0.036852	6134.061888	41163.289985	3863.358591	21221.411900
64.036500	0.015236	0.009022	0.008226	0.029840	6190.581748	41508.592594	3882.817105	21518.793253
64.537000	0.012664	0.009391	0.010644	0.055077	5989.628828	39366.091917	3833.701882	20470.558909
65.037500	0.010294	0.007692	0.008216	0.049253	6013.885562	39712.958130	3840.848041	20707.062668
65.537500	0.010942	0.006645	0.013988	0.082781	5790.541720	36904.294959	3784.038952	19387.873308
66.035000	0.014466	0.007690	0.012164	0.111666	5629.459296	34799.723224	3725.276118	18330.205496
66.538000	0.013719	0.008256	0.012606	0.135574	5481.618635	33136.165899	3683.090676	17506.449727
67.035500	0.019082	0.010155	0.013332	0.146481	5449.513961	32517.721180	3665.485087	17145.434908
67.535500	0.009106	0.010340	0.020579	0.163795	5297.328370	31376.563262	3648.478519	16590.676989
68.036000	0.009532	0.007495	0.018745	0.205389	5085.104789	28617.487405	3579.466692	15344.965277
68.536000	0.010740	0.008407	0.018456	0.211577	5060.767668	28308.257785	3569.752428	15169.615099
69.037000	0.008486	0.009768	0.016974	0.209633	5059.260315	28501.496013	3570.441547	15224.424198
69.539000	0.011188	0.013438	0.021730	0.206413	5088.208628	28909.201872	3582.437289	15315.768688
70.046000	0.013046	0.013244	0.018092	0.200056	5129.025691	29279.282802	3586.575514	15498.079430
70.538000	0.017746	0.015948	0.023871	0.200343	5151.271007	29425.927130	3595.017336	15489.788490
71.035000	0.015453	0.016680	0.017906	0.197880	5152.134370	29620.967660	3589.623195	15561.109355
71.535500	0.013150	0.017098	0.026436	0.199303	5133.325561	29559.430927	3600.616958	15519.847009
72.036000	0.019592	0.018983	0.022438	0.189252	5217.812680	30299.268835	3610.124399	15814.144951
72.536000	0.020431	0.018686	0.024799	0.183357	5253.240862	30653.309501	3623.306480	15989.936500
73.036500	0.018081	0.016674	0.023328	0.176762	5275.854814	30946.601909	3631.615618	16189.453215
73.536000	0.015185	0.018992	0.016962	0.178050	5253.561819	31012.901964	3619.239778	16150.243026
74.037000	0.018367	0.020961	0.028141	0.167160	5329.404781	31854.513534	3655.520844	16485.420812
74.537000	0.014881	0.022138	0.018879	0.164746	5323.536490	32093.910328	3644.064410	16560.836013
75.034000	0.015947	0.021831	0.020286	0.152659	5396.501756	32893.645285	3666.812148	16944.953721
75.535000	0.014937	0.022694	0.014154	0.151079	5399.709649	33062.245965	3659.060116	16995.952176
76.038000	0.015750	0.024055	0.026584	0.137591	5481.694230	34107.486122	3704.306458	17438.986371
76.535000	0.012810	0.024028	0.011981	0.133948	5485.802938	34367.565560	3684.843365	17561.045498
77.035500	0.016730	0.025548	0.014083	0.124052	5567.747843	35202.766762	3706.177492	17897.785731
77.536000	0.013703	0.026141	0.025246	0.123821	5550.951984	35263.896010	3726.988681	17905.726416
78.036000	0.021964	0.027489	0.025221	0.114589	5657.820242	36059.272531	3744.209147	18227.024036
78.537000	0.014971	0.027711	0.014312	0.114199	5616.971458	36105.856801	3724.563398	18240.742880
79.037000	0.018484	0.028751	0.022309	0.106253	5688.262568	36797.862566	3754.527252	18523.090815
79.537500	0.015220	0.026941	0.012160	0.106177	5668.245623	36663.222756	3735.470094	18525.818885
80.034500	0.016496	0.027964	0.021112	0.098078	5727.543028	37377.542646	3767.991312	18818.977918
80.535000	0.011705	0.027755	0.011757	0.099179	5690.123735	37274.045180	3747.896198	18778.812788
81.035000	0.018933	0.028514	0.015926	0.094234	5767.993827	37727.023257	3765.384510	18960.062197
81.536000	0.015558	0.027532	0.021754	0.093037	5753.900214	37744.170512	3779.118448	19004.239299
82.036000	0.018203	0.027176	0.015559	0.092095	5777.150695	37791.110705	3768.828211	19039.097031
82.539500	0.014829	0.027006	0.022260	0.092588	5752.089889	37738.030923	3781.002547	19020.847384
83.036500	0.015958	0.028273	0.021071	0.094548	5746.740880	37682.665035	3774.805004	18948.492491
83.536500	0.011761	0.027245	0.019588	0.101218	5677.640690	37073.486269	3758.968112	18704.673003
84.037000	0.017676	0.027331	0.016257	0.096592	5744.639440	37445.141203	3761.464918	18873.377410
84.537000	0.011403	0.026878	0.017553	0.102099	5669.874224	36975.796675	3753.376822	18672.750779
85.035000	0.012652	0.026843	0.017974	0.099021	5697.098380	37214.589162	3760.091345	18784.559090
85.537500	0.013218	0.027365	0.015682	0.106714	5652.402358	36654.463935	3741.069734	18506.562078
86.035500	0.015315	0.028331	0.016568	0.103126	5688.000110	37009.132327	3749.539580	18635.614650
86.535500	0.012959	0.027391	0.023217	0.108906	5637.198785	36487.098401	3751.194064	18428.256248
87.036500	0.015625	0.027438	0.017555	0.105212	5676.826438	36776.694012	3747.451188	18560.446320
87.536000	0.011287	0.026447	0.017594	0.110748	5615.543060	36272.998029	3737.084626	18362.741365
88.036500	0.013747	0.027161	0.014969	0.107187	5652.748761	36602.029275	3738.839793	18489.620008
88.537000	0.016490	0.028481	0.019349	0.109347	5656.375193	36537.120044	3743.019417	18412.534999
89.037000	0.018806	0.027315	0.020553	0.109286	5671.229004	36451.934007	3745.411718	18414.719850
89.534500	0.013986	0.028487	0.017239	0.116459	5597.126949	35992.997049	3725.795198	18161.386455
90.037500	0.020834	0.028624	0.025075	0.111088	5672.640258	36413.955298	3750.576710	18350.673495
90.535000	0.019587	0.028974	0.026455	0.116175	5633.234448	36051.617477	3743.544747	18171.350572
91.035500	0.022363	0.029728	0.020792	0.112637	5672.514019	36379.780449	3739.541306	18295.841056
91.536000	0.018667	0.029386	0.016461	0.118142	5615.460548	35933.532572	3721.263054	18102.584663
92.036000	0.022172	0.031136	0.022486	0.113396	5666.574975	36429.737107	3741.301741	18269.067070
92.536500	0.017138	0.031220	0.022067	0.117709	5608.740653	36105.816225	3732.434739	18117.679091
93.036500	0.023534	0.032128	0.024353	0.113452	5674.746837	36501.796090	3744.718623	18267.080697
93.537500	0.022540	0.032263	0.026703	0.113274	5669.636125	36525.949999	3749.515463	18273.370073
94.037000	0.023747	0.031751	0.026382	0.112948	5679.250219	36511.612133	3749.525155	18284.878563
94.534500	0.023226	0.032351	0.026466	0.117771	5645.882221	36187.407619	3740.556574	18115.533589
95.038000	0.025265	0.032506	0.025681	0.112765	5689.963701	36584.085762	3748.538961	18291.343430
95.535500	0.026051	0.032155	0.027338	0.112342	5697.593404	36589.593413	3752.500331	18306.266339
96.035500	0.024304	0.030968	0.023123	0.111152	5694.076708	36589.824676	3746.744941	18348.424280
96.536000	0.025578	0.031868	0.028659	0.111580	5699.426358	36626.386359	3756.488142	18333.253744
97.036500	0.026623	0.032158	0.021533	0.112221	5701.982159	36599.172131	3741.719106	18310.566364
97.537000	0.024608	0.031777	0.020987	0.115035	5671.560436	36352.968526	3735.410741	18211.348362
98.037000	0.027316	0.032815	0.030352	0.111800	5709.047666	36682.607100	3759.317104	18325.436903
98.537000	0.027157	0.032307	0.027872	0.110495	5716.336302	36744.510779	3757.059450	18371.731019
99.034500	0.027091	0.032111	0.028072	0.110584	5715.352185	36722.414752	3757.273416	18368.564793
99.538000	0.025627	0.033066	0.029799	0.109884	5710.489850	36851.065762	3761.946215	18393.412958
100.035500	0.026273	0.032615	0.028857	0.109636	5716.170932	36835.245501	3760.606450	18402.235393
100.536000	0.024391	0.032852	0.028244	0.108675	5710.313758	36928.642522	3761.277615	18436.463540
101.036000	0.028609	0.031736	0.026999	0.107890	5742.294960	36902.895053	3760.391502	18464.502654
101.536500	0.022823	0.032163	0.031052	0.112495	5676.293864	36578.365414	3759.328001	18300.861905
102.036500	0.025087	0.032954	0.031074	0.108153	5718.065351	36977.470583	3767.771699	18455.090816
102.536500	0.021991	0.033311	0.022696	0.111870	5674.993731	36715.697407	3744.576695	18322.962257
103.034000	0.027472	0.033255	0.022168	0.106838	5741.749441	37104.173208	3753.140236	18502.133129
103.534500	0.024750	0.033193	0.022807	0.110714	5699.658035	36796.346808	3746.975830	18363.929247
104.035000	0.026990	0.033797	0.032037	0.105332	5748.334155	37265.287641	3775.162569	18556.150656
104.535500	0.025268	0.032423	0.031145	0.108527	5716.837699	36906.756171	3767.182885	18441.761521
105.035000	0.027945	0.034720	0.029567	0.104546	5759.572206	37400.284472	3771.864014	18584.398981
105.536000	0.026864	0.034512	0.029167	0.107679	5732.448794	37136.766453	3764.990143	18472.035414
106.036000	0.027767	0.034364	0.032227	0.102778	5769.876981	37512.348479	3780.562046	18648.193287
106.536000	0.023778	0.034326	0.031187	0.106366	5721.115434	37225.418958	3771.472952	18519.016780
107.036500	0.030855	0.035338	0.034475	0.101459	5798.624943	37694.950658	3787.631638	18695.929496
107.537000	0.025808	0.033264	0.023542	0.103785	5750.688912	37345.400814	3761.641479	18611.843223
108.037000	0.029961	0.034484	0.031074	0.098982	5809.028485	37824.856919	3785.795101	18785.975015
108.534500	0.024347	0.033501	0.026509	0.102871	5747.161396	37436.470035	3769.166686	18644.820677
109.037000	0.025445	0.033399	0.032407	0.097187	5791.181164	37881.814628	3792.029980	18851.585918
109.535000	0.027146	0.033803	0.028016	0.099815	5785.120081	37703.737733	3778.101080	18755.648477
110.035000	0.029631	0.034005	0.031746	0.096859	5820.851532	37956.872095	3791.362654	18863.573922
110.535500	0.025717	0.033667	0.034545	0.101332	5765.951035	37571.818926	3788.022408	18700.517245
111.036000	0.026096	0.032673	0.025331	0.095306	5807.784331	37974.717517	3781.700307	18920.589555
111.536000	0.025055	0.034495	0.031547	0.100307	5768.312067	37719.678057	3784.105741	18737.767168
112.037000	0.029562	0.034180	0.033134	0.095566	5828.949430	38075.177004	3796.739667	18911.020274
112.542500	0.024126	0.033531	0.026482	0.100680	5759.875228	37612.967690	3773.393337	18724.206071
113.034500	0.029562	0.033375	0.029201	0.094916	5833.264467	38062.675187	3790.161512	18934.934135
