sample name	sample
index	1478
start time	 05-18-2021  12:24:48 PM
880	0.210267
Peak Time (s)	92.535
Peak Height 	0.2103
calc peak height	90,93
Baseline Time (s)	8.536
Baseline Value 	-0.002935
subtract baseline	10,4
Abs	0.127661
Peak Time (s)	92.035
Peak Height 	0.1277
calc peak height	90,93
Baseline Time (s)	11.035
Baseline Value 	0.003023
subtract baseline	10,3
PK_550	0.088592
Peak Time (s)	92.035
Peak Height 	0.08859
calc peak height	90,93
Baseline Time (s)	10.037
Baseline Value 	4.0603E-4
subtract baseline	10,2
PK_880	0.126136
Peak Time (s)	91.037
Peak Height 	0.1261
calc peak height	90,93
Baseline Time (s)	10.037
Baseline Value 	0.001369
subtract baseline	10,1


Time (s)	A880-A510	A880-A775	A880-A975	A880	I510	I775	I975	I880	
0.036500	-0.002603	0.000000	-0.001923	0.002226	6556.977684	44682.340021	3960.924774	23319.085859
0.533500	-0.000586	-0.000640	-0.006316	0.003932	6559.590748	44457.302113	3945.809312	23238.998658
1.037500	-0.003135	-0.000618	-0.007966	0.002957	6546.344985	44552.728525	3944.148958	23284.707074
1.535000	-0.001900	-0.000264	-0.007250	0.004306	6545.394366	44457.516769	3942.597016	23221.488271
2.035500	-0.001374	-0.000811	-0.001259	0.000153	6584.897461	44803.860065	3967.778299	23416.818541
2.535500	-0.000613	0.000359	-0.001338	0.000576	6587.758754	44875.869207	3966.516891	23396.800728
3.036000	0.000440	0.000309	0.002924	-0.001442	6613.934611	45066.412910	3982.383770	23492.308193
3.536500	-0.002184	-0.000166	-0.005337	0.003890	6546.503734	44506.662593	3948.324519	23240.954831
4.036500	-0.001217	-0.000710	-0.002845	0.000166	6586.116615	44812.344849	3963.769298	23416.200748
4.537000	-0.000485	-0.000155	0.001006	0.000570	6588.893419	44826.785199	3972.427050	23397.085893
5.037000	-0.000120	0.000297	-0.000929	0.000869	6589.458553	44841.647592	3966.808630	23383.008188
5.537500	-0.001695	-0.000683	-0.003095	0.000202	6581.751773	44811.430780	3963.053360	23414.496380
6.035000	-0.000209	-0.000135	-0.002863	0.000477	6592.042763	44837.841682	3962.947874	23401.519837
6.535000	0.000490	0.000131	0.001888	0.000270	6599.749197	44883.497252	3975.414328	23411.290385
7.035500	-0.002489	-0.000456	0.001268	-0.000066	6577.289004	44859.174391	3974.695153	23427.130933
7.536000	0.000973	0.000409	-0.000938	0.000321	6603.431461	44905.463639	3968.162459	23408.887784
8.039000	0.000832	0.000169	-0.001036	0.000561	6600.181471	44859.015527	3967.314732	23397.547146
8.536000	0.000143	-0.000427	-0.000036	0.000000	6599.090928	44855.626038	3971.238009	23424.033140
9.036500	0.000308	-0.000165	-0.001841	0.000090	6599.728347	44872.173563	3966.473323	23419.763765
9.537000	-0.000794	0.000156	0.000041	0.000098	6590.280117	44902.426813	3971.184732	23419.401267
10.037500	0.000000	0.000000	0.002200	-0.000171	6599.333425	44913.435505	3977.321114	23432.137103
10.537500	-0.003641	0.000430	0.000368	-0.000199	6568.675777	44957.743135	3972.759740	23433.454152
11.035000	0.000459	-0.000104	0.000000	-0.000270	6604.087506	44912.863424	3972.009237	23436.794065
11.535500	-0.001184	0.000523	-0.001807	0.000364	6584.713068	44912.202994	3965.873992	23406.840288
12.035000	-0.000015	-0.000733	-0.001951	-0.000983	6606.127482	44920.991351	3968.892065	23470.554155
12.536500	-0.002823	-0.000253	-0.002386	0.003695	6542.774730	44516.967660	3956.113061	23250.086553
13.036500	-0.001458	-0.000340	-0.004697	-0.001228	6595.919548	44982.859343	3962.625856	23482.187780
13.536500	0.001543	-0.000065	-0.002317	-0.000502	6615.325508	44939.069374	3966.765510	23447.766394
14.036500	-0.001547	-0.000239	-0.004914	0.001705	6570.280316	44709.397509	3954.778185	23343.603498
14.536500	-0.005155	-0.000750	-0.003707	0.003168	6527.669924	44519.916155	3954.144064	23274.835336
15.037500	0.000095	-0.000022	0.002360	-0.000227	6600.613450	44916.640862	3977.865827	23434.768076
15.537500	-0.001466	-0.000669	-0.006822	-0.000736	6591.665085	44903.393269	3956.101270	23458.865698
16.035000	-0.001243	0.000086	-0.001120	-0.000934	6595.240330	44995.536833	3970.860838	23468.240082
16.535000	-0.003413	-0.000394	-0.001986	0.002654	6546.560603	44603.331897	3959.701547	23298.959423
17.035500	0.000974	0.000126	0.001761	-0.003025	6632.086387	45202.483681	3983.453433	23567.519965
17.539500	-0.002057	-0.000346	-0.001751	0.002369	6560.370265	44635.356432	3960.999242	23312.363773
18.036500	-0.001250	0.000312	0.000545	0.001081	6578.070399	44822.592036	3969.979837	23372.990013
18.536500	-0.000344	0.000387	-0.004126	0.002316	6575.286628	44710.829422	3955.218083	23314.848852
19.037000	0.000003	-0.000310	-0.006978	0.000636	6592.483931	44805.529047	3952.313311	23393.990537
19.537500	-0.003725	-0.000540	-0.001364	0.000188	6564.699434	44826.582757	3967.426984	23415.162634
20.036500	-0.000044	-0.000375	-0.002614	0.000681	6591.710145	44794.979514	3963.058852	23391.886484
20.535000	-0.004000	0.000025	-0.001390	0.001475	6551.540333	44756.976360	3964.134436	23354.429995
21.035500	0.001266	-0.000147	-0.001625	0.000533	6604.124315	44831.204298	3965.904718	23398.848919
21.535500	-0.000318	0.000710	-0.002387	0.001106	6585.770904	44858.672275	3962.564472	23371.837923
22.038500	-0.001652	-0.000848	-0.001377	0.000064	6583.286647	44808.809936	3967.702869	23420.987718
22.536000	-0.001496	0.000217	-0.002104	0.002120	6567.199156	44713.268844	3960.736645	23324.043629
23.036000	-0.001373	-0.000108	-0.000462	0.000707	6580.196049	44818.152484	3968.388372	23390.633928
23.536500	-0.000836	0.001055	-0.000811	0.001616	6577.052140	44842.723913	3965.231385	23347.794335
24.036500	-0.000919	0.000282	-0.003641	0.000794	6583.314216	44847.395681	3960.212452	23386.537881
24.534500	-0.002501	0.000414	-0.003863	0.002668	6554.114513	44679.622368	3954.996146	23298.308750
25.035000	-0.000190	-0.000567	-0.003938	0.000398	6592.865710	44803.667400	3960.458436	23405.220988
25.535500	-0.002594	0.000374	-0.002632	0.000763	6569.393039	44859.265596	3962.808581	23387.997065
26.035500	-0.001043	0.000318	0.001146	0.000965	6580.816076	44834.385175	3971.785871	23378.486198
26.536000	-0.001608	-0.000049	0.000532	0.002164	6565.895859	44683.601315	3967.226598	23322.015624
27.036000	-0.001406	-0.000395	-0.002222	-0.002191	6604.557084	45070.715992	3971.249869	23527.843253
27.538000	-0.003276	0.000013	-0.001773	0.003966	6536.702480	44516.498320	3956.963938	23237.392502
28.037000	-0.001196	0.000173	0.000678	-0.000635	6593.099363	44974.980221	3974.641360	23454.058512
28.536500	0.001135	0.000384	-0.000429	-0.000551	6612.263123	44987.340570	3971.637334	23450.109314
29.037500	0.001909	0.000421	0.001379	-0.000801	6621.027194	45015.168004	3976.835754	23461.950523
29.537000	-0.005871	-0.000796	-0.000846	0.004367	6511.696665	44400.779191	3958.272150	23218.612260
30.040500	0.000524	0.000378	0.001572	-0.000691	6608.232134	45000.297078	3977.045229	23456.726902
30.535000	-0.004764	-0.000110	-0.001111	0.003557	6527.681732	44543.979793	3959.630247	23256.579883
31.035500	-0.000836	0.000001	0.004606	0.001088	6581.523358	44791.939667	3980.227849	23372.643997
31.538500	-0.002642	-0.000496	-0.006059	0.004320	6539.052100	44433.970097	3945.487586	23220.831160
32.036500	-0.001691	0.000169	-0.003252	-0.000934	6591.435335	45003.611476	3965.505238	23468.242580
32.536500	0.001737	-0.000324	0.000021	-0.000924	6620.604702	44954.879033	3973.713624	23467.753016
33.036500	-0.001785	0.000243	-0.001798	-0.001237	6593.207370	45040.171547	3969.915148	23482.581142
33.537000	-0.004910	-0.001250	-0.006493	0.003017	6530.979796	44486.521763	3947.628721	23281.924616
34.037500	0.001091	0.000025	-0.001485	0.001125	6597.584168	44790.680588	3964.773291	23370.920314
34.537500	-0.002342	-0.000085	0.002636	0.001275	6567.201083	44765.637586	3974.764800	23363.869718
35.035000	-0.002399	-0.000170	-0.001787	0.000524	6573.059146	44829.837589	3965.519663	23399.258678
35.535500	-0.000489	0.000924	-0.002419	0.002327	6573.971325	44761.522884	3959.437074	23314.348976
36.035500	-0.003293	0.000883	0.000189	0.001170	6560.064378	44869.205328	3968.861407	23368.821050
36.536000	-0.002878	-0.000572	-0.003588	0.002037	6556.251083	44645.481358	3957.246967	23327.950805
37.035500	-0.000953	-0.000263	0.003905	0.001029	6581.030904	44772.157487	3978.598892	23375.426876
37.536500	0.001643	0.000821	0.000140	0.001707	6597.327491	44811.337634	3967.387306	23343.502971
38.037000	-0.002555	0.000613	-0.000875	0.001645	6562.272244	44797.284316	3964.998017	23346.417392
38.537000	-0.000622	0.000173	-0.003402	0.002010	6575.527148	44719.696643	3957.778528	23329.249020
39.034500	0.000568	0.000862	-0.001340	0.001683	6588.382437	44817.547444	3963.736919	23344.613965
39.535000	-0.001469	-0.000999	-0.003582	0.000399	6582.004398	44762.050506	3961.346047	23405.199480
40.035000	-0.000153	0.001067	-0.001415	0.001909	6580.345954	44815.519353	3962.985969	23333.969786
40.535500	0.000325	-0.000301	-0.000616	0.001352	6589.138682	44737.412353	3966.381281	23360.208397
41.039000	-0.002216	0.000210	-0.001350	0.001554	6565.907372	44767.215271	3964.036250	23350.709864
41.536000	-0.001071	-0.000140	0.002801	0.001203	6578.556775	44767.272949	3975.362479	23367.245520
42.036500	-0.001690	-0.000519	-0.002281	0.001012	6574.935877	44749.160136	3963.063052	23376.254275
42.536500	-0.001255	-0.000066	-0.008049	0.003037	6561.502312	44598.043517	3943.749925	23280.980323
43.037000	-0.001454	-0.000351	0.000486	0.001271	6574.733846	44740.409463	3969.351724	23364.034232
43.537500	0.000271	0.000319	-0.003886	0.001540	6587.079239	44779.044885	3957.743067	23351.364149
44.037500	-0.001075	0.000157	0.003462	-0.000705	6594.723913	44980.203325	3981.879251	23457.373878
44.535000	0.000035	0.000821	-0.002443	0.003694	6566.839660	44620.070439	3955.974370	23250.146775
45.035500	0.001406	0.000733	-0.004427	-0.000268	6612.164355	44993.755955	3960.900813	23436.726655
45.536000	0.002691	0.000856	0.006710	-0.000210	6622.667604	45000.033569	3988.904225	23433.973495
46.036000	0.000356	0.000792	0.000581	-0.000292	6603.397863	45001.762243	3973.531347	23437.853687
46.539000	-0.001318	-0.000786	-0.000472	0.002722	6563.623812	44559.171302	3963.310913	23295.743896
47.036000	0.002431	0.000051	-0.002538	-0.000483	6622.772103	44948.450759	3966.164302	23446.869270
47.536500	-0.000273	-0.000712	0.002276	0.001752	6580.664293	44659.346350	3972.650571	23341.372508
48.037000	0.000403	0.000542	-0.002016	0.000188	6599.704828	44931.135631	3965.791417	23415.153101
48.537500	0.000351	-0.000435	-0.001744	0.003651	6569.876896	44503.830316	3957.819635	23252.173039
49.035000	0.000129	0.000526	-0.001912	-0.000426	6602.598879	44988.935668	3967.590617	23444.174255
49.535000	-0.002090	-0.000488	-0.002431	0.003116	6553.802104	44550.024587	3957.443290	23277.272192
50.035500	0.002438	0.000413	0.001286	-0.001442	6631.061902	45076.483764	3978.224131	23492.288099
50.538500	-0.000729	0.000652	-0.002650	0.010453	6503.855099	43960.200537	3938.808454	22935.794230
51.036000	-0.002252	-0.005691	0.003284	0.082762	5940.298837	37162.439288	3788.333306	19861.973030
51.536000	0.004985	-0.012119	-0.010789	0.095875	5899.427523	35656.000109	3733.038288	19357.302816
52.036000	-0.010161	-0.019437	-0.012129	-0.067627	7121.150267	49822.592933	4120.488949	26883.188990
52.536500	-0.027474	-0.059138	-0.027287	-0.219286	8651.745107	63614.196998	4579.684828	36909.066094
53.037500	-0.023419	-0.063521	-0.010621	-0.226288	8800.092996	63981.335952	4675.050007	37461.928032
53.537500	-0.023070	-0.050579	-0.008541	-0.202843	8494.479832	62522.409541	4588.737928	35645.325523
54.035000	-0.010491	-0.035750	0.004474	-0.166753	8199.627878	59675.049828	4500.172171	33033.753029
54.535000	-0.008259	-0.024635	0.005402	-0.125752	7746.957918	55900.936142	4357.107722	30318.522211
55.038500	0.003092	-0.013435	0.010720	-0.088122	7462.317555	52773.006225	4250.988740	28042.378888
55.536000	0.011950	-0.003893	0.018852	-0.051971	7184.371296	49810.480145	4165.150521	26033.815717
56.036000	0.026383	0.008910	0.026013	-0.051324	7322.583288	51141.424710	4184.613769	25999.366957
56.539000	0.035816	0.013885	0.033790	-0.030706	7210.105837	49435.517844	4146.519680	24928.072868
57.036500	0.046974	0.017865	0.044980	-0.039421	7411.960658	50815.100827	4206.054053	25374.690083
57.537000	0.062577	0.029922	0.053660	0.005963	7112.877612	47277.561125	4098.353986	23144.092740
58.037500	0.068434	0.036468	0.069514	0.029342	6946.244198	45591.257067	4077.374635	22082.814833
58.535000	0.069380	0.041017	0.064378	0.054255	6728.955016	43636.752584	3997.132975	21013.055749
59.038500	0.081552	0.048172	0.084835	0.072641	6674.546923	42597.340497	4002.488643	20262.023778
59.536000	0.084198	0.051343	0.084818	0.094551	6510.745849	40922.008087	3947.079343	19407.592513
60.038500	0.092267	0.056293	0.093506	0.122533	6348.884057	38959.296264	3900.582800	18377.177208
60.536000	0.091783	0.059164	0.097044	0.152741	6113.498732	36760.882595	3839.621732	17336.845011
61.036500	0.093305	0.058671	0.103992	0.178083	5941.952439	34806.688459	3799.705221	16518.229903
61.536500	0.092676	0.057811	0.104341	0.205675	5750.513660	32784.812142	3743.609212	15679.590993
62.037000	0.094569	0.062296	0.106739	0.236260	5568.221671	31043.107864	3689.154020	14810.181286
62.537000	0.092999	0.065022	0.108454	0.235940	5560.548093	31240.984096	3692.967748	14818.950693
63.034000	0.096141	0.066957	0.106738	0.228836	5624.083360	31836.553523	3703.153841	15015.623490
63.557000	0.099770	0.069632	0.109402	0.219578	5706.153369	32642.006905	3726.144345	15276.776583
64.039000	0.102390	0.070833	0.105932	0.214772	5754.568019	33055.942569	3728.761286	15414.578948
64.538500	0.103422	0.071603	0.116931	0.210259	5791.251670	33424.689493	3759.728531	15545.341754
65.036000	0.102172	0.071972	0.111636	0.203423	5828.690776	33934.963807	3762.867204	15746.051436
65.536000	0.104512	0.074061	0.109661	0.198778	5876.198189	34419.611722	3768.330613	15884.267586
66.036500	0.105740	0.073586	0.109269	0.192590	5927.471563	34836.647421	3780.304184	16070.669265
66.536000	0.104588	0.073745	0.109768	0.192751	5918.322847	34836.460853	3781.007349	16065.779179
67.037000	0.109091	0.076066	0.115095	0.184318	6009.606988	35636.573871	3810.105901	16324.035716
67.534500	0.109237	0.074082	0.112162	0.179472	6045.568781	35852.866526	3814.224072	16474.730487
68.041000	0.108948	0.076063	0.115452	0.176548	6064.712284	36226.826317	3827.727947	16566.450383
68.535500	0.106828	0.076082	0.117194	0.179516	6027.851404	36001.557255	3825.051120	16473.356676
69.035500	0.110063	0.077822	0.115784	0.173364	6096.206812	36608.105673	3835.455708	16667.059825
69.535500	0.112715	0.077537	0.113961	0.172080	6125.318074	36685.720812	3834.268456	16707.854388
70.036000	0.112378	0.078683	0.115148	0.171967	6123.646833	36783.698909	3837.138147	16711.435697
70.536500	0.108289	0.078201	0.110133	0.176408	6060.933080	36402.015747	3816.461363	16570.871449
71.039000	0.110443	0.077654	0.112576	0.171998	6109.088534	36701.148657	3831.401710	16710.450228
71.537000	0.111964	0.077515	0.113659	0.173089	6112.264361	36605.642081	3831.382775	16675.789523
72.038000	0.112322	0.078425	0.114310	0.174804	6102.247835	36543.252656	3829.050051	16621.492788
72.534500	0.109079	0.076965	0.111498	0.180342	6038.129301	36005.873777	3810.921094	16447.548521
73.035000	0.115342	0.078849	0.115823	0.176975	6108.509566	36408.289278	3827.606676	16553.029313
73.535500	0.115556	0.080663	0.114912	0.178916	6095.773846	36398.523534	3821.385327	16492.128432
74.038500	0.117310	0.080256	0.114697	0.178976	6108.268996	36362.515658	3820.788474	16490.247490
74.536000	0.114453	0.081419	0.115221	0.185181	6042.002133	35976.556239	3808.523457	16297.383168
75.036000	0.118624	0.082017	0.120818	0.180187	6109.033444	36404.907552	3831.519280	16452.398089
75.536500	0.117202	0.082397	0.114418	0.180167	6098.678124	36435.764945	3817.598797	16453.002257
76.036000	0.117411	0.083673	0.122823	0.182067	6086.249230	36387.616266	3831.793444	16393.824066
76.537000	0.116717	0.083724	0.118433	0.188041	6037.685169	35934.331283	3809.279589	16209.397029
77.037500	0.119813	0.083479	0.118491	0.182964	6097.313018	36303.628718	3820.365325	16365.961496
77.535000	0.121009	0.084748	0.118637	0.185242	6089.353711	36226.178228	3815.746027	16295.489111
78.035000	0.122462	0.084444	0.116276	0.185179	6100.511128	36207.778688	3810.794865	16297.445193
78.535500	0.123191	0.084875	0.118578	0.186298	6097.637335	36155.009236	3813.339077	16262.938440
79.035500	0.120970	0.085131	0.121834	0.186648	6078.755401	36147.823466	3819.625650	16252.167805
79.536000	0.120671	0.084672	0.120615	0.187877	6067.594377	36019.032197	3814.329179	16214.440829
80.036000	0.121835	0.085535	0.125832	0.188978	6068.048244	36000.812047	3823.253056	16180.690996
80.536500	0.123965	0.085507	0.122377	0.190137	6075.145718	35910.588687	3813.253800	16145.301860
81.037000	0.120765	0.085294	0.126884	0.191190	6044.192509	35814.496847	3820.728518	16113.202252
81.537000	0.123658	0.085643	0.121283	0.192658	6054.534143	35729.911217	3805.494866	16068.608776
82.046000	0.120467	0.085203	0.122390	0.192220	6034.585035	35729.723240	3808.803025	16081.885280
82.535000	0.124932	0.085914	0.122839	0.193740	6055.922224	35668.671776	3806.507500	16035.817581
83.045000	0.123175	0.085637	0.129096	0.193786	6042.846425	35644.347468	3819.895372	16034.428816
83.538500	0.122680	0.084940	0.120231	0.193934	6038.188394	35580.695155	3800.529124	16029.933389
84.035500	0.120850	0.085547	0.122193	0.194211	6023.001471	35605.580539	3804.119933	16021.567272
84.536500	0.121195	0.085753	0.122325	0.194219	6025.425499	35620.474536	3804.384629	16021.331682
85.036500	0.121801	0.085629	0.121972	0.194689	6026.405516	35575.777401	3802.628704	16007.125174
85.536500	0.121420	0.086265	0.121386	0.195906	6014.920521	35532.141846	3798.795973	15970.442269
86.037000	0.124025	0.086363	0.122958	0.195849	6034.079488	35543.809374	3802.259125	15972.168176
86.534500	0.122667	0.086954	0.124460	0.196701	6018.169719	35524.197117	3803.645557	15946.534610
87.034500	0.124250	0.087402	0.121982	0.198014	6020.099663	35459.254598	3795.591492	15907.117463
87.535000	0.122622	0.085868	0.120619	0.197324	6013.366823	35396.066699	3794.167947	15927.800813
88.038500	0.124000	0.086623	0.123186	0.198018	6018.279752	35400.650557	3798.133002	15906.996690
88.535500	0.120609	0.087225	0.126076	0.205178	5943.420216	34913.958273	3789.122419	15694.245676
89.036000	0.123174	0.086305	0.125088	0.199214	6003.792749	35287.629451	3799.630014	15871.210610
89.535500	0.125954	0.087604	0.123737	0.200886	6011.727006	35259.912358	3793.232775	15821.359336
90.036500	0.123697	0.087682	0.124017	0.201854	5988.691352	35193.678184	3791.780690	15792.564959
90.537000	0.122724	0.088001	0.125619	0.202425	5977.726135	35174.965953	3793.955857	15775.621384
91.037000	0.126136	0.087611	0.124730	0.203731	5992.694870	35049.302934	3789.333770	15736.963174
91.534500	0.123552	0.086773	0.121931	0.203242	5977.805238	35023.429030	3784.493206	15751.411083
92.034500	0.124148	0.088592	0.127661	0.204789	5971.075114	35043.563361	3793.275379	15705.699864
92.535000	0.123353	0.087132	0.119084	0.210267	5927.017697	34534.449687	3764.100638	15545.107667
93.035500	0.125927	0.087732	0.123605	0.206015	5974.991920	34889.646105	3782.200452	15669.589216
93.566000	0.125060	0.088146	0.129511	0.207263	5960.042109	34828.322307	3791.961383	15632.927757
94.036000	0.125906	0.088317	0.128752	0.207958	5961.110122	34789.861056	3788.903408	15612.555711
94.539000	0.121811	0.088231	0.126581	0.214688	5885.732044	34293.613088	3770.404872	15416.989820
95.036500	0.123259	0.087306	0.128375	0.209236	5933.554781	34622.328273	3785.434094	15575.175451
95.537000	0.124733	0.088491	0.120321	0.209771	5940.128526	34669.830695	3767.647880	15559.587847
96.037500	0.125898	0.088245	0.131260	0.210816	5940.967728	34575.587904	3788.167709	15529.130910
