sample name	sample
index	241
start time	 02-22-2021  11:30:58 AM
880	0.023817
Peak Time (s)	90.037
Peak Height 	0.02382
calc peak height	90,93
Baseline Time (s)	9.534
Baseline Value 	-0.004805
subtract baseline	10,4
Abs	0.044230
Peak Time (s)	91.038
Peak Height 	0.04423
calc peak height	90,93
Baseline Time (s)	11.536
Baseline Value 	0.002996
subtract baseline	10,3
PK_550	0.021817
Peak Time (s)	90.538
Peak Height 	0.02182
calc peak height	90,93
Baseline Time (s)	10.035
Baseline Value 	4.1213E-4
subtract baseline	10,2
PK_880	0.039146
Peak Time (s)	92.536
Peak Height 	0.03915
calc peak height	90,93
Baseline Time (s)	11.035
Baseline Value 	0.002262
subtract baseline	10,1


Time (s)	A880-A510	A880-A775	A880-A975	A880	I510	I775	I975	I880	
0.035000	-0.001052	-0.000097	-0.004644	0.001156	6908.194552	46906.901834	3993.793934	24732.994580
0.535000	-0.002788	-0.000398	-0.003054	0.006266	6845.260931	46361.988349	3984.585531	24477.253024
1.035500	-0.002530	-0.000059	-0.005540	0.003628	6871.762094	46661.033899	3984.979451	24608.904827
1.536000	0.000204	0.000238	-0.000910	0.001792	6913.949105	46876.503947	4001.961214	24701.018571
2.036000	-0.000736	-0.000505	-0.004372	0.000611	6916.178810	46920.774278	3995.942350	24760.450194
2.536000	-0.002276	-0.000176	-0.001785	0.004867	6862.728203	46524.545497	3991.558744	24546.976638
3.035500	0.000400	0.000118	0.002512	-0.001340	6944.951920	47182.584973	4019.435772	24859.036832
3.537000	-0.002669	0.000385	-0.002771	0.005940	6849.320132	46473.108348	3986.171728	24493.455260
4.037000	-0.000195	-0.000116	-0.000264	0.000690	6920.477147	46952.264635	4006.595918	24756.471789
4.537500	-0.000600	-0.000213	-0.002953	0.000692	6916.696610	46942.293152	3999.470726	24756.390601
5.035000	0.001220	0.000144	0.003145	0.000608	6934.413048	46987.069627	4015.909118	24760.635277
5.535000	0.002126	0.000980	-0.003098	0.001247	6936.909608	47007.068147	3997.622466	24728.439107
6.035500	-0.000833	0.000815	-0.000210	0.000986	6911.798898	47016.705149	4005.954292	24741.565782
6.536000	0.001186	0.000636	0.000549	0.001283	6927.804964	46968.480608	4007.181892	24726.628675
7.035500	-0.000824	0.000810	0.000051	0.000837	6913.274828	47031.374969	4007.043183	24749.078753
7.536000	-0.000030	-0.000220	0.004565	0.000449	6924.257734	46966.179780	4020.145926	24768.648696
8.037000	-0.000350	-0.000657	0.001600	0.000343	6922.253480	46932.576792	4012.484439	24773.964243
8.537000	-0.000095	-0.000281	-0.003819	-0.000106	6928.815762	47016.342048	3999.291238	24796.644466
9.034000	-0.001772	-0.000122	-0.001778	-0.000014	6912.372234	47023.209139	4004.446830	24792.013464
9.534000	0.002432	-0.000148	0.000628	0.000000	6951.425169	47019.063033	4010.807852	24791.290234
10.035000	0.001810	0.000000	-0.001446	0.000151	6944.186089	47018.742396	4004.888536	24783.648219
10.535500	-0.002283	0.000447	0.003582	0.000496	6902.911701	47029.173586	4017.377969	24766.264356
11.035000	0.000000	0.000853	0.000341	0.000908	6920.264296	47028.591618	4007.624406	24745.509985
11.536000	0.000075	0.000056	0.000000	-0.000029	6929.684264	47042.792794	4009.211137	24792.762411
12.036000	0.000248	-0.000299	-0.000926	-0.000221	6933.077735	47026.161095	4007.257392	24802.432371
12.537000	-0.000568	-0.000309	-0.002858	-0.000221	6925.487214	47025.279802	4002.136278	24802.473491
13.037000	-0.000228	0.000364	0.004115	-0.001726	6942.681800	47247.091405	4024.789271	24878.592821
13.537000	-0.003507	0.000249	-0.003717	0.005302	6847.495824	46523.552052	3985.368637	24525.244649
14.034500	0.001353	0.000285	-0.001328	0.000586	6935.867831	47003.632002	4004.051103	24761.749255
14.535000	-0.003221	-0.000334	-0.000159	0.002758	6873.405468	46721.033964	4001.391869	24652.499605
15.035500	-0.001235	-0.000360	-0.000416	-0.000278	6919.802920	47025.717757	4008.764251	24805.307870
15.565500	-0.002858	-0.000317	-0.001429	0.005694	6849.833239	46427.351959	3990.323260	24505.697024
16.035500	0.002310	-0.000589	0.003013	-0.000278	6952.891019	47002.499908	4017.929894	24805.333403
16.536000	-0.000557	0.000116	-0.001616	-0.000028	6923.789441	47048.792635	4004.912205	24792.701768
17.036500	0.002114	0.000777	-0.001140	0.000692	6941.970417	47042.745461	4004.266809	24756.377755
17.536500	-0.001692	0.000515	-0.006643	0.004731	6869.328480	46607.679072	3979.243909	24553.730222
18.036000	-0.000670	0.000589	0.001484	0.000793	6915.103583	47013.386339	4010.974722	24751.294339
18.534500	-0.003323	-0.000256	-0.004984	0.001340	6885.510687	46872.119894	3992.416299	24723.725023
19.034500	-0.000613	0.000178	0.004195	0.001848	6905.857779	46864.730345	4015.400107	24698.211749
19.535500	-0.002626	-0.000523	-0.004090	0.003194	6874.870774	46657.971292	3989.902813	24630.663020
20.035000	-0.001556	0.000661	0.002273	0.002099	6894.819536	46888.271542	4009.597689	24685.601377
20.535500	0.000093	0.000105	-0.000762	0.001863	6912.255433	46855.759541	4002.164973	24697.425111
21.035500	-0.000749	-0.000141	-0.000663	0.001470	6908.098453	46870.768365	4003.469725	24717.220869
21.536500	-0.003320	-0.001329	-0.003453	0.002021	6879.265805	46694.896386	3994.649234	24689.478591
22.035500	-0.001952	-0.001097	0.001777	0.000479	6906.137975	46874.300769	4012.596156	24767.134375
22.536500	-0.000847	-0.000234	0.001897	0.001396	6907.875324	46868.770505	4010.467725	24720.920911
23.037000	-0.000541	0.000446	0.000559	0.001440	6910.307158	46933.298874	4006.789986	24718.731669
23.535000	-0.002453	-0.000039	-0.003517	0.003337	6875.147956	46692.427411	3991.029196	24623.498057
24.035000	-0.001704	-0.000010	-0.001393	0.001554	6898.477490	46875.483895	4001.313046	24712.973757
24.535000	-0.001139	0.000206	-0.001702	0.001681	6902.534814	46884.559473	4000.162926	24706.612786
25.035500	-0.000431	-0.000674	0.000545	0.000873	6916.583959	46877.115322	4008.260851	24747.248043
25.535500	-0.002801	-0.000329	-0.005575	0.002950	6875.495890	46702.117916	3986.657691	24642.851993
26.036000	-0.002776	-0.000875	-0.001499	0.000767	6895.848714	46867.587928	4003.116378	24752.594424
26.536000	-0.001175	-0.000115	-0.001916	0.001651	6902.473399	46854.933857	3999.674330	24708.080181
27.037000	0.000438	0.000180	0.001975	0.001814	6915.919119	46868.399146	4009.563503	24699.910550
27.537000	-0.001436	-0.000449	-0.002506	0.001564	6900.873158	46830.073871	3998.349369	24712.495534
28.037000	0.000630	-0.000104	-0.001111	-0.002137	6954.567744	47241.223144	4011.868427	24899.448108
28.538000	0.000929	-0.000536	-0.001800	-0.000368	6940.803389	47017.023444	4005.324750	24809.853323
29.035000	0.001742	0.000694	0.003090	0.000711	6938.323777	47032.452205	4015.484558	24755.427267
29.535000	0.000423	0.000085	-0.000588	0.000156	6931.203870	47026.924522	4007.155589	24783.432119
30.036000	0.001508	0.000339	0.003236	0.000871	6934.653420	46980.114042	4015.448787	24747.373392
30.536000	-0.000180	0.000062	0.002217	-0.000047	6927.470864	47045.156098	4015.176878	24793.655173
31.036000	-0.000561	0.000097	0.000131	0.000299	6920.708675	47013.615790	4008.686410	24776.186542
31.550000	-0.000715	-0.000157	0.005607	0.000282	6919.434184	46989.521226	4023.396695	24777.037252
32.036000	0.000165	-0.000833	-0.003223	0.002462	6907.376694	46700.566416	3994.098067	24667.373420
32.534500	-0.003750	-0.000204	-0.002832	0.004264	6854.753382	46582.264235	3990.393956	24577.066892
33.091000	-0.000903	-0.000668	-0.000040	0.000018	6920.137168	46964.382111	4008.977322	24790.358787
33.537500	0.000350	0.000291	0.002943	0.000341	6928.788143	47029.052168	4016.079603	24774.062096
34.037500	0.000625	0.000998	0.000018	0.000810	6926.989082	47053.277378	4007.027329	24750.448861
34.536000	-0.002080	0.000431	-0.003994	0.004442	6868.418031	46628.319272	3986.889095	24568.178064
35.036000	0.001637	0.000341	0.004666	-0.000357	6947.319178	47105.100865	4022.583757	24809.315000
35.536000	-0.001303	-0.000530	0.002077	0.002633	6892.221837	46713.885951	4007.656493	24658.796382
36.036000	0.001239	-0.000570	0.001247	0.001614	6925.224262	46812.791795	4008.156880	24709.977636
36.536500	-0.000914	-0.000025	0.001750	0.002124	6900.516973	46816.296825	4008.137876	24684.339465
37.037000	-0.000457	-0.000268	0.001262	0.001926	6906.573263	46811.672591	4007.366406	24694.256266
37.537000	-0.000642	-0.000300	-0.000590	0.003288	6892.273469	46670.918187	3998.853956	24625.920539
38.037500	-0.001518	-0.000645	-0.002078	0.001693	6898.919746	46797.130305	3999.138190	24705.992976
38.535000	-0.000787	-0.000063	-0.002738	0.002000	6902.837737	46824.934832	3996.588263	24690.558063
39.035500	-0.001373	-0.000338	-0.000939	0.002293	6894.710392	46767.549294	4000.561872	24675.846410
39.535500	-0.000965	-0.000735	0.000698	0.003494	6887.399967	46606.462969	4001.713353	24615.629777
40.035500	-0.003210	0.000202	0.003096	0.002408	6876.722949	46810.499096	4010.965633	24670.066686
40.536000	-0.002070	-0.000076	0.006103	0.002579	6885.647054	46765.062924	4018.555374	24661.480804
41.036500	-0.000989	-0.000120	0.000375	0.002239	6898.765295	46795.081834	4004.181687	24678.566721
41.537000	0.002231	0.001075	0.000273	0.004063	6911.681850	46731.488024	3999.085895	24587.120261
42.037000	-0.002291	0.000328	0.000574	0.002597	6883.441461	46804.095962	4003.758538	24660.559736
42.537500	0.000221	0.000262	0.002330	0.002853	6904.274782	46771.573524	4007.742372	24647.759103
43.034500	-0.001305	0.000312	0.002522	0.002692	6891.661397	46792.953017	4008.682055	24655.829614
43.535000	-0.002463	-0.000204	0.002925	0.003547	6873.124532	46654.564333	4007.478123	24612.951969
44.035500	-0.003298	-0.000006	0.007482	0.002311	6876.805511	46799.210948	4022.981653	24674.920378
44.536000	-0.000363	0.000161	0.001437	0.002545	6901.717104	46792.530791	4006.186970	24663.186738
45.036000	0.000032	-0.000272	-0.000117	-0.000628	6934.855995	47070.285728	4010.494854	24822.994136
45.536500	-0.002879	-0.000235	-0.000294	0.004324	6862.181103	46573.208909	3996.905323	24574.104674
46.036500	0.001229	0.000915	0.001483	0.000645	6934.157458	47061.602805	4011.366163	24758.766699
46.536500	-0.000292	0.001083	0.001466	0.002159	6905.939451	46924.879880	4007.287360	24682.545363
47.037000	-0.000342	0.000066	-0.001305	0.000277	6922.952955	47012.692840	4004.928420	24777.317538
47.537500	-0.003799	-0.000618	-0.001527	0.004523	6851.944462	46514.700414	3993.136144	24564.138871
48.035000	0.000155	0.000268	-0.000665	0.000279	6927.557823	47032.982793	4006.622823	24777.202241
48.561500	0.000176	-0.000184	-0.001808	0.000583	6924.928799	46956.261581	4002.786855	24761.899327
49.035500	-0.003613	-0.000901	0.000828	0.002045	6876.354115	46735.694592	4005.898468	24688.294979
49.536000	-0.001976	-0.000394	0.001773	0.005024	6864.039948	46486.918482	4000.510110	24539.118286
50.064500	-0.000093	0.000558	-0.004413	0.000877	6919.687353	47001.790040	3995.136849	24747.082390
50.536500	-0.000952	0.000647	0.004727	0.001977	6901.523966	46899.127632	4016.479686	24691.714180
51.036500	0.000718	0.000063	-0.000528	0.000141	6934.088039	47026.199364	4007.352807	24784.173970
51.537500	-0.002351	-0.000219	-0.002595	0.005129	6859.643139	46493.890273	3988.749525	24533.874449
52.037000	0.001973	-0.000730	0.001815	-0.000140	6948.439268	46974.206705	4014.349155	24798.343961
52.535000	-0.002113	-0.002005	0.004376	0.003114	6880.328531	46516.937539	4012.499690	24634.672891
53.035000	-0.009026	-0.012622	0.021783	0.346302	4668.621776	22210.009385	3400.554086	12743.938627
53.535500	-0.037692	-0.028876	-0.000052	-0.002523	6614.078389	44435.399593	4015.730543	24919.028431
54.035500	-0.029193	-0.032953	-0.002237	-0.122656	7899.939875	57161.052440	4378.599631	31946.179145
54.535500	-0.009999	-0.043646	0.001060	-0.178559	8846.802560	63114.585413	4601.420380	35940.835625
55.036500	-0.020068	-0.019175	-0.004369	-0.087769	7611.047816	54586.485507	4253.935445	29701.588902
55.535500	-0.015053	-0.020313	0.004922	-0.113041	7952.473758	57540.256079	4369.996188	31309.429802
56.037000	-0.011523	-0.013948	0.001465	-0.099190	7833.443065	56606.485290	4310.721691	30416.655868
56.537000	-0.003224	-0.014659	0.005393	-0.113936	8103.172402	58370.460115	4374.773646	31368.094064
57.034500	0.000740	-0.011419	-0.000397	-0.110407	8108.406783	58333.719501	4342.466344	31137.469082
57.534500	0.002426	-0.008392	0.004052	-0.093070	7923.479346	56536.765863	4298.910257	30031.153221
58.035000	0.006311	-0.007291	0.005509	-0.086277	7889.847507	55838.238841	4281.250874	29609.548105
58.535500	0.004861	-0.004966	0.005522	-0.082460	7829.500271	55656.650031	4268.793286	29375.511554
59.035500	0.009380	-0.002501	0.004461	-0.069457	7733.825052	54391.781435	4223.673173	28593.594213
59.536000	0.012754	-0.000117	0.009915	-0.058957	7654.895594	53438.311249	4207.838450	27979.070181
60.036500	0.013471	0.000839	0.017224	-0.048764	7551.924822	52374.756275	4198.871832	27396.565348
60.536500	0.017982	0.003076	0.022329	-0.036970	7474.289470	51297.704776	4178.298950	26739.359731
61.037000	0.018606	0.005734	0.015660	-0.024631	7352.125689	50230.690732	4121.538696	26070.643943
61.537500	0.019660	0.006998	0.019553	-0.007081	7185.595193	48488.519257	4082.265618	25151.700404
62.038000	0.023959	0.009126	0.019664	-0.017883	7337.794570	49866.260477	4113.548047	25712.895908
62.535000	0.024927	0.009403	0.023804	-0.021410	7384.129668	50279.520697	4136.001344	25899.187734
63.035500	0.020805	0.010165	0.024009	-0.005860	7184.834204	48693.195837	4091.454415	25089.106198
63.536000	0.023443	0.010206	0.022759	-0.014640	7299.407414	49632.938892	4113.117685	25542.940272
64.036000	0.026144	0.016956	0.025525	-0.013778	7318.156736	50271.034522	4118.657817	25498.017020
64.536500	0.027722	0.019020	0.027333	-0.011333	7309.306299	50229.517347	4116.801811	25370.966012
65.036500	0.028353	0.021518	0.023601	-0.008664	7288.587852	50210.767231	4098.309506	25233.060111
65.554000	0.033111	0.023146	0.026457	-0.006736	7317.383098	50178.136796	4100.972355	25134.004935
66.046000	0.032034	0.023266	0.028323	-0.002504	7263.513310	49732.508955	4094.192316	24918.068441
66.534500	0.030611	0.022604	0.030961	0.001255	7211.564078	49258.074333	4090.991140	24728.002547
67.035000	0.030738	0.023164	0.033461	0.005508	7170.651113	48865.567711	4086.003468	24514.988296
67.535000	0.027640	0.022333	0.025022	0.014851	7049.584990	47801.146148	4036.532351	24054.227530
68.035500	0.030295	0.022628	0.030052	0.012815	7094.835671	48042.808047	4055.950292	24153.817692
68.535000	0.032768	0.023804	0.031695	0.018163	7067.047123	47611.195382	4045.729771	23893.286485
69.036000	0.029819	0.023528	0.026297	0.020352	7017.851077	47358.104141	4025.069443	23787.567788
69.539000	0.028684	0.022980	0.024580	0.028149	6933.692327	46511.832668	3999.668478	23415.305427
70.036500	0.031576	0.022522	0.026965	0.024104	6998.901157	46873.648067	4016.774127	23607.593016
70.539500	0.030955	0.023203	0.031495	0.027188	6963.944381	46630.968022	4020.656607	23460.837994
71.034000	0.029585	0.022860	0.033869	0.028204	6941.590861	46494.341851	4024.314361	23412.717591
71.537500	0.026263	0.022164	0.027936	0.035171	6846.594762	45731.766969	3990.031968	23085.776961
72.038000	0.028027	0.021693	0.033192	0.031464	6896.817910	46052.074678	4013.742524	23259.054888
72.535500	0.029056	0.022491	0.035909	0.033915	6883.708316	45888.142433	4014.453436	23144.297741
73.038000	0.028098	0.021432	0.035048	0.033686	6876.998747	45806.099333	4012.766108	23155.013484
73.536000	0.025630	0.020797	0.030107	0.039559	6801.041997	45167.855185	3984.241049	22882.504385
74.036000	0.028558	0.020719	0.037061	0.035516	6864.419948	45555.601214	4013.253946	23069.699439
74.536500	0.030283	0.020242	0.035451	0.036197	6873.997974	45441.921967	4007.147688	23038.040271
75.036500	0.029405	0.020658	0.035376	0.036263	6865.343194	45476.289847	4006.774734	23034.995299
75.536500	0.029321	0.021239	0.035551	0.036653	6860.993423	45495.047342	4006.202445	23016.882457
76.037000	0.029994	0.020869	0.037759	0.036424	6869.266769	45481.112514	4012.692553	23027.500499
76.535000	0.030781	0.020955	0.033778	0.036692	6874.030880	45463.259217	4001.401250	23015.049464
77.038000	0.031245	0.020378	0.038377	0.035958	6885.053906	45478.737289	4015.591989	23049.154163
77.535500	0.027465	0.020548	0.033697	0.041787	6797.496842	44927.406387	3987.794901	22780.082465
78.036000	0.031520	0.020860	0.038201	0.035891	6888.199100	45532.598223	4015.298907	23052.253186
78.536000	0.031857	0.022148	0.035754	0.036825	6882.705473	45567.325010	4006.284865	23008.901948
79.036000	0.033667	0.021080	0.038334	0.035930	6907.682631	45550.331731	4015.550297	23050.435445
79.537000	0.034166	0.020963	0.039677	0.035542	6915.913980	45576.962781	4020.195519	23068.474676
80.037000	0.035217	0.021462	0.036406	0.035758	6923.667846	45604.735722	4010.859476	23058.433161
80.537500	0.035059	0.021229	0.041432	0.034933	6929.884072	45663.029690	4026.567213	23096.826482
81.037500	0.034057	0.021440	0.041440	0.034793	6921.860238	45697.653571	4026.967296	23103.357078
81.537000	0.035693	0.021495	0.039467	0.034262	6942.057623	45755.417902	4023.073540	23128.111445
82.035000	0.034002	0.021257	0.041748	0.033768	6930.890917	45780.658989	4030.575990	23151.162804
82.535500	0.036326	0.020909	0.041840	0.033250	6957.464265	45797.577305	4032.233039	23175.407306
83.036000	0.034168	0.021379	0.040414	0.032600	6943.333300	45908.213152	4030.124817	23205.789103
83.536000	0.036513	0.021036	0.038184	0.032335	6967.803181	45900.564691	4024.811064	23218.199133
84.039500	0.034465	0.021633	0.038670	0.032145	6950.372621	45978.626537	4026.637910	23227.134979
84.536000	0.035095	0.021508	0.039188	0.031462	6962.686837	46034.026282	4029.888076	23259.185797
85.040000	0.035887	0.021528	0.040885	0.030226	6981.780882	46158.954950	4037.863922	23317.311797
85.537000	0.034734	0.020969	0.039714	0.035216	6924.223049	45609.567306	4021.169991	23083.647015
86.034500	0.035670	0.021187	0.037893	0.029693	6984.756012	46177.982547	4031.172086	23342.382767
86.535000	0.035754	0.021806	0.037864	0.028382	6997.960421	46370.833340	4034.656738	23404.307107
87.038500	0.037413	0.020952	0.042241	0.027437	7022.694687	46379.967549	4049.227196	23449.052494
87.536000	0.038098	0.020826	0.036255	0.026241	7040.656537	46487.143172	4036.103039	23505.792050
88.036000	0.035842	0.021169	0.040187	0.027307	7008.982013	46414.672327	4043.938919	23455.187919
88.536000	0.038110	0.020818	0.036266	0.024997	7052.704244	46611.436332	4039.529233	23564.998004
89.036500	0.036669	0.020576	0.039211	0.023899	7049.415173	46697.675159	4050.628792	23617.409649
89.537000	0.033137	0.021271	0.033243	0.028725	6970.016137	46282.989655	4021.226710	23388.107727
90.037000	0.035629	0.020485	0.039250	0.023817	7040.229450	46696.821900	4050.961036	23621.325364
90.537500	0.038552	0.021817	0.041637	0.023430	7072.034412	46870.539756	4058.639650	23639.840588
91.037500	0.036313	0.020868	0.044230	0.021404	7069.976550	46979.706171	4071.532110	23736.949008
91.535500	0.036048	0.020458	0.038548	0.020600	7075.174862	47019.769112	4057.921389	23775.642772
92.035500	0.037762	0.021415	0.042765	0.020587	7091.871213	47118.360286	4069.714422	23776.233137
92.536000	0.039146	0.021211	0.042232	0.020155	7109.512007	47141.602745	4069.431324	23797.073807
93.036500	0.039108	0.020592	0.042977	0.019055	7119.854382	47190.598824	4074.611033	23850.141991
93.536000	0.039557	0.021591	0.042979	0.019120	7123.591736	47285.906326	4074.433198	23846.978652
94.037000	0.038643	0.020930	0.040251	0.020647	7099.834868	47062.938514	4062.523783	23773.367743
94.537000	0.039301	0.021096	0.044545	0.018219	7129.899614	47327.459701	4081.392433	23890.575049
95.037500	0.040041	0.020964	0.041131	0.017461	7144.573529	47391.604828	4073.903066	23927.299854
95.534500	0.040848	0.021037	0.037748	0.016800	7158.998031	47466.853586	4066.273647	23959.378284
96.035000	0.039971	0.021409	0.039584	0.016690	7151.455534	47516.380950	4071.722563	23964.736999
96.537500	0.039851	0.021544	0.042431	0.016460	7152.537134	47553.803490	4080.388508	23975.879013
97.035500	0.038895	0.019882	0.037724	0.015067	7156.834089	47526.247787	4071.058697	24043.707280
97.536000	0.035241	0.020294	0.034608	0.020907	7064.440876	46971.860980	4046.194319	23760.866207
98.036000	0.040119	0.020701	0.045129	0.015239	7167.200080	47592.826256	4091.517073	24035.346731
98.621000	0.041832	0.020474	0.045518	0.014831	7188.167792	47611.463798	4093.790805	24055.235804
99.037000	0.038744	0.019707	0.040787	0.014240	7163.489703	47593.258113	4082.017310	24084.071485
