sample name	sample
index	634
start time	 03-19-2021  03:16:03 PM
880	0.018764
Peak Time (s)	92.594
Peak Height 	0.01876
calc peak height	90,93
Baseline Time (s)	10.036
Baseline Value 	-0.002762
subtract baseline	10,4
Abs	0.006830
Peak Time (s)	92.05
Peak Height 	0.00683
calc peak height	90,93
Baseline Time (s)	8.535
Baseline Value 	0.003265
subtract baseline	10,3
PK_550	0.005624
Peak Time (s)	90.035
Peak Height 	0.005624
calc peak height	90,93
Baseline Time (s)	10.536
Baseline Value 	4.8049E-4
subtract baseline	10,2
PK_880	0.007955
Peak Time (s)	91.044
Peak Height 	0.007955
calc peak height	90,93
Baseline Time (s)	10.036
Baseline Value 	0.002505
subtract baseline	10,1


Time (s)	A880-A510	A880-A775	A880-A975	A880	I510	I775	I975	I880	
0.036000	-0.004929	-0.000546	-0.000644	0.004153	7318.616235	45162.980626	4047.685926	24046.806937
0.536000	-0.002842	-0.000740	-0.000603	0.004148	7339.621299	45144.636365	4047.802154	24047.057031
1.036500	-0.003729	-0.000187	0.000776	0.003367	7338.551705	45274.243010	4053.284274	24084.970260
1.537000	-0.003440	-0.000455	0.001177	0.001414	7361.164718	45438.507355	4059.289780	24180.108369
2.037000	-0.002983	0.000043	-0.001742	0.004415	7335.510812	45194.675074	4044.246581	24034.067879
2.537500	-0.002484	-0.001082	-0.008779	0.000881	7376.257864	45429.281374	4035.440447	24206.156207
3.037000	-0.001051	-0.000087	-0.001849	-0.000977	7409.790491	45708.905849	4057.668191	24297.201692
3.535000	0.000589	0.000466	-0.001781	0.000262	7413.898952	45641.522644	4054.679863	24236.455641
4.035500	0.000150	-0.000185	-0.005242	-0.000378	7415.962694	45640.483403	4047.516732	24267.830697
4.535500	-0.000717	-0.000020	-0.002781	-0.000615	7409.509653	45679.891994	4054.366797	24279.436377
5.036000	-0.000383	-0.000046	-0.001153	0.000265	7403.936973	45591.053471	4056.276131	24236.329872
5.536500	-0.000429	-0.000075	-0.002726	0.000959	7396.373626	45520.177558	4050.504526	24202.350375
6.036500	-0.001423	0.000023	-0.000880	-0.000083	7396.871564	45631.928709	4057.859178	24253.370429
6.537000	-0.003511	0.000159	-0.002915	-0.000347	7378.305498	45671.151373	4053.344540	24266.299474
7.040000	0.000592	0.000489	-0.000065	0.000461	7411.884125	45624.249156	4058.550844	24226.695167
7.535000	-0.001864	0.000218	0.001510	0.000417	7387.279852	45601.964126	4062.700792	24228.867891
8.034500	-0.000896	-0.000677	-0.002477	-0.000182	7403.254840	45572.984530	4054.039288	24258.220387
8.535000	-0.002744	0.000155	0.000000	0.000239	7380.145667	45613.242259	4059.286923	24237.591876
9.035500	0.000389	-0.000327	-0.001663	-0.000363	7418.258951	45625.069328	4056.576890	24267.097240
9.539000	0.000136	0.000238	0.000772	0.000010	7411.847612	45643.927660	4061.850225	24248.813842
10.036000	0.000000	0.000590	0.003032	0.000000	7410.551183	45679.421610	4067.687501	24249.284365
10.536000	0.000987	0.000000	0.000405	-0.000311	7423.855892	45652.035684	4061.732035	24264.534731
11.036500	-0.000672	-0.000099	-0.001351	-0.000219	7405.920969	45633.284120	4057.002363	24260.012473
11.537000	-0.001545	-0.000089	-0.000059	0.000504	7389.639204	45563.361682	4058.456410	24224.592260
12.037500	-0.000044	0.000304	-0.002946	0.000091	7409.174960	45642.400769	4052.150231	24244.843289
12.535000	-0.000830	-0.000113	-0.002684	0.000958	7392.297132	45516.556182	4050.612267	24202.382171
13.035500	-0.000518	-0.000687	0.000550	-0.001672	7422.377195	45718.220931	4065.600469	24331.360443
13.535500	-0.000336	-0.000153	-0.004836	0.001070	7396.196398	45501.730685	4044.882130	24196.950990
14.041000	-0.000565	-0.000110	-0.002533	0.001210	7392.432906	45492.220412	4050.358312	24190.108221
14.536000	-0.004332	-0.000610	0.001161	0.003020	7335.977524	45266.808600	4055.150351	24101.847326
15.036000	-0.001885	-0.000259	-0.006262	0.001522	7375.841696	45447.128865	4040.148774	24174.857764
15.536500	-0.001485	-0.000315	-0.001447	0.000789	7387.349172	45513.244696	4054.185949	24210.640896
16.039500	-0.004620	-0.000743	-0.004545	0.005393	7309.290784	45023.719073	4034.744718	23986.691647
16.540000	-0.003053	-0.000259	-0.004628	0.002036	7358.790494	45396.914631	4042.966100	24149.747178
17.037500	-0.000174	0.000175	-0.001511	0.001369	7394.801449	45504.514183	4052.550693	24182.339207
17.535000	-0.002307	-0.000379	-0.002733	0.001070	7376.144126	45479.614114	4050.204817	24196.929483
18.035000	-0.002002	-0.000213	0.000035	0.003918	7350.408943	45218.182835	4050.002039	24058.211824
18.535500	-0.002123	0.000490	0.000908	0.002398	7364.543169	45434.708237	4056.088380	24132.112290
19.035500	-0.001671	-0.000752	-0.002571	0.001804	7375.142369	45371.421296	4048.753782	24161.086159
19.536500	-0.003134	-0.000106	-0.004055	0.002268	7355.641594	45389.287171	4043.829370	24138.481831
20.036500	-0.000513	0.000577	-0.001584	0.002573	7379.089956	45426.081875	4049.305415	24123.590084
20.536500	-0.001404	-0.000091	-0.001284	0.002200	7373.833292	45397.301499	4051.013779	24141.755839
21.037000	-0.001764	0.000678	0.001670	0.002793	7364.184217	45414.527727	4057.027392	24112.904395
21.537500	-0.000291	-0.000697	-0.000240	0.001856	7388.646984	45371.728842	4054.546422	24158.556323
22.035000	-0.001756	-0.000313	-0.002255	0.002100	7371.283619	45385.385221	4048.805320	24146.647430
22.535000	-0.000320	0.000849	0.000370	0.003068	7376.032710	45404.322948	4053.012073	24099.516320
23.035500	-0.001796	-0.000798	-0.004069	0.001892	7372.986629	45358.403704	4044.741408	24156.789594
23.535500	-0.002681	-0.000768	-0.003255	0.001941	7363.524120	45356.592686	4046.675926	24154.424235
24.036000	0.000253	0.000151	-0.003249	0.002515	7387.472891	45390.216896	4045.240366	24126.448741
24.536000	-0.000957	0.000052	0.000287	0.002071	7379.680387	45423.897668	4055.340511	24148.067174
25.036500	-0.001332	0.000220	-0.001511	0.002764	7368.844669	45372.656644	4049.007737	24114.308290
25.539500	-0.002516	-0.000278	-0.003577	0.002158	7362.995005	45383.151592	4045.313094	24143.816755
26.040000	-0.000503	-0.000249	-0.000270	0.002093	7384.068500	45392.367632	4053.864223	24146.983249
26.534500	-0.001772	-0.000167	0.000110	0.002770	7364.326661	45334.368759	4053.109675	24114.007963
27.035000	0.000070	-0.000389	0.002842	0.002468	7386.092814	45342.148234	4060.855166	24128.722625
27.535500	-0.001274	-0.000336	-0.003677	0.002292	7374.215220	45364.439434	4044.721267	24137.269525
28.035500	-0.001736	-0.000565	0.002736	0.006216	7329.943369	44961.380588	4051.023694	23946.928455
28.536500	0.001037	0.000107	-0.000565	0.002125	7399.438284	45423.975946	4053.033108	24145.453920
29.036000	-0.000656	-0.000179	0.003687	0.001438	7389.177779	45463.170063	4065.670184	24178.940576
29.536500	-0.000119	0.000704	0.003316	0.002253	7386.347959	45469.815594	4062.623106	24139.183340
30.037000	-0.004124	-0.001038	-0.004766	0.006484	7303.351444	44889.879586	4031.467664	23933.975771
30.540000	-0.001994	-0.000444	0.002922	0.001859	7371.316969	45396.196779	4062.622211	24158.412445
31.037000	-0.001031	-0.000386	0.002545	0.001287	7386.908745	45457.698136	4063.125369	24186.344113
31.560500	0.000838	0.000322	-0.002368	0.001896	7399.735130	45467.359564	4049.033351	24156.580536
32.034500	-0.001939	-0.000885	0.001898	0.005797	7332.111807	44970.922996	4049.959969	23967.159663
32.538500	0.001410	-0.000096	-0.002428	0.001870	7405.845473	45429.061389	4048.949055	24157.855831
33.057500	-0.000398	-0.000078	0.005287	0.001446	7391.722660	45472.207372	4069.774756	24178.550552
33.536000	0.001177	-0.000122	0.001038	0.001442	7407.841031	45468.391682	4058.865495	24178.768515
34.036000	-0.004451	-0.000292	-0.003187	0.006546	7299.464283	44955.856787	4035.257567	23930.995018
34.536500	-0.000179	0.000122	-0.000773	0.002015	7388.163374	45436.196420	4052.784197	24150.813055
35.036500	-0.000849	0.000800	0.006708	0.000447	7397.313375	45656.084870	4076.042617	24227.374420
35.537500	-0.001310	-0.000319	-0.001422	0.001936	7377.469606	45400.858806	4051.335418	24154.670808
36.037500	-0.000825	0.000446	-0.002063	0.005120	7350.148017	45165.353928	4041.659540	23999.901252
36.534500	-0.001161	0.001106	0.004167	0.003704	7361.064024	45367.420101	4061.084918	24068.597223
37.035000	0.000398	0.000783	-0.002807	0.004007	7373.787244	45306.378562	4042.589308	24053.888488
37.535500	-0.001412	0.000156	-0.002319	0.003570	7359.881976	45287.916893	4044.922548	24075.109649
38.035500	-0.001625	0.001072	0.000766	0.005203	7341.254001	45218.121366	4048.597516	23995.919328
38.536000	-0.002867	-0.000341	0.002534	0.003554	7345.348529	45241.113902	4057.288920	24075.886816
39.036000	-0.000825	-0.000012	0.001439	0.003981	7361.662953	45231.545785	4053.410124	24055.157619
39.536000	-0.001821	0.000713	-0.000175	0.003747	7353.955432	45324.807088	4049.900684	24066.487969
40.039500	-0.001088	-0.000550	-0.002085	0.003266	7366.238274	45248.807885	4046.285156	24089.901741
40.537000	-0.002798	0.000425	-0.001765	0.003676	7344.811607	45303.688650	4046.054044	24069.939392
41.034500	0.001020	0.001338	0.001636	0.004468	7375.415993	45315.483693	4052.670138	24031.493882
41.535000	-0.000892	0.000118	0.000877	0.003384	7367.022782	45302.260673	4053.497880	24084.131494
42.035500	-0.001537	0.000729	-0.003200	0.004312	7351.112321	45271.380794	4040.832178	24039.063493
42.535500	-0.000425	0.000788	0.000134	0.004091	7364.595443	45298.675790	4049.815115	24049.825528
43.035500	0.001182	0.000868	0.000959	0.004158	7380.211182	45299.905663	4051.736929	24046.539910
43.536000	0.001412	0.001012	0.001042	0.004305	7381.053498	45299.669108	4051.575687	24039.404727
44.036500	0.000685	0.000005	0.003129	0.003593	7380.907545	45270.932091	4058.711931	24073.985298
44.537000	-0.001961	-0.000548	0.000126	0.003110	7358.977505	45264.084868	4052.284120	24097.453541
45.037000	-0.000282	0.000349	-0.002564	0.003976	7367.202678	45267.103622	4043.280682	24055.376246
45.537000	0.001364	0.000214	0.001766	-0.001199	7436.845670	45760.375958	4067.515518	24308.119458
46.034500	-0.002690	0.000599	0.001554	0.007734	7305.182916	44927.229030	4044.187072	23873.726586
46.566500	0.001161	0.000229	0.000657	0.003515	7386.532351	45300.288155	4052.605759	24077.760296
47.035000	0.000748	-0.000354	0.000858	0.002384	7393.847273	45353.754805	4055.999798	24132.827127
47.535500	-0.000800	0.000804	0.003566	0.002789	7373.985223	45427.193645	4061.889817	24113.093602
48.036000	-0.000187	0.000032	-0.000444	0.002782	7380.287074	45352.548956	4051.671034	24113.447048
48.536000	0.000395	0.000785	-0.005239	0.004052	7373.295531	45302.171537	4036.364878	24051.689775
49.036500	-0.000719	0.000671	0.002023	0.003716	7365.415426	45323.846052	4055.573344	24068.011012
49.539000	0.001569	0.000907	-0.000059	0.005004	7375.547519	45221.355032	4047.010561	24005.520312
50.040000	-0.001419	0.000861	-0.000781	0.007402	7321.219615	44984.554253	4039.143128	23889.705085
50.537500	0.001397	0.000168	0.002692	0.003774	7386.306752	45269.182890	4057.132499	24065.197033
51.035000	0.000439	0.000568	0.002297	0.003151	7382.892529	45368.791535	4057.711914	24095.455857
51.535500	0.000922	0.000670	-0.001578	0.002365	7395.812988	45455.557398	4049.850575	24133.749249
52.038000	-0.000311	0.000476	-0.000683	0.004352	7363.111609	45242.974029	4047.084495	24037.162487
52.536000	0.000539	-0.000737	0.000443	0.003975	7375.545641	45161.770876	4050.893867	24055.443778
53.036000	-0.063199	-0.013892	-0.015975	0.133061	5795.250642	33390.156945	3736.934057	18634.454470
53.536500	-0.050918	-0.017437	-0.011757	-0.034684	7247.545091	47347.595478	4120.168807	26018.199296
54.037000	-0.044245	-0.014069	-0.001910	-0.030312	7270.280736	47245.226041	4135.040626	25787.361041
54.537000	-0.003646	-0.013839	0.003292	-0.121482	8795.362828	57606.054092	4429.945603	31116.614933
55.037500	-0.010905	-0.013010	-0.001917	-0.118259	8656.389748	57305.974300	4401.450668	30908.507913
55.534500	-0.001603	-0.010055	-0.009212	-0.120496	8809.566967	57958.912823	4384.622246	31052.791298
56.035000	0.006105	-0.006050	-0.003461	-0.111561	8793.081887	57338.762060	4374.129455	30481.003987
56.538000	0.008009	-0.004278	-0.000036	-0.093203	8576.502853	55303.093005	4325.926201	29342.404817
57.035500	0.004563	-0.001046	-0.001387	-0.061058	8135.196292	51935.257311	4223.651759	27461.057887
57.536000	0.000764	0.000946	0.001777	-0.039311	7840.019577	49759.888528	4170.221371	26265.032356
58.038500	0.001457	0.001972	0.004746	-0.027907	7721.326443	48656.113307	4146.716296	25661.385205
58.536500	0.001754	0.003290	0.003479	-0.015438	7589.945960	47499.046432	4109.396000	25019.222163
59.039500	-0.000787	0.003338	0.003808	-0.002392	7426.999307	46187.332583	4075.883630	24366.784079
59.537000	-0.004690	0.003176	0.002758	0.005648	7306.041042	45379.619719	4052.521464	23974.350616
60.040000	-0.005725	0.003573	0.004892	0.014583	7207.597666	44554.909546	4035.363587	23546.725435
60.537500	0.001767	0.007655	-0.001333	0.025356	7175.681684	43919.881632	3993.630300	23042.643509
61.035500	-0.005469	0.005819	0.002890	0.025688	7102.984953	43716.107402	4003.038692	23027.282682
61.535500	0.003843	0.005583	0.004888	0.004469	7404.158718	45731.000155	4060.971772	24031.476919
62.036000	-0.003488	0.005880	-0.000484	0.020756	7169.341295	44186.811791	4006.830490	23256.347898
62.536000	-0.000900	0.007527	0.002736	0.036816	7041.011289	42842.805285	3975.986754	22519.957375
63.036000	-0.002101	0.005791	0.003956	0.037957	7019.102544	42579.803884	3976.174212	22468.676702
63.540000	0.001573	0.004845	0.003793	0.033369	7096.905391	42913.006870	3986.701861	22675.706624
64.037000	0.008580	0.008924	0.005081	0.031231	7184.775853	43488.260947	3994.927461	22772.961534
64.563500	0.007952	0.007594	0.001415	0.028071	7209.436945	43659.133616	3993.708123	22917.540824
65.034500	0.006770	0.007770	0.001772	0.023561	7242.065842	44100.096080	4005.494030	23125.765577
65.535500	0.007254	0.006985	0.002348	0.019053	7291.479136	44453.776959	4017.944767	23336.027662
66.043500	0.006961	0.006831	0.006878	0.018060	7298.452052	44533.925014	4031.636926	23382.642528
66.538000	0.006168	0.006849	0.002607	0.018315	7288.011355	44511.301787	4020.403410	23370.675161
67.035500	0.006611	0.007549	0.001952	0.017039	7305.142105	44700.521756	4021.937466	23430.685983
67.536000	0.007346	0.007037	-0.002736	0.015615	7326.760625	44788.212418	4013.895279	23497.866885
68.036500	0.005404	0.006818	0.000117	0.016137	7302.097358	44716.937920	4019.631045	23473.194874
68.537000	0.005840	0.006782	-0.000935	0.013823	7329.629032	44936.288568	4022.750025	23582.726773
69.037000	0.007081	0.006702	0.002648	0.011999	7360.528683	45104.926968	4036.213259	23669.476716
69.537500	0.007175	0.006661	0.003632	0.011284	7368.722136	45170.379331	4040.481241	23703.598975
70.035000	0.005971	0.006651	0.002611	0.012330	7345.965937	45067.959430	4035.291530	23653.691694
70.535000	0.005586	0.006974	0.004778	0.011741	7348.026418	45156.333337	4042.214323	23681.771990
71.036000	0.007373	0.007384	0.002126	0.010315	7380.551755	45334.859888	4039.127946	23749.871347
71.535000	0.007843	0.006769	0.003019	0.010042	7388.114954	45301.605279	4042.063754	23762.963126
72.036500	0.005952	0.006471	0.000519	0.010868	7360.547063	45192.308235	4033.715851	23723.443108
72.536000	0.007354	0.006884	0.003065	0.010300	7380.512327	45287.631357	4041.529267	23750.594875
73.039000	0.009624	0.007564	0.002212	0.010426	7402.348145	45341.560132	4039.067095	23744.567707
73.536000	0.008144	0.006393	0.002380	0.009860	7393.035047	45282.732628	4040.913100	23771.679742
74.038000	0.005949	0.006412	0.009769	0.010434	7364.913832	45228.739509	4058.197274	23744.217239
74.537000	0.007432	0.006318	-0.000014	0.009347	7391.004558	45325.347015	4036.188316	23796.248064
75.034500	0.006806	0.006256	0.003424	0.009665	7381.399357	45288.353585	4044.033888	23780.992314
75.546500	0.006950	0.006441	0.004359	0.010124	7378.195367	45261.626733	4045.236906	23759.018503
76.046500	0.005871	0.006407	0.004611	0.011706	7351.264351	45104.745088	4041.880806	23683.455606
76.536000	0.007134	0.006757	0.005813	0.010646	7374.768001	45241.670199	4047.592163	23734.052154
77.036000	0.005465	0.006308	0.004098	0.010920	7355.101906	45171.457372	4042.568651	23720.971350
77.536500	0.006744	0.006067	0.004112	0.011112	7366.091778	45129.394667	4042.120405	23711.806206
78.037000	0.007406	0.005965	0.000642	0.011880	7365.022777	45045.195630	4031.498993	23675.175283
78.537000	0.007203	0.006053	0.004287	0.011974	7362.015631	45044.561990	4040.392280	23670.683523
79.038000	0.007107	0.006018	0.001241	0.012182	7358.941783	45021.024547	4032.239047	23660.777338
79.540500	0.004651	0.006121	0.003513	0.012028	7335.727172	45045.869629	4038.311634	23668.096679
80.034500	0.006966	0.005570	0.004184	0.012593	7353.354774	44938.027752	4038.577604	23641.193197
80.538500	0.006850	0.006394	0.006468	0.013517	7342.865656	44928.305954	4041.996965	23597.250662
81.036000	0.006991	0.006199	0.008122	0.013547	7343.987919	44906.649677	4046.096114	23595.847309
81.535500	0.006702	0.005959	0.007817	0.013362	7342.942930	44901.312975	4045.790931	23604.614096
82.039000	0.007176	0.005933	0.003387	0.013488	7346.447225	44886.749650	4034.337646	23598.662555
82.539000	0.006876	0.006708	0.004831	0.014970	7328.525890	44818.632077	4034.241783	23528.394392
83.036500	0.005558	0.005794	0.003152	0.014404	7320.981417	44785.105921	4031.462551	23555.204169
83.539000	0.006716	0.006331	0.005158	0.014567	7330.958317	44821.115298	4036.070126	23547.461328
84.051000	0.007972	0.006804	0.005245	0.014922	7340.019976	44832.424723	4035.397619	23530.645501
84.538000	0.006932	0.006252	0.001095	0.014941	7329.374579	44777.541413	4025.009487	23529.758817
85.035500	0.006354	0.005540	0.004784	0.014489	7328.112391	44752.580736	4035.327972	23551.176616
85.538000	0.005707	0.005675	0.001240	0.014609	7320.409070	44753.931698	4026.191402	23545.451103
86.034500	0.007893	0.005067	0.000105	0.014606	7342.407689	44695.848907	4023.386470	23545.605353
86.535500	0.004853	0.006184	0.004183	0.015461	7303.355891	44721.029221	4031.397035	23505.161075
87.039500	0.008786	0.006474	0.004569	0.016130	7336.061124	44684.625725	4030.691770	23473.556379
87.536500	0.006818	0.005958	0.000811	0.016101	7316.596812	44637.860087	4021.434600	23474.909438
88.061500	0.007003	0.005377	0.001499	0.016605	7313.407299	44534.106986	4021.890731	23451.142647
88.540000	0.006878	0.005301	0.001626	0.016111	7317.095343	44574.069016	4023.426371	23474.440724
89.044500	0.006566	0.004789	0.006539	0.015951	7315.578603	44540.339154	4036.061640	23481.993487
89.538000	0.009112	0.005582	0.000375	0.016847	7332.125740	44530.494179	4018.517280	23439.718537
90.035500	0.006557	0.005624	0.000787	0.017664	7298.377050	44456.514388	4017.520052	23401.279885
90.599000	0.005457	0.004926	-0.005777	0.016793	7296.090477	44473.047282	4003.592649	23442.277915
91.044000	0.007955	0.005138	0.001646	0.017469	7314.284398	44428.804289	4020.118573	23410.449871
91.569000	0.006412	0.005104	0.000372	0.017210	7301.451985	44450.240014	4017.617189	23422.638814
92.050000	0.005544	0.005201	0.006830	0.018226	7282.696636	44362.631859	4031.103799	23374.864761
92.594500	0.007703	0.005448	0.002180	0.018764	7298.837784	44334.964094	4018.244028	23349.607380
93.088500	0.006604	0.004175	0.000484	0.017465	7300.823114	44337.335309	4017.263015	23410.616462
93.605500	0.005851	0.004588	0.002339	0.018052	7287.477941	44320.799594	4020.389811	23383.008431
94.037500	0.006094	0.004975	0.000944	0.019099	7279.487606	44258.149369	4014.377179	23333.872055
94.545500	0.006414	0.005144	0.001782	0.019103	7282.619460	44273.746515	4016.426719	23333.676501
95.057500	0.006342	0.004406	-0.000600	0.019177	7281.174905	44196.763352	4010.403346	23330.230883
95.535000	0.007377	0.004839	0.006600	0.019727	7285.986893	44185.547585	4026.792610	23304.431664
96.104000	0.008502	0.004938	0.002982	0.020022	7294.257571	44167.078354	4017.117783	23290.642675
96.662000	0.006824	0.004703	0.000166	0.020398	7273.834588	44109.122475	4009.290475	23273.043609
97.190500	0.007298	0.004502	-0.002881	0.019927	7283.225454	44134.773264	4003.015557	23295.091962
97.713000	0.006703	0.003896	0.002108	0.019712	7279.446301	44097.810468	4015.731369	23305.174416
98.043000	0.005909	0.003724	0.003190	0.019698	7271.714570	44082.841378	4018.430126	23305.816634
98.584000	0.006887	0.004296	0.000311	0.021074	7267.767921	44006.811285	4007.994588	23241.496614
99.035500	0.006478	0.004235	0.002105	0.021121	7263.255497	43996.578802	4012.265875	23239.277891
99.535500	0.008056	0.005227	0.003294	0.022173	7268.460578	43991.055386	4012.603816	23190.282809
100.124000	0.008660	0.004455	0.002021	0.021785	7278.298839	43954.814745	4010.436396	23208.356242
100.542000	0.007732	0.004058	0.002880	0.021823	7268.712463	43913.734463	4012.445140	23206.552668
