sample name	sample
index	988
start time	 04-14-2021  04:02:56 PM
880	0.045341
Peak Time (s)	102.037
Peak Height 	0.04534
calc peak height	100,103
Baseline Time (s)	9.536
Baseline Value 	-0.003187
subtract baseline	10,4
Abs	0.048002
Peak Time (s)	101.037
Peak Height 	0.048
calc peak height	100,103
Baseline Time (s)	11.037
Baseline Value 	0.002327
subtract baseline	10,3
PK_550	0.030645
Peak Time (s)	101.537
Peak Height 	0.03065
calc peak height	100,103
Baseline Time (s)	9.036
Baseline Value 	-3.5752E-5
subtract baseline	10,2
PK_880	0.045056
Peak Time (s)	102.54
Peak Height 	0.04506
calc peak height	100,103
Baseline Time (s)	8.535
Baseline Value 	9.8551E-4
subtract baseline	10,1


Time (s)	A880-A510	A880-A775	A880-A975	A880	I510	I775	I975	I880	
0.036000	-0.000811	0.000158	-0.003184	0.001778	6321.686730	42152.631064	3955.823198	22180.065894
0.536000	-0.004158	0.000520	-0.003264	0.005897	6264.991321	41815.636376	3946.340718	21998.942131
1.039500	-0.001726	-0.000561	-0.002486	0.002760	6307.180359	41999.695004	3955.177733	22136.702565
1.538500	-0.002014	-0.000293	0.000169	0.000675	6320.922480	42211.420060	3965.989840	22228.866329
2.037000	-0.001605	0.000241	-0.002219	0.000507	6325.339101	42274.828951	3960.910952	22236.307193
2.537500	-0.003331	0.000159	-0.006635	0.004826	6279.308656	41879.104721	3941.184746	22045.880032
3.037500	0.000425	-0.000091	-0.002277	-0.001688	6357.893836	42443.553137	3965.797580	22333.810662
3.535500	-0.001257	0.000393	-0.004471	0.000251	6329.971193	42311.634696	3956.366706	22247.619733
4.035500	-0.002102	-0.000228	0.000879	-0.000270	6327.487677	42302.593158	3969.789677	22270.743795
4.535500	-0.003084	-0.000566	-0.008724	0.003571	6290.685792	41926.471828	3939.321683	22100.992466
5.036000	-0.001702	0.000292	0.002817	0.000447	6325.055595	42284.773902	3972.604593	22238.937861
5.536500	-0.004416	0.000651	-0.001817	0.000453	6304.261653	42316.734696	3961.952368	22238.677243
6.036500	-0.002069	0.000031	-0.004297	0.000126	6324.704351	42290.245975	3957.048612	22253.183145
6.536500	-0.000152	0.000132	-0.004826	0.000011	6340.319892	42309.766220	3956.107209	22258.292132
7.037000	-0.001353	-0.000115	-0.000321	-0.000685	6336.429816	42350.373518	3967.984537	22289.173805
7.537500	0.001230	0.000121	0.000229	-0.000156	6352.262953	42323.817523	3968.031497	22265.669374
8.035000	-0.001599	-0.000136	-0.003607	-0.000397	6332.320515	42322.456435	3959.807033	22276.375853
8.535000	0.000000	0.001319	-0.001689	0.000782	6335.553804	42347.480083	3961.494206	22224.124689
9.035500	-0.001878	0.000000	0.000400	-0.000252	6329.069093	42321.645602	3968.645856	22269.954087
9.536000	0.001465	0.000613	-0.001224	0.000000	6352.875420	42354.299383	3964.343687	22258.769301
10.035500	-0.000777	-0.000641	-0.003907	-0.001459	6346.830740	42372.849217	3961.545675	22323.583728
10.539000	-0.000175	0.001449	0.005928	0.000079	6339.613203	42422.902537	3980.667144	22255.266652
11.036500	0.000097	-0.000066	0.000000	-0.000742	6348.041692	42359.976627	3968.853299	22291.703977
11.536500	0.001561	-0.000045	0.000264	0.000186	6352.186567	42278.015339	3967.328779	22250.533436
12.037500	-0.001020	0.000796	-0.002424	-0.000236	6335.533152	42392.208530	3962.138552	22269.224303
12.537500	-0.002354	0.000430	0.003998	-0.000224	6325.204364	42358.053713	3976.889479	22268.717866
13.035000	0.000531	0.001524	-0.000245	0.000177	6344.296284	42420.819056	3966.180156	22250.908177
13.538000	-0.001463	0.000665	0.000100	0.000992	6322.716451	42269.338091	3965.104106	22214.836061
14.035500	-0.001165	0.000920	0.000170	0.001448	6321.496655	42251.116531	3964.219421	22194.635295
14.536000	-0.004323	0.000494	-0.001264	0.003209	6284.040849	42054.117215	3956.935087	22116.959112
15.039000	-0.000940	0.000171	0.000022	-0.000747	6340.084065	42381.902968	3968.915200	22291.927324
15.536500	-0.000695	0.001123	0.000233	0.000562	6331.896591	42349.607821	3966.393159	22233.855712
16.037000	-0.000607	0.001209	0.000181	0.000227	6335.151966	42387.803182	3967.044476	22248.712594
16.537000	0.000146	0.000238	0.003149	-0.000751	6348.489925	42388.390991	3976.142814	22292.128385
17.036500	0.001905	-0.000557	0.003390	-0.004141	6388.479644	42624.300938	3984.588613	22443.360036
17.535000	0.000127	0.000962	-0.000731	0.000773	6336.601362	42315.976378	3963.702285	22224.518836
18.035000	0.000851	0.000708	-0.001347	0.000104	6347.329568	42353.435320	3963.822265	22254.137726
18.535500	-0.000913	0.000465	0.008020	0.000501	6330.696163	42295.618804	3984.561036	22236.577978
19.036000	-0.001014	0.000302	-0.002005	0.000153	6332.584110	42312.250009	3962.206546	22251.961452
19.536000	0.000198	0.000037	0.003576	-0.000030	6343.332078	42304.904845	3975.460908	22260.102320
20.035500	-0.000955	-0.000464	0.001344	-0.000255	6336.183318	42279.951070	3970.825601	22270.075524
20.536500	-0.002203	0.000479	-0.006966	-0.000042	6324.965524	42346.014039	3951.380238	22260.634991
21.037000	0.000203	-0.000212	0.003614	-0.000219	6344.824312	42299.455147	3975.986151	22268.470453
21.537000	-0.000948	0.001100	-0.004532	0.000688	6328.987619	42336.146341	3955.238670	22228.267845
22.037000	-0.003234	0.001159	-0.000053	0.000728	6311.185012	42337.898307	3965.357527	22226.517994
22.535000	-0.000799	0.000778	-0.002786	0.000146	6334.293296	42355.991583	3960.441825	22252.284127
23.035000	-0.002650	0.000166	-0.006023	-0.000570	6325.583821	42365.424988	3954.711017	22284.076763
23.535500	-0.000089	0.001279	0.001364	0.000593	6336.324922	42360.926896	3968.920691	22232.501331
24.036000	-0.002077	0.000025	0.000100	0.000012	6325.510499	42300.006976	3967.349814	22258.223035
24.538500	0.000265	0.000118	0.005363	0.000270	6341.536180	42285.145187	3978.909927	22246.815589
25.035500	-0.000976	0.000235	0.000910	0.000155	6332.875718	42306.084363	3968.884783	22251.916061
25.539500	-0.000352	0.000424	-0.004291	0.000207	6337.266944	42318.550365	3956.878971	22249.605808
26.037000	-0.002028	-0.000832	-0.000114	-0.000797	6332.098770	42295.617522	3968.717534	22294.141802
26.534000	0.000560	0.000322	-0.004220	0.000202	6344.329684	42309.738442	3957.050196	22249.807861
27.037500	0.001753	0.000731	0.000435	-0.001521	6366.895513	42502.997729	3971.649504	22326.364078
27.538500	-0.000513	0.000337	-0.002473	-0.001171	6346.649016	42435.521707	3964.166455	22310.802739
28.035500	-0.000197	0.000717	0.003401	-0.000217	6341.726353	42383.336127	3975.488329	22268.387249
28.538500	-0.003523	-0.000267	-0.000203	0.002284	6297.123960	42068.865570	3961.455888	22157.716593
29.036000	0.001980	0.000420	-0.001534	-0.000894	6363.789895	42417.854576	3965.682936	22298.488753
29.536000	0.000536	0.000167	0.002003	-0.000806	6351.932114	42386.917641	3973.618880	22294.572618
30.037000	0.000074	0.000389	0.004545	-0.000540	6346.307011	42382.940708	3978.890252	22282.760104
30.536500	-0.001596	-0.000377	-0.001878	0.001370	6318.796286	42141.238343	3959.721756	22198.106392
31.036500	-0.000371	-0.000257	-0.001396	0.000975	6331.210653	42187.561155	3961.719534	22215.546116
31.537500	0.000468	-0.000120	0.004351	-0.000707	6350.630645	42351.884680	3978.827370	22290.141982
32.035000	-0.001633	-0.000191	-0.002313	-0.001367	6339.528764	42405.406006	3964.981871	22319.522394
32.535500	-0.000915	0.000303	-0.002334	0.001760	6321.021000	42167.286528	3957.793934	22180.845612
33.038000	-0.001931	0.000977	0.001246	-0.000502	6330.574026	42432.784865	3971.168810	22281.033357
33.535500	-0.000916	0.000594	-0.001141	0.001631	6322.005711	42205.266043	3960.808255	22186.574561
34.038500	-0.001088	-0.000278	0.000322	0.000539	6329.053530	42224.993235	3966.649283	22234.855111
34.536500	-0.000244	0.000714	0.001239	0.001339	6329.394547	42242.353571	3966.919918	22199.451685
35.037000	-0.000722	-0.000114	-0.000927	0.000429	6332.720674	42249.848114	3964.040760	22239.761862
35.538500	0.000276	0.000068	-0.000706	0.000745	6337.960441	42237.711759	3963.823315	22225.750970
36.037000	-0.003219	-0.000258	0.004292	-0.000095	6317.585532	42284.121877	3977.269800	22262.971113
36.534500	-0.001395	0.000326	0.002688	0.001160	6321.944889	42223.509155	3970.661812	22207.377508
37.035500	0.001091	0.000322	0.002168	0.000524	6345.940400	42280.552119	3970.929211	22235.540917
37.535500	-0.004048	-0.000321	0.002854	0.000184	6309.124038	42253.200597	3973.297843	22250.608307
38.036000	-0.002044	0.000652	-0.002329	0.001154	6317.021287	42253.435029	3959.185461	22207.635721
38.536000	-0.000495	0.000137	0.000818	0.000299	6335.461806	42284.161758	3968.341121	22245.506148
39.035500	-0.000827	0.000506	0.005156	0.000485	6331.474890	42300.711443	3977.930069	22237.269741
39.536500	-0.002071	-0.000023	0.002124	0.000149	6324.512547	42283.353890	3971.694655	22252.177192
40.037000	-0.000875	0.000456	-0.000429	0.000902	6327.906216	42258.553706	3964.097703	22218.798732
40.537000	-0.001078	0.000009	-0.002856	0.000242	6331.419305	42277.774407	3960.063690	22248.043301
41.034500	0.002035	0.000056	-0.001392	0.000384	6354.314787	42269.134605	3963.078906	22241.723511
41.535000	-0.001617	0.000683	-0.003373	0.000681	6323.916385	42299.057915	3957.886424	22228.598371
42.035000	-0.000243	0.000691	0.003696	0.000739	6334.009444	42294.483084	3973.960280	22226.005991
42.535500	-0.000633	0.000831	-0.001966	0.001123	6328.073562	42272.506828	3960.083142	22209.030559
43.035500	-0.001942	0.000227	0.002561	0.000546	6322.456563	42270.013737	3971.784064	22234.562605
43.538500	-0.001502	0.000026	-0.000569	-0.002190	6346.878123	42499.754066	3970.875487	22356.155303
44.036000	0.000088	0.000264	-0.000201	-0.001183	6351.382346	42429.979797	3969.405896	22311.340100
44.536500	-0.003391	0.000045	-0.001016	0.001513	6303.992772	42166.247800	3961.359422	22191.748637
45.037000	0.000805	0.000039	-0.003390	-0.000801	6353.966111	42374.894996	3961.223278	22294.324991
45.537500	0.000087	0.000051	0.002761	0.001617	6329.801623	42157.457905	3969.777886	22187.157038
46.037000	-0.000977	0.000014	-0.006775	-0.000770	6339.981296	42369.820081	3953.458939	22292.968898
46.535000	-0.001656	-0.000051	-0.002577	0.000984	6321.292302	42205.360251	3959.009502	22215.181266
47.035500	-0.000414	-0.000491	-0.000761	0.000447	6334.943808	42214.053813	3964.379526	22238.928451
47.535500	-0.002541	0.000983	-0.001862	0.001926	6307.330412	42213.698733	3958.492745	22173.539964
48.039000	0.000466	-0.001111	0.001401	-0.001608	6357.583847	42343.808738	3974.078694	22330.215124
48.536500	-0.002850	-0.000044	0.002587	0.000060	6319.218283	42289.390463	3972.965823	22256.087942
49.036500	-0.000219	0.000416	0.004693	-0.000586	6344.400585	42389.551394	3979.340220	22284.787750
49.537000	0.000352	0.000708	0.003003	0.000250	6342.354087	42340.298452	3973.488451	22247.685371
50.037000	0.000286	0.000170	0.002895	0.002997	6320.752465	42044.055919	3966.915855	22126.290877
50.534500	0.018776	-0.002920	0.005776	0.204227	5178.636323	27401.964842	3601.488353	15031.276488
51.035000	0.012233	-0.008197	-0.012048	0.195342	5190.440743	27605.298755	3588.628136	15280.091407
51.535000	-0.001425	-0.025638	-0.024920	-0.130896	7503.751483	53069.156875	4242.669618	29035.373683
52.035000	0.006415	-0.079805	-0.009075	-0.278482	9443.652955	65078.493913	4824.051142	39574.739739
52.535500	0.017493	-0.020605	0.006066	-0.174148	8197.598229	58953.752837	4479.875708	31762.478980
53.035500	0.012056	-0.007518	0.004387	-0.073312	7068.408869	48722.450789	4162.458977	25801.524838
53.536000	0.006880	-0.005410	0.000927	-0.052699	6833.589469	46816.348223	4098.171933	24744.275836
54.036500	0.009084	-0.005210	-0.003091	-0.077547	7080.270949	49416.068956	4153.587929	26025.021404
54.537000	0.010054	-0.002832	0.000139	-0.082094	7132.489605	50161.689211	4174.972010	26267.435376
55.033500	0.006739	-0.001082	-0.000258	-0.060533	6902.184113	48059.952573	4115.572197	25140.186621
55.537500	0.008004	-0.000542	0.002260	-0.025255	6607.893983	44598.289631	4032.353398	23412.312163
56.035500	0.007257	-0.003251	0.003139	-0.069910	6992.207251	48813.458340	4149.760448	25623.524226
56.535000	0.003980	-0.001257	0.000062	-0.019942	6531.055440	44025.299119	4014.140799	23164.017007
57.035500	0.007925	0.000223	0.005043	-0.038280	6717.193433	45939.437785	4071.726781	24033.969941
57.538500	0.008193	0.001548	0.004188	-0.016125	6534.284480	43929.867416	4014.885226	22987.542959
58.036500	0.002302	0.000136	-0.001394	-0.008437	6425.339980	43081.716114	3983.448923	22636.692653
58.536000	0.006065	0.002652	0.002428	0.002035	6372.765582	42354.703738	3968.053737	22168.727424
59.036500	0.004425	0.001537	0.004863	0.011866	6284.728565	41375.894411	3951.203832	21739.533985
59.537000	0.009195	0.003878	0.008852	0.019469	6263.344241	40914.057115	3943.073510	21414.195661
60.037000	0.010671	0.002996	0.006937	0.022227	6253.711866	40597.904502	3932.662157	21297.592712
60.535000	0.016405	0.005131	0.006468	0.024680	6278.412386	40570.353028	3926.207149	21194.469733
61.034500	0.014134	0.004794	0.011782	0.025177	6257.559845	40498.301845	3936.871010	21173.674874
61.535500	0.018966	0.007044	0.012094	0.024233	6301.232470	40774.865765	3939.669315	21213.220097
62.036000	0.014911	0.004625	0.008207	0.012520	6360.045623	41591.381469	3957.298505	21711.318358
62.536000	0.017708	0.007718	0.015160	0.042656	6154.769514	39263.397777	3905.987993	20456.497326
63.035500	0.017336	0.006740	0.018593	0.055037	6063.348709	38165.796386	3886.905823	19965.693951
63.536500	0.017434	0.007644	0.010817	0.046447	6125.337097	38942.374670	3888.625375	20304.741252
64.034000	0.018824	0.009972	0.014205	0.036566	6207.628109	39966.249122	3917.116334	20703.083095
64.537500	0.021768	0.009708	0.011399	0.064798	6025.931540	37620.372729	3851.806138	19588.459926
65.037500	0.028430	0.012087	0.021780	0.071190	6027.813854	37302.236777	3859.941641	19346.017947
65.535000	0.028315	0.012910	0.024824	0.067184	6055.103723	37685.500644	3874.502252	19497.553622
66.035500	0.029932	0.014010	0.022627	0.060567	6113.665634	38306.799157	3883.752278	19750.935386
66.535500	0.029099	0.013616	0.026391	0.053500	6158.751786	38853.033336	3906.823239	20025.859779
67.038500	0.029748	0.015757	0.035983	0.048966	6196.734879	39407.913745	3937.788452	20204.616678
67.536000	0.032977	0.017214	0.032230	0.040140	6286.837367	40279.611499	3949.155721	20557.965781
68.036000	0.032761	0.017929	0.031860	0.033836	6333.301965	40886.529994	3962.624204	20814.787175
68.536500	0.031203	0.017337	0.027363	0.033832	6321.372887	40835.270477	3952.407900	20814.927203
69.052000	0.033102	0.017688	0.028324	0.033390	6339.345607	40904.312263	3955.587060	20833.069398
69.540000	0.031377	0.017375	0.030426	0.033879	6322.352904	40834.510822	3959.255865	20813.028931
70.035000	0.031773	0.018401	0.033838	0.035612	6312.127034	40773.024278	3963.085223	20742.054593
70.535000	0.032735	0.018719	0.030020	0.036969	6309.108375	40682.844809	3951.325843	20686.694081
71.035500	0.033319	0.018918	0.028195	0.037043	6313.000131	40693.703225	3947.044641	20683.668486
71.536000	0.033425	0.018933	0.032219	0.038086	6305.850876	40604.644864	3953.772677	20641.243220
72.036000	0.035091	0.019711	0.035050	0.038247	6317.347185	40658.035085	3959.839188	20634.704262
72.536000	0.033060	0.019944	0.033044	0.039330	6293.607906	40584.379283	3952.822787	20590.737484
73.036500	0.035244	0.019830	0.034532	0.038979	6312.917767	40604.939684	3956.991291	20604.961802
73.536500	0.037574	0.020296	0.033962	0.040125	6321.968407	40546.087553	3953.101753	20558.551243
74.037000	0.036644	0.021294	0.033412	0.039819	6317.200146	40658.935146	3952.548399	20570.943828
74.537000	0.037969	0.020531	0.033180	0.038966	6333.898819	40666.834922	3953.956159	20605.523978
75.035000	0.037046	0.021302	0.033047	0.039448	6323.115573	40691.846119	3952.563272	20585.986159
75.535500	0.040168	0.021732	0.040996	0.038813	6352.026928	40784.332074	3972.172200	20611.713546
76.035000	0.036532	0.021288	0.034537	0.037991	6330.352626	40817.219078	3959.253231	20645.105120
76.539000	0.038372	0.021395	0.036631	0.037792	6346.036351	40843.807153	3964.486441	20653.162638
77.036000	0.038883	0.022129	0.031212	0.037659	6351.020923	40919.422143	3952.461022	20658.604344
77.536500	0.036848	0.022057	0.034402	0.037630	6335.552767	40915.642856	3959.767441	20659.774178
78.036500	0.038507	0.022817	0.037055	0.037165	6351.932114	41022.681479	3966.898193	20678.706264
78.534000	0.038576	0.022878	0.038877	0.036469	6357.845268	41088.897506	3972.692504	20707.051150
79.037000	0.038027	0.023304	0.035618	0.036299	6354.916878	41141.216388	3965.587881	20714.006421
79.535000	0.038620	0.024291	0.034794	0.036696	6356.425713	41193.004572	3962.792950	20697.793203
80.035000	0.040024	0.023900	0.033379	0.036026	6372.513501	41217.513598	3961.089768	20725.128433
80.535500	0.039914	0.024530	0.039293	0.036084	6371.211786	41267.873878	3974.543534	20722.768939
81.038500	0.041977	0.025109	0.038558	0.035754	6389.861549	41347.944058	3973.605057	20736.232396
81.536000	0.041665	0.025088	0.041920	0.035318	6390.828769	41384.618204	3982.418782	20754.062960
82.035500	0.039437	0.025329	0.042482	0.035377	6372.998198	41400.703000	3983.592280	20751.665506
82.536500	0.039710	0.026042	0.044478	0.035275	6375.916409	41472.707234	3988.499788	20755.805982
83.036500	0.040976	0.025435	0.044402	0.034205	6394.149511	41513.741061	3990.833252	20799.634869
83.536500	0.040887	0.025464	0.038591	0.033657	6397.745359	41564.961687	3978.539315	20822.133950
84.037500	0.041080	0.027102	0.044270	0.035398	6385.638609	41555.826471	3987.724720	20750.790548
84.534500	0.040331	0.026271	0.041649	0.033624	6393.649399	41639.573453	3985.740162	20823.469406
85.035000	0.041188	0.026777	0.036890	0.033843	6398.647558	41665.137084	3974.168929	20814.499633
85.535500	0.042600	0.027985	0.044033	0.034702	6402.982754	41696.170424	3988.800547	20779.272751
86.035500	0.042640	0.028402	0.039838	0.035262	6398.899936	41683.369447	3977.707442	20756.348483
86.536000	0.041638	0.027421	0.038488	0.033020	6408.627620	41795.805838	3979.780049	20848.283217
87.036500	0.039082	0.027714	0.038133	0.032320	6394.079796	41884.560150	3980.582624	20877.110565
87.536000	0.041153	0.026919	0.037084	0.032398	6409.705762	41806.463788	3977.962895	20873.870911
88.037000	0.040962	0.027331	0.042457	0.032033	6411.079564	41876.031567	3991.367154	20888.933184
88.534500	0.042548	0.028064	0.042292	0.032346	6421.111407	41913.588325	3990.245040	20876.042611
89.035000	0.041080	0.027250	0.042089	0.031310	6417.704595	41933.440781	3992.202401	20918.754487
89.535000	0.041043	0.027073	0.041994	0.030747	6421.841269	41968.001197	3993.303462	20941.970054
90.035500	0.038072	0.026753	0.036262	0.030522	6400.253777	41959.513484	3980.414394	20951.300010
90.538500	0.038598	0.027158	0.040876	0.030555	6404.111144	41992.864444	3991.123648	20949.910380
91.035500	0.039154	0.027612	0.036003	0.031194	6403.471799	41976.322522	3978.250434	20923.540586
91.536000	0.041411	0.027156	0.037055	0.030847	6423.962670	41966.500088	3981.502322	20937.847413
92.036000	0.042468	0.028102	0.041166	0.031796	6424.811952	41966.205250	3988.891229	20898.669111
92.536500	0.040309	0.028093	0.044154	0.031747	6408.194209	41969.857113	3996.039798	20900.714981
93.037000	0.040067	0.029060	0.040698	0.032524	6400.191621	41986.792897	3986.089154	20868.683958
93.537500	0.039454	0.028233	0.040554	0.032825	6393.038364	41885.823587	3985.049701	20856.303914
94.035000	0.039013	0.028268	0.037562	0.035316	6370.178161	41666.697080	3972.317967	20754.159278
94.534500	0.039967	0.028368	0.041101	0.033109	6394.827642	41872.481255	3985.664060	20844.622584
95.036000	0.039533	0.028231	0.041503	0.033525	6388.185071	41823.130076	3985.633712	20827.561122
95.536000	0.041673	0.029189	0.043366	0.034766	6395.214856	41797.751128	3987.087450	20776.656397
96.037000	0.039745	0.028455	0.041401	0.037638	6357.842007	41477.199045	3975.823567	20659.431469
96.536000	0.041380	0.028596	0.042571	0.035237	6389.233666	41702.877479	3984.127301	20757.368190
97.036500	0.043232	0.029012	0.038517	0.036258	6395.742637	41649.137579	3972.349519	20715.680200
97.537000	0.043638	0.029244	0.041230	0.037328	6390.544325	41574.655543	3976.146791	20672.074301
98.037000	0.039644	0.029201	0.034839	0.040948	6331.542777	41250.884772	3953.224969	20525.331187
98.534500	0.040000	0.028927	0.042282	0.037170	6363.448828	41560.518527	3978.954494	20678.507433
99.035000	0.044205	0.029482	0.036271	0.038338	6387.080990	41506.157840	3962.414661	20630.973271
99.535000	0.044553	0.030569	0.041577	0.040352	6374.096152	41424.054480	3969.964654	20549.372650
100.038500	0.042838	0.028792	0.039607	0.042685	6342.748663	41062.452620	3960.107637	20455.336727
100.535000	0.042979	0.030144	0.041430	0.040918	6357.490120	41336.589917	3968.324664	20526.518441
101.036500	0.043728	0.030137	0.048002	0.040556	6366.096232	41367.940380	3984.386661	20541.124993
101.536500	0.042642	0.030645	0.046367	0.041497	6350.408801	41329.768329	3978.391604	20503.176807
102.037000	0.042090	0.029927	0.044641	0.045341	6316.618312	40929.548296	3965.543332	20348.880693
102.539500	0.045056	0.030369	0.044987	0.042477	6361.501592	41219.135851	3972.927213	20463.705371
103.037500	0.044746	0.030742	0.046987	0.043498	6351.200868	41162.203099	3975.189447	20422.665916
103.534500	0.047156	0.030454	0.044208	0.044239	6364.121920	41071.883242	3967.076563	20392.948814
104.035500	0.040759	0.030597	0.042687	0.048134	6285.224083	40744.641078	3954.722895	20237.595935
104.535500	0.046366	0.031831	0.047229	0.045550	6347.861055	41077.731307	3971.011183	20340.516653
105.036000	0.044253	0.031021	0.046775	0.045635	6330.936486	40999.362684	3969.768039	20337.115196
105.536000	0.046707	0.031654	0.040207	0.046422	6343.766527	40985.923525	3952.984321	20305.709246
106.036000	0.042091	0.030932	0.041254	0.051017	6273.502174	40524.080332	3944.987509	20123.514764
106.536500	0.046271	0.031246	0.046120	0.046568	6339.285230	40937.596334	3966.122076	20299.919599
107.036500	0.046036	0.031746	0.040991	0.046914	6334.817223	40950.987831	3953.646087	20286.133948
107.534000	0.047971	0.032686	0.048785	0.048169	6340.043798	40923.415574	3968.564263	20236.204556
108.037500	0.046930	0.032197	0.044561	0.047809	6334.803834	40912.177597	3959.720861	20250.507595
108.534000	0.046039	0.031163	0.046050	0.047847	6327.673848	40818.902543	3963.033375	20249.027720
109.035000	0.047420	0.031885	0.045907	0.049026	6329.215886	40779.086376	3960.013874	20202.216093
109.535500	0.049285	0.032573	0.048739	0.049774	6337.806188	40773.816617	3964.774720	20172.604361
110.035500	0.046747	0.031918	0.045820	0.049317	6321.823542	40756.620455	3959.151877	20190.683994
110.536000	0.044682	0.032149	0.043480	0.049482	6304.791658	40762.444423	3953.466978	20184.168140
111.036000	0.046244	0.032263	0.048818	0.050052	6312.359797	40722.806418	3964.321671	20161.629900
111.537000	0.047195	0.033461	0.047944	0.051077	6311.792983	40737.829158	3959.982923	20121.145975
112.036500	0.047456	0.033175	0.042402	0.051015	6314.265778	40718.399093	3947.573878	20123.610540
