sample name	sample
index	1175
start time	 04-26-2021  11:22:15 AM
880	-0.020338
Peak Time (s)	91.035
Peak Height 	-0.02034
calc peak height	90,93
Baseline Time (s)	11.536
Baseline Value 	-0.002917
subtract baseline	10,4
Abs	-0.022656
Peak Time (s)	92.535
Peak Height 	-0.02266
calc peak height	90,93
Baseline Time (s)	8.537
Baseline Value 	0.00412
subtract baseline	10,3
PK_550	0.001192
Peak Time (s)	92.535
Peak Height 	0.001192
calc peak height	90,93
Baseline Time (s)	10.536
Baseline Value 	1.9298E-4
subtract baseline	10,2
PK_880	-0.013320
Peak Time (s)	90.534
Peak Height 	-0.01332
calc peak height	90,93
Baseline Time (s)	9.535
Baseline Value 	8.7608E-4
subtract baseline	10,1


Time (s)	A880-A510	A880-A775	A880-A975	A880	I510	I775	I975	I880	
0.038000	-0.005492	-0.000032	-0.003730	0.006642	6082.470225	43372.569174	3833.558234	22420.242888
0.538000	-0.001243	-0.000987	0.001003	0.003636	6136.483199	43564.168743	3851.237756	22556.044353
1.035500	-0.000757	-0.000081	-0.008881	0.003434	6141.660216	43668.093452	3829.169067	22565.223214
1.536000	0.000112	-0.000088	-0.001145	0.000929	6167.130372	43903.220526	3852.526499	22679.175041
2.035500	-0.006890	-0.000697	-0.004225	0.005629	6079.626472	43405.039463	3834.732471	22465.908832
2.536500	-0.000528	0.000271	-0.001582	0.000744	6163.684676	43954.691623	3851.946103	22687.627425
3.036500	0.000594	0.000057	-0.004453	-0.001506	6189.310073	44147.561918	3850.515432	22790.572600
3.537000	-0.000350	-0.000132	-0.004672	-0.000738	6176.272023	44056.739543	3848.242440	22755.349178
4.037000	-0.000645	-0.000094	-0.003653	0.003698	6140.512606	43642.023935	3840.421742	22553.256358
4.537500	0.002007	-0.000315	-0.005163	-0.000293	6190.839067	43997.267027	3846.093800	22734.980530
5.035000	0.002035	-0.000184	-0.005266	-0.001139	6197.513161	44089.789292	3847.801113	22773.728322
5.535500	0.000803	0.000599	0.000997	-0.000360	6182.166056	44090.149994	3860.477178	22738.042044
6.035500	-0.000477	-0.000081	-0.003173	-0.000630	6174.491886	44051.323097	3851.446405	22750.426121
6.538500	-0.000304	0.000519	0.001388	0.000133	6170.007327	44035.901039	3860.238561	22715.503683
7.036000	0.000557	0.000032	-0.004846	-0.000383	6180.478214	44038.670382	3847.029127	22739.130995
7.536000	-0.000011	0.000541	-0.003994	-0.000437	6176.563335	44092.017317	3849.111425	22741.587860
8.036500	-0.001600	0.000013	-0.006854	-0.000959	6168.470033	44091.521958	3843.749371	22765.502172
8.536500	-0.000941	-0.000268	0.000000	-0.001047	6174.136145	44073.187659	3859.756283	22769.519589
9.037500	-0.001875	-0.000073	-0.002852	0.003693	6131.319027	43644.424978	3842.261447	22553.462261
9.535000	0.000000	0.000635	0.001428	-0.000507	6177.183016	44107.658830	3861.823553	22744.806519
10.035000	0.000954	0.001145	0.000552	0.000118	6179.685504	44096.669401	3858.334030	22716.212684
10.535500	0.000232	0.000000	-0.001794	-0.000848	6181.542620	44079.735979	3855.134730	22760.420771
11.035500	-0.005158	-0.000335	-0.007629	0.003327	6109.526491	43654.269439	3832.236199	22570.080694
11.536000	0.002603	0.000939	0.004285	0.000000	6193.152519	44088.300506	3867.310942	22721.597390
12.036500	-0.002296	0.000308	0.000902	-0.000535	6159.987046	44079.287898	3860.664791	22746.087052
12.535500	0.000601	0.000167	0.002116	-0.000554	6182.111262	44067.587924	3863.535445	22746.928796
13.036000	-0.002454	-0.000027	-0.009806	0.004140	6123.635667	43606.896748	3825.499143	22533.232977
13.534500	-0.001255	0.000763	0.000195	-0.000203	6165.353101	44090.885168	3858.249803	22730.878708
14.053500	0.001850	0.001129	0.000197	-0.000304	6189.720608	44135.201331	3858.485872	22735.479626
14.537500	-0.003098	0.000210	-0.002178	0.001578	6138.019752	43870.126959	3848.652903	22649.607018
15.038500	-0.005006	-0.000127	-0.000392	0.004840	6099.406651	43531.899340	3845.263958	22501.534856
15.546500	0.000818	0.000376	-0.001581	-0.000688	6184.781097	44100.143120	3855.255691	22753.069398
16.038500	-0.002391	-0.000076	-0.000817	-0.001128	6163.750982	44098.981710	3858.045888	22773.219778
16.536000	0.001045	0.000483	-0.003065	-0.000678	6186.440332	44109.381058	3851.806207	22752.614936
17.036500	-0.002257	0.000784	-0.004791	0.005342	6116.134673	43570.249207	3834.099796	22478.892623
17.536500	0.001309	0.000314	-0.001601	-0.000491	6187.024537	44075.587841	3854.754409	22744.042320
18.037000	0.000178	0.000196	-0.000536	-0.001124	6183.227251	44124.489529	3858.690458	22773.053461
18.537000	-0.000712	-0.000528	-0.005989	-0.000270	6169.971309	43974.971725	3844.150503	22733.950541
19.034500	-0.001241	-0.000058	-0.001822	0.001996	6148.840598	43805.459429	3848.510665	22630.545734
19.535000	-0.001202	0.000472	0.000246	0.001085	6156.008184	43941.403839	3855.380938	22672.043287
20.035500	-0.000322	0.000649	-0.000580	0.001376	6160.460429	43930.673030	3852.800663	22658.812832
20.536000	-0.000755	0.000569	-0.001054	0.000970	6160.255976	43961.374087	3852.643037	22677.293106
21.036000	-0.003146	-0.000772	-0.005093	0.001594	6137.529620	43776.066085	3841.936037	22648.841345
21.536000	-0.000945	0.001431	-0.006079	0.001328	6156.108680	44009.098289	3840.293345	22660.956975
22.037000	-0.000744	0.000072	-0.002929	0.000415	6164.543691	43966.937439	3849.600469	22702.644637
22.537000	-0.003377	0.000351	-0.004098	0.000367	6145.027106	43997.833980	3847.024841	22704.836102
23.037000	-0.002965	0.000188	-0.004886	0.000586	6146.479023	43961.766449	3844.716698	22694.833722
23.537000	-0.001853	0.000689	-0.000012	0.000941	6152.183377	43975.567353	3855.119547	22678.635244
24.034500	-0.001446	0.000561	-0.004837	0.001120	6153.895626	43946.437975	3843.605188	22670.439836
24.535000	-0.002388	0.000304	-0.006175	0.000511	6151.393780	43979.770533	3841.940100	22698.261048
25.035500	-0.001942	0.000221	-0.004626	0.002705	6138.236062	43765.012221	3840.467496	22598.325261
25.538000	0.001076	0.000190	-0.006214	0.000855	6175.005832	43936.438221	3841.064349	22682.535828
26.036000	-0.000770	0.000138	0.001431	0.000448	6164.093235	43970.029508	3859.606024	22701.110045
26.536000	-0.002077	-0.000235	-0.003584	0.000224	6155.906995	43955.985694	3848.533886	22711.362635
27.036500	-0.001445	0.000876	-0.005227	0.000756	6156.656472	44010.700967	3843.545680	22687.049669
27.536500	-0.001768	0.000598	-0.004995	0.000750	6154.260805	43984.902302	3844.090169	22687.318047
28.037000	0.000531	0.000095	-0.002560	-0.000935	6184.480446	44096.948108	3853.564232	22764.379562
28.537500	0.000597	0.000688	-0.001771	-0.000746	6183.539265	44135.283949	3854.951042	22755.729035
29.035000	0.002358	0.000702	-0.001611	-0.000905	6198.192824	44151.680337	3855.688084	22763.003942
29.543500	-0.001540	-0.000431	-0.003730	-0.001529	6173.243729	44103.388578	3852.232884	22791.602381
30.038500	-0.000321	0.000028	-0.000680	-0.000162	6172.124677	44017.344685	3856.125571	22729.009887
30.536000	-0.000192	0.000495	-0.004406	-0.001025	6179.654525	44143.447380	3849.514744	22768.501929
31.036000	-0.003941	-0.000527	-0.006893	0.003403	6118.035812	43629.077791	3833.731335	22566.636916
31.545000	0.000768	0.000578	0.002491	-0.000431	6182.441903	44094.955705	3864.123743	22741.299296
32.041000	-0.001834	0.000196	-0.000580	0.002602	6139.818220	43772.299175	3849.974919	22603.017898
32.537000	-0.000564	0.000182	-0.002148	0.000430	6165.782756	43975.841812	3851.363675	22701.926340
33.051000	0.000303	0.000439	-0.005649	-0.000532	6179.678834	44091.400943	3845.529033	22745.941250
33.537000	-0.001299	-0.000003	-0.005523	-0.001094	6171.767800	44102.702605	3847.106658	22771.657691
34.034500	-0.003464	-0.000188	0.003318	0.002128	6131.136512	43780.691838	3860.088371	22624.534872
34.535500	-0.000309	0.001145	-0.002293	0.000007	6170.927016	44107.249403	3852.005542	22721.283346
35.038500	-0.004300	-0.000661	-0.000330	0.004562	6106.719646	43508.083007	3846.044964	22514.137346
35.535000	0.003620	0.001247	-0.000718	-0.001288	6210.807345	44239.998214	3858.648301	22780.586824
36.036500	-0.001572	-0.000162	0.002571	0.001270	6151.814839	43864.034228	3860.346078	22663.616406
36.536500	-0.002193	0.000213	-0.000030	0.001561	6144.949782	43872.009316	3853.643725	22650.380962
37.036500	-0.003364	0.000393	-0.002619	0.002993	6125.414816	43754.075546	3844.396264	22585.242142
37.537000	0.000314	0.000181	-0.001099	0.001608	6163.516786	43864.507779	3851.066823	22648.200144
38.037000	-0.000648	-0.000432	-0.005365	0.000549	6164.255541	43906.606353	3843.704890	22696.517185
38.537000	-0.002392	-0.000577	0.000118	0.000879	6148.577696	43861.770845	3855.560358	22681.434245
39.038500	-0.002392	-0.000376	-0.003333	0.001961	6140.435677	43778.748636	3845.122410	22632.136699
39.538500	-0.002485	0.000645	-0.000687	0.001025	6146.781155	43963.351274	3853.363106	22674.776499
40.036000	-0.000227	0.000356	0.000025	0.001571	6159.698600	43884.476873	3853.747111	22649.892391
40.536000	-0.002402	-0.000175	-0.002174	0.000623	6150.435652	43923.876821	3850.859156	22693.128239
41.036500	-0.004271	-0.000586	-0.004687	0.001401	6130.542326	43811.786959	3843.307734	22657.662581
41.537000	-0.001297	-0.000290	-0.003867	0.000546	6159.361881	43920.277381	3847.143255	22696.649630
42.036500	-0.002390	-0.000218	0.001882	0.001030	6147.461114	43881.404525	3859.304215	22674.565065
42.537500	-0.002056	-0.000086	-0.001013	0.001096	6149.482118	43887.638688	3852.446714	22671.544367
43.035000	-0.001829	0.000927	-0.001952	0.002625	6139.679827	43838.962148	3846.766910	22601.952441
43.534500	-0.003332	-0.000491	0.004793	0.000616	6143.480127	43894.703113	3867.056539	22693.437769
44.599500	-0.000197	0.001343	0.001324	0.001848	6157.837976	43951.558721	3856.110251	22637.287227
45.245500	-0.001667	0.000090	-0.000442	0.001021	6152.978013	43911.346128	3853.938545	22674.975183
45.336500	-0.000130	0.000169	-0.002242	0.001141	6163.693026	43907.429345	3849.511508	22669.494403
45.536000	0.001148	0.000509	-0.001563	-0.000735	6187.655582	44117.261334	3855.407465	22755.228793
46.038000	0.001774	0.001092	0.002850	-0.000210	6188.426650	44122.797622	3864.447345	22731.207608
46.537000	-0.001054	-0.001067	-0.002312	-0.002184	6181.921286	44105.193791	3857.029656	22821.693926
47.039500	-0.004050	-0.000244	-0.004419	0.004813	6106.715990	43523.530335	3836.143914	22502.776911
47.537500	0.000172	0.000257	-0.006006	-0.001345	6184.869637	44151.260876	3846.576078	22783.195449
48.040000	-0.001026	0.000036	-0.002446	-0.001282	6175.269031	44124.285145	3854.629540	22780.286771
48.535000	-0.001636	0.000149	0.004583	-0.001217	6170.143547	44128.790909	3870.863657	22777.296394
49.039500	-0.003648	0.000154	-0.000541	0.004071	6115.235045	43630.329857	3846.688106	22536.368675
49.536000	-0.002335	0.000444	0.002912	0.001786	6142.186120	43872.567297	3859.940281	22640.118054
50.036000	-0.000931	0.000488	-0.001750	-0.000920	6173.242840	44132.795802	3855.402421	22763.691167
50.539000	0.002587	0.000758	-0.000160	-0.000498	6196.839971	44118.448287	3858.110509	22744.387587
51.036500	-0.003398	-0.000197	0.001119	0.004463	6114.179383	43560.689458	3849.600314	22518.610333
51.537000	0.000484	0.000777	0.000600	-0.003163	6201.137567	44373.962708	3866.088609	22866.728116
52.037000	0.002518	0.000034	-0.006856	-0.000037	6192.789367	44006.109198	3841.637465	22723.299443
52.535000	0.006309	-0.006797	-0.001516	0.007260	6166.119722	42690.390842	3837.180459	22392.471763
53.035000	0.021401	-0.020983	-0.008298	0.302539	4601.781430	22411.249161	3342.525745	12759.794970
53.535500	-0.003502	-0.025510	-0.022189	-0.137643	7366.699947	56107.573045	4164.020076	30125.677173
54.036000	-0.018680	-0.037066	-0.026714	-0.157935	7419.905538	57188.860739	4212.597867	31429.572281
54.536000	-0.022234	-0.038140	-0.026391	-0.181863	7638.163273	60122.365584	4290.837343	33047.431836
55.036000	-0.011754	-0.027497	-0.018293	-0.161621	7532.300428	58871.360369	4251.108806	31672.993985
55.535500	-0.001957	-0.025483	-0.004996	-0.141510	7423.011254	56586.882720	4229.301731	30369.466973
56.037000	-0.008838	-0.024548	-0.007805	-0.116309	7099.204861	53669.199015	4143.161704	28818.976083
56.537000	-0.013244	-0.016485	-0.014091	-0.071193	6644.049013	49517.216429	3998.843438	26258.319534
57.037500	-0.018634	-0.013512	-0.023823	-0.073923	6621.039595	50133.411097	3980.471802	26405.809364
57.537500	-0.017106	-0.011840	-0.023913	-0.101695	6882.436197	53446.916334	4054.859059	27960.219880
58.038000	-0.016248	-0.010518	-0.019782	-0.102396	6896.848296	53683.027478	4068.339799	28000.785894
58.538000	-0.014267	-0.010218	-0.026560	-0.119189	7074.485614	55721.610714	4096.753140	28991.637173
59.035500	-0.016534	-0.011150	-0.033262	-0.113168	6995.119089	54882.697095	4060.767410	28631.974987
59.536000	-0.011374	-0.010285	-0.022194	-0.109435	7008.678448	54540.446254	4081.384170	28411.433031
60.036000	-0.010031	-0.009399	-0.022742	-0.098006	6913.799546	53301.878603	4047.895625	27747.992151
60.536500	-0.009664	-0.007430	-0.020883	-0.075807	6715.824078	51007.826045	3993.095571	26508.147843
61.037000	-0.012924	-0.001097	-0.022041	-0.074512	6675.762865	51569.259736	3986.659790	26437.781523
61.537500	-0.012779	-0.003944	-0.019188	-0.046685	6441.093470	48250.174942	3923.150895	24974.842886
62.037500	-0.010289	-0.007322	-0.019800	-0.052745	6511.987632	48531.130366	3936.696548	25285.509624
62.535000	-0.011308	-0.007841	-0.022164	-0.053975	6513.752255	48605.842475	3933.861424	25349.055341
63.038000	-0.013277	-0.013552	-0.024938	-0.059073	6540.057413	48541.375721	3939.675340	25614.526355
63.541000	-0.018849	-0.006521	-0.030911	-0.008166	6093.198430	44155.339690	3805.939050	23098.459920
64.035500	-0.017510	0.002120	-0.029470	0.001145	6034.671451	44091.724053	3788.773359	22669.298788
64.536000	-0.020745	0.003324	-0.032490	-0.009900	6091.996915	45270.083336	3806.277972	23179.381800
65.036000	-0.025263	0.004106	-0.037981	-0.013797	6087.405190	45729.130854	3802.775900	23362.489712
65.536500	-0.021552	0.005095	-0.034520	-0.024332	6194.505619	46880.806535	3833.974394	23865.722852
66.037000	-0.021665	0.004992	-0.037204	-0.028650	6226.793104	47309.799802	3837.682188	24075.554961
66.537500	-0.018455	0.005169	-0.031404	-0.032411	6281.016409	47714.363292	3859.664172	24260.024984
67.037500	-0.025659	0.004356	-0.036331	-0.032956	6229.200975	47686.703969	3849.529685	24286.897725
67.535000	-0.025104	0.004727	-0.040948	-0.039812	6286.926352	48438.294402	3854.695503	24627.747575
68.035500	-0.023185	0.005522	-0.033519	-0.043002	6327.284460	48858.123871	3879.557850	24788.155109
68.538500	-0.023069	0.003902	-0.033445	-0.046641	6357.257159	49072.283497	3888.396828	24972.611719
69.035500	-0.025282	0.004087	-0.039746	-0.042688	6308.179941	48673.347959	3864.170703	24772.324848
69.536000	-0.022150	0.004586	-0.038329	-0.047485	6371.421722	49235.007895	3878.784435	25015.615704
70.036500	-0.020913	0.004561	-0.029770	-0.051676	6415.390254	49681.609425	3909.426960	25230.387024
70.536500	-0.021305	0.003967	-0.031079	-0.053741	6429.050011	49840.403877	3911.273033	25336.979474
71.037000	-0.027459	0.003262	-0.040489	-0.050342	6351.734529	49398.781057	3880.435253	25161.767849
71.535000	-0.025392	0.003430	-0.038512	-0.054957	6405.637915	49913.735123	3896.191378	25399.964848
72.035000	-0.022920	0.003700	-0.035310	-0.057391	6445.740977	50207.540047	3909.854619	25526.635005
72.535500	-0.024273	0.003363	-0.037150	-0.057854	6438.426550	50221.128676	3906.500842	25550.770496
73.035500	-0.030010	0.003122	-0.040274	-0.051721	6342.372863	49531.661778	3884.223660	25232.706664
73.536000	-0.026606	0.003227	-0.035837	-0.053421	6383.353369	49725.816036	3898.938747	25320.395089
74.036000	-0.025591	0.003189	-0.039600	-0.054848	6403.132857	49875.984088	3893.314630	25394.331560
74.536500	-0.028402	0.001527	-0.036819	-0.054443	6377.109524	49652.875924	3899.034542	25373.306855
75.036500	-0.026490	0.001142	-0.037364	-0.053005	6380.931169	49456.953112	3894.257084	25298.915296
75.537000	-0.030513	-0.000301	-0.044238	-0.048874	6315.729157	48863.254981	3868.132968	25086.546698
76.037500	-0.026482	0.001157	-0.039782	-0.049023	6349.010196	49033.662540	3878.984890	25094.194244
76.537000	-0.027577	0.000321	-0.039448	-0.047114	6325.062513	48742.952761	3875.259365	24996.689545
77.035000	-0.028239	0.000872	-0.040572	-0.039173	6257.403418	47969.500879	3854.087462	24595.727888
77.535500	-0.031794	0.000493	-0.041541	-0.039351	6231.208391	47948.523818	3852.259479	24604.619963
78.035500	-0.027471	0.000741	-0.030799	-0.040669	6275.080379	48111.263909	3880.475069	24670.683822
78.536000	-0.026227	0.001107	-0.039652	-0.038182	6265.361835	47891.073772	3853.921418	24546.190031
79.036000	-0.030065	0.000403	-0.038205	-0.031760	6186.228271	47158.887750	3842.491199	24228.005242
79.536000	-0.027061	0.001196	-0.042076	-0.030370	6198.546736	47097.994490	3830.542484	24159.726485
80.036500	-0.025547	0.001181	-0.031296	-0.032583	6227.189952	47322.345217	3860.315197	24268.508567
80.536500	-0.025789	-0.000033	-0.037899	-0.032337	6223.424979	47173.230010	3844.511287	24256.402347
81.036500	-0.026936	0.000523	-0.030523	-0.025151	6159.805470	46502.453756	3844.945400	23905.394087
81.535000	-0.020777	0.000484	-0.031639	-0.029374	6239.255645	46924.520771	3852.086602	24110.944280
82.038000	-0.024725	0.000650	-0.034391	-0.028587	6202.790280	46861.701997	3843.955677	24072.508638
82.535000	-0.023702	-0.000044	-0.028356	-0.028338	6208.718355	46766.280108	3857.283972	24060.352935
83.036000	-0.021841	0.000228	-0.030289	-0.026867	6211.711865	46645.322897	3849.420826	23988.665777
83.536000	-0.025964	0.000068	-0.037968	-0.021947	6142.963167	46136.545792	3820.850237	23750.715076
84.036500	-0.021813	-0.000327	-0.031955	-0.026808	6211.477818	46583.575737	3845.461487	23985.812778
84.537000	-0.020323	0.000629	-0.033405	-0.025556	6213.302126	46553.750041	3839.286942	23925.018960
85.039500	-0.018573	0.000735	-0.025578	-0.025056	6222.926250	46514.251802	3856.115967	23900.792682
85.537500	-0.021542	0.000197	-0.031829	-0.019937	6161.169045	45949.703593	3830.122572	23654.315390
86.037000	-0.017950	0.000955	-0.027602	-0.024183	6220.998085	46448.655060	3849.429088	23858.553918
86.535500	-0.018405	0.000417	-0.028554	-0.024273	6218.188177	46403.670429	3847.445735	23862.871480
87.034500	-0.021213	-0.000021	-0.032009	-0.019057	6157.000602	45841.012011	3827.733886	23612.239928
87.535000	-0.018710	0.000581	-0.028197	-0.019459	6179.021949	45940.453515	3837.266097	23631.445478
88.035500	-0.015011	0.000761	-0.021620	-0.023768	6240.493030	46387.609272	3862.317485	23838.478915
88.535500	-0.015508	0.000323	-0.026584	-0.024892	6245.359318	46456.385920	3853.410289	23892.848238
89.036500	-0.018998	-0.000030	-0.034252	-0.019065	6173.836087	45840.947520	3822.716898	23612.626437
89.537000	-0.017411	-0.000427	-0.028711	-0.019125	6186.369875	45807.562906	3835.339480	23615.460992
90.033500	-0.015535	-0.000397	-0.024563	-0.025581	6250.496957	46453.217202	3859.689872	23926.223567
90.534000	-0.013320	0.000189	-0.025603	-0.025819	6269.613877	46535.947575	3857.825982	23937.774768
91.035000	-0.016421	0.000488	-0.026842	-0.020338	6203.209461	46018.439481	3842.355279	23673.524095
91.538000	-0.016342	0.000352	-0.027458	-0.020896	6208.096698	46060.295513	3842.224024	23700.282647
92.035500	-0.014183	0.001002	-0.030501	-0.026706	6269.806076	46707.129585	3848.564165	23980.860995
92.535000	-0.014086	0.001192	-0.022656	-0.027995	6280.647822	46856.607582	3869.783631	24043.600522
93.035000	-0.015799	0.000714	-0.025586	-0.023717	6234.007429	46377.777463	3853.001720	23836.037454
93.536500	-0.015795	0.001234	-0.024861	-0.024011	6236.307442	46459.341025	3855.356375	23850.215388
94.036500	-0.013791	0.001899	-0.025530	-0.029691	6296.300222	47100.475917	3867.020700	24126.468080
94.537000	-0.015471	0.001416	-0.018337	-0.031139	6294.467119	47198.751635	3887.454133	24197.447565
95.037000	-0.015614	0.001165	-0.027614	-0.026220	6254.848359	46674.522515	3854.096550	23957.217834
95.537500	-0.016868	0.000189	-0.027883	-0.027938	6258.465552	46749.457501	3857.454595	24040.839785
96.038000	-0.015256	0.001171	-0.024841	-0.033023	6311.035503	47366.309101	3876.479890	24290.211258
96.535000	-0.013239	0.001615	-0.028625	-0.034168	6336.131192	47529.225103	3870.259902	24346.730468
97.035000	-0.014936	0.000500	-0.025721	-0.035428	6332.650959	47544.236453	3880.089635	24409.155415
97.536000	-0.014773	0.000984	-0.021985	-0.035150	6331.738879	47565.335628	3888.322069	24395.363984
98.038500	-0.013856	0.001108	-0.024484	-0.035752	6343.847409	47640.140499	3883.799013	24425.249060
