sample name	sample
index	654
start time	 03-22-2021  09:58:50 AM


Wavelength (nm)	Absorbance
494.344910	-0.171642
494.563924	-0.171642
494.782919	-0.171642
495.001897	-0.388141
495.220856	-0.340564
495.439797	-0.371450
495.658719	-0.385985
495.877624	-0.391711
496.096510	-0.413106
496.315378	-0.400177
496.534227	-0.355292
496.753059	-0.279588
496.971872	-0.229848
497.190667	0.017193
497.409444	0.034763
497.628203	0.037049
497.846943	0.037968
498.065665	0.039348
498.284369	0.039168
498.503055	0.039833
498.721723	0.040264
498.940372	0.040960
499.159003	0.041141
499.377616	0.040744
499.596210	0.040159
499.814787	0.040334
500.033345	0.040393
500.251885	0.040535
500.470406	0.041397
500.688910	0.041239
500.907395	0.041843
501.125862	0.042458
501.344311	0.042098
501.562742	0.043095
501.781154	0.042631
501.999548	0.042735
502.217924	0.043361
502.436282	0.043053
502.654621	0.043582
502.872942	0.042437
503.091245	0.042323
503.309530	0.042943
503.527797	0.043235
503.746045	0.043873
503.964275	0.044079
504.182487	0.043304
504.400681	0.042467
504.618856	0.041884
504.837013	0.041598
505.055152	0.041158
505.273273	0.040987
505.491376	0.040553
505.709460	0.040329
505.927526	0.040477
506.145574	0.040836
506.363604	0.040790
506.581615	0.041715
506.799608	0.042737
507.017583	0.041884
507.235540	0.041464
507.453478	0.041463
507.671399	0.041473
507.889301	0.041158
508.107185	0.041109
508.325050	0.041840
508.542898	0.040969
508.760727	0.041398
508.978538	0.041840
509.196330	0.042677
509.414105	0.043160
509.631861	0.043057
509.849599	0.042876
510.067319	0.042676
510.285021	0.042446
510.502704	0.042603
510.720369	0.041952
510.938016	0.042219
511.155645	0.042370
511.373255	0.041445
511.590848	0.041350
511.808422	0.041824
512.025977	0.041723
512.243515	0.042126
512.461034	0.042398
512.678536	0.042361
512.896018	0.042440
513.113483	0.041729
513.330930	0.041751
513.548358	0.041717
513.765768	0.040976
513.983160	0.041599
514.200533	0.041286
514.417889	0.041087
514.635226	0.041434
514.852545	0.040967
515.069845	0.041424
515.287128	0.041354
515.504392	0.041626
515.721638	0.042516
515.938866	0.041801
516.156075	0.041943
516.373267	0.042116
516.590440	0.041471
516.807594	0.041714
517.024731	0.041228
517.241850	0.041603
517.458950	0.041171
517.676032	0.041219
517.893095	0.041159
518.110141	0.041021
518.327168	0.041182
518.544177	0.041828
518.761168	0.042404
518.978141	0.042943
519.195095	0.042716
519.412031	0.042817
519.628949	0.042643
519.845849	0.043120
520.062731	0.043810
520.279594	0.043142
520.496439	0.042715
520.713266	0.042243
520.930074	0.041657
521.146865	0.041578
521.363637	0.041916
521.580391	0.041918
521.797127	0.042256
522.013844	0.041681
522.230543	0.042072
522.447224	0.042422
522.663887	0.042471
522.880532	0.042632
523.097158	0.043108
523.313766	0.042763
523.530356	0.042716
523.746928	0.042483
523.963481	0.042376
524.180017	0.042552
524.396534	0.042314
524.613032	0.042588
524.829513	0.042955
525.045975	0.043158
525.262420	0.043275
525.478845	0.042348
525.695253	0.042503
525.911643	0.042359
526.128014	0.041933
526.344367	0.041602
526.560702	0.040994
526.777018	0.040769
526.993316	0.040498
527.209597	0.040899
527.425858	0.041287
527.642102	0.041677
527.858328	0.041969
528.074535	0.042443
528.290724	0.042912
528.506894	0.042940
528.723047	0.042867
528.939181	0.042808
529.155297	0.042022
529.371395	0.042211
529.587475	0.041644
529.803536	0.041816
530.019579	0.041631
530.235604	0.041639
530.451611	0.041484
530.667600	0.041393
530.883570	0.041669
531.099522	0.042124
531.315456	0.042086
531.531372	0.041976
531.747269	0.041451
531.963148	0.041093
532.179009	0.040941
532.394852	0.041073
532.610676	0.041111
532.826482	0.040936
533.042271	0.040963
533.258040	0.041632
533.473792	0.041596
533.689525	0.041800
533.905240	0.042617
534.120937	0.042728
534.336616	0.042978
534.552277	0.042687
534.767919	0.042361
534.983543	0.042273
535.199149	0.042126
535.414736	0.042331
535.630306	0.042628
535.845857	0.042438
536.061390	0.042469
536.276904	0.042583
536.492401	0.043461
536.707879	0.043906
536.923339	0.044510
537.138781	0.044255
537.354204	0.044179
537.569610	0.044195
537.784997	0.044355
538.000366	0.044473
538.215716	0.044614
538.431049	0.044453
538.646363	0.044380
538.861659	0.043802
539.076937	0.044149
539.292196	0.044252
539.507438	0.044176
539.722661	0.043907
539.937866	0.043662
540.153052	0.043530
540.368221	0.043442
540.583371	0.043711
540.798503	0.044059
541.013617	0.043664
541.228712	0.043489
541.443789	0.043064
541.658848	0.043256
541.873889	0.042914
542.088912	0.042913
542.303916	0.042743
542.518902	0.042504
542.733870	0.041725
542.948820	0.041932
543.163752	0.041901
543.378665	0.042170
543.593560	0.041999
543.808437	0.042000
544.023295	0.041954
544.238136	0.041959
544.452958	0.041889
544.667762	0.042041
544.882548	0.041854
545.097315	0.042177
545.312064	0.042402
545.526795	0.042621
545.741508	0.043189
545.956203	0.043422
546.170879	0.043618
546.385537	0.043503
546.600177	0.044222
546.814799	0.044410
547.029402	0.044613
547.243988	0.044625
547.458555	0.044465
547.673103	0.044156
547.887634	0.044303
548.102146	0.043969
548.316640	0.043983
548.531116	0.043642
548.745574	0.043664
548.960013	0.043040
549.174435	0.042589
549.388838	0.042181
549.603222	0.042782
549.817589	0.042231
550.031937	0.042489
550.246267	0.042277
550.460579	0.042251
550.674873	0.041920
550.889148	0.041810
551.103405	0.042061
551.317644	0.042423
551.531865	0.042087
551.746068	0.042301
551.960252	0.042007
552.174418	0.042313
552.388566	0.042728
552.602696	0.043106
552.816807	0.043279
553.030900	0.043200
553.244975	0.043192
553.459032	0.043083
553.673070	0.042858
553.887091	0.042935
554.101093	0.043065
554.315077	0.042728
554.529042	0.042349
554.742990	0.042625
554.956919	0.042397
555.170830	0.042239
555.384722	0.042163
555.598597	0.042601
555.812453	0.042437
556.026291	0.041939
556.240111	0.041747
556.453913	0.041900
556.667696	0.041831
556.881461	0.042354
557.095208	0.042483
557.308937	0.042786
557.522647	0.042894
557.736339	0.043170
557.950013	0.043301
558.163669	0.043495
558.377307	0.042964
558.590926	0.042895
558.804527	0.042718
559.018110	0.042580
559.231675	0.042508
559.445221	0.042292
559.658749	0.041891
559.872259	0.041926
560.085751	0.041719
560.299225	0.042067
560.512680	0.041887
560.726117	0.041973
560.939536	0.041858
561.152937	0.041525
561.366319	0.041435
561.579683	0.041532
561.793029	0.041658
562.006357	0.042033
562.219667	0.042149
562.432958	0.042206
562.646231	0.042104
562.859486	0.042135
563.072723	0.042150
563.285941	0.041977
563.499141	0.042287
563.712323	0.042247
563.925487	0.041867
564.138632	0.041825
564.351760	0.041834
564.564869	0.041556
564.777960	0.041245
564.991032	0.041048
565.204087	0.041063
565.417123	0.040611
565.630141	0.040088
565.843140	0.040065
566.056122	0.039906
566.269085	0.039963
566.482030	0.040091
566.694957	0.040305
566.907866	0.040463
567.120756	0.040463
567.333628	0.040530
567.546482	0.041031
567.759318	0.040874
567.972135	0.040906
568.184935	0.040576
568.397716	0.040245
568.610478	0.040235
568.823223	0.040068
569.035949	0.039883
569.248657	0.039681
569.461347	0.039613
569.674019	0.039822
569.886672	0.039720
570.099308	0.039969
570.311925	0.040081
570.524523	0.039800
570.737104	0.039980
570.949666	0.040041
571.162210	0.040186
571.374736	0.040015
571.587244	0.039696
571.799733	0.039626
572.012205	0.039575
572.224658	0.039535
572.437092	0.039773
572.649509	0.039608
572.861907	0.039391
573.074287	0.039332
573.286649	0.039315
573.498993	0.038989
573.711318	0.038811
573.923625	0.038446
574.135914	0.038142
574.348185	0.037817
574.560438	0.037282
574.772672	0.037055
574.984888	0.037016
575.197086	0.036804
575.409266	0.037193
575.621427	0.037140
575.833570	0.037025
576.045695	0.036888
576.257802	0.036921
576.469890	0.037377
576.681961	0.037370
576.894013	0.037349
577.106046	0.037373
577.318062	0.037243
577.530059	0.037175
577.742039	0.036985
577.954000	0.037162
578.165942	0.037168
578.377867	0.036512
578.589773	0.036571
578.801661	0.036509
579.013531	0.036371
579.225382	0.036296
579.437216	0.036325
579.649031	0.036640
579.860828	0.036623
580.072606	0.036669
580.284367	0.036966
580.496109	0.037341
580.707833	0.037406
580.919539	0.037203
581.131227	0.037071
581.342896	0.037229
581.554547	0.037282
581.766180	0.037136
581.977795	0.036788
582.189391	0.036942
582.400969	0.036731
582.612529	0.036683
582.824071	0.036797
583.035595	0.036975
583.247100	0.036576
583.458587	0.036432
583.670056	0.036350
583.881506	0.036451
584.092939	0.036170
584.304353	0.035718
584.515749	0.035485
584.727127	0.035439
584.938486	0.035352
585.149828	0.035364
585.361151	0.035240
585.572456	0.035242
585.783742	0.035240
585.995011	0.035554
586.206261	0.035704
586.417493	0.035632
586.628706	0.035743
586.839902	0.035581
587.051079	0.035712
587.262238	0.035539
587.473379	0.035568
587.684502	0.035506
587.895606	0.035336
588.106692	0.035445
588.317760	0.035691
588.528810	0.035429
588.739841	0.035368
588.950855	0.035285
589.161850	0.035432
589.372827	0.035172
589.583785	0.035291
589.794726	0.035305
590.005648	0.035184
590.216552	0.035098
590.427437	0.035445
590.638305	0.035580
590.849154	0.035670
591.059985	0.035752
591.270798	0.036237
591.481592	0.036371
591.692369	0.036351
591.903127	0.036359
592.113867	0.036273
592.324588	0.036151
592.535292	0.036254
592.745977	0.036211
592.956644	0.036332
593.167293	0.036061
593.377923	0.035760
593.588536	0.035536
593.799130	0.035455
594.009706	0.035561
594.220263	0.035651
594.430803	0.035502
594.641324	0.035451
594.851827	0.035360
595.062312	0.035513
595.272778	0.035405
595.483227	0.035428
595.693657	0.035497
595.904069	0.035223
596.114462	0.034887
596.324838	0.034520
596.535195	0.034289
596.745534	0.033970
596.955855	0.033712
597.166157	0.033708
597.376441	0.033593
597.586707	0.033408
597.796955	0.033258
598.007185	0.032920
598.217396	0.032949
598.427589	0.032941
598.637764	0.033045
598.847921	0.033014
599.058060	0.032854
599.268180	0.032911
599.478282	0.032990
599.688366	0.033202
599.898431	0.033441
600.108479	0.033359
600.318508	0.033453
600.528519	0.033202
600.738511	0.033422
600.948486	0.033494
601.158442	0.033279
601.368380	0.033115
601.578300	0.033026
601.788202	0.033139
601.998085	0.033332
602.207950	0.033186
602.417797	0.033068
602.627626	0.032641
602.837436	0.032674
603.047228	0.032812
603.257002	0.033019
603.466758	0.032698
603.676496	0.032454
603.886215	0.032261
604.095916	0.032084
604.305599	0.032186
604.515264	0.032189
604.724910	0.032016
604.934538	0.031870
605.144148	0.031635
605.353740	0.031773
605.563314	0.031556
605.772869	0.031413
605.982406	0.031700
606.191925	0.031817
606.401425	0.031995
606.610908	0.031758
606.820372	0.031737
607.029818	0.031696
607.239246	0.031611
607.448655	0.031792
607.658047	0.031812
607.867420	0.031374
608.076775	0.031203
608.286111	0.031078
608.495430	0.031349
608.704730	0.031024
608.914012	0.031156
609.123275	0.031057
609.332521	0.030998
609.541748	0.030865
609.750957	0.030892
609.960148	0.030772
610.169321	0.030530
610.378475	0.030310
610.587611	0.030351
610.796729	0.029971
611.005829	0.029807
611.214910	0.029804
611.423974	0.029980
611.633019	0.030070
611.842045	0.030078
612.051054	0.030437
612.260044	0.030370
612.469017	0.030357
612.677970	0.030425
612.886906	0.030715
613.095824	0.030717
613.304723	0.030727
613.513604	0.030605
613.722467	0.030361
613.931311	0.029852
614.140138	0.029979
614.348946	0.030084
614.557736	0.030101
614.766507	0.030113
614.975261	0.030091
615.183996	0.029854
615.392713	0.030043
615.601412	0.030244
615.810092	0.030512
616.018754	0.030403
616.227399	0.030467
616.436024	0.030394
616.644632	0.030258
616.853222	0.030196
617.061793	0.030144
617.270346	0.029874
617.478880	0.029842
617.687397	0.029851
617.895895	0.029778
618.104375	0.029973
618.312837	0.030260
618.521281	0.030192
618.729706	0.030157
618.938113	0.030150
619.146502	0.030103
619.354873	0.029971
619.563226	0.029862
619.771560	0.029959
619.979876	0.029593
620.188174	0.029106
620.396453	0.029157
620.604715	0.029056
620.812958	0.029145
621.021183	0.029382
621.229390	0.029492
621.437578	0.029592
621.645748	0.029654
621.853900	0.029657
622.062034	0.029523
622.270150	0.029437
622.478247	0.029376
622.686326	0.029273
622.894387	0.029169
623.102430	0.029096
623.310454	0.029107
623.518461	0.028944
623.726449	0.028945
623.934418	0.029075
624.142370	0.028860
624.350303	0.028970
624.558218	0.028852
624.766115	0.028837
624.973994	0.028984
625.181855	0.028780
625.389697	0.028764
625.597521	0.028802
625.805327	0.028930
626.013114	0.029173
626.220883	0.029176
626.428634	0.029400
626.636367	0.029494
626.844082	0.029400
627.051778	0.029486
627.259457	0.029490
627.467117	0.029472
627.674758	0.029331
627.882382	0.029353
628.089987	0.029323
628.297574	0.029204
628.505143	0.028886
628.712694	0.028838
628.920226	0.028716
629.127740	0.028713
629.335236	0.028568
629.542714	0.028362
629.750174	0.028077
629.957615	0.027866
630.165038	0.027687
630.372443	0.027686
630.579829	0.027455
630.787198	0.027193
630.994548	0.027033
631.201880	0.026831
631.409194	0.026975
631.616489	0.027102
631.823766	0.027075
632.031025	0.027126
632.238266	0.027103
632.445489	0.027079
632.652693	0.027075
632.859879	0.027064
633.067047	0.027259
633.274197	0.027332
633.481329	0.027400
633.688442	0.027584
633.895537	0.027867
634.102614	0.028038
634.309672	0.028383
634.516713	0.028549
634.723735	0.028748
634.930739	0.028870
635.137724	0.028989
635.344692	0.028850
635.551641	0.028723
635.758572	0.028432
635.965485	0.028417
636.172379	0.028180
636.379256	0.028130
636.586114	0.028014
636.792954	0.027892
636.999775	0.027854
637.206579	0.028010
637.413364	0.028145
637.620131	0.028354
637.826880	0.028394
638.033610	0.028515
638.240323	0.028708
638.447017	0.028906
638.653692	0.029200
638.860350	0.029020
639.066990	0.029074
639.273611	0.028980
639.480214	0.028903
639.686798	0.028955
639.893365	0.029074
640.099913	0.029171
640.306443	0.028823
640.512955	0.028564
640.719449	0.028574
640.925924	0.028377
641.132381	0.028328
641.338820	0.028272
641.545241	0.027950
641.751644	0.027735
641.958028	0.027695
642.164394	0.027976
642.370742	0.027927
642.577071	0.028193
642.783383	0.028150
642.989676	0.028207
643.195951	0.028046
643.402207	0.028081
643.608446	0.028050
643.814666	0.027705
644.020868	0.027574
644.227052	0.027597
644.433218	0.027264
644.639365	0.027159
644.845494	0.027231
645.051605	0.027284
645.257698	0.027235
645.463772	0.027096
645.669828	0.027040
645.875866	0.026864
646.081886	0.026795
646.287888	0.026759
646.493871	0.026787
646.699836	0.026505
646.905783	0.026371
647.111712	0.026422
647.317622	0.026322
647.523514	0.026292
647.729388	0.026227
647.935244	0.025940
648.141082	0.026041
648.346901	0.025843
648.552702	0.025799
648.758485	0.025823
648.964250	0.025745
649.169996	0.025823
649.375724	0.025745
649.581434	0.025693
649.787126	0.025687
649.992800	0.025507
650.198455	0.025554
650.404092	0.025697
650.609711	0.025626
650.815311	0.025460
651.020894	0.025302
651.226458	0.025301
651.432004	0.025280
651.637532	0.025521
651.843041	0.025540
652.048532	0.025535
652.254006	0.025342
652.459460	0.025442
652.664897	0.025390
652.870315	0.025643
653.075716	0.025527
653.281097	0.025726
653.486461	0.025726
653.691807	0.025763
653.897134	0.025707
654.102443	0.025783
654.307734	0.025922
654.513006	0.026130
654.718261	0.025939
654.923497	0.026114
655.128715	0.026024
655.333915	0.025905
655.539096	0.025841
655.744259	0.025795
655.949404	0.025635
656.154531	0.025382
656.359640	0.025376
656.564730	0.025481
656.769802	0.025640
656.974856	0.025676
657.179892	0.025701
657.384909	0.025928
657.589908	0.026149
657.794889	0.026169
657.999852	0.026347
658.204797	0.026411
658.409723	0.026425
658.614631	0.026381
658.819521	0.026374
659.024393	0.026405
659.229246	0.026235
659.434081	0.026170
659.638898	0.026411
659.843697	0.026337
660.048478	0.026393
660.253240	0.026410
660.457984	0.026404
660.662710	0.026457
660.867417	0.026534
661.072107	0.026606
661.276778	0.026748
661.481431	0.026742
661.686066	0.026788
661.890682	0.026708
662.095281	0.026562
662.299861	0.026499
662.504422	0.026314
662.708966	0.026289
662.913491	0.026223
663.117999	0.025907
663.322488	0.025549
663.526958	0.025156
663.731411	0.024920
663.935845	0.024957
664.140261	0.024771
664.344659	0.024670
664.549038	0.024396
664.753400	0.024146
664.957743	0.024213
665.162068	0.024267
665.366375	0.024370
665.570663	0.024369
665.774933	0.024009
665.979185	0.024081
666.183419	0.024057
666.387635	0.024065
666.591832	0.024301
666.796011	0.024407
667.000172	0.024422
667.204315	0.024447
667.408439	0.024544
667.612545	0.024822
667.816634	0.024912
668.020703	0.025096
668.224755	0.025116
668.428788	0.025014
668.632803	0.024955
668.836800	0.025024
669.040779	0.025216
669.244739	0.025247
669.448681	0.025325
669.652605	0.025153
669.856511	0.025212
670.060399	0.025130
670.264268	0.025127
670.468119	0.025122
670.671952	0.025274
670.875767	0.025170
671.079563	0.025109
671.283341	0.025095
671.487101	0.025020
671.690843	0.024903
671.894567	0.024988
672.098272	0.024984
672.301959	0.024919
672.505628	0.024661
672.709278	0.024718
672.912911	0.024753
673.116525	0.024743
673.320121	0.024961
673.523699	0.024997
673.727258	0.025047
673.930799	0.025034
674.134322	0.025325
674.337827	0.025518
674.541314	0.025669
674.744782	0.025603
674.948232	0.025499
675.151664	0.025522
675.355078	0.025452
675.558474	0.025440
675.761851	0.025656
675.965210	0.025411
676.168551	0.025335
676.371873	0.025270
676.575178	0.025376
676.778464	0.025430
676.981732	0.025338
677.184981	0.025270
677.388213	0.025282
677.591426	0.024965
677.794621	0.024926
677.997798	0.024790
678.200956	0.024670
678.404097	0.024508
678.607219	0.024534
678.810323	0.024398
679.013408	0.024463
679.216476	0.024404
679.419525	0.024427
679.622556	0.024448
679.825569	0.024423
680.028563	0.024294
680.231540	0.024298
680.434498	0.024148
680.637438	0.024309
680.840359	0.024237
681.043263	0.024202
681.246148	0.024203
681.449015	0.024024
681.651864	0.023867
681.854694	0.023699
682.057506	0.023641
682.260301	0.023672
682.463076	0.023654
682.665834	0.023433
682.868573	0.023455
683.071295	0.023511
683.273998	0.023604
683.476682	0.023823
683.679349	0.024084
683.881997	0.024212
684.084627	0.024320
684.287239	0.024280
684.489833	0.024472
684.692408	0.024500
684.894965	0.024532
685.097504	0.024581
685.300025	0.024682
685.502527	0.024661
685.705012	0.024481
685.907478	0.024493
686.109925	0.024328
686.312355	0.024176
686.514766	0.024045
686.717159	0.023861
686.919534	0.023670
687.121891	0.023568
687.324230	0.023309
687.526550	0.023376
687.728852	0.023090
687.931136	0.023164
688.133401	0.023218
688.335649	0.023129
688.537878	0.023149
688.740089	0.023191
688.942281	0.023220
689.144456	0.023390
689.346612	0.023261
689.548750	0.023432
689.750870	0.023495
689.952971	0.023539
690.155055	0.023517
690.357120	0.023359
690.559167	0.023268
690.761195	0.023199
690.963206	0.023053
691.165198	0.022957
691.367172	0.022826
691.569128	0.022701
691.771065	0.022645
691.972984	0.022546
692.174885	0.022716
692.376768	0.022742
692.578633	0.022650
692.780479	0.022588
692.982308	0.022599
693.184118	0.022595
693.385909	0.022569
693.587683	0.022396
693.789438	0.022492
693.991175	0.022373
694.192894	0.022328
694.394595	0.022235
694.596277	0.022261
694.797941	0.022367
694.999587	0.022322
695.201215	0.022202
695.402824	0.022297
695.604416	0.022398
695.805989	0.022580
696.007543	0.022568
696.209080	0.022740
696.410598	0.022773
696.612099	0.022736
696.813580	0.022659
697.015044	0.022796
697.216490	0.022805
697.417917	0.022712
697.619326	0.022346
697.820717	0.022240
698.022089	0.022036
698.223444	0.021965
698.424780	0.021823
698.626098	0.021785
698.827397	0.021637
699.028679	0.021492
699.229942	0.021344
699.431187	0.021303
699.632414	0.021365
699.833622	0.021371
700.034813	0.021350
700.235985	0.021296
700.437139	0.021216
700.638274	0.021173
700.839392	0.021353
701.040491	0.021351
701.241572	0.021411
701.442635	0.021301
701.643679	0.021146
701.844706	0.021333
702.045714	0.021478
702.246704	0.021603
702.447675	0.021624
702.648629	0.021423
702.849564	0.021406
703.050481	0.021284
703.251380	0.021326
703.452260	0.021438
703.653122	0.021087
703.853966	0.021064
704.054792	0.020889
704.255600	0.020814
704.456389	0.020905
704.657160	0.020893
704.857913	0.021036
705.058648	0.021026
705.259365	0.021106
705.460063	0.021218
705.660743	0.021214
705.861405	0.021278
706.062048	0.021370
706.262674	0.021342
706.463281	0.021363
706.663870	0.021564
706.864441	0.021603
707.064993	0.021541
707.265527	0.021578
707.466043	0.021556
707.666541	0.021640
707.867021	0.021728
708.067482	0.021715
708.267925	0.021847
708.468350	0.021775
708.668757	0.021815
708.869145	0.021858
709.069516	0.021988
709.269868	0.022079
709.470201	0.022147
709.670517	0.022142
709.870814	0.022374
710.071093	0.022430
710.271354	0.022292
710.471597	0.022191
710.671821	0.021886
710.872028	0.021683
711.072216	0.021602
711.272385	0.021424
711.472537	0.021160
711.672670	0.020729
711.872785	0.020641
712.072882	0.020603
712.272961	0.020596
712.473021	0.020802
712.673063	0.020895
712.873087	0.020695
713.073093	0.020782
713.273081	0.020831
713.473050	0.020981
713.673001	0.020786
713.872934	0.020840
714.072849	0.020864
714.272745	0.020681
714.472623	0.020520
714.672483	0.020535
714.872325	0.020409
715.072148	0.020274
715.271954	0.020292
715.471741	0.020287
715.671509	0.020200
715.871260	0.020081
716.070992	0.020144
716.270707	0.019971
716.470403	0.019938
716.670080	0.019982
716.869740	0.019837
717.069381	0.019575
717.269004	0.019494
717.468609	0.019366
717.668195	0.019325
717.867764	0.019273
718.067314	0.019361
718.266846	0.019362
718.466360	0.019038
718.665855	0.019177
718.865332	0.019262
719.064791	0.019179
719.264232	0.019215
719.463655	0.019143
719.663059	0.019192
719.862445	0.019263
720.061813	0.019162
720.261163	0.019237
720.460494	0.019162
720.659807	0.019103
720.859102	0.019112
721.058379	0.019057
721.257638	0.019047
721.456878	0.019047
721.656100	0.019065
721.855304	0.019154
722.054490	0.019225
722.253657	0.019212
722.452806	0.019255
722.651937	0.019135
722.851050	0.019175
723.050145	0.019196
723.249221	0.019141
723.448279	0.019054
723.647319	0.019103
723.846340	0.019293
724.045344	0.019441
724.244329	0.019225
724.443296	0.019364
724.642245	0.019287
724.841175	0.019410
725.040088	0.019399
725.238982	0.019424
725.437857	0.019217
725.636715	0.018899
725.835554	0.018786
726.034376	0.018991
726.233179	0.018861
726.431963	0.018858
726.630730	0.018713
726.829478	0.018615
727.028208	0.018549
727.226920	0.018558
727.425614	0.018584
727.624289	0.018437
727.822946	0.018144
728.021585	0.018171
728.220206	0.017930
728.418808	0.017755
728.617392	0.017705
728.815958	0.017550
729.014506	0.017399
729.213036	0.017067
729.411547	0.017059
729.610040	0.016977
729.808515	0.016844
730.006972	0.016807
730.205410	0.016729
730.403831	0.016558
730.602233	0.016487
730.800616	0.016568
730.998982	0.016843
731.197329	0.016694
731.395658	0.016871
731.593969	0.016837
731.792262	0.016894
731.990536	0.017101
732.188793	0.017082
732.387031	0.017206
732.585250	0.017142
732.783452	0.017193
732.981635	0.017351
733.179800	0.017325
733.377947	0.017365
733.576076	0.017427
733.774186	0.017116
733.972278	0.017281
734.170352	0.017130
734.368408	0.017068
734.566446	0.016923
734.764465	0.016838
734.962466	0.016854
735.160449	0.016805
735.358413	0.016783
735.556360	0.016862
735.754288	0.016682
735.952198	0.016694
736.150090	0.016826
736.347963	0.017053
736.545818	0.017068
736.743655	0.017103
736.941474	0.017146
737.139275	0.017058
737.337057	0.017178
737.534821	0.017192
737.732567	0.017180
737.930295	0.017061
738.128005	0.016793
738.325696	0.016616
738.523369	0.016499
738.721024	0.016304
738.918660	0.016406
739.116279	0.016153
739.313879	0.016110
739.511461	0.016016
739.709024	0.015907
739.906570	0.015992
740.104097	0.016050
740.301606	0.016132
740.499097	0.016101
740.696569	0.015938
740.894024	0.016112
741.091460	0.016211
741.288878	0.016393
741.486277	0.016474
741.683659	0.016395
741.881022	0.016383
742.078367	0.016124
742.275694	0.016322
742.473002	0.016455
742.670293	0.016430
742.867565	0.016454
743.064819	0.016434
743.262054	0.016312
743.459272	0.016145
743.656471	0.016290
743.853652	0.016450
744.050815	0.016280
744.247959	0.016264
744.445085	0.016174
744.642194	0.016090
744.839283	0.015871
745.036355	0.016098
745.233408	0.016184
745.430444	0.016105
745.627461	0.015995
745.824459	0.015990
746.021440	0.015839
746.218402	0.016128
746.415346	0.016265
746.612272	0.016583
746.809180	0.016455
747.006069	0.016560
747.202940	0.016624
747.399793	0.016809
747.596628	0.017077
747.793444	0.017212
747.990243	0.016930
748.187023	0.016799
748.383784	0.016619
748.580528	0.016839
748.777253	0.016866
748.973960	0.016880
749.170649	0.016685
749.367320	0.016704
749.563973	0.016583
749.760607	0.016664
749.957223	0.016761
750.153821	0.016761
750.350400	0.016726
750.546962	0.016712
750.743505	0.016841
750.940030	0.016894
751.136536	0.016882
751.333025	0.017016
751.529495	0.017023
751.725947	0.017101
751.922381	0.017078
752.118796	0.017043
752.315194	0.017035
752.511573	0.017022
752.707934	0.017266
752.904276	0.017175
753.100601	0.017292
753.296907	0.017474
753.493195	0.017629
753.689465	0.017719
753.885716	0.017730
754.081949	0.017890
754.278164	0.017745
754.474361	0.017676
754.670540	0.017781
754.866700	0.017758
755.062843	0.017656
755.258967	0.017413
755.455072	0.017212
755.651160	0.017014
755.847229	0.016753
756.043280	0.016688
756.239313	0.016521
756.435328	0.016426
756.631324	0.016336
756.827302	0.016303
757.023262	0.016354
757.219204	0.016399
757.415127	0.016651
757.611033	0.016522
757.806920	0.016538
758.002788	0.016681
758.198639	0.016805
758.394471	0.016882
758.590286	0.016951
758.786081	0.016966
758.981859	0.017185
759.177619	0.016935
759.373360	0.017140
759.569083	0.017123
759.764788	0.017106
759.960474	0.017015
760.156143	0.016989
760.351793	0.016878
760.547425	0.016759
760.743038	0.016581
760.938634	0.016680
761.134211	0.016698
761.329770	0.016865
761.525311	0.016814
761.720833	0.016844
761.916338	0.016779
762.111824	0.016849
762.307292	0.016802
762.502741	0.016792
762.698173	0.016748
762.893586	0.016734
763.088981	0.016754
763.284358	0.016631
763.479716	0.016566
763.675057	0.016606
763.870379	0.016666
764.065683	0.016658
764.260968	0.016732
764.456236	0.016874
764.651485	0.017032
764.846716	0.017058
765.041929	0.017213
765.237123	0.017280
765.432299	0.017323
765.627457	0.017280
765.822597	0.017346
766.017719	0.017339
766.212822	0.017296
766.407907	0.017163
766.602974	0.017168
766.798023	0.017277
766.993054	0.017277
767.188066	0.017284
767.383060	0.017315
767.578036	0.017542
767.772993	0.017640
767.967933	0.017662
768.162854	0.017634
768.357757	0.017548
768.552642	0.017305
768.747508	0.017107
768.942356	0.016993
769.137186	0.017000
769.331998	0.016823
769.526792	0.016802
769.721567	0.016813
769.916324	0.017101
770.111063	0.017197
770.305784	0.017210
770.500486	0.017514
770.695171	0.017773
770.889837	0.017727
771.084484	0.017689
771.279114	0.017591
771.473725	0.017596
771.668318	0.017571
771.862893	0.017468
772.057450	0.017715
772.251988	0.017552
772.446509	0.017285
772.641011	0.017307
772.835494	0.017363
773.029960	0.017294
773.224407	0.017254
773.418836	0.017114
773.613247	0.017051
773.807640	0.016802
774.002014	0.016942
774.196370	0.016971
774.390708	0.016868
774.585028	0.016793
774.779330	0.016907
774.973613	0.016884
775.167878	0.016909
775.362125	0.017057
775.556354	0.017193
775.750564	0.017371
775.944756	0.017449
776.138930	0.017552
776.333086	0.017633
776.527223	0.017872
776.721343	0.018075
776.915444	0.017997
777.109526	0.017943
777.303591	0.018091
777.497637	0.018092
777.691666	0.018157
777.885676	0.018220
778.079667	0.018614
778.273641	0.018694
778.467596	0.018607
778.661533	0.018620
778.855452	0.018728
779.049352	0.018736
779.243235	0.018490
779.437099	0.018584
779.630945	0.018530
779.824773	0.018314
780.018582	0.018053
780.212373	0.018043
780.406146	0.018174
780.599901	0.017991
780.793638	0.017857
780.987356	0.018067
781.181056	0.017959
781.374738	0.018002
781.568402	0.017854
781.762047	0.017781
781.955674	0.017644
782.149283	0.017439
782.342874	0.017491
782.536447	0.017422
782.730001	0.017230
782.923537	0.017154
783.117055	0.017056
783.310555	0.017036
783.504036	0.017096
783.697499	0.017220
783.890944	0.017383
784.084371	0.017501
784.277780	0.017774
784.471170	0.017797
784.664542	0.017781
784.857896	0.017916
785.051231	0.017806
785.244549	0.017636
785.437848	0.017534
785.631129	0.017325
785.824392	0.017055
786.017636	0.016787
786.210863	0.016632
786.404071	0.016519
786.597260	0.016249
786.790432	0.016247
786.983585	0.016233
787.176721	0.016220
787.369838	0.016175
787.562936	0.016269
787.756017	0.016310
787.949079	0.016295
788.142123	0.016376
788.335149	0.016326
788.528156	0.016382
788.721146	0.016430
788.914117	0.016325
789.107070	0.016408
789.300005	0.016382
789.492921	0.016389
789.685819	0.016393
789.878699	0.016182
790.071561	0.016245
790.264405	0.016025
790.457230	0.015902
790.650037	0.015867
790.842826	0.015833
791.035597	0.015617
791.228349	0.015452
791.421084	0.015421
791.613800	0.015427
791.806497	0.015314
791.999177	0.015339
792.191838	0.015219
792.384481	0.015037
792.577106	0.014764
792.769713	0.014545
792.962301	0.014382
793.154871	0.014189
793.347423	0.014205
793.539957	0.014175
793.732473	0.014012
793.924970	0.014342
794.117449	0.014470
794.309910	0.014580
794.502353	0.014910
794.694777	0.015058
794.887183	0.015199
795.079571	0.015129
795.271941	0.015210
795.464293	0.015376
795.656626	0.015255
795.848941	0.015335
796.041238	0.015313
796.233516	0.015242
796.425777	0.015179
796.618019	0.015055
796.810243	0.015063
797.002449	0.015126
797.194636	0.014886
797.386805	0.014785
797.578956	0.014604
797.771089	0.014538
797.963204	0.014705
798.155300	0.014686
798.347378	0.014871
798.539438	0.014980
798.731480	0.014958
798.923503	0.015098
799.115509	0.015030
799.307496	0.015169
799.499465	0.015307
799.691415	0.015120
799.883348	0.015033
800.075262	0.014932
800.267158	0.014755
800.459035	0.014678
800.650895	0.014747
800.842736	0.014559
801.034559	0.014454
801.226364	0.014463
801.418150	0.014442
801.609919	0.014474
801.801669	0.014501
801.993401	0.014705
802.185114	0.014667
802.376810	0.014639
802.568487	0.014883
802.760146	0.014796
802.951787	0.014683
803.143409	0.014773
803.335014	0.014755
803.526600	0.014756
803.718168	0.014469
803.909717	0.014390
804.101249	0.014146
804.292762	0.013974
804.484257	0.014033
804.675734	0.014090
804.867192	0.013799
805.058632	0.013593
805.250054	0.013373
805.441458	0.013256
805.632844	0.013079
805.824211	0.013238
806.015561	0.013136
806.206891	0.013034
806.398204	0.012949
806.589499	0.013123
806.780775	0.013404
806.972033	0.013185
807.163273	0.013341
807.354495	0.013367
807.545698	0.013245
807.736883	0.013232
807.928050	0.013068
808.119199	0.012839
808.310329	0.012656
808.501441	0.012405
808.692535	0.012492
808.883611	0.012344
809.074669	0.012455
809.265708	0.012605
809.456729	0.012795
809.647732	0.013062
809.838717	0.013349
810.029683	0.013446
810.220632	0.013669
810.411562	0.013701
810.602474	0.013929
810.793367	0.013862
810.984242	0.013675
811.175100	0.013614
811.365938	0.013613
811.556759	0.013389
811.747562	0.013232
811.938346	0.012890
812.129112	0.012873
812.319860	0.012680
812.510589	0.012588
812.701300	0.012531
812.891994	0.012400
813.082668	0.012315
813.273325	0.012309
813.463964	0.012332
813.654584	0.012357
813.845186	0.012120
814.035769	0.012133
814.226335	0.011933
814.416882	0.011965
814.607411	0.011883
814.797922	0.011827
814.988415	0.011593
815.178889	0.011795
815.369345	0.012140
815.559783	0.012540
815.750203	0.012576
815.940605	0.012732
816.130988	0.012600
816.321353	0.012813
816.511700	0.012791
816.702028	0.012954
816.892339	0.012692
817.082631	0.012412
817.272905	0.012359
817.463161	0.012238
817.653398	0.012338
817.843617	0.012513
818.033819	0.012212
818.224001	0.012118
818.414166	0.012188
818.604312	0.012083
818.794440	0.012045
818.984550	0.011732
819.174642	0.011537
819.364716	0.011170
819.554771	0.010898
819.744808	0.010653
819.934827	0.010521
820.124827	0.010280
820.314810	0.010324
820.504774	0.010214
820.694720	0.010276
820.884647	0.010215
821.074557	0.010389
821.264448	0.010420
821.454321	0.010598
821.644176	0.010400
821.834012	0.010275
822.023831	0.010047
822.213631	0.009668
822.403413	0.009543
822.593176	0.009433
822.782922	0.009354
822.972649	0.009042
823.162358	0.008961
823.352049	0.009136
823.541721	0.009247
823.731376	0.009022
823.921012	0.009342
824.110629	0.009417
824.300229	0.009527
824.489811	0.009535
824.679374	0.009768
824.868919	0.009640
825.058445	0.009531
825.247954	0.009251
825.437444	0.009561
825.626916	0.009468
825.816370	0.009302
826.005806	0.009150
826.195223	0.008880
826.384622	0.008662
826.574003	0.008763
826.763366	0.008455
826.952711	0.008499
827.142037	0.008146
827.331345	0.008049
827.520635	0.007907
827.709906	0.008064
827.899160	0.008133
828.088395	0.008076
828.277612	0.007873
828.466810	0.008105
828.655991	0.007950
828.845153	0.007788
829.034297	0.007714
829.223423	0.007581
829.412531	0.007335
829.601620	0.007035
829.790691	0.007127
829.979744	0.006901
830.168779	0.006646
830.357795	0.006586
830.546793	0.006735
830.735773	0.006636
830.924735	0.006599
831.113679	0.006518
831.302604	0.006480
831.491511	0.006335
831.680400	0.006769
831.869271	0.006837
832.058123	0.007133
832.246957	0.007250
832.435773	0.007292
832.624571	0.007516
832.813351	0.007629
833.002112	0.007866
833.190855	0.007984
833.379580	0.007818
833.568287	0.007956
833.756975	0.008038
833.945645	0.008133
834.134297	0.008163
834.322931	0.008226
834.511547	0.008184
834.700144	0.008213
834.888723	0.007981
835.077284	0.007875
835.265826	0.007545
835.454351	0.007129
835.642857	0.006780
835.831345	0.006599
836.019815	0.006365
836.208266	0.006294
836.396699	0.005952
836.585114	0.006035
836.773511	0.005952
836.961890	0.006154
837.150250	0.006137
837.338592	0.006279
837.526916	0.006336
837.715222	0.006366
837.903510	0.006251
838.091779	0.006430
838.280030	0.006254
838.468263	0.006183
838.656477	0.006181
838.844674	0.006599
839.032852	0.006843
839.221012	0.006900
839.409153	0.006920
839.597277	0.007061
839.785382	0.007254
839.973469	0.007642
840.161538	0.008014
840.349589	0.007821
840.537621	0.007545
840.725635	0.007148
840.913631	0.007107
841.101609	0.007078
841.289568	0.006944
841.477509	0.006678
841.665432	0.006505
841.853337	0.006208
842.041224	0.006492
842.229092	0.006446
842.416942	0.006520
842.604774	0.006698
842.792588	0.006625
842.980383	0.006801
843.168160	0.006688
843.355919	0.006706
843.543660	0.006437
843.731382	0.006145
843.919087	0.006088
844.106773	0.006361
844.294441	0.006093
844.482090	0.006022
844.669722	0.005942
844.857335	0.006216
845.044930	0.006342
845.232507	0.006692
845.420065	0.006949
845.607605	0.007062
845.795127	0.006768
845.982631	0.006690
846.170117	0.006906
846.357584	0.006904
846.545033	0.006934
846.732464	0.006724
846.919877	0.006717
847.107272	0.006436
847.294648	0.006402
847.482006	0.006526
847.669346	0.006655
847.856667	0.006540
848.043971	0.006633
848.231256	0.006506
848.418523	0.006575
848.605771	0.006735
848.793002	0.006942
848.980214	0.006997
849.167408	0.006933
849.354584	0.006960
849.541742	0.006934
849.728881	0.007083
849.916002	0.007189
850.103105	0.007447
850.290190	0.007219
850.477256	0.007002
850.664304	0.007054
850.851334	0.007230
851.038346	0.007356
851.225340	0.007644
851.412315	0.007602
851.599272	0.007557
851.786211	0.007341
851.973132	0.007580
852.160034	0.007744
852.346918	0.007654
852.533784	0.007677
852.720632	0.007580
852.907462	0.007415
853.094273	0.007132
853.281066	0.007252
853.467841	0.007218
853.654598	0.007100
853.841336	0.007095
854.028056	0.007165
854.214758	0.007184
854.401442	0.007299
854.588107	0.007274
854.774755	0.007383
854.961384	0.007185
855.147995	0.007162
855.334587	0.007198
855.521162	0.007255
855.707718	0.007273
855.894256	0.006984
856.080775	0.006701
856.267277	0.006628
856.453760	0.006759
856.640225	0.006794
856.826672	0.006692
857.013101	0.006643
857.199511	0.006417
857.385903	0.006293
857.572277	0.006249
857.758633	0.006311
857.944970	0.006261
858.131290	0.006037
858.317591	0.006114
858.503873	0.005921
858.690138	0.005656
858.876384	0.005643
859.062612	0.005464
859.248822	0.005415
859.435014	0.005176
859.621188	0.004652
859.807343	0.004491
859.993480	0.004246
860.179599	0.004228
860.365699	0.004200
860.551781	0.004058
860.737846	0.004033
860.923891	0.003764
861.109919	0.003992
861.295929	0.004359
861.481920	0.004433
861.667893	0.004394
861.853848	0.004431
862.039784	0.004464
862.225702	0.004478
862.411603	0.004537
862.597484	0.004635
862.783348	0.004544
862.969193	0.004637
863.155021	0.004562
863.340830	0.004820
863.526620	0.004802
863.712393	0.004790
863.898147	0.004861
864.083883	0.004903
864.269601	0.004908
864.455301	0.004782
864.640982	0.004509
864.826645	0.004595
865.012290	0.004463
865.197917	0.004479
865.383526	0.004373
865.569116	0.004548
865.754688	0.004637
865.940242	0.004972
866.125777	0.005061
866.311295	0.005432
866.496794	0.005442
866.682275	0.005372
866.867737	0.005412
867.053182	0.005744
867.238608	0.005870
867.424016	0.005850
867.609406	0.005540
867.794778	0.005279
867.980131	0.005349
868.165466	0.005381
868.350783	0.005387
868.536082	0.005437
868.721362	0.005082
868.906625	0.005022
869.091869	0.005061
869.277094	0.005454
869.462302	0.005933
869.647491	0.005663
869.832662	0.005834
870.017815	0.005753
870.202950	0.005771
870.388066	0.005981
870.573165	0.005949
870.758245	0.005574
870.943306	0.005133
871.128350	0.004938
871.313375	0.005218
871.498382	0.004939
871.683371	0.005057
871.868342	0.005077
872.053294	0.005103
872.238229	0.004964
872.423144	0.005029
872.608042	0.005150
872.792922	0.005106
872.977783	0.004970
873.162626	0.004895
873.347451	0.004756
873.532258	0.004744
873.717046	0.004588
873.901816	0.004478
874.086568	0.004559
874.271302	0.004624
874.456017	0.004650
874.640715	0.004378
874.825394	0.004494
875.010055	0.004333
875.194697	0.004350
875.379322	0.004330
875.563928	0.004353
875.748516	0.004430
875.933085	0.003978
876.117637	0.003984
876.302170	0.004407
876.486685	0.004189
876.671182	0.004617
876.855661	0.004685
877.040121	0.005119
877.224563	0.005347
877.408987	0.005612
877.593393	0.006160
877.777780	0.006392
877.962150	0.006150
878.146501	0.006333
878.330833	0.006177
878.515148	0.005906
878.699444	0.005388
878.883722	0.005144
879.067982	0.004929
879.252224	0.004697
879.436447	0.004255
879.620653	0.004136
879.804840	0.004150
879.989008	0.004204
880.173159	0.003914
880.357291	0.004187
880.541405	0.004213
880.725501	0.004108
880.909579	0.004270
881.093638	0.004393
881.277680	0.004491
881.461703	0.004512
881.645707	0.004395
881.829694	0.004936
882.013662	0.004847
882.197612	0.005051
882.381544	0.005245
882.565458	0.005358
882.749353	0.005457
882.933230	0.005643
883.117089	0.005576
883.300930	0.005689
883.484753	0.005832
883.668557	0.005778
883.852343	0.005596
884.036111	0.005329
884.219861	0.004960
884.403592	0.004956
884.587305	0.004744
884.771000	0.004760
884.954677	0.004480
885.138335	0.004016
885.321976	0.003840
885.505598	0.003764
885.689201	0.003734
885.872787	0.004078
886.056354	0.003964
886.239904	0.003975
886.423434	0.003836
886.606947	0.004243
886.790442	0.004658
886.973918	0.004517
887.157376	0.004707
887.340816	0.004682
887.524237	0.004532
887.707641	0.004693
887.891026	0.004366
888.074393	0.004603
888.257741	0.004459
888.441072	0.004249
888.624384	0.004545
888.807678	0.004268
888.990954	0.004601
889.174211	0.004824
889.357451	0.004975
889.540672	0.005714
889.723875	0.005505
889.907059	0.005624
890.090226	0.005664
890.273374	0.005850
890.456504	0.005960
890.639616	0.005882
890.822709	0.005861
891.005785	0.005630
891.188842	0.005053
891.371881	0.005040
891.554901	0.004716
891.737904	0.004828
891.920888	0.004438
892.103854	0.004257
892.286802	0.003948
892.469731	0.003782
892.652643	0.003777
892.835536	0.003670
893.018410	0.003891
893.201267	0.004073
893.384106	0.003826
893.566926	0.003830
893.749728	0.004216
893.932511	0.004215
894.115277	0.004083
894.298024	0.004144
894.480753	0.004360
894.663464	0.003825
894.846157	0.003467
895.028831	0.003378
895.211487	0.003170
895.394125	0.002693
895.576745	0.002512
895.759346	0.002257
895.941930	0.001978
896.124495	0.001777
896.307041	0.002136
896.489570	0.002094
896.672080	0.001989
896.854573	0.002311
897.037046	0.002479
897.219502	0.002497
897.401940	0.002582
897.584359	0.002450
897.766760	0.002627
897.949143	0.002489
898.131507	0.002716
898.313854	0.002686
898.496182	0.002417
898.678492	0.002268
898.860783	0.002088
899.043057	0.002211
899.225312	0.002019
899.407549	0.001728
899.589768	0.001802
899.771968	0.001344
899.954151	0.001287
900.136315	0.001404
900.318461	0.001559
900.500588	0.001935
900.682698	0.001768
900.864789	0.002201
901.046862	0.002326
901.228917	0.002438
901.410953	0.002848
901.592971	0.003106
901.774972	0.003301
901.956953	0.003225
902.138917	0.002976
902.320862	0.002803
902.502790	0.003017
902.684699	0.003090
902.866589	0.002748
903.048462	0.002705
903.230316	0.002254
903.412152	0.001987
903.593970	0.001671
903.775770	0.001644
903.957551	0.001758
904.139314	0.001069
904.321059	0.001077
904.502786	0.001374
904.684494	0.001146
904.866185	0.001122
905.047857	0.000984
905.229510	0.001093
905.411146	0.001314
905.592763	0.001176
905.774363	0.001654
905.955943	0.001680
906.137506	0.001335
906.319051	0.001724
906.500577	0.001579
906.682085	0.001689
906.863575	0.001443
907.045046	0.000872
907.226500	0.000810
907.407935	0.000659
907.589352	0.000337
907.770750	0.000059
907.952131	-0.000447
908.133493	-0.000268
908.314837	-0.000394
908.496163	-0.000060
908.677470	0.000278
908.858760	0.000414
909.040031	0.000114
909.221284	0.000249
909.402518	0.000368
909.583735	0.000459
909.764933	0.000653
909.946113	0.000533
910.127275	0.000650
910.308418	0.000618
910.489544	0.000526
910.670651	0.000223
910.851740	0.000214
911.032810	0.000316
911.213863	0.000196
911.394897	-0.000187
911.575913	0.000095
911.756911	-0.000129
911.937890	-0.000057
912.118851	0.000172
912.299794	0.000664
912.480719	0.000538
912.661626	0.000668
912.842514	0.000791
913.023384	0.000705
913.204236	0.000516
913.385070	0.000218
913.565886	0.000376
913.746683	0.000212
913.927462	0.000359
914.108223	0.000216
914.288965	0.000139
914.469690	0.000210
914.650396	0.000613
914.831084	0.000607
915.011754	0.000543
915.192405	0.000102
915.373038	-0.000089
915.553653	-0.000007
915.734250	-0.000058
915.914829	-0.000439
916.095389	-0.000903
916.275931	-0.001035
916.456455	-0.001459
916.636961	-0.001142
916.817448	-0.001051
916.997917	-0.000927
917.178368	-0.001522
917.358801	-0.001517
917.539216	-0.001587
917.719612	-0.001246
917.899990	-0.001698
918.080350	-0.000956
918.260692	-0.000983
918.441015	-0.000894
918.621320	-0.001121
918.801607	-0.001095
918.981876	-0.001523
919.162127	-0.001692
919.342359	-0.002031
919.522573	-0.001636
919.702769	-0.002576
919.882947	-0.002656
920.063106	-0.003195
920.243247	-0.003386
920.423370	-0.003383
920.603475	-0.003160
920.783562	-0.003179
920.963630	-0.003494
921.143680	-0.003643
921.323712	-0.003928
921.503725	-0.003947
921.683721	-0.003980
921.863698	-0.003861
922.043657	-0.004670
922.223598	-0.005289
922.403520	-0.005166
922.583424	-0.005347
922.763311	-0.005648
922.943178	-0.005470
923.123028	-0.006100
923.302859	-0.006159
923.482673	-0.006395
923.662467	-0.006083
923.842244	-0.005965
924.022003	-0.006490
924.201743	-0.006407
924.381465	-0.006804
924.561169	-0.006922
924.740854	-0.007108
924.920522	-0.007826
925.100171	-0.008300
925.279802	-0.008617
925.459414	-0.008634
925.639009	-0.008917
925.818585	-0.009457
925.998143	-0.009361
926.177683	-0.009795
926.357205	-0.010194
926.536708	-0.010062
926.716193	-0.010330
926.895660	-0.010926
927.075109	-0.011342
927.254539	-0.011462
927.433951	-0.011822
927.613345	-0.012356
927.792721	-0.012061
927.972079	-0.012347
928.151418	-0.012140
928.330739	-0.012223
928.510042	-0.011894
928.689327	-0.011853
928.868593	-0.012398
929.047841	-0.012347
929.227071	-0.011937
929.406283	-0.011986
929.585476	-0.011764
929.764652	-0.012410
929.943809	-0.012213
930.122948	-0.012162
930.302068	-0.012912
930.481171	-0.012782
930.660255	-0.012994
930.839321	-0.013708
931.018369	-0.014876
931.197398	-0.014710
931.376409	-0.014559
931.555402	-0.015367
931.734377	-0.015706
931.913334	-0.015434
932.092272	-0.015701
932.271192	-0.015786
932.450094	-0.015758
932.628978	-0.015324
932.807844	-0.015431
932.986691	-0.015686
933.165520	-0.015389
933.344331	-0.016144
933.523123	-0.016680
933.701898	-0.016472
933.880654	-0.016665
934.059392	-0.016791
934.238111	-0.016614
934.416813	-0.017523
934.595496	-0.017974
934.774161	-0.018488
934.952808	-0.018225
935.131437	-0.018153
935.310047	-0.018268
935.488639	-0.018473
935.667213	-0.018694
935.845769	-0.019527
936.024306	-0.019657
936.202825	-0.019536
936.381326	-0.019963
936.559809	-0.020252
936.738274	-0.020549
936.916720	-0.020960
937.095148	-0.020798
937.273558	-0.021875
937.451950	-0.022193
937.630323	-0.022374
937.808678	-0.023004
937.987015	-0.022759
938.165334	-0.022925
938.343635	-0.023200
938.521917	-0.023256
938.700181	-0.023340
938.878427	-0.023001
939.056655	-0.022733
939.234864	-0.023204
939.413055	-0.023132
939.591228	-0.023403
939.769383	-0.023519
939.947519	-0.023989
940.125638	-0.024271
940.303738	-0.024742
940.481820	-0.024448
940.659883	-0.024782
940.837929	-0.024468
941.015956	-0.024908
941.193965	-0.024826
941.371955	-0.025253
941.549928	-0.024643
941.727882	-0.024454
941.905818	-0.023836
942.083736	-0.024389
942.261636	-0.024120
942.439517	-0.023603
942.617380	-0.023079
942.795225	-0.023491
942.973052	-0.022491
943.150860	-0.022818
943.328651	-0.023527
943.506423	-0.024308
943.684176	-0.023706
943.861912	-0.023782
944.039629	-0.024998
944.217328	-0.025514
944.395009	-0.026092
944.572672	-0.027480
944.750317	-0.027399
944.927943	-0.026578
945.105551	-0.027149
945.283141	-0.028378
945.460712	-0.028434
945.638265	-0.027669
945.815801	-0.027483
945.993317	-0.027320
946.170816	-0.027284
946.348297	-0.027465
946.525759	-0.028053
946.703203	-0.028039
946.880629	-0.027189
947.058036	-0.028134
947.235425	-0.028719
947.412797	-0.028831
947.590149	-0.028576
947.767484	-0.028478
947.944800	-0.028433
948.122099	-0.029116
948.299379	-0.029688
948.476640	-0.029748
948.653884	-0.028960
948.831109	-0.028846
949.008316	-0.029906
949.185505	-0.029415
949.362676	-0.028845
949.539828	-0.029089
949.716962	-0.028794
949.894078	-0.028582
950.071176	-0.029509
950.248256	-0.029965
950.425317	-0.031071
950.602360	-0.031047
950.779385	-0.031884
950.956391	-0.033083
951.133380	-0.033403
951.310350	-0.033829
951.487302	-0.032821
951.664235	-0.032369
951.841151	-0.031792
952.018048	-0.030090
952.194927	-0.029165
952.371788	-0.029625
952.548631	-0.028519
952.725455	-0.027126
952.902261	-0.026475
953.079049	-0.027499
953.255819	-0.027320
953.432570	-0.027670
953.609303	-0.028075
953.786018	-0.026424
953.962715	-0.025598
954.139394	-0.026744
954.316054	-0.026798
954.492696	-0.026203
954.669320	-0.025675
954.845926	-0.025591
955.022513	-0.024234
955.199083	-0.023255
955.375634	-0.024551
955.552166	-0.024290
955.728681	-0.020897
955.905177	-0.021391
956.081655	-0.021866
956.258115	-0.020488
956.434557	-0.020057
956.610980	-0.020211
956.787385	-0.019689
956.963772	-0.019362
957.140141	-0.018162
957.316492	-0.020771
957.492824	-0.020006
957.669138	-0.017605
957.845434	-0.017944
958.021712	-0.018248
958.197971	-0.019107
958.374212	-0.020490
958.550435	-0.019559
958.726640	-0.020748
958.902826	-0.019994
959.078995	-0.019652
959.255145	-0.020973
959.431277	-0.019450
959.607390	-0.018504
959.783486	-0.017597
959.959563	-0.016700
960.135622	-0.018374
960.311662	-0.017412
960.487685	-0.017652
960.663689	-0.016546
960.839675	-0.014668
961.015643	-0.016429
961.191593	-0.014584
961.367524	-0.014719
961.543437	-0.013611
961.719332	-0.010978
961.895209	-0.009901
962.071067	-0.006736
962.246907	-0.007523
962.422730	-0.009783
962.598533	-0.008535
962.774319	-0.009829
962.950086	-0.008731
963.125835	-0.008822
963.301566	-0.009719
963.477279	-0.010243
963.652973	-0.012284
963.828650	-0.012882
964.004308	-0.010867
964.179947	-0.010349
964.355569	-0.009485
964.531172	-0.008512
964.706757	-0.007737
964.882324	-0.008920
965.057873	-0.006708
965.233403	-0.006775
965.408916	-0.003626
965.584410	-0.002104
965.759885	-0.001397
965.935343	-0.001958
966.110782	-0.002513
966.286203	-0.002817
966.461606	-0.000565
966.636991	-0.001338
966.812357	0.000008
966.987705	-0.000726
967.163035	-0.001233
967.338347	-0.002281
967.513641	-0.002168
967.688916	-0.002465
967.864173	-0.002060
968.039412	-0.003078
968.214632	-0.002639
968.389835	-0.003337
968.565019	-0.004879
968.740185	-0.004202
968.915333	-0.003000
969.090462	-0.002206
969.265573	-0.001303
969.440667	-0.001637
969.615741	-0.000138
969.790798	0.000976
969.965836	-0.000227
970.140856	-0.000272
970.315858	-0.001144
970.490842	-0.000607
970.665808	-0.001428
970.840755	-0.001961
971.015684	-0.002536
971.190595	-0.002523
971.365487	-0.004191
971.540362	-0.000804
971.715218	0.000090
971.890056	-0.000202
972.064875	-0.000278
972.239677	0.000430
972.414460	0.001528
972.589225	0.002594
972.763972	0.001078
972.938700	0.002840
973.113411	0.003514
973.288103	0.004097
973.462777	0.004710
973.637432	0.004985
973.812070	0.006900
973.986689	0.008272
974.161290	0.007683
974.335873	0.010446
974.510437	0.007290
974.684984	0.007350
974.859512	0.008500
975.034022	0.008553
975.208513	0.007828
975.382987	0.007015
975.557442	0.005036
975.731879	0.005832
975.906298	0.004722
976.080698	0.006215
976.255080	0.004795
976.429445	0.004290
976.603790	0.003759
976.778118	0.003788
976.952427	0.003452
977.126719	0.002130
977.300992	0.002089
977.475246	0.001263
977.649483	0.000528
977.823701	0.000795
977.997901	0.001029
978.172083	0.003730
978.346247	0.004904
978.520392	0.005893
978.694519	0.007737
978.868628	0.006513
979.042719	0.006810
979.216791	0.008158
979.390845	0.008112
979.564882	0.007903
979.738899	0.005948
979.912899	0.005914
980.086880	0.005429
980.260843	0.006115
980.434788	0.007500
980.608715	0.007617
980.782623	0.008015
980.956514	0.009150
981.130386	0.009300
981.304240	0.009198
981.478075	0.007380
981.651892	0.008142
981.825692	0.007994
981.999472	0.007437
982.173235	0.009109
982.346980	0.009292
982.520706	0.008053
982.694414	0.008477
982.868104	0.009986
983.041775	0.011166
983.215428	0.010073
983.389064	0.009755
983.562680	0.009121
983.736279	0.008309
983.909860	0.007157
984.083422	0.006993
984.256966	0.006130
984.430491	0.005477
984.603999	0.004624
984.777488	0.005281
984.950959	0.007138
985.124412	0.008106
985.297847	0.008370
985.471263	0.009170
985.644661	0.011205
985.818041	0.012031
985.991403	0.011910
986.164747	0.011852
986.338072	0.011843
986.511379	0.008677
986.684668	0.008739
986.857938	0.009312
987.031191	0.009891
987.204425	0.007916
987.377641	0.006774
987.550839	0.006182
987.724018	0.007729
987.897179	0.006961
988.070322	0.008008
988.243447	0.008477
988.416554	0.006810
988.589642	0.006467
988.762712	0.007527
988.935764	0.005730
989.108798	0.006809
989.281813	0.005789
989.454811	0.006637
989.627790	0.007426
989.800751	0.005224
989.973693	0.005691
990.146617	0.004731
990.319524	0.003754
990.492412	0.008280
990.665281	0.006968
990.838133	0.007963
991.010966	0.006084
991.183781	0.005446
991.356578	0.007536
991.529356	0.009192
991.702117	0.009604
991.874859	0.010142
992.047583	0.007663
992.220288	0.008379
992.392976	0.006678
992.565645	0.009658
992.738296	0.009942
992.910929	0.009844
993.083543	0.007376
993.256139	0.006364
993.428718	0.006779
993.601277	0.006251
993.773819	0.006847
993.946342	0.006991
994.118848	0.004286
994.291335	0.001997
994.463803	0.001763
994.636254	0.002712
994.808686	0.004213
994.981100	0.004449
995.153496	0.004850
995.325874	0.005399
995.498233	0.006117
995.670574	0.006881
995.842897	0.007360
996.015202	0.008122
996.187488	0.009365
996.359757	0.009069
996.532007	0.007865
996.704239	0.008667
996.876452	0.007594
997.048648	0.007286
997.220825	0.007749
997.392984	0.009214
997.565124	0.007999
997.737247	0.007439
997.909351	0.007491
998.081437	0.007936
998.253505	0.007142
998.425554	0.005732
998.597586	0.007525
998.769599	0.006793
998.941594	0.006739
999.113571	0.007810
999.285529	0.007480
999.457469	0.007694
999.629391	0.006876
999.801295	0.006559
999.973181	0.008169
1000.145048	0.006432
1000.316897	0.006545
1000.488728	0.005829
1000.660541	0.006111
1000.832335	0.006283
1001.004111	0.005302
1001.175869	0.005570
1001.347609	0.006563
1001.519331	0.005914
1001.691034	0.006425
1001.862719	0.008302
1002.034386	0.009123
1002.206035	0.008233
1002.377665	0.007329
1002.549277	0.007647
1002.720871	0.008664
1002.892447	0.008416
1003.064004	0.009031
1003.235544	0.009063
1003.407065	0.008512
1003.578568	0.008779
1003.750052	0.008660
1003.921519	0.009199
1004.092967	0.010301
1004.264397	0.009235
1004.435809	0.009832
1004.607202	0.009381
1004.778577	0.009732
1004.949934	0.009504
1005.121273	0.010208
1005.292594	0.010300
1005.463896	0.010899
1005.635180	0.010130
1005.806446	0.011254
1005.977694	0.011356
1006.148923	0.012238
1006.320135	0.011661
1006.491328	0.010551
1006.662503	0.009531
1006.833659	0.009643
1007.004798	0.008668
1007.175918	0.009400
1007.347020	0.009037
1007.518103	0.007628
1007.689169	0.006978
1007.860216	0.005561
1008.031245	0.006612
1008.202256	0.008059
1008.373248	0.007759
1008.544223	0.008118
1008.715179	0.006850
1008.886117	0.007196
1009.057036	0.007688
1009.227938	0.007891
1009.398821	0.007623
1009.569686	0.006607
1009.740533	0.004862
1009.911361	0.005878
1010.082172	0.005570
1010.252964	0.005334
1010.423738	0.003924
1010.594493	0.003941
1010.765231	0.003735
1010.935950	0.005634
1011.106651	0.005932
1011.277334	0.006581
1011.447998	0.006346
1011.618645	0.006350
1011.789273	0.007458
1011.959882	0.007947
1012.130474	0.007079
1012.301048	0.006913
1012.471603	0.007257
1012.642140	0.007135
1012.812658	0.006915
1012.983159	0.006199
1013.153641	0.007269
1013.324105	0.006822
1013.494551	0.007810
1013.664979	0.007468
1013.835388	0.007097
1014.005779	0.006812
1014.176152	0.008073
1014.346507	0.009109
1014.516843	0.009111
1014.687162	0.007229
1014.857462	0.006908
1015.027744	0.006370
1015.198007	0.007585
1015.368252	0.008328
1015.538480	0.007906
1015.708689	0.006951
1015.878879	0.005918
1016.049052	0.005404
1016.219206	0.005330
1016.389342	0.006063
1016.559460	0.006086
1016.729559	0.006972
1016.899641	0.006160
1017.069704	0.006542
1017.239749	0.008144
1017.409775	0.008611
1017.579784	0.008498
1017.749774	0.010790
1017.919746	0.009906
1018.089700	0.009089
1018.259635	0.007769
1018.429553	0.008042
1018.599452	0.009379
1018.769333	0.008091
1018.939195	0.006804
1019.109040	0.007238
1019.278866	0.006316
1019.448674	0.007378
1019.618464	0.009269
1019.788235	0.010735
1019.957989	0.012554
1020.127724	0.010630
1020.297441	0.010333
1020.467139	0.012426
1020.636820	0.012518
1020.806482	0.011987
1020.976126	0.011819
1021.145752	0.010134
1021.315359	0.009731
1021.484948	0.008286
1021.654519	0.008342
1021.824072	0.009875
1021.993607	0.008495
1022.163123	0.008412
1022.332621	0.008978
1022.502101	0.008820
1022.671563	0.008312
1022.841007	0.007579
1023.010432	0.006681
1023.179839	0.006504
1023.349228	0.004777
1023.518598	0.004931
1023.687951	0.004969
1023.857285	0.004193
1024.026601	0.004134
1024.195899	0.004543
1024.365178	0.005401
1024.534439	0.004951
1024.703682	0.005632
1024.872907	0.006323
1025.042114	0.005684
1025.211302	0.006312
1025.380472	0.005521
1025.549624	0.005964
1025.718758	0.005816
1025.887873	0.006666
1026.056970	0.007313
1026.226049	0.006851
1026.395110	0.006192
1026.564153	0.007126
1026.733177	0.007634
1026.902183	0.009395
1027.071171	0.008562
1027.240141	0.008528
1027.409092	0.007732
1027.578026	0.008982
1027.746940	0.009978
1027.915837	0.009760
1028.084716	0.009954
1028.253576	0.009343
1028.422418	0.008419
1028.591242	0.008447
1028.760048	0.010569
1028.928835	0.010712
1029.097604	0.010199
1029.266355	0.009295
1029.435088	0.009115
1029.603803	0.008727
1029.772499	0.008232
1029.941177	0.008752
1030.109837	0.008263
1030.278478	0.007786
1030.447102	0.006988
1030.615707	0.008254
1030.784294	0.009347
1030.952863	0.009108
1031.121413	0.009262
1031.289945	0.009953
1031.458460	0.009400
1031.626955	0.011312
1031.795433	0.011535
1031.963892	0.011714
1032.132334	0.010081
1032.300756	0.009150
1032.469161	0.009562
1032.637548	0.008909
1032.805916	0.010867
1032.974266	0.012785
1033.142598	0.012039
1033.310911	0.010400
1033.479207	0.009423
1033.647484	0.007837
1033.815743	0.009324
1033.983983	0.010516
1034.152206	0.010601
1034.320410	0.006762
1034.488596	0.005225
1034.656764	0.005392
1034.824914	0.006472
1034.993045	0.005663
1035.161158	0.007238
1035.329253	0.006460
1035.497330	0.006597
1035.665388	0.006788
1035.833428	0.007212
1036.001450	0.007326
1036.169454	0.006223
1036.337440	0.003559
1036.505407	0.005403
1036.673356	0.004495
1036.841287	0.003194
1037.009200	0.001538
1037.177094	0.001874
1037.344970	0.003024
1037.512828	0.003332
1037.680668	0.003463
1037.848489	0.005552
1038.016293	0.005645
1038.184078	0.006574
1038.351845	0.007147
1038.519593	0.007362
1038.687324	0.007129
1038.855036	0.005805
1039.022730	0.005362
1039.190406	0.005769
1039.358063	0.005830
1039.525702	0.004440
1039.693323	0.003713
1039.860926	0.005325
1040.028511	0.006407
1040.196077	0.004544
1040.363625	0.005134
1040.531155	0.005093
1040.698667	0.004920
1040.866161	0.005552
1041.033636	0.006732
1041.201093	0.007834
1041.368532	0.005312
1041.535952	0.004917
1041.703355	0.007291
1041.870739	0.007849
1042.038105	0.008259
1042.205452	0.009200
1042.372782	0.009406
1042.540093	0.009946
1042.707386	0.010501
1042.874661	0.012642
1043.041918	0.012460
1043.209156	0.011996
1043.376376	0.012342
1043.543578	0.012490
1043.710762	0.012508
1043.877927	0.011140
1044.045074	0.010533
1044.212203	0.009700
1044.379314	0.008222
1044.546407	0.008149
1044.713481	0.009141
1044.880537	0.009808
1045.047575	0.009707
1045.214595	0.009505
1045.381596	0.010211
1045.548579	0.009719
1045.715544	0.008998
1045.882491	0.009811
1046.049420	0.010349
1046.216330	0.008171
1046.383222	0.007519
1046.550096	0.007421
1046.716951	0.006613
1046.883789	0.006622
1047.050608	0.007259
1047.217409	0.007404
1047.384192	0.008720
1047.550956	0.008933
1047.717703	0.011424
1047.884431	0.011979
1048.051140	0.012239
1048.217832	0.010565
1048.384505	0.009550
1048.551161	0.009962
1048.717798	0.009920
1048.884416	0.008527
1049.051017	0.007952
1049.217599	0.004512
1049.384163	0.003781
1049.550709	0.004212
1049.717237	0.006473
1049.883746	0.007118
1050.050237	0.006659
1050.216710	0.006601
1050.383165	0.005106
1050.549601	0.004654
1050.716019	0.006187
1050.882420	0.007121
1051.048801	0.004563
1051.215165	0.002780
1051.381510	0.001691
1051.547837	0.000524
1051.714146	0.000792
1051.880437	0.002798
1052.046709	0.002543
1052.212964	0.003963
1052.379200	0.002358
1052.545417	0.004608
1052.711617	0.005885
1052.877798	0.006057
1053.043961	0.006421
1053.210106	0.006595
1053.376233	0.004446
1053.542341	0.004297
1053.708432	0.004312
1053.874504	0.005625
1054.040557	0.005733
1054.206593	0.005168
1054.372610	0.005049
1054.538609	0.005369
1054.704590	0.003543
1054.870553	0.004000
1055.036497	0.004551
1055.202424	0.001860
1055.368331	0.001583
1055.534221	-0.000561
1055.700093	0.000386
1055.865946	0.001118
1056.031781	-0.000332
1056.197598	0.001554
1056.363397	0.001881
1056.529177	0.000616
1056.694939	0.000668
1056.860683	-0.001703
1057.026409	-0.001076
1057.192116	-0.001837
1057.357806	-0.003395
1057.523477	-0.001870
1057.689130	-0.001913
1057.854764	-0.002841
1058.020381	-0.002800
1058.185979	-0.001672
1058.351559	-0.000465
1058.517120	0.000282
1058.682664	0.000843
1058.848189	0.002948
1059.013696	0.002650
1059.179185	0.001703
1059.344656	0.002137
1059.510108	0.003758
1059.675542	0.003201
1059.840958	0.004625
1060.006356	0.005531
1060.171735	0.005693
1060.337096	0.005809
1060.502439	0.006580
1060.667764	0.006917
1060.833071	0.007147
1060.998359	0.005571
1061.163629	0.005972
1061.328881	0.003925
1061.494115	0.001969
1061.659330	0.001324
1061.824527	-0.000240
1061.989706	-0.003047
1062.154867	-0.001782
1062.320010	-0.001475
1062.485134	-0.002858
1062.650240	-0.004481
1062.815328	-0.002873
1062.980398	-0.002935
1063.145449	-0.002715
1063.310482	-0.003319
1063.475497	-0.002951
1063.640494	-0.005720
1063.805473	-0.006156
1063.970433	-0.004609
1064.135375	-0.004971
1064.300299	-0.006908
1064.465204	-0.006009
1064.630092	-0.007548
1064.794961	-0.005218
1064.959812	-0.004575
1065.124645	-0.003315
1065.289459	-0.004271
1065.454256	-0.004222
1065.619034	-0.003147
1065.783793	-0.001574
1065.948535	-0.002356
1066.113258	-0.001321
1066.277964	-0.003968
1066.442651	-0.002592
1066.607319	-0.001392
1066.771970	0.000638
1066.936602	0.000027
1067.101216	0.000859
1067.265812	-0.000050
1067.430389	0.000623
1067.594949	0.000932
1067.759490	0.002353
1067.924013	0.000831
1068.088518	-0.000164
1068.253004	-0.002611
1068.417472	-0.002619
1068.581922	-0.001919
1068.746354	-0.002058
1068.910768	-0.002243
1069.075163	-0.004622
1069.239540	-0.005097
1069.403899	-0.005222
1069.568240	-0.007776
1069.732562	-0.006886
1069.896866	-0.005898
1070.061152	-0.007488
1070.225420	-0.007444
1070.389670	-0.006684
1070.553901	-0.006256
1070.718114	-0.006601
1070.882309	-0.006091
1071.046486	-0.004486
1071.210644	-0.004522
1071.374784	-0.006600
1071.538906	-0.004581
1071.703010	-0.004823
1071.867096	-0.006095
1072.031163	-0.004053
1072.195212	-0.005663
1072.359243	-0.003702
1072.523256	-0.003622
1072.687250	-0.003302
1072.851226	-0.002466
1073.015184	-0.003413
1073.179124	-0.001375
1073.343045	-0.002780
1073.506949	-0.003546
1073.670834	-0.001085
1073.834701	-0.002866
1073.998549	-0.002385
1074.162380	-0.003844
1074.326192	-0.002070
1074.489986	-0.002120
1074.653761	-0.005943
1074.817519	-0.004970
1074.981258	-0.003615
1075.144979	-0.004815
1075.308682	-0.005391
1075.472367	-0.004686
1075.636033	-0.002354
1075.799681	-0.004569
1075.963311	-0.005769
1076.126923	-0.004668
1076.290516	-0.002996
1076.454092	-0.004893
1076.617649	-0.004302
1076.781187	-0.005353
1076.944708	-0.005982
1077.108210	-0.007229
1077.271695	-0.005998
1077.435160	-0.004930
1077.598608	-0.004285
1077.762038	-0.005793
1077.925449	-0.006484
1078.088842	-0.007219
1078.252217	-0.008473
1078.415573	-0.008389
1078.578912	-0.008718
1078.742232	-0.011078
1078.905534	-0.013741
1079.068817	-0.015837
1079.232083	-0.015833
1079.395330	-0.015676
1079.558559	-0.016105
1079.721770	-0.014038
1079.884962	-0.013366
1080.048136	-0.013287
1080.211293	-0.010080
1080.374430	-0.008295
1080.537550	-0.005687
1080.700651	-0.008204
1080.863735	-0.007622
1081.026800	-0.007391
1081.189846	-0.006742
1081.352875	-0.007831
1081.515885	-0.010705
1081.678877	-0.011751
1081.841851	-0.011512
1082.004807	-0.012177
1082.167744	-0.010656
1082.330663	-0.013117
1082.493564	-0.012635
1082.656447	-0.013601
1082.819312	-0.014319
1082.982158	-0.012503
1083.144986	-0.012435
1083.307796	-0.012916
1083.470587	-0.015046
1083.633361	-0.015539
1083.796116	-0.012625
1083.958853	-0.013028
1084.121571	-0.012776
1084.284272	-0.014049
1084.446954	-0.013311
1084.609618	-0.013142
1084.772264	-0.012495
1084.934892	-0.010805
1085.097501	-0.008427
1085.260092	-0.010796
1085.422665	-0.012218
1085.585220	-0.013200
1085.747756	-0.013312
1085.910274	-0.011823
1086.072774	-0.013048
1086.235256	-0.016186
1086.397720	-0.016227
1086.560165	-0.019364
1086.722592	-0.017636
1086.885001	-0.014869
1087.047392	-0.013810
1087.209764	-0.012629
1087.372119	-0.015683
1087.534455	-0.016190
1087.696772	-0.015793
1087.859072	-0.015954
1088.021353	-0.013711
1088.183616	-0.014605
1088.345861	-0.016680
1088.508088	-0.017052
1088.670296	-0.017535
1088.832486	-0.016419
1088.994658	-0.014038
1089.156812	-0.013297
1089.318948	-0.012975
1089.481065	-0.015604
1089.643164	-0.016189
1089.805245	-0.016268
1089.967308	-0.016357
1090.129352	-0.016246
1090.291378	-0.015216
1090.453386	-0.017185
1090.615376	-0.015520
1090.777347	-0.017928
1090.939301	-0.016237
1091.101236	-0.014214
1091.263153	-0.013399
1091.425051	-0.011886
1091.586932	-0.010083
1091.748794	-0.010734
1091.910638	-0.010522
1092.072463	-0.010357
1092.234271	-0.007098
1092.396060	-0.006983
1092.557831	-0.011222
1092.719584	-0.010843
1092.881319	-0.012516
1093.043035	-0.013070
1093.204733	-0.013831
1093.366413	-0.012433
1093.528075	-0.013901
1093.689718	-0.014955
1093.851343	-0.014845
1094.012950	-0.009891
1094.174539	-0.010387
1094.336110	-0.010821
1094.497662	-0.011886
1094.659196	-0.012445
1094.820712	-0.016085
1094.982210	-0.016191
1095.143689	-0.016980
1095.305151	-0.017300
1095.466594	-0.019278
1095.628018	-0.018851
1095.789425	-0.020515
1095.950813	-0.020349
1096.112183	-0.019862
1096.273535	-0.020395
1096.434869	-0.019082
1096.596184	-0.017763
1096.757482	-0.017336
1096.918761	-0.017684
1097.080021	-0.019430
1097.241264	-0.016716
1097.402488	-0.015788
1097.563694	-0.017088
1097.724882	-0.013660
1097.886052	-0.014948
1098.047203	-0.017270
1098.208336	-0.018589
1098.369451	-0.020342
1098.530548	-0.020025
1098.691627	-0.021216
1098.852687	-0.023917
1099.013729	-0.024899
1099.174753	-0.027359
1099.335758	-0.027976
1099.496746	-0.024245
1099.657715	-0.024874
1099.818666	-0.023173
1099.979599	-0.022189
1100.140513	-0.022064
1100.301409	-0.021365
1100.462287	-0.017877
1100.623147	-0.018090
1100.783989	-0.016908
1100.944812	-0.022081
1101.105617	-0.022472
1101.266404	-0.020077
1101.427173	-0.021911
1101.587923	-0.022746
1101.748656	-0.019618
1101.909370	-0.021457
1102.070066	-0.020761
1102.230743	-0.024230
1102.391403	-0.023534
1102.552044	-0.021630
1102.712667	-0.024482
1102.873271	-0.023844
1103.033858	-0.024885
1103.194426	-0.027794
1103.354976	-0.025611
1103.515508	-0.026305
1103.676021	-0.025296
1103.836517	-0.024586
1103.996994	-0.023655
1104.157453	-0.026192
1104.317893	-0.026663
1104.478316	-0.027360
1104.638720	-0.027195
1104.799106	-0.028281
1104.959474	-0.026362
1105.119823	-0.022651
1105.280155	-0.021312
1105.440468	-0.022926
1105.600763	-0.020880
1105.761039	-0.020070
1105.921298	-0.017056
1106.081538	-0.017268
1106.241760	-0.016992
1106.401964	-0.017029
1106.562149	-0.017067
1106.722316	-0.018622
1106.882465	-0.019387
1107.042596	-0.017660
1107.202709	-0.017789
1107.362803	-0.017961
1107.522879	-0.020668
1107.682937	-0.023006
1107.842977	-0.025185
1108.002999	-0.026579
1108.163002	-0.025986
1108.322987	-0.026775
1108.482954	-0.028224
1108.642902	-0.028448
1108.802833	-0.031351
1108.962745	-0.025709
1109.122639	-0.028561
1109.282515	-0.025401
1109.442372	-0.027434
1109.602211	-0.027937
1109.762032	-0.027295
1109.921835	-0.028168
1110.081620	-0.027509
1110.241386	-0.026855
1110.401134	-0.030632
1110.560864	-0.028649
1110.720576	-0.030940
1110.880269	-0.029774
1111.039945	-0.031026
1111.199602	-0.032880
1111.359240	-0.033975
1111.518861	-0.034305
1111.678463	-0.034018
1111.838047	-0.031089
1111.997613	-0.027718
1112.157161	-0.028812
1112.316690	-0.030780
1112.476202	-0.029701
1112.635695	-0.030774
1112.795169	-0.030131
1112.954626	-0.029715
1113.114064	-0.026572
1113.273484	-0.028491
1113.432886	-0.029251
1113.592270	-0.026479
1113.751635	-0.024282
1113.910983	-0.024572
1114.070312	-0.021547
1114.229622	-0.019062
1114.388915	-0.017693
1114.548189	-0.018389
1114.707445	-0.019600
1114.866683	-0.020691
1115.025903	-0.025672
1115.185104	-0.026061
1115.344287	-0.025687
1115.503452	-0.022806
1115.662599	-0.022862
1115.821727	-0.023745
1115.980838	-0.024138
1116.139930	-0.020924
1116.299004	-0.021544
1116.458059	-0.016015
1116.617097	-0.018900
1116.776116	-0.019983
1116.935117	-0.028000
1117.094099	-0.029194
1117.253064	-0.032814
1117.412010	-0.036173
1117.570938	-0.041678
1117.729848	-0.040913
1117.888740	-0.042778
1118.047613	-0.042103
1118.206468	-0.039359
1118.365305	-0.037326
1118.524124	-0.038531
1118.682924	-0.037242
1118.841707	-0.036594
1119.000471	-0.036324
1119.159216	-0.033706
1119.317944	-0.032209
1119.476653	-0.033837
1119.635344	-0.040735
1119.794017	-0.039058
1119.952672	-0.040598
1120.111308	-0.039363
1120.269927	-0.041269
1120.428527	-0.042876
1120.587108	-0.044399
1120.745672	-0.049076
1120.904217	-0.047686
1121.062744	-0.043208
1121.221253	-0.045964
1121.379744	-0.042718
1121.538216	-0.044729
1121.696671	-0.042348
1121.855107	-0.040458
1122.013524	-0.043196
1122.171924	-0.043938
1122.330305	-0.038143
1122.488668	-0.036284
1122.647013	-0.035294
1122.805340	-0.033062
1122.963648	-0.031165
1123.121938	-0.030331
1123.280210	-0.031263
1123.438464	-0.034432
1123.596700	-0.030474
1123.754917	-0.029156
1123.913116	-0.033107
1124.071297	-0.030442
1124.229459	-0.035242
1124.387604	-0.036557
1124.545730	-0.037890
1124.703838	-0.031290
1124.861928	-0.027002
1125.019999	-0.026851
1125.178052	-0.035136
1125.336088	-0.031820
1125.494104	-0.030757
1125.652103	-0.029292
1125.810083	-0.033205
1125.968045	-0.033425
1126.125989	-0.036649
1126.283915	-0.037923
1126.441823	-0.037160
1126.599712	-0.035552
1126.757583	-0.036878
1126.915436	-0.036629
1127.073270	-0.041054
1127.231087	-0.035504
1127.388885	-0.033731
1127.546665	-0.035192
1127.704426	-0.033628
1127.862170	-0.034921
1128.019895	-0.033690
1128.177602	-0.036942
1128.335291	-0.037740
1128.492961	-0.033399
1128.650614	-0.033108
1128.808248	-0.038228
1128.965864	-0.039884
1129.123461	-0.040440
1129.281041	-0.042853
1129.438602	-0.042892
1129.596145	-0.037304
1129.753670	-0.042879
1129.911176	-0.038759
1130.068665	-0.036909
1130.226135	-0.030323
1130.383587	-0.030068
1130.541020	-0.034090
1130.698436	-0.031755
1130.855833	-0.033148
1131.013212	-0.036847
1131.170573	-0.031475
1131.327915	-0.038224
1131.485239	-0.045745
1131.642545	-0.048059
1131.799833	-0.047766
1131.957103	-0.045868
1132.114354	-0.047913
1132.271588	-0.047199
1132.428803	-0.046786
1132.585999	-0.049426
1132.743178	-0.050011
1132.900338	-0.046231
1133.057480	-0.044283
1133.214604	-0.045169
1133.371710	-0.041805
1133.528797	-0.038734
1133.685866	-0.036425
1133.842917	-0.032419
1133.999950	-0.033104
1134.156964	-0.027889
1134.313960	-0.031348
1134.470938	-0.034508
1134.627898	-0.034858
1134.784840	-0.036844
1134.941763	-0.039427
1135.098668	-0.038759
1135.255555	-0.043479
1135.412424	-0.042657
1135.569274	-0.050956
1135.726107	-0.048821
1135.882921	-0.049079
1136.039716	-0.044913
1136.196494	-0.050294
1136.353253	-0.051462
1136.509995	-0.051201
1136.666717	-0.048195
1136.823422	-0.054923
1136.980109	-0.050696
1137.136777	-0.047745
1137.293427	-0.050650
1137.450059	-0.049859
1137.606672	-0.045412
1137.763267	-0.041012
1137.919844	-0.044512
1138.076403	-0.042642
1138.232944	-0.032912
1138.389466	-0.034202
1138.545971	-0.038264
1138.702457	-0.034071
1138.858924	-0.040536
1139.015374	-0.036712
1139.171805	-0.039518
1139.328218	-0.040733
1139.484613	-0.048743
1139.640990	-0.047345
1139.797348	-0.046619
1139.953688	-0.040420
1140.110010	-0.042209
1140.266314	-0.043641
1140.422600	-0.046585
1140.578867	-0.044587
1140.735116	-0.043812
1140.891347	-0.039065
1141.047559	-0.040187
1141.203754	-0.040036
1141.359930	-0.046440
1141.516088	-0.044179
1141.672228	-0.040261
1141.828349	-0.043874
1141.984452	-0.046958
1142.140537	-0.049573
1142.296604	-0.048339
1142.452653	-0.051931
1142.608683	-0.048850
1142.764695	-0.049334
1142.920689	-0.051676
1143.076665	-0.050826
1143.232622	-0.051136
1143.388562	-0.048794
1143.544483	-0.043526
1143.700385	-0.045624
1143.856270	-0.045948
1144.012136	-0.052470
1144.167985	-0.051824
1144.323814	-0.051396
1144.479626	-0.055218
1144.635420	-0.052334
1144.791195	-0.056424
1144.946952	-0.060460
1145.102691	-0.055925
1145.258411	-0.053284
1145.414113	-0.045382
1145.569798	-0.045333
1145.725463	-0.046002
1145.881111	-0.043567
1146.036741	-0.046372
1146.192352	-0.043245
1146.347945	-0.039906
1146.503519	-0.047351
1146.659076	-0.049044
1146.814614	-0.048309
1146.970134	-0.046941
1147.125636	-0.043827
1147.281120	-0.039472
1147.436585	-0.041747
1147.592032	-0.042094
1147.747461	-0.047051
1147.902872	-0.048681
1148.058265	-0.046796
1148.213639	-0.056181
1148.368995	-0.055690
1148.524333	-0.057417
1148.679653	-0.062759
1148.834954	-0.056292
1148.990237	-0.057588
1149.145502	-0.056006
1149.300749	-0.057990
1149.455977	-0.063321
1149.611188	-0.060988
1149.766380	-0.061499
1149.921553	-0.059435
1150.076709	-0.055800
1150.231846	-0.062750
1150.386966	-0.064920
1150.542066	-0.064271
1150.697149	-0.057137
1150.852214	-0.050555
1151.007260	-0.048062
1151.162288	-0.052191
1151.317298	-0.054470
1151.472289	-0.057317
1151.627263	-0.057357
1151.782218	-0.060462
1151.937155	-0.058898
1152.092073	-0.063969
1152.246974	-0.066997
1152.401856	-0.065671
1152.556720	-0.062141
1152.711566	-0.067492
1152.866393	-0.067469
1153.021203	-0.060934
1153.175994	-0.052100
1153.330767	-0.056434
1153.485521	-0.050340
1153.640258	-0.048634
1153.794976	-0.047988
1153.949676	-0.055814
1154.104358	-0.059665
1154.259021	-0.060712
1154.413667	-0.064097
1154.568294	-0.063848
1154.722903	-0.054905
1154.877493	-0.054181
1155.032066	-0.051915
1155.186620	-0.055657
1155.341156	-0.048908
1155.495674	-0.042037
1155.650173	-0.040675
1155.804654	-0.037730
1155.959118	-0.045830
1156.113562	-0.050564
1156.267989	-0.054430
1156.422397	-0.056818
1156.576788	-0.061786
1156.731160	-0.061319
1156.885513	-0.061012
1157.039849	-0.057561
1157.194166	-0.058036
1157.348465	-0.048819
1157.502746	-0.056144
1157.657009	-0.052896
1157.811253	-0.052834
1157.965479	-0.049884
1158.119687	-0.048952
1158.273877	-0.051197
1158.428048	-0.050487
1158.582201	-0.054092
1158.736337	-0.060816
1158.890453	-0.053347
1159.044552	-0.055336
1159.198632	-0.063077
1159.352694	-0.049270
1159.506738	-0.047401
1159.660764	-0.040870
1159.814771	-0.042133
1159.968761	-0.041493
1160.122732	-0.042603
1160.276685	-0.045988
1160.430619	-0.045576
1160.584535	-0.040520
1160.738434	-0.052063
1160.892313	-0.055892
1161.046175	-0.057574
1161.200019	-0.067748
1161.353844	-0.069362
1161.507651	-0.071424
1161.661440	-0.081906
1161.815210	-0.078718
1161.968962	-0.080873
1162.122697	-0.083101
1162.276412	-0.080872
1162.430110	-0.085092
1162.583789	-0.076385
1162.737451	-0.073666
1162.891094	-0.066915
1163.044718	-0.051622
1163.198325	-0.058312
1163.351913	-0.055645
1163.505483	-0.058928
1163.659035	-0.065569
1163.812569	-0.056479
1163.966084	-0.060707
1164.119581	-0.059716
1164.273060	-0.066946
1164.426521	-0.074045
1164.579964	-0.080222
1164.733388	-0.083373
1164.886794	-0.076750
1165.040182	-0.078358
1165.193551	-0.085995
1165.346903	-0.082494
1165.500236	-0.088684
1165.653551	-0.088049
1165.806848	-0.088315
1165.960126	-0.087593
1166.113386	-0.086026
1166.266628	-0.089885
1166.419852	-0.091008
1166.573058	-0.092269
1166.726245	-0.095059
1166.879414	-0.093980
1167.032565	-0.097326
1167.185698	-0.093414
1167.338812	-0.081735
1167.491909	-0.082427
1167.644987	-0.076853
1167.798046	-0.070345
1167.951088	-0.069988
1168.104111	-0.065678
1168.257117	-0.049454
1168.410103	-0.051508
1168.563072	-0.052573
1168.716023	-0.058783
1168.868955	-0.051616
1169.021869	-0.059699
1169.174765	-0.064128
1169.327642	-0.057204
1169.480501	-0.065993
1169.633343	-0.070358
1169.786165	-0.063133
1169.938970	-0.065519
1170.091757	-0.057153
1170.244525	-0.059762
1170.397275	-0.052008
1170.550007	-0.052645
1170.702720	-0.061471
1170.855415	-0.052994
1171.008092	-0.068725
1171.160751	-0.076619
1171.313392	-0.084753
1171.466014	-0.042286
1171.618619	-0.142963
1171.771205	-0.142963
1171.923772	-0.142963
