sample name	sample
index	1356
start time	 05-03-2021  01:40:47 PM


Wavelength (nm)	Absorbance
494.344910	0.099444
494.563924	0.099444
494.782919	0.099444
495.001897	0.010741
495.220856	0.022261
495.439797	0.006743
495.658719	0.007678
495.877624	-0.008739
496.096510	-0.001481
496.315378	-0.012672
496.534227	-0.007646
496.753059	0.002490
496.971872	-0.006168
497.190667	0.003929
497.409444	0.009899
497.628203	0.010682
497.846943	0.009290
498.065665	0.009262
498.284369	0.008852
498.503055	0.009298
498.721723	0.009097
498.940372	0.009440
499.159003	0.010007
499.377616	0.008812
499.596210	0.008251
499.814787	0.008811
500.033345	0.007580
500.251885	0.008277
500.470406	0.007772
500.688910	0.008331
500.907395	0.008375
501.125862	0.008258
501.344311	0.008038
501.562742	0.007718
501.781154	0.007142
501.999548	0.008507
502.217924	0.007100
502.436282	0.007168
502.654621	0.006281
502.872942	0.006180
503.091245	0.004890
503.309530	0.005590
503.527797	0.005663
503.746045	0.006448
503.964275	0.006431
504.182487	0.006778
504.400681	0.006761
504.618856	0.006908
504.837013	0.005952
505.055152	0.006279
505.273273	0.006839
505.491376	0.006910
505.709460	0.006740
505.927526	0.006656
506.145574	0.007366
506.363604	0.007462
506.581615	0.008251
506.799608	0.009211
507.017583	0.008984
507.235540	0.007262
507.453478	0.007519
507.671399	0.006793
507.889301	0.006728
508.107185	0.006730
508.325050	0.006819
508.542898	0.005877
508.760727	0.005749
508.978538	0.006233
509.196330	0.007305
509.414105	0.006946
509.631861	0.007781
509.849599	0.006731
510.067319	0.006194
510.285021	0.005712
510.502704	0.005036
510.720369	0.004690
510.938016	0.004371
511.155645	0.004586
511.373255	0.004726
511.590848	0.004297
511.808422	0.004281
512.025977	0.004455
512.243515	0.004241
512.461034	0.003697
512.678536	0.003607
512.896018	0.004464
513.113483	0.003654
513.330930	0.002991
513.548358	0.002587
513.765768	0.002777
513.983160	0.002945
514.200533	0.003442
514.417889	0.004186
514.635226	0.004564
514.852545	0.003637
515.069845	0.004239
515.287128	0.004621
515.504392	0.004729
515.721638	0.004688
515.938866	0.004206
516.156075	0.003987
516.373267	0.004301
516.590440	0.004882
516.807594	0.005497
517.024731	0.005374
517.241850	0.005814
517.458950	0.005638
517.676032	0.005855
517.893095	0.006983
518.110141	0.007803
518.327168	0.007659
518.544177	0.007204
518.761168	0.006954
518.978141	0.007174
519.195095	0.006025
519.412031	0.006662
519.628949	0.006653
519.845849	0.005821
520.062731	0.005564
520.279594	0.006314
520.496439	0.005644
520.713266	0.005904
520.930074	0.006118
521.146865	0.006902
521.363637	0.006859
521.580391	0.006740
521.797127	0.006182
522.013844	0.005616
522.230543	0.004877
522.447224	0.005131
522.663887	0.004636
522.880532	0.004261
523.097158	0.004406
523.313766	0.004713
523.530356	0.004821
523.746928	0.005808
523.963481	0.006084
524.180017	0.006773
524.396534	0.006350
524.613032	0.006438
524.829513	0.006711
525.045975	0.006178
525.262420	0.006026
525.478845	0.006625
525.695253	0.006853
525.911643	0.006719
526.128014	0.006642
526.344367	0.006864
526.560702	0.007591
526.777018	0.007983
526.993316	0.008502
527.209597	0.008470
527.425858	0.008524
527.642102	0.007974
527.858328	0.008469
528.074535	0.008243
528.290724	0.008753
528.506894	0.008742
528.723047	0.008218
528.939181	0.008675
529.155297	0.009276
529.371395	0.008949
529.587475	0.009503
529.803536	0.009453
530.019579	0.010032
530.235604	0.010732
530.451611	0.011006
530.667600	0.011763
530.883570	0.011230
531.099522	0.010868
531.315456	0.011768
531.531372	0.012139
531.747269	0.012492
531.963148	0.012602
532.179009	0.012628
532.394852	0.012353
532.610676	0.011896
532.826482	0.013024
533.042271	0.013185
533.258040	0.012846
533.473792	0.012112
533.689525	0.012069
533.905240	0.012021
534.120937	0.011675
534.336616	0.011944
534.552277	0.012299
534.767919	0.011889
534.983543	0.012707
535.199149	0.012867
535.414736	0.013295
535.630306	0.014076
535.845857	0.014032
536.061390	0.014521
536.276904	0.015180
536.492401	0.015216
536.707879	0.015868
536.923339	0.015444
537.138781	0.015830
537.354204	0.016358
537.569610	0.016015
537.784997	0.016043
538.000366	0.015908
538.215716	0.015514
538.431049	0.016158
538.646363	0.015707
538.861659	0.016201
539.076937	0.015895
539.292196	0.015968
539.507438	0.016054
539.722661	0.016313
539.937866	0.016304
540.153052	0.016903
540.368221	0.017087
540.583371	0.017407
540.798503	0.017045
541.013617	0.017272
541.228712	0.017277
541.443789	0.017588
541.658848	0.017927
541.873889	0.018117
542.088912	0.017980
542.303916	0.017629
542.518902	0.017794
542.733870	0.018022
542.948820	0.018152
543.163752	0.017932
543.378665	0.017786
543.593560	0.017933
543.808437	0.017962
544.023295	0.017590
544.238136	0.017472
544.452958	0.017286
544.667762	0.017099
544.882548	0.016726
545.097315	0.017135
545.312064	0.017396
545.526795	0.016992
545.741508	0.016874
545.956203	0.017069
546.170879	0.016822
546.385537	0.017045
546.600177	0.017368
546.814799	0.017712
547.029402	0.017899
547.243988	0.017239
547.458555	0.017538
547.673103	0.018037
547.887634	0.017846
548.102146	0.018500
548.316640	0.018560
548.531116	0.018421
548.745574	0.018734
548.960013	0.018473
549.174435	0.018630
549.388838	0.018864
549.603222	0.018856
549.817589	0.019295
550.031937	0.019278
550.246267	0.019070
550.460579	0.019345
550.674873	0.019249
550.889148	0.019256
551.103405	0.019678
551.317644	0.019605
551.531865	0.019437
551.746068	0.019546
551.960252	0.019512
552.174418	0.019704
552.388566	0.019987
552.602696	0.020282
552.816807	0.020299
553.030900	0.020696
553.244975	0.021029
553.459032	0.021474
553.673070	0.021339
553.887091	0.021605
554.101093	0.021751
554.315077	0.021605
554.529042	0.021700
554.742990	0.021912
554.956919	0.021659
555.170830	0.021183
555.384722	0.021070
555.598597	0.021379
555.812453	0.021554
556.026291	0.021435
556.240111	0.021334
556.453913	0.021083
556.667696	0.021404
556.881461	0.021367
557.095208	0.022236
557.308937	0.022145
557.522647	0.021975
557.736339	0.021370
557.950013	0.021596
558.163669	0.021647
558.377307	0.021925
558.590926	0.021732
558.804527	0.021870
559.018110	0.021481
559.231675	0.021611
559.445221	0.021881
559.658749	0.022254
559.872259	0.022329
560.085751	0.022413
560.299225	0.022248
560.512680	0.022249
560.726117	0.022506
560.939536	0.022215
561.152937	0.021985
561.366319	0.021648
561.579683	0.021288
561.793029	0.021021
562.006357	0.020985
562.219667	0.020830
562.432958	0.020914
562.646231	0.020809
562.859486	0.020823
563.072723	0.021110
563.285941	0.021371
563.499141	0.021846
563.712323	0.021937
563.925487	0.022041
564.138632	0.022240
564.351760	0.021809
564.564869	0.021464
564.777960	0.021731
564.991032	0.021665
565.204087	0.021545
565.417123	0.021731
565.630141	0.021955
565.843140	0.021975
566.056122	0.021826
566.269085	0.022622
566.482030	0.022738
566.694957	0.022623
566.907866	0.022783
567.120756	0.023033
567.333628	0.022642
567.546482	0.022649
567.759318	0.022475
567.972135	0.022672
568.184935	0.022616
568.397716	0.022696
568.610478	0.023067
568.823223	0.023125
569.035949	0.022861
569.248657	0.022857
569.461347	0.022967
569.674019	0.022884
569.886672	0.022526
570.099308	0.022529
570.311925	0.022729
570.524523	0.022336
570.737104	0.022116
570.949666	0.022511
571.162210	0.022856
571.374736	0.023113
571.587244	0.023594
571.799733	0.023947
572.012205	0.023616
572.224658	0.023595
572.437092	0.023940
572.649509	0.023991
572.861907	0.023595
573.074287	0.023641
573.286649	0.023367
573.498993	0.023043
573.711318	0.022841
573.923625	0.022889
574.135914	0.023026
574.348185	0.022854
574.560438	0.023322
574.772672	0.023446
574.984888	0.023482
575.197086	0.023282
575.409266	0.023318
575.621427	0.023670
575.833570	0.023729
576.045695	0.023601
576.257802	0.023679
576.469890	0.023658
576.681961	0.023604
576.894013	0.023326
577.106046	0.023461
577.318062	0.023531
577.530059	0.023414
577.742039	0.023568
577.954000	0.023487
578.165942	0.023476
578.377867	0.023354
578.589773	0.023359
578.801661	0.023390
579.013531	0.023520
579.225382	0.023635
579.437216	0.023590
579.649031	0.023432
579.860828	0.023623
580.072606	0.023588
580.284367	0.023484
580.496109	0.023335
580.707833	0.023318
580.919539	0.023164
581.131227	0.022927
581.342896	0.022980
581.554547	0.023182
581.766180	0.023010
581.977795	0.023072
582.189391	0.022988
582.400969	0.023392
582.612529	0.023297
582.824071	0.023553
583.035595	0.023713
583.247100	0.023794
583.458587	0.023633
583.670056	0.023760
583.881506	0.023830
584.092939	0.023660
584.304353	0.023425
584.515749	0.023326
584.727127	0.023230
584.938486	0.023085
585.149828	0.022986
585.361151	0.022878
585.572456	0.023028
585.783742	0.023030
585.995011	0.023399
586.206261	0.023635
586.417493	0.024134
586.628706	0.024150
586.839902	0.024283
587.051079	0.024642
587.262238	0.024696
587.473379	0.024410
587.684502	0.024139
587.895606	0.024224
588.106692	0.024292
588.317760	0.024236
588.528810	0.024358
588.739841	0.024361
588.950855	0.024083
589.161850	0.024043
589.372827	0.024283
589.583785	0.024526
589.794726	0.024462
590.005648	0.024382
590.216552	0.024376
590.427437	0.024453
590.638305	0.024754
590.849154	0.024794
591.059985	0.024901
591.270798	0.025049
591.481592	0.025050
591.692369	0.025073
591.903127	0.025381
592.113867	0.025471
592.324588	0.025029
592.535292	0.024768
592.745977	0.025093
592.956644	0.025412
593.167293	0.025357
593.377923	0.025653
593.588536	0.025577
593.799130	0.025428
594.009706	0.025347
594.220263	0.025610
594.430803	0.026055
594.641324	0.026033
594.851827	0.025967
595.062312	0.025952
595.272778	0.025620
595.483227	0.025540
595.693657	0.025582
595.904069	0.025706
596.114462	0.025983
596.324838	0.025660
596.535195	0.025621
596.745534	0.025637
596.955855	0.025608
597.166157	0.025753
597.376441	0.026010
597.586707	0.026330
597.796955	0.026083
598.007185	0.026159
598.217396	0.026339
598.427589	0.026374
598.637764	0.026325
598.847921	0.026488
599.058060	0.026575
599.268180	0.026681
599.478282	0.026316
599.688366	0.026763
599.898431	0.026852
600.108479	0.026909
600.318508	0.027107
600.528519	0.027396
600.738511	0.027462
600.948486	0.027696
601.158442	0.027506
601.368380	0.027919
601.578300	0.028014
601.788202	0.028039
601.998085	0.028555
602.207950	0.028801
602.417797	0.028734
602.627626	0.028749
602.837436	0.028989
603.047228	0.029348
603.257002	0.029433
603.466758	0.029378
603.676496	0.029588
603.886215	0.029443
604.095916	0.029229
604.305599	0.029195
604.515264	0.029380
604.724910	0.028984
604.934538	0.028969
605.144148	0.028827
605.353740	0.028972
605.563314	0.029012
605.772869	0.028871
605.982406	0.029080
606.191925	0.029342
606.401425	0.029202
606.610908	0.029610
606.820372	0.029531
607.029818	0.029741
607.239246	0.029968
607.448655	0.029923
607.658047	0.030031
607.867420	0.029776
608.076775	0.029718
608.286111	0.029862
608.495430	0.029922
608.704730	0.029742
608.914012	0.029584
609.123275	0.029547
609.332521	0.029698
609.541748	0.029430
609.750957	0.029548
609.960148	0.029501
610.169321	0.029535
610.378475	0.029393
610.587611	0.029873
610.796729	0.029819
611.005829	0.029643
611.214910	0.029243
611.423974	0.029560
611.633019	0.029537
611.842045	0.029514
612.051054	0.029533
612.260044	0.029810
612.469017	0.029772
612.677970	0.029885
612.886906	0.029910
613.095824	0.030460
613.304723	0.030565
613.513604	0.030840
613.722467	0.031108
613.931311	0.031311
614.140138	0.031149
614.348946	0.030990
614.557736	0.031074
614.766507	0.031237
614.975261	0.030999
615.183996	0.030914
615.392713	0.030719
615.601412	0.030643
615.810092	0.030173
616.018754	0.029996
616.227399	0.030145
616.436024	0.030050
616.644632	0.030090
616.853222	0.030144
617.061793	0.030242
617.270346	0.030490
617.478880	0.030632
617.687397	0.031140
617.895895	0.031443
618.104375	0.031490
618.312837	0.031959
618.521281	0.032064
618.729706	0.032108
618.938113	0.032405
619.146502	0.032451
619.354873	0.032584
619.563226	0.032842
619.771560	0.032992
619.979876	0.033328
620.188174	0.033350
620.396453	0.033456
620.604715	0.033649
620.812958	0.033688
621.021183	0.033627
621.229390	0.033471
621.437578	0.033414
621.645748	0.033575
621.853900	0.033559
622.062034	0.033771
622.270150	0.033982
622.478247	0.033903
622.686326	0.033607
622.894387	0.033937
623.102430	0.034299
623.310454	0.034246
623.518461	0.034279
623.726449	0.034379
623.934418	0.034265
624.142370	0.034230
624.350303	0.034716
624.558218	0.034965
624.766115	0.034858
624.973994	0.034768
625.181855	0.034891
625.389697	0.034869
625.597521	0.034987
625.805327	0.034925
626.013114	0.034888
626.220883	0.034672
626.428634	0.034579
626.636367	0.034577
626.844082	0.034665
627.051778	0.034723
627.259457	0.034903
627.467117	0.034778
627.674758	0.034849
627.882382	0.035018
628.089987	0.035055
628.297574	0.035168
628.505143	0.035322
628.712694	0.035400
628.920226	0.035311
629.127740	0.035343
629.335236	0.035532
629.542714	0.035876
629.750174	0.035978
629.957615	0.036030
630.165038	0.036374
630.372443	0.036587
630.579829	0.036820
630.787198	0.037093
630.994548	0.037099
631.201880	0.037082
631.409194	0.036919
631.616489	0.037035
631.823766	0.037060
632.031025	0.037045
632.238266	0.036966
632.445489	0.036818
632.652693	0.036823
632.859879	0.036755
633.067047	0.037045
633.274197	0.037231
633.481329	0.037176
633.688442	0.037188
633.895537	0.037118
634.102614	0.037262
634.309672	0.037216
634.516713	0.037276
634.723735	0.037378
634.930739	0.037327
635.137724	0.037185
635.344692	0.037059
635.551641	0.037172
635.758572	0.037060
635.965485	0.036819
636.172379	0.036936
636.379256	0.036925
636.586114	0.036867
636.792954	0.036667
636.999775	0.036623
637.206579	0.036675
637.413364	0.036669
637.620131	0.036956
637.826880	0.037100
638.033610	0.036925
638.240323	0.036859
638.447017	0.036965
638.653692	0.036930
638.860350	0.036946
639.066990	0.036934
639.273611	0.036802
639.480214	0.036822
639.686798	0.036841
639.893365	0.037179
640.099913	0.037400
640.306443	0.037524
640.512955	0.037831
640.719449	0.037976
640.925924	0.038193
641.132381	0.038302
641.338820	0.038324
641.545241	0.038440
641.751644	0.038495
641.958028	0.038384
642.164394	0.038508
642.370742	0.038408
642.577071	0.038613
642.783383	0.038563
642.989676	0.038769
643.195951	0.038828
643.402207	0.038930
643.608446	0.038685
643.814666	0.038893
644.020868	0.039064
644.227052	0.039209
644.433218	0.039196
644.639365	0.039360
644.845494	0.039215
645.051605	0.039226
645.257698	0.039416
645.463772	0.039676
645.669828	0.039474
645.875866	0.039095
646.081886	0.039215
646.287888	0.039302
646.493871	0.039312
646.699836	0.039806
646.905783	0.039946
647.111712	0.039847
647.317622	0.039899
647.523514	0.040169
647.729388	0.040556
647.935244	0.040798
648.141082	0.040789
648.346901	0.040892
648.552702	0.040818
648.758485	0.040940
648.964250	0.041053
649.169996	0.041377
649.375724	0.041732
649.581434	0.041858
649.787126	0.042019
649.992800	0.042130
650.198455	0.042146
650.404092	0.042118
650.609711	0.042296
650.815311	0.042561
651.020894	0.042644
651.226458	0.042510
651.432004	0.042544
651.637532	0.042376
651.843041	0.042403
652.048532	0.042424
652.254006	0.042569
652.459460	0.042477
652.664897	0.042416
652.870315	0.042431
653.075716	0.042495
653.281097	0.042338
653.486461	0.042592
653.691807	0.042880
653.897134	0.043197
654.102443	0.043309
654.307734	0.043488
654.513006	0.043802
654.718261	0.043915
654.923497	0.044001
655.128715	0.044440
655.333915	0.044358
655.539096	0.044359
655.744259	0.044086
655.949404	0.044098
656.154531	0.044238
656.359640	0.044029
656.564730	0.043906
656.769802	0.043671
656.974856	0.043541
657.179892	0.043465
657.384909	0.043115
657.589908	0.043419
657.794889	0.043311
657.999852	0.043101
658.204797	0.043130
658.409723	0.043302
658.614631	0.043423
658.819521	0.043249
659.024393	0.043148
659.229246	0.043430
659.434081	0.043151
659.638898	0.043439
659.843697	0.043256
660.048478	0.043214
660.253240	0.043052
660.457984	0.043100
660.662710	0.043068
660.867417	0.043136
661.072107	0.043069
661.276778	0.043237
661.481431	0.042949
661.686066	0.043269
661.890682	0.043288
662.095281	0.043518
662.299861	0.043674
662.504422	0.043961
662.708966	0.044230
662.913491	0.044473
663.117999	0.044655
663.322488	0.044985
663.526958	0.045052
663.731411	0.045273
663.935845	0.045187
664.140261	0.045201
664.344659	0.045168
664.549038	0.045172
664.753400	0.045086
664.957743	0.045200
665.162068	0.045316
665.366375	0.045343
665.570663	0.045252
665.774933	0.045429
665.979185	0.045649
666.183419	0.045734
666.387635	0.045748
666.591832	0.045955
666.796011	0.046035
667.000172	0.045974
667.204315	0.046103
667.408439	0.046341
667.612545	0.046482
667.816634	0.046505
668.020703	0.046762
668.224755	0.046988
668.428788	0.047203
668.632803	0.047189
668.836800	0.047383
669.040779	0.047333
669.244739	0.047559
669.448681	0.047636
669.652605	0.047780
669.856511	0.047898
670.060399	0.047909
670.264268	0.047824
670.468119	0.047747
670.671952	0.047755
670.875767	0.047885
671.079563	0.047756
671.283341	0.047780
671.487101	0.048062
671.690843	0.047994
671.894567	0.048057
672.098272	0.048056
672.301959	0.048252
672.505628	0.048355
672.709278	0.048561
672.912911	0.048655
673.116525	0.049007
673.320121	0.048745
673.523699	0.048768
673.727258	0.049091
673.930799	0.049421
674.134322	0.049545
674.337827	0.049674
674.541314	0.049805
674.744782	0.050097
674.948232	0.050193
675.151664	0.050518
675.355078	0.050822
675.558474	0.050769
675.761851	0.050654
675.965210	0.050790
676.168551	0.050776
676.371873	0.050709
676.575178	0.050603
676.778464	0.050333
676.981732	0.050286
677.184981	0.050277
677.388213	0.050342
677.591426	0.050459
677.794621	0.050433
677.997798	0.050511
678.200956	0.050538
678.404097	0.050495
678.607219	0.050700
678.810323	0.050632
679.013408	0.050510
679.216476	0.050517
679.419525	0.050415
679.622556	0.050524
679.825569	0.050571
680.028563	0.050623
680.231540	0.050680
680.434498	0.050758
680.637438	0.050999
680.840359	0.051332
681.043263	0.051275
681.246148	0.051470
681.449015	0.051624
681.651864	0.051702
681.854694	0.052073
682.057506	0.052358
682.260301	0.052310
682.463076	0.052382
682.665834	0.052419
682.868573	0.052596
683.071295	0.052832
683.273998	0.052909
683.476682	0.052979
683.679349	0.052913
683.881997	0.052850
684.084627	0.052934
684.287239	0.053061
684.489833	0.052917
684.692408	0.052772
684.894965	0.052552
685.097504	0.052534
685.300025	0.052472
685.502527	0.052313
685.705012	0.052317
685.907478	0.052273
686.109925	0.052151
686.312355	0.052386
686.514766	0.052375
686.717159	0.052575
686.919534	0.052483
687.121891	0.052443
687.324230	0.052498
687.526550	0.052584
687.728852	0.052715
687.931136	0.052972
688.133401	0.052827
688.335649	0.053046
688.537878	0.053153
688.740089	0.053338
688.942281	0.053473
689.144456	0.053748
689.346612	0.053738
689.548750	0.053647
689.750870	0.053480
689.952971	0.053592
690.155055	0.053787
690.357120	0.053752
690.559167	0.053902
690.761195	0.054244
690.963206	0.054104
691.165198	0.054139
691.367172	0.054366
691.569128	0.054585
691.771065	0.054634
691.972984	0.054524
692.174885	0.054673
692.376768	0.054694
692.578633	0.054449
692.780479	0.054688
692.982308	0.054894
693.184118	0.054996
693.385909	0.055016
693.587683	0.055207
693.789438	0.055388
693.991175	0.055254
694.192894	0.055232
694.394595	0.055578
694.596277	0.055492
694.797941	0.055547
694.999587	0.055553
695.201215	0.055469
695.402824	0.055486
695.604416	0.055562
695.805989	0.055897
696.007543	0.056040
696.209080	0.056047
696.410598	0.056273
696.612099	0.056508
696.813580	0.056841
697.015044	0.057023
697.216490	0.057318
697.417917	0.057384
697.619326	0.057356
697.820717	0.057373
698.022089	0.057323
698.223444	0.057402
698.424780	0.057259
698.626098	0.057116
698.827397	0.057113
699.028679	0.057049
699.229942	0.057117
699.431187	0.057124
699.632414	0.057442
699.833622	0.057671
700.034813	0.057670
700.235985	0.057779
700.437139	0.057747
700.638274	0.057815
700.839392	0.057835
701.040491	0.057831
701.241572	0.058030
701.442635	0.057943
701.643679	0.057801
701.844706	0.057868
702.045714	0.057883
702.246704	0.057890
702.447675	0.057893
702.648629	0.057857
702.849564	0.057798
703.050481	0.057792
703.251380	0.057520
703.452260	0.057467
703.653122	0.057334
703.853966	0.057167
704.054792	0.057180
704.255600	0.057196
704.456389	0.057162
704.657160	0.057178
704.857913	0.057026
705.058648	0.057131
705.259365	0.057120
705.460063	0.057057
705.660743	0.057076
705.861405	0.056976
706.062048	0.056918
706.262674	0.056864
706.463281	0.056896
706.663870	0.056870
706.864441	0.056812
707.064993	0.056896
707.265527	0.057088
707.466043	0.057169
707.666541	0.057153
707.867021	0.057151
708.067482	0.056973
708.267925	0.056880
708.468350	0.056725
708.668757	0.056741
708.869145	0.056639
709.069516	0.056508
709.269868	0.056340
709.470201	0.056441
709.670517	0.056361
709.870814	0.056563
710.071093	0.056647
710.271354	0.056761
710.471597	0.056854
710.671821	0.056959
710.872028	0.056944
711.072216	0.057124
711.272385	0.057170
711.472537	0.057370
711.672670	0.057456
711.872785	0.057535
712.072882	0.057631
712.272961	0.057512
712.473021	0.057531
712.673063	0.057640
712.873087	0.057608
713.073093	0.057750
713.273081	0.057779
713.473050	0.057667
713.673001	0.057601
713.872934	0.057635
714.072849	0.057739
714.272745	0.057732
714.472623	0.057716
714.672483	0.057601
714.872325	0.057401
715.072148	0.057294
715.271954	0.057278
715.471741	0.057369
715.671509	0.057548
715.871260	0.057594
716.070992	0.057574
716.270707	0.057586
716.470403	0.057659
716.670080	0.057598
716.869740	0.057637
717.069381	0.057539
717.269004	0.057571
717.468609	0.057255
717.668195	0.057341
717.867764	0.057352
718.067314	0.057316
718.266846	0.057494
718.466360	0.057420
718.665855	0.057289
718.865332	0.057374
719.064791	0.057113
719.264232	0.057044
719.463655	0.056775
719.663059	0.056497
719.862445	0.056206
720.061813	0.055968
720.261163	0.055737
720.460494	0.055609
720.659807	0.055434
720.859102	0.055274
721.058379	0.055087
721.257638	0.054921
721.456878	0.054823
721.656100	0.054733
721.855304	0.054695
722.054490	0.054655
722.253657	0.054578
722.452806	0.054501
722.651937	0.054491
722.851050	0.054404
723.050145	0.054310
723.249221	0.054331
723.448279	0.054356
723.647319	0.054186
723.846340	0.054268
724.045344	0.054192
724.244329	0.054243
724.443296	0.054195
724.642245	0.054304
724.841175	0.054303
725.040088	0.054181
725.238982	0.054077
725.437857	0.054210
725.636715	0.053974
725.835554	0.053919
726.034376	0.053719
726.233179	0.053690
726.431963	0.053363
726.630730	0.053477
726.829478	0.053414
727.028208	0.053488
727.226920	0.053310
727.425614	0.053552
727.624289	0.053461
727.822946	0.053471
728.021585	0.053391
728.220206	0.053623
728.418808	0.053415
728.617392	0.053446
728.815958	0.053421
729.014506	0.053463
729.213036	0.053302
729.411547	0.053370
729.610040	0.053373
729.808515	0.053384
730.006972	0.053269
730.205410	0.053483
730.403831	0.053565
730.602233	0.053474
730.800616	0.053472
730.998982	0.053459
731.197329	0.053522
731.395658	0.053466
731.593969	0.053509
731.792262	0.053617
731.990536	0.053449
732.188793	0.053436
732.387031	0.053487
732.585250	0.053380
732.783452	0.053445
732.981635	0.053421
733.179800	0.053309
733.377947	0.053206
733.576076	0.052947
733.774186	0.053006
733.972278	0.052977
734.170352	0.052837
734.368408	0.052817
734.566446	0.052499
734.764465	0.052316
734.962466	0.052318
735.160449	0.052196
735.358413	0.052260
735.556360	0.051991
735.754288	0.051859
735.952198	0.051866
736.150090	0.051740
736.347963	0.051805
736.545818	0.051623
736.743655	0.051357
736.941474	0.051260
737.139275	0.051117
737.337057	0.051043
737.534821	0.050872
737.732567	0.050657
737.930295	0.050624
738.128005	0.050553
738.325696	0.050652
738.523369	0.050763
738.721024	0.050797
738.918660	0.051057
739.116279	0.051244
739.313879	0.051419
739.511461	0.051421
739.709024	0.051357
739.906570	0.051606
740.104097	0.051455
740.301606	0.051396
740.499097	0.051504
740.696569	0.051458
740.894024	0.051340
741.091460	0.051131
741.288878	0.051267
741.486277	0.051204
741.683659	0.050902
741.881022	0.050994
742.078367	0.051169
742.275694	0.051063
742.473002	0.050901
742.670293	0.050901
742.867565	0.050703
743.064819	0.050672
743.262054	0.050534
743.459272	0.050634
743.656471	0.050591
743.853652	0.050371
744.050815	0.050174
744.247959	0.050103
744.445085	0.049883
744.642194	0.050034
744.839283	0.050106
745.036355	0.050068
745.233408	0.049954
745.430444	0.049874
745.627461	0.049864
745.824459	0.049968
746.021440	0.049826
746.218402	0.049792
746.415346	0.049729
746.612272	0.049302
746.809180	0.049433
747.006069	0.049298
747.202940	0.049263
747.399793	0.049290
747.596628	0.049239
747.793444	0.049443
747.990243	0.049502
748.187023	0.049513
748.383784	0.049806
748.580528	0.049616
748.777253	0.049891
748.973960	0.049872
749.170649	0.049798
749.367320	0.049737
749.563973	0.049641
749.760607	0.049764
749.957223	0.049960
750.153821	0.049915
750.350400	0.050264
750.546962	0.049998
750.743505	0.050011
750.940030	0.050035
751.136536	0.050061
751.333025	0.050095
751.529495	0.050029
751.725947	0.049923
751.922381	0.049796
752.118796	0.049590
752.315194	0.049741
752.511573	0.049717
752.707934	0.049471
752.904276	0.049491
753.100601	0.049405
753.296907	0.049387
753.493195	0.049333
753.689465	0.049285
753.885716	0.049136
754.081949	0.049152
754.278164	0.049219
754.474361	0.049453
754.670540	0.049468
754.866700	0.049339
755.062843	0.049059
755.258967	0.048939
755.455072	0.048755
755.651160	0.048694
755.847229	0.048488
756.043280	0.048391
756.239313	0.048284
756.435328	0.048171
756.631324	0.048106
756.827302	0.048170
757.023262	0.048105
757.219204	0.048271
757.415127	0.048362
757.611033	0.048196
757.806920	0.047954
758.002788	0.047762
758.198639	0.047488
758.394471	0.047504
758.590286	0.047300
758.786081	0.047143
758.981859	0.047071
759.177619	0.046787
759.373360	0.046820
759.569083	0.046916
759.764788	0.046990
759.960474	0.047058
760.156143	0.046942
760.351793	0.047055
760.547425	0.047087
760.743038	0.046970
760.938634	0.047199
761.134211	0.047414
761.329770	0.047269
761.525311	0.047174
761.720833	0.047295
761.916338	0.047145
762.111824	0.047256
762.307292	0.047253
762.502741	0.047398
762.698173	0.047186
762.893586	0.046955
763.088981	0.046982
763.284358	0.047108
763.479716	0.047228
763.675057	0.047527
763.870379	0.047581
764.065683	0.047596
764.260968	0.047585
764.456236	0.047635
764.651485	0.047659
764.846716	0.047698
765.041929	0.047478
765.237123	0.047025
765.432299	0.046768
765.627457	0.046401
765.822597	0.046386
766.017719	0.046002
766.212822	0.045993
766.407907	0.045685
766.602974	0.045671
766.798023	0.045927
766.993054	0.045828
767.188066	0.045825
767.383060	0.045802
767.578036	0.045395
767.772993	0.045489
767.967933	0.045162
768.162854	0.045121
768.357757	0.045027
768.552642	0.044725
768.747508	0.044940
768.942356	0.044970
769.137186	0.045101
769.331998	0.045502
769.526792	0.045447
769.721567	0.045745
769.916324	0.045848
770.111063	0.045783
770.305784	0.045832
770.500486	0.045895
770.695171	0.045912
770.889837	0.045796
771.084484	0.045571
771.279114	0.045660
771.473725	0.045667
771.668318	0.045667
771.862893	0.045731
772.057450	0.045819
772.251988	0.045750
772.446509	0.045575
772.641011	0.045722
772.835494	0.045773
773.029960	0.045766
773.224407	0.045705
773.418836	0.045822
773.613247	0.045806
773.807640	0.045894
774.002014	0.045852
774.196370	0.046012
774.390708	0.045909
774.585028	0.046063
774.779330	0.045926
774.973613	0.045903
775.167878	0.045894
775.362125	0.045886
775.556354	0.045603
775.750564	0.045574
775.944756	0.045250
776.138930	0.045121
776.333086	0.044888
776.527223	0.044877
776.721343	0.044809
776.915444	0.044678
777.109526	0.044709
777.303591	0.044645
777.497637	0.044740
777.691666	0.044739
777.885676	0.045005
778.079667	0.045100
778.273641	0.045097
778.467596	0.045123
778.661533	0.045198
778.855452	0.045348
779.049352	0.045669
779.243235	0.045882
779.437099	0.046066
779.630945	0.045989
779.824773	0.045994
780.018582	0.045964
780.212373	0.046028
780.406146	0.046080
780.599901	0.046074
780.793638	0.045949
780.987356	0.045613
781.181056	0.045629
781.374738	0.045619
781.568402	0.045626
781.762047	0.045819
781.955674	0.045840
782.149283	0.045766
782.342874	0.045656
782.536447	0.045894
782.730001	0.045983
782.923537	0.046078
783.117055	0.045987
783.310555	0.045905
783.504036	0.045753
783.697499	0.045696
783.890944	0.045895
784.084371	0.045879
784.277780	0.045503
784.471170	0.045435
784.664542	0.045333
784.857896	0.045288
785.051231	0.045499
785.244549	0.045566
785.437848	0.045502
785.631129	0.045311
785.824392	0.045202
786.017636	0.045231
786.210863	0.045380
786.404071	0.045417
786.597260	0.045571
786.790432	0.045477
786.983585	0.045576
787.176721	0.045648
787.369838	0.045470
787.562936	0.045548
787.756017	0.045639
787.949079	0.045617
788.142123	0.045733
788.335149	0.045526
788.528156	0.045790
788.721146	0.045947
788.914117	0.046384
789.107070	0.046791
789.300005	0.047123
789.492921	0.047381
789.685819	0.047262
789.878699	0.047211
790.071561	0.047645
790.264405	0.047742
790.457230	0.047672
790.650037	0.047495
790.842826	0.047606
791.035597	0.047568
791.228349	0.047586
791.421084	0.048028
791.613800	0.048232
791.806497	0.048332
791.999177	0.048347
792.191838	0.048607
792.384481	0.048710
792.577106	0.048669
792.769713	0.048777
792.962301	0.048856
793.154871	0.048699
793.347423	0.048882
793.539957	0.048802
793.732473	0.048786
793.924970	0.048954
794.117449	0.048959
794.309910	0.049233
794.502353	0.049143
794.694777	0.049278
794.887183	0.049502
795.079571	0.049481
795.271941	0.049548
795.464293	0.049602
795.656626	0.049429
795.848941	0.049596
796.041238	0.049581
796.233516	0.049790
796.425777	0.049752
796.618019	0.049856
796.810243	0.050062
797.002449	0.050159
797.194636	0.050318
797.386805	0.050429
797.578956	0.050267
797.771089	0.050064
797.963204	0.050194
798.155300	0.050167
798.347378	0.050123
798.539438	0.049991
798.731480	0.049996
798.923503	0.049762
799.115509	0.049852
799.307496	0.049939
799.499465	0.050223
799.691415	0.050126
799.883348	0.050173
800.075262	0.050017
800.267158	0.050028
800.459035	0.050181
800.650895	0.050471
800.842736	0.050471
801.034559	0.050553
801.226364	0.050635
801.418150	0.050765
801.609919	0.051059
801.801669	0.051266
801.993401	0.051354
802.185114	0.051325
802.376810	0.051402
802.568487	0.051571
802.760146	0.051768
802.951787	0.051821
803.143409	0.051825
803.335014	0.051843
803.526600	0.052099
803.718168	0.052253
803.909717	0.052327
804.101249	0.052413
804.292762	0.052458
804.484257	0.052537
804.675734	0.052577
804.867192	0.052693
805.058632	0.052763
805.250054	0.052856
805.441458	0.052783
805.632844	0.052915
805.824211	0.052690
806.015561	0.052742
806.206891	0.052518
806.398204	0.052488
806.589499	0.052700
806.780775	0.052559
806.972033	0.052390
807.163273	0.052576
807.354495	0.052565
807.545698	0.052628
807.736883	0.052651
807.928050	0.053043
808.119199	0.053272
808.310329	0.053049
808.501441	0.053421
808.692535	0.053453
808.883611	0.053611
809.074669	0.053737
809.265708	0.054267
809.456729	0.054261
809.647732	0.054385
809.838717	0.054324
810.029683	0.054524
810.220632	0.054483
810.411562	0.054823
810.602474	0.054723
810.793367	0.054941
810.984242	0.054762
811.175100	0.054934
811.365938	0.054914
811.556759	0.055159
811.747562	0.055265
811.938346	0.055539
812.129112	0.055529
812.319860	0.055835
812.510589	0.055821
812.701300	0.055925
812.891994	0.056084
813.082668	0.056164
813.273325	0.056119
813.463964	0.056273
813.654584	0.056266
813.845186	0.056374
814.035769	0.056509
814.226335	0.056311
814.416882	0.056413
814.607411	0.056364
814.797922	0.056417
814.988415	0.056473
815.178889	0.056401
815.369345	0.056308
815.559783	0.055978
815.750203	0.055751
815.940605	0.056080
816.130988	0.056032
816.321353	0.056177
816.511700	0.056249
816.702028	0.056272
816.892339	0.056333
817.082631	0.056491
817.272905	0.056834
817.463161	0.056913
817.653398	0.057074
817.843617	0.057262
818.033819	0.057250
818.224001	0.057115
818.414166	0.057213
818.604312	0.057150
818.794440	0.057152
818.984550	0.057372
819.174642	0.057755
819.364716	0.057726
819.554771	0.057925
819.744808	0.057856
819.934827	0.058206
820.124827	0.058340
820.314810	0.058630
820.504774	0.058713
820.694720	0.058727
820.884647	0.058742
821.074557	0.058831
821.264448	0.058640
821.454321	0.058924
821.644176	0.059074
821.834012	0.059292
822.023831	0.059144
822.213631	0.059323
822.403413	0.059517
822.593176	0.059670
822.782922	0.059693
822.972649	0.059907
823.162358	0.060267
823.352049	0.060503
823.541721	0.060419
823.731376	0.060765
823.921012	0.061027
824.110629	0.061052
824.300229	0.061063
824.489811	0.061518
824.679374	0.061881
824.868919	0.061936
825.058445	0.061995
825.247954	0.062413
825.437444	0.062683
825.626916	0.062622
825.816370	0.062705
826.005806	0.063006
826.195223	0.063186
826.384622	0.063176
826.574003	0.063180
826.763366	0.063067
826.952711	0.063198
827.142037	0.063180
827.331345	0.063179
827.520635	0.063219
827.709906	0.062994
827.899160	0.063067
828.088395	0.063172
828.277612	0.063273
828.466810	0.063391
828.655991	0.063279
828.845153	0.063401
829.034297	0.063565
829.223423	0.063967
829.412531	0.064188
829.601620	0.064037
829.790691	0.063953
829.979744	0.063786
830.168779	0.063949
830.357795	0.064081
830.546793	0.064178
830.735773	0.064446
830.924735	0.064637
831.113679	0.064786
831.302604	0.064963
831.491511	0.065232
831.680400	0.065752
831.869271	0.065870
832.058123	0.065996
832.246957	0.066229
832.435773	0.066282
832.624571	0.066438
832.813351	0.066464
833.002112	0.066638
833.190855	0.066628
833.379580	0.066656
833.568287	0.066917
833.756975	0.067016
833.945645	0.067126
834.134297	0.067417
834.322931	0.067370
834.511547	0.067507
834.700144	0.067479
834.888723	0.067741
835.077284	0.067678
835.265826	0.067831
835.454351	0.067822
835.642857	0.067886
835.831345	0.067708
836.019815	0.067871
836.208266	0.068177
836.396699	0.068403
836.585114	0.068610
836.773511	0.069055
836.961890	0.069219
837.150250	0.069680
837.338592	0.069876
837.526916	0.070478
837.715222	0.070759
837.903510	0.071137
838.091779	0.071613
838.280030	0.072008
838.468263	0.072194
838.656477	0.072311
838.844674	0.072554
839.032852	0.072800
839.221012	0.072990
839.409153	0.073127
839.597277	0.073083
839.785382	0.073192
839.973469	0.073203
840.161538	0.073394
840.349589	0.073511
840.537621	0.073442
840.725635	0.073707
840.913631	0.073633
841.101609	0.073987
841.289568	0.074355
841.477509	0.074301
841.665432	0.074584
841.853337	0.074561
842.041224	0.074599
842.229092	0.074822
842.416942	0.074889
842.604774	0.075110
842.792588	0.075021
842.980383	0.075060
843.168160	0.075274
843.355919	0.075371
843.543660	0.075667
843.731382	0.076193
843.919087	0.076638
844.106773	0.076618
844.294441	0.076744
844.482090	0.076885
844.669722	0.077062
844.857335	0.077190
845.044930	0.077367
845.232507	0.077543
845.420065	0.077690
845.607605	0.077579
845.795127	0.078072
845.982631	0.078209
846.170117	0.078379
846.357584	0.078938
846.545033	0.079455
846.732464	0.079725
846.919877	0.079744
847.107272	0.079715
847.294648	0.080208
847.482006	0.080495
847.669346	0.080713
847.856667	0.080955
848.043971	0.080722
848.231256	0.080649
848.418523	0.080666
848.605771	0.081229
848.793002	0.081652
848.980214	0.081551
849.167408	0.081417
849.354584	0.081486
849.541742	0.081739
849.728881	0.081736
849.916002	0.081803
850.103105	0.081827
850.290190	0.081578
850.477256	0.081670
850.664304	0.081967
850.851334	0.082126
851.038346	0.082201
851.225340	0.081982
851.412315	0.082134
851.599272	0.082234
851.786211	0.082387
851.973132	0.082711
852.160034	0.082632
852.346918	0.082490
852.533784	0.082412
852.720632	0.082722
852.907462	0.083006
853.094273	0.082669
853.281066	0.082704
853.467841	0.082840
853.654598	0.083059
853.841336	0.083201
854.028056	0.083408
854.214758	0.083736
854.401442	0.083707
854.588107	0.083726
854.774755	0.084292
854.961384	0.084631
855.147995	0.084849
855.334587	0.085125
855.521162	0.085444
855.707718	0.085551
855.894256	0.085756
856.080775	0.085765
856.267277	0.085940
856.453760	0.086192
856.640225	0.086044
856.826672	0.086154
857.013101	0.086064
857.199511	0.085908
857.385903	0.086503
857.572277	0.086357
857.758633	0.086735
857.944970	0.087187
858.131290	0.087277
858.317591	0.087729
858.503873	0.088225
858.690138	0.088389
858.876384	0.088854
859.062612	0.088797
859.248822	0.089343
859.435014	0.089826
859.621188	0.089865
859.807343	0.090170
859.993480	0.090567
860.179599	0.090367
860.365699	0.090570
860.551781	0.090700
860.737846	0.090690
860.923891	0.090620
861.109919	0.090546
861.295929	0.090932
861.481920	0.091168
861.667893	0.091013
861.853848	0.091337
862.039784	0.091480
862.225702	0.091743
862.411603	0.092135
862.597484	0.092554
862.783348	0.092743
862.969193	0.092539
863.155021	0.092445
863.340830	0.092563
863.526620	0.092601
863.712393	0.093008
863.898147	0.092921
864.083883	0.092899
864.269601	0.092932
864.455301	0.092684
864.640982	0.092539
864.826645	0.092578
865.012290	0.092663
865.197917	0.092583
865.383526	0.092273
865.569116	0.092191
865.754688	0.092421
865.940242	0.092314
866.125777	0.092903
866.311295	0.093415
866.496794	0.093498
866.682275	0.093671
866.867737	0.093785
867.053182	0.094185
867.238608	0.094511
867.424016	0.094135
867.609406	0.094271
867.794778	0.094261
867.980131	0.094314
868.165466	0.094993
868.350783	0.095226
868.536082	0.095547
868.721362	0.095323
868.906625	0.095245
869.091869	0.095631
869.277094	0.095598
869.462302	0.095291
869.647491	0.095092
869.832662	0.094738
870.017815	0.094535
870.202950	0.094510
870.388066	0.094645
870.573165	0.094735
870.758245	0.094877
870.943306	0.095307
871.128350	0.095626
871.313375	0.095868
871.498382	0.096111
871.683371	0.096304
871.868342	0.096446
872.053294	0.096505
872.238229	0.096450
872.423144	0.096556
872.608042	0.096531
872.792922	0.096522
872.977783	0.096656
873.162626	0.096746
873.347451	0.096939
873.532258	0.096850
873.717046	0.096937
873.901816	0.096992
874.086568	0.097200
874.271302	0.097008
874.456017	0.097216
874.640715	0.097379
874.825394	0.097185
875.010055	0.097115
875.194697	0.097392
875.379322	0.097595
875.563928	0.098103
875.748516	0.098097
875.933085	0.098664
876.117637	0.098895
876.302170	0.098946
876.486685	0.099520
876.671182	0.100063
876.855661	0.100101
877.040121	0.100315
877.224563	0.100060
877.408987	0.100135
877.593393	0.100157
877.777780	0.099976
877.962150	0.100100
878.146501	0.099831
878.330833	0.099668
878.515148	0.099856
878.699444	0.099661
878.883722	0.099985
879.067982	0.099997
879.252224	0.100026
879.436447	0.100253
879.620653	0.100162
879.804840	0.100327
879.989008	0.100126
880.173159	0.100031
880.357291	0.099950
880.541405	0.099923
880.725501	0.099934
880.909579	0.099828
881.093638	0.100051
881.277680	0.100275
881.461703	0.100615
881.645707	0.100807
881.829694	0.100926
882.013662	0.100944
882.197612	0.101091
882.381544	0.101444
882.565458	0.101425
882.749353	0.101352
882.933230	0.101325
883.117089	0.101111
883.300930	0.100986
883.484753	0.100675
883.668557	0.100848
883.852343	0.100854
884.036111	0.100535
884.219861	0.100704
884.403592	0.100557
884.587305	0.100629
884.771000	0.100808
884.954677	0.101105
885.138335	0.101901
885.321976	0.101901
885.505598	0.102161
885.689201	0.102017
885.872787	0.102184
886.056354	0.102650
886.239904	0.102398
886.423434	0.101927
886.606947	0.101867
886.790442	0.101758
886.973918	0.102143
887.157376	0.101988
887.340816	0.102214
887.524237	0.101850
887.707641	0.101670
887.891026	0.101534
888.074393	0.101821
888.257741	0.102105
888.441072	0.101904
888.624384	0.101659
888.807678	0.101540
888.990954	0.101380
889.174211	0.101586
889.357451	0.101142
889.540672	0.101393
889.723875	0.101275
889.907059	0.100689
890.090226	0.100370
890.273374	0.100304
890.456504	0.100383
890.639616	0.100069
890.822709	0.099716
891.005785	0.099455
891.188842	0.099565
891.371881	0.099352
891.554901	0.099384
891.737904	0.099510
891.920888	0.099774
892.103854	0.099927
892.286802	0.100047
892.469731	0.099867
892.652643	0.100513
892.835536	0.100490
893.018410	0.100646
893.201267	0.100498
893.384106	0.099958
893.566926	0.099448
893.749728	0.099490
893.932511	0.099683
894.115277	0.099967
894.298024	0.099490
894.480753	0.099044
894.663464	0.098819
894.846157	0.099183
895.028831	0.099307
895.211487	0.099137
895.394125	0.098522
895.576745	0.098610
895.759346	0.098460
895.941930	0.098847
896.124495	0.099280
896.307041	0.099200
896.489570	0.099017
896.672080	0.099174
896.854573	0.099502
897.037046	0.099195
897.219502	0.098702
897.401940	0.098876
897.584359	0.098401
897.766760	0.097929
897.949143	0.098034
898.131507	0.097802
898.313854	0.097694
898.496182	0.097628
898.678492	0.097959
898.860783	0.098226
899.043057	0.098096
899.225312	0.098131
899.407549	0.098094
899.589768	0.098165
899.771968	0.098063
899.954151	0.097969
900.136315	0.097617
900.318461	0.096995
900.500588	0.096850
900.682698	0.096425
900.864789	0.096448
901.046862	0.096126
901.228917	0.095543
901.410953	0.095383
901.592971	0.094931
901.774972	0.094669
901.956953	0.094855
902.138917	0.094449
902.320862	0.094095
902.502790	0.093419
902.684699	0.093468
902.866589	0.093500
903.048462	0.093009
903.230316	0.093041
903.412152	0.093493
903.593970	0.093148
903.775770	0.093108
903.957551	0.093365
904.139314	0.093821
904.321059	0.093687
904.502786	0.093610
904.684494	0.093748
904.866185	0.093687
905.047857	0.093222
905.229510	0.093596
905.411146	0.093530
905.592763	0.093173
905.774363	0.092674
905.955943	0.092456
906.137506	0.092421
906.319051	0.092395
906.500577	0.092130
906.682085	0.091931
906.863575	0.091691
907.045046	0.091353
907.226500	0.091621
907.407935	0.091479
907.589352	0.091320
907.770750	0.091019
907.952131	0.090762
908.133493	0.090800
908.314837	0.090473
908.496163	0.089974
908.677470	0.089935
908.858760	0.089145
909.040031	0.089107
909.221284	0.088981
909.402518	0.088686
909.583735	0.088736
909.764933	0.088271
909.946113	0.087945
910.127275	0.087816
910.308418	0.088069
910.489544	0.088134
910.670651	0.087818
910.851740	0.087559
911.032810	0.087398
911.213863	0.087085
911.394897	0.087095
911.575913	0.087199
911.756911	0.087219
911.937890	0.086364
912.118851	0.085978
912.299794	0.085725
912.480719	0.085645
912.661626	0.085649
912.842514	0.085618
913.023384	0.085383
913.204236	0.084977
913.385070	0.084260
913.565886	0.084173
913.746683	0.084003
913.927462	0.083467
914.108223	0.083072
914.288965	0.082617
914.469690	0.081508
914.650396	0.081372
914.831084	0.080950
915.011754	0.080357
915.192405	0.080133
915.373038	0.079865
915.553653	0.079867
915.734250	0.079617
915.914829	0.079327
916.095389	0.079634
916.275931	0.078912
916.456455	0.078451
916.636961	0.078358
916.817448	0.077638
916.997917	0.076986
917.178368	0.076487
917.358801	0.075875
917.539216	0.075125
917.719612	0.074257
917.899990	0.073928
918.080350	0.073662
918.260692	0.073507
918.441015	0.073475
918.621320	0.073338
918.801607	0.072945
918.981876	0.072621
919.162127	0.072248
919.342359	0.072107
919.522573	0.072167
919.702769	0.072138
919.882947	0.072021
920.063106	0.071893
920.243247	0.071813
920.423370	0.071663
920.603475	0.071979
920.783562	0.071954
920.963630	0.071736
921.143680	0.071370
921.323712	0.070663
921.503725	0.069852
921.683721	0.069638
921.863698	0.069475
922.043657	0.068777
922.223598	0.068066
922.403520	0.068133
922.583424	0.068397
922.763311	0.067701
922.943178	0.067779
923.123028	0.068053
923.302859	0.067155
923.482673	0.066408
923.662467	0.066201
923.842244	0.065743
924.022003	0.065408
924.201743	0.064837
924.381465	0.064785
924.561169	0.064409
924.740854	0.063835
924.920522	0.063268
925.100171	0.063167
925.279802	0.063158
925.459414	0.062873
925.639009	0.061643
925.818585	0.060786
925.998143	0.060481
926.177683	0.060463
926.357205	0.060436
926.536708	0.060728
926.716193	0.060365
926.895660	0.060265
927.075109	0.060141
927.254539	0.060504
927.433951	0.060210
927.613345	0.059722
927.792721	0.058620
927.972079	0.057929
928.151418	0.057262
928.330739	0.056976
928.510042	0.056431
928.689327	0.055658
928.868593	0.054816
929.047841	0.054693
929.227071	0.054215
929.406283	0.053873
929.585476	0.053081
929.764652	0.052128
929.943809	0.051799
930.122948	0.051200
930.302068	0.051017
930.481171	0.050582
930.660255	0.049829
930.839321	0.049399
931.018369	0.049158
931.197398	0.048821
931.376409	0.048912
931.555402	0.048032
931.734377	0.047126
931.913334	0.046514
932.092272	0.046437
932.271192	0.045769
932.450094	0.045914
932.628978	0.045242
932.807844	0.044818
932.986691	0.044492
933.165520	0.044348
933.344331	0.043811
933.523123	0.042989
933.701898	0.041925
933.880654	0.041614
934.059392	0.040416
934.238111	0.039846
934.416813	0.039111
934.595496	0.038455
934.774161	0.037384
934.952808	0.037001
935.131437	0.036814
935.310047	0.036462
935.488639	0.036217
935.667213	0.035789
935.845769	0.035926
936.024306	0.036207
936.202825	0.035243
936.381326	0.034757
936.559809	0.034536
936.738274	0.034360
936.916720	0.033546
937.095148	0.033020
937.273558	0.033170
937.451950	0.031703
937.630323	0.030659
937.808678	0.031056
937.987015	0.030885
938.165334	0.030246
938.343635	0.029779
938.521917	0.029434
938.700181	0.029655
938.878427	0.028994
939.056655	0.029154
939.234864	0.028728
939.413055	0.027800
939.591228	0.027833
939.769383	0.026873
939.947519	0.025926
940.125638	0.026105
940.303738	0.024783
940.481820	0.024175
940.659883	0.024412
940.837929	0.024105
941.015956	0.024196
941.193965	0.023318
941.371955	0.023790
941.549928	0.023005
941.727882	0.022020
941.905818	0.021668
942.083736	0.021398
942.261636	0.020858
942.439517	0.020312
942.617380	0.018611
942.795225	0.018751
942.973052	0.018287
943.150860	0.018696
943.328651	0.018706
943.506423	0.018333
943.684176	0.017839
943.861912	0.016168
944.039629	0.014892
944.217328	0.015470
944.395009	0.014378
944.572672	0.014120
944.750317	0.013647
944.927943	0.013439
945.105551	0.012815
945.283141	0.011252
945.460712	0.011051
945.638265	0.011895
945.815801	0.011571
945.993317	0.011057
946.170816	0.010363
946.348297	0.009299
946.525759	0.009061
946.703203	0.008955
946.880629	0.009456
947.058036	0.008605
947.235425	0.007780
947.412797	0.007423
947.590149	0.007555
947.767484	0.007827
947.944800	0.007639
948.122099	0.007312
948.299379	0.006778
948.476640	0.005700
948.653884	0.006457
948.831109	0.006567
949.008316	0.006488
949.185505	0.005525
949.362676	0.004538
949.539828	0.004472
949.716962	0.004039
949.894078	0.003055
950.071176	0.004140
950.248256	0.003321
950.425317	0.003633
950.602360	0.002132
950.779385	0.001869
950.956391	0.001632
951.133380	0.000837
951.310350	-0.000244
951.487302	-0.000102
951.664235	-0.001178
951.841151	-0.001720
952.018048	-0.002668
952.194927	-0.002791
952.371788	-0.002449
952.548631	-0.002095
952.725455	-0.001624
952.902261	-0.001260
953.079049	-0.000714
953.255819	-0.000722
953.432570	-0.000565
953.609303	0.000305
953.786018	0.001229
953.962715	0.001020
954.139394	0.000262
954.316054	-0.000039
954.492696	0.000496
954.669320	-0.000007
954.845926	0.000551
955.022513	0.001445
955.199083	-0.001493
955.375634	-0.001523
955.552166	-0.001215
955.728681	-0.001579
955.905177	-0.001597
956.081655	-0.002200
956.258115	-0.002453
956.434557	-0.003078
956.610980	-0.003857
956.787385	-0.002642
956.963772	-0.003991
957.140141	-0.003547
957.316492	-0.002490
957.492824	-0.001299
957.669138	0.000001
957.845434	0.002721
958.021712	0.003050
958.197971	0.003993
958.374212	0.005424
958.550435	0.008614
958.726640	0.006960
958.902826	0.006368
959.078995	0.005804
959.255145	0.005721
959.431277	0.006460
959.607390	0.005218
959.783486	0.006447
959.959563	0.007636
960.135622	0.006269
960.311662	0.006939
960.487685	0.008038
960.663689	0.008024
960.839675	0.008481
961.015643	0.005263
961.191593	0.007592
961.367524	0.007184
961.543437	0.005523
961.719332	0.005427
961.895209	0.006542
962.071067	0.006100
962.246907	0.007391
962.422730	0.005794
962.598533	0.006964
962.774319	0.005747
962.950086	0.005703
963.125835	0.006638
963.301566	0.006706
963.477279	0.008081
963.652973	0.006896
963.828650	0.006146
964.004308	0.006753
964.179947	0.008313
964.355569	0.009214
964.531172	0.006575
964.706757	0.006742
964.882324	0.005097
965.057873	0.005268
965.233403	0.006261
965.408916	0.007114
965.584410	0.006529
965.759885	0.006479
965.935343	0.006150
966.110782	0.008330
966.286203	0.008577
966.461606	0.011018
966.636991	0.010988
966.812357	0.013459
966.987705	0.012484
967.163035	0.013205
967.338347	0.013291
967.513641	0.010819
967.688916	0.010875
967.864173	0.009921
968.039412	0.011546
968.214632	0.009291
968.389835	0.008257
968.565019	0.008632
968.740185	0.007838
968.915333	0.007189
969.090462	0.009112
969.265573	0.010158
969.440667	0.010768
969.615741	0.010152
969.790798	0.011926
969.965836	0.011418
970.140856	0.009981
970.315858	0.011365
970.490842	0.011021
970.665808	0.013377
970.840755	0.011990
971.015684	0.012667
971.190595	0.010295
971.365487	0.011900
971.540362	0.011061
971.715218	0.011692
971.890056	0.011245
972.064875	0.011382
972.239677	0.010264
972.414460	0.012007
972.589225	0.010557
972.763972	0.011125
972.938700	0.009191
973.113411	0.012156
973.288103	0.012099
973.462777	0.013625
973.637432	0.014553
973.812070	0.016046
973.986689	0.016917
974.161290	0.017202
974.335873	0.018942
974.510437	0.017965
974.684984	0.015565
974.859512	0.016085
975.034022	0.013726
975.208513	0.013670
975.382987	0.012350
975.557442	0.008846
975.731879	0.009655
975.906298	0.008179
976.080698	0.008238
976.255080	0.007549
976.429445	0.006806
976.603790	0.008320
976.778118	0.007644
976.952427	0.007668
977.126719	0.008870
977.300992	0.009273
977.475246	0.010133
977.649483	0.010370
977.823701	0.011661
977.997901	0.012875
978.172083	0.011459
978.346247	0.010582
978.520392	0.011050
978.694519	0.012314
978.868628	0.010216
979.042719	0.010308
979.216791	0.010697
979.390845	0.010796
979.564882	0.010359
979.738899	0.012051
979.912899	0.014192
980.086880	0.013198
980.260843	0.011972
980.434788	0.012846
980.608715	0.012718
980.782623	0.011636
980.956514	0.010881
981.130386	0.010890
981.304240	0.010428
981.478075	0.007143
981.651892	0.008025
981.825692	0.008452
981.999472	0.009059
982.173235	0.006653
982.346980	0.007824
982.520706	0.009722
982.694414	0.011028
982.868104	0.009996
983.041775	0.011185
983.215428	0.010047
983.389064	0.010969
983.562680	0.012138
983.736279	0.013306
983.909860	0.012214
984.083422	0.011068
984.256966	0.008858
984.430491	0.008344
984.603999	0.007417
984.777488	0.005603
984.950959	0.005816
985.124412	0.006895
985.297847	0.007428
985.471263	0.006539
985.644661	0.003432
985.818041	0.003573
985.991403	0.004581
986.164747	0.005519
986.338072	0.009147
986.511379	0.008796
986.684668	0.008616
986.857938	0.007397
987.031191	0.011154
987.204425	0.013236
987.377641	0.012391
987.550839	0.011689
987.724018	0.010193
987.897179	0.007918
988.070322	0.007501
988.243447	0.005004
988.416554	0.006599
988.589642	0.004789
988.762712	0.004141
988.935764	0.005281
989.108798	0.006479
989.281813	0.007064
989.454811	0.008317
989.627790	0.006743
989.800751	0.006378
989.973693	0.006475
990.146617	0.006479
990.319524	0.007276
990.492412	0.009229
990.665281	0.008628
990.838133	0.009110
991.010966	0.008459
991.183781	0.009120
991.356578	0.010454
991.529356	0.010248
991.702117	0.010195
991.874859	0.009372
992.047583	0.007392
992.220288	0.007779
992.392976	0.010154
992.565645	0.009605
992.738296	0.009014
992.910929	0.005499
993.083543	0.004909
993.256139	0.004553
993.428718	0.004757
993.601277	0.004177
993.773819	0.003006
993.946342	0.002469
994.118848	0.002492
994.291335	0.004293
994.463803	0.006733
994.636254	0.007269
994.808686	0.006956
994.981100	0.006280
995.153496	0.007892
995.325874	0.006691
995.498233	0.004562
995.670574	0.004999
995.842897	0.003298
996.015202	0.002249
996.187488	0.001699
996.359757	0.000005
996.532007	0.000903
996.704239	-0.000520
996.876452	0.000369
997.048648	-0.000226
997.220825	-0.001317
997.392984	-0.002114
997.565124	-0.001219
997.737247	-0.002271
997.909351	0.001505
998.081437	0.001834
998.253505	0.001083
998.425554	0.000672
998.597586	0.000017
998.769599	0.000277
998.941594	0.001740
999.113571	0.002845
999.285529	0.002275
999.457469	-0.000222
999.629391	-0.000308
999.801295	-0.000467
999.973181	0.000209
1000.145048	0.002700
1000.316897	0.001990
1000.488728	0.001758
1000.660541	0.001491
1000.832335	0.002364
1001.004111	0.002127
1001.175869	0.002631
1001.347609	0.004564
1001.519331	0.004433
1001.691034	0.002942
1001.862719	0.003551
1002.034386	0.002549
1002.206035	0.002797
1002.377665	0.002131
1002.549277	0.001373
1002.720871	0.000493
1002.892447	-0.001350
1003.064004	-0.000502
1003.235544	-0.000115
1003.407065	0.000702
1003.578568	0.002721
1003.750052	0.002534
1003.921519	0.004092
1004.092967	0.004292
1004.264397	0.003998
1004.435809	0.004937
1004.607202	0.004287
1004.778577	0.005227
1004.949934	0.005286
1005.121273	0.004036
1005.292594	0.003533
1005.463896	0.003622
1005.635180	0.002486
1005.806446	0.002687
1005.977694	0.002401
1006.148923	0.002587
1006.320135	0.000751
1006.491328	-0.000966
1006.662503	-0.001496
1006.833659	-0.001879
1007.004798	-0.004616
1007.175918	-0.002789
1007.347020	-0.002717
1007.518103	-0.004086
1007.689169	-0.004221
1007.860216	-0.002995
1008.031245	-0.001432
1008.202256	-0.000955
1008.373248	-0.001391
1008.544223	0.001591
1008.715179	0.001445
1008.886117	0.002887
1009.057036	0.003582
1009.227938	0.002945
1009.398821	0.004292
1009.569686	0.003075
1009.740533	0.002145
1009.911361	0.003636
1010.082172	0.002594
1010.252964	0.001950
1010.423738	0.002884
1010.594493	0.003242
1010.765231	0.002169
1010.935950	0.000572
1011.106651	0.000904
1011.277334	0.000959
1011.447998	0.000316
1011.618645	-0.001563
1011.789273	-0.001831
1011.959882	-0.005033
1012.130474	-0.005050
1012.301048	-0.003546
1012.471603	-0.003694
1012.642140	-0.003256
1012.812658	-0.003276
1012.983159	-0.003916
1013.153641	-0.002567
1013.324105	-0.001748
1013.494551	-0.002073
1013.664979	-0.001957
1013.835388	-0.002444
1014.005779	-0.001298
1014.176152	-0.001950
1014.346507	-0.001439
1014.516843	0.000342
1014.687162	-0.000881
1014.857462	-0.000669
1015.027744	0.001258
1015.198007	0.001268
1015.368252	0.000917
1015.538480	-0.000139
1015.708689	0.000161
1015.878879	0.000916
1016.049052	-0.001631
1016.219206	-0.000307
1016.389342	0.001216
1016.559460	-0.001278
1016.729559	-0.000694
1016.899641	-0.000327
1017.069704	-0.000480
1017.239749	-0.000629
1017.409775	-0.002234
1017.579784	-0.002283
1017.749774	-0.002995
1017.919746	-0.004021
1018.089700	-0.002514
1018.259635	-0.003324
1018.429553	-0.003107
1018.599452	-0.003081
1018.769333	-0.002896
1018.939195	-0.002264
1019.109040	-0.002215
1019.278866	-0.003501
1019.448674	-0.003941
1019.618464	-0.003496
1019.788235	-0.002863
1019.957989	-0.001607
1020.127724	-0.001952
1020.297441	-0.001800
1020.467139	-0.000567
1020.636820	-0.000920
1020.806482	-0.000352
1020.976126	-0.001453
1021.145752	-0.001610
1021.315359	-0.003062
1021.484948	-0.003408
1021.654519	-0.003582
1021.824072	-0.003567
1021.993607	-0.004273
1022.163123	-0.002514
1022.332621	0.000439
1022.502101	-0.000234
1022.671563	0.000473
1022.841007	0.001483
1023.010432	-0.000922
1023.179839	-0.000178
1023.349228	-0.000765
1023.518598	-0.000651
1023.687951	-0.001020
1023.857285	-0.003495
1024.026601	-0.002495
1024.195899	-0.004908
1024.365178	-0.007249
1024.534439	-0.005628
1024.703682	-0.006381
1024.872907	-0.006243
1025.042114	-0.005823
1025.211302	-0.006204
1025.380472	-0.006847
1025.549624	-0.006504
1025.718758	-0.004586
1025.887873	-0.003472
1026.056970	-0.004208
1026.226049	-0.004729
1026.395110	-0.004957
1026.564153	-0.005865
1026.733177	-0.005296
1026.902183	-0.003901
1027.071171	-0.003851
1027.240141	-0.003960
1027.409092	-0.002369
1027.578026	-0.003120
1027.746940	-0.002929
1027.915837	-0.002033
1028.084716	-0.002867
1028.253576	-0.003304
1028.422418	-0.004401
1028.591242	-0.005267
1028.760048	-0.005717
1028.928835	-0.007645
1029.097604	-0.008045
1029.266355	-0.007683
1029.435088	-0.009819
1029.603803	-0.008887
1029.772499	-0.009682
1029.941177	-0.008786
1030.109837	-0.008128
1030.278478	-0.007398
1030.447102	-0.005727
1030.615707	-0.003817
1030.784294	-0.005306
1030.952863	-0.004008
1031.121413	-0.004264
1031.289945	-0.005143
1031.458460	-0.005315
1031.626955	-0.004937
1031.795433	-0.005013
1031.963892	-0.007698
1032.132334	-0.008672
1032.300756	-0.008201
1032.469161	-0.008371
1032.637548	-0.008334
1032.805916	-0.008219
1032.974266	-0.007404
1033.142598	-0.007467
1033.310911	-0.007703
1033.479207	-0.005596
1033.647484	-0.004389
1033.815743	-0.004271
1033.983983	-0.004171
1034.152206	-0.002588
1034.320410	-0.001126
1034.488596	-0.001997
1034.656764	-0.002328
1034.824914	-0.004397
1034.993045	-0.003927
1035.161158	-0.003758
1035.329253	-0.002929
1035.497330	-0.002904
1035.665388	-0.004820
1035.833428	-0.005339
1036.001450	-0.005478
1036.169454	-0.005036
1036.337440	-0.005111
1036.505407	-0.005338
1036.673356	-0.005413
1036.841287	-0.005247
1037.009200	-0.006057
1037.177094	-0.006291
1037.344970	-0.006104
1037.512828	-0.006021
1037.680668	-0.007026
1037.848489	-0.005589
1038.016293	-0.005131
1038.184078	-0.005319
1038.351845	-0.005325
1038.519593	-0.004344
1038.687324	-0.003740
1038.855036	-0.004636
1039.022730	-0.005223
1039.190406	-0.004490
1039.358063	-0.005398
1039.525702	-0.005641
1039.693323	-0.007474
1039.860926	-0.006494
1040.028511	-0.008208
1040.196077	-0.008814
1040.363625	-0.007952
1040.531155	-0.007796
1040.698667	-0.008528
1040.866161	-0.008339
1041.033636	-0.008576
1041.201093	-0.007771
1041.368532	-0.009486
1041.535952	-0.007950
1041.703355	-0.007579
1041.870739	-0.008681
1042.038105	-0.009251
1042.205452	-0.009712
1042.372782	-0.009342
1042.540093	-0.009793
1042.707386	-0.010078
1042.874661	-0.010915
1043.041918	-0.011648
1043.209156	-0.010340
1043.376376	-0.009327
1043.543578	-0.008307
1043.710762	-0.006869
1043.877927	-0.006811
1044.045074	-0.007419
1044.212203	-0.007345
1044.379314	-0.007194
1044.546407	-0.005751
1044.713481	-0.006684
1044.880537	-0.005961
1045.047575	-0.005784
1045.214595	-0.004165
1045.381596	-0.003302
1045.548579	-0.001908
1045.715544	-0.002224
1045.882491	-0.000509
1046.049420	-0.000512
1046.216330	-0.000274
1046.383222	-0.001526
1046.550096	-0.002632
1046.716951	-0.005134
1046.883789	-0.005313
1047.050608	-0.005249
1047.217409	-0.003217
1047.384192	-0.004875
1047.550956	-0.004953
1047.717703	-0.005133
1047.884431	-0.005093
1048.051140	-0.003606
1048.217832	-0.003122
1048.384505	-0.004413
1048.551161	-0.005179
1048.717798	-0.006263
1048.884416	-0.005127
1049.051017	-0.007753
1049.217599	-0.008772
1049.384163	-0.009029
1049.550709	-0.008258
1049.717237	-0.009270
1049.883746	-0.008159
1050.050237	-0.007776
1050.216710	-0.008068
1050.383165	-0.009132
1050.549601	-0.005297
1050.716019	-0.003656
1050.882420	-0.004288
1051.048801	-0.005119
1051.215165	-0.005796
1051.381510	-0.004452
1051.547837	-0.005058
1051.714146	-0.005098
1051.880437	-0.001657
1052.046709	-0.004039
1052.212964	-0.004719
1052.379200	-0.002645
1052.545417	-0.002017
1052.711617	-0.000230
1052.877798	-0.002424
1053.043961	-0.003548
1053.210106	-0.004159
1053.376233	-0.008294
1053.542341	-0.008679
1053.708432	-0.009523
1053.874504	-0.010624
1054.040557	-0.010820
1054.206593	-0.011309
1054.372610	-0.011486
1054.538609	-0.009519
1054.704590	-0.009008
1054.870553	-0.006132
1055.036497	-0.005712
1055.202424	-0.004155
1055.368331	-0.003557
1055.534221	-0.003456
1055.700093	-0.002286
1055.865946	-0.000850
1056.031781	-0.001189
1056.197598	-0.000861
1056.363397	-0.000797
1056.529177	-0.000092
1056.694939	-0.000741
1056.860683	-0.002134
1057.026409	-0.003166
1057.192116	-0.003860
1057.357806	-0.003418
1057.523477	-0.003515
1057.689130	-0.001876
1057.854764	-0.004699
1058.020381	-0.004991
1058.185979	-0.006246
1058.351559	-0.005958
1058.517120	-0.005323
1058.682664	-0.006363
1058.848189	-0.006915
1059.013696	-0.005923
1059.179185	-0.006421
1059.344656	-0.004201
1059.510108	-0.003959
1059.675542	-0.004039
1059.840958	-0.004491
1060.006356	-0.002947
1060.171735	-0.001552
1060.337096	-0.003583
1060.502439	-0.003940
1060.667764	-0.005283
1060.833071	-0.005183
1060.998359	-0.004658
1061.163629	-0.003774
1061.328881	-0.000834
1061.494115	-0.002817
1061.659330	-0.003224
1061.824527	-0.001116
1061.989706	-0.000574
1062.154867	0.001617
1062.320010	-0.001558
1062.485134	-0.001684
1062.650240	-0.001661
1062.815328	-0.004259
1062.980398	-0.003215
1063.145449	-0.003434
1063.310482	-0.001515
1063.475497	-0.002725
1063.640494	-0.006388
1063.805473	-0.005563
1063.970433	-0.006834
1064.135375	-0.007850
1064.300299	-0.006561
1064.465204	-0.007453
1064.630092	-0.005913
1064.794961	-0.007706
1064.959812	-0.006309
1065.124645	-0.003975
1065.289459	-0.003221
1065.454256	-0.003168
1065.619034	-0.003331
1065.783793	-0.003597
1065.948535	-0.003746
1066.113258	-0.004025
1066.277964	-0.006226
1066.442651	-0.007532
1066.607319	-0.008771
1066.771970	-0.008293
1066.936602	-0.007060
1067.101216	-0.006525
1067.265812	-0.006031
1067.430389	-0.005175
1067.594949	-0.006385
1067.759490	-0.005560
1067.924013	-0.003987
1068.088518	-0.002866
1068.253004	-0.001816
1068.417472	-0.004229
1068.581922	-0.002496
1068.746354	-0.004072
1068.910768	-0.005762
1069.075163	-0.004883
1069.239540	-0.004397
1069.403899	-0.005984
1069.568240	-0.005585
1069.732562	-0.004408
1069.896866	-0.001749
1070.061152	-0.001696
1070.225420	0.000809
1070.389670	0.001179
1070.553901	-0.000712
1070.718114	0.000175
1070.882309	-0.000823
1071.046486	-0.000864
1071.210644	-0.001201
1071.374784	-0.000538
1071.538906	0.000509
1071.703010	-0.000204
1071.867096	-0.000709
1072.031163	-0.000752
1072.195212	-0.001393
1072.359243	0.000641
1072.523256	0.000409
1072.687250	-0.002068
1072.851226	-0.004225
1073.015184	-0.006344
1073.179124	-0.007373
1073.343045	-0.005125
1073.506949	-0.004099
1073.670834	-0.003219
1073.834701	-0.004468
1073.998549	-0.004806
1074.162380	-0.004070
1074.326192	-0.002490
1074.489986	-0.001730
1074.653761	0.000284
1074.817519	0.000052
1074.981258	0.000895
1075.144979	-0.000876
1075.308682	-0.000320
1075.472367	-0.001521
1075.636033	0.000021
1075.799681	0.001086
1075.963311	-0.000071
1076.126923	-0.002688
1076.290516	-0.003514
1076.454092	-0.004761
1076.617649	-0.003766
1076.781187	-0.001952
1076.944708	0.000911
1077.108210	0.001553
1077.271695	-0.000278
1077.435160	0.001981
1077.598608	0.003049
1077.762038	0.004321
1077.925449	0.004736
1078.088842	0.006937
1078.252217	0.004884
1078.415573	0.001737
1078.578912	0.000761
1078.742232	0.002353
1078.905534	-0.000270
1079.068817	-0.001817
1079.232083	-0.003676
1079.395330	-0.002731
1079.558559	-0.005090
1079.721770	-0.003822
1079.884962	-0.002209
1080.048136	-0.003098
1080.211293	-0.003139
1080.374430	-0.000631
1080.537550	0.001390
1080.700651	0.002496
1080.863735	0.003146
1081.026800	0.003802
1081.189846	0.001707
1081.352875	0.001521
1081.515885	0.001963
1081.678877	0.001825
1081.841851	0.000762
1082.004807	0.000034
1082.167744	-0.001058
1082.330663	-0.001917
1082.493564	-0.002655
1082.656447	-0.000306
1082.819312	-0.003086
1082.982158	-0.003218
1083.144986	-0.006228
1083.307796	-0.005137
1083.470587	-0.003165
1083.633361	-0.004640
1083.796116	-0.005662
1083.958853	-0.006086
1084.121571	-0.005966
1084.284272	-0.004317
1084.446954	-0.005552
1084.609618	-0.004350
1084.772264	-0.005915
1084.934892	-0.007057
1085.097501	-0.004722
1085.260092	-0.003396
1085.422665	-0.004581
1085.585220	-0.006307
1085.747756	-0.005827
1085.910274	-0.002936
1086.072774	-0.003597
1086.235256	-0.003239
1086.397720	-0.003245
1086.560165	-0.002905
1086.722592	-0.004198
1086.885001	-0.002964
1087.047392	-0.002937
1087.209764	-0.001463
1087.372119	-0.003184
1087.534455	-0.004296
1087.696772	-0.004628
1087.859072	-0.004185
1088.021353	-0.005873
1088.183616	-0.005657
1088.345861	-0.006915
1088.508088	-0.004353
1088.670296	-0.004109
1088.832486	-0.004140
1088.994658	-0.001169
1089.156812	-0.002043
1089.318948	-0.001337
1089.481065	0.000000
1089.643164	-0.000647
1089.805245	0.003020
1089.967308	-0.001911
1090.129352	-0.007001
1090.291378	-0.007095
1090.453386	-0.007732
1090.615376	-0.008485
1090.777347	-0.011104
1090.939301	-0.011964
1091.101236	-0.010721
1091.263153	-0.012951
1091.425051	-0.008087
1091.586932	-0.006239
1091.748794	-0.006439
1091.910638	-0.004922
1092.072463	-0.001737
1092.234271	-0.002734
1092.396060	-0.001593
1092.557831	-0.003055
1092.719584	-0.003516
1092.881319	-0.007668
1093.043035	-0.004251
1093.204733	-0.005133
1093.366413	-0.006411
1093.528075	-0.008951
1093.689718	-0.006278
1093.851343	-0.005611
1094.012950	-0.003754
1094.174539	-0.002540
1094.336110	-0.000839
1094.497662	-0.003005
1094.659196	-0.001659
1094.820712	-0.002037
1094.982210	-0.001516
1095.143689	-0.003143
1095.305151	-0.003534
1095.466594	-0.003449
1095.628018	-0.003409
1095.789425	-0.003740
1095.950813	-0.002805
1096.112183	-0.002890
1096.273535	-0.004635
1096.434869	-0.004455
1096.596184	-0.002615
1096.757482	-0.003616
1096.918761	-0.007909
1097.080021	-0.008448
1097.241264	-0.009455
1097.402488	-0.009682
1097.563694	-0.010852
1097.724882	-0.009968
1097.886052	-0.011136
1098.047203	-0.013797
1098.208336	-0.011943
1098.369451	-0.009853
1098.530548	-0.010009
1098.691627	-0.009678
1098.852687	-0.012490
1099.013729	-0.012354
1099.174753	-0.010050
1099.335758	-0.009551
1099.496746	-0.007275
1099.657715	-0.010158
1099.818666	-0.008963
1099.979599	-0.006560
1100.140513	-0.004972
1100.301409	-0.001511
1100.462287	-0.001318
1100.623147	-0.000553
1100.783989	0.003314
1100.944812	0.002275
1101.105617	0.003465
1101.266404	0.003715
1101.427173	-0.000899
1101.587923	-0.001890
1101.748656	-0.001733
1101.909370	-0.002378
1102.070066	-0.004502
1102.230743	-0.006930
1102.391403	-0.007407
1102.552044	-0.008073
1102.712667	-0.008825
1102.873271	-0.008427
1103.033858	-0.005913
1103.194426	-0.003960
1103.354976	0.000152
1103.515508	0.000121
1103.676021	-0.000856
1103.836517	-0.000680
1103.996994	0.001918
1104.157453	0.000538
1104.317893	0.001407
1104.478316	-0.000150
1104.638720	-0.003846
1104.799106	-0.007994
1104.959474	-0.006464
1105.119823	-0.007696
1105.280155	-0.007412
1105.440468	-0.010966
1105.600763	-0.008135
1105.761039	-0.007686
1105.921298	-0.010747
1106.081538	-0.010097
1106.241760	-0.008569
1106.401964	-0.010569
1106.562149	-0.008517
1106.722316	-0.007024
1106.882465	-0.002235
1107.042596	0.000898
1107.202709	0.000300
1107.362803	0.003137
1107.522879	0.002605
1107.682937	0.006015
1107.842977	0.004717
1108.002999	0.005769
1108.163002	0.005980
1108.322987	0.001673
1108.482954	-0.001574
1108.642902	-0.000258
1108.802833	-0.000136
1108.962745	0.001181
1109.122639	-0.002687
1109.282515	0.000320
1109.442372	-0.002402
1109.602211	-0.000030
1109.762032	-0.002149
1109.921835	-0.002461
1110.081620	0.000978
1110.241386	0.001334
1110.401134	-0.000061
1110.560864	-0.003301
1110.720576	-0.004341
1110.880269	-0.003546
1111.039945	-0.008040
1111.199602	-0.007211
1111.359240	-0.006721
1111.518861	-0.009367
1111.678463	-0.012888
1111.838047	-0.011795
1111.997613	-0.008948
1112.157161	-0.006695
1112.316690	-0.005409
1112.476202	-0.005296
1112.635695	-0.004299
1112.795169	-0.006124
1112.954626	-0.004545
1113.114064	-0.002701
1113.273484	-0.001862
1113.432886	-0.001790
1113.592270	-0.006595
1113.751635	-0.007723
1113.910983	-0.009061
1114.070312	-0.008412
1114.229622	-0.008731
1114.388915	-0.010591
1114.548189	-0.011157
1114.707445	-0.012153
1114.866683	-0.011693
1115.025903	-0.008657
1115.185104	-0.009890
1115.344287	-0.008703
1115.503452	-0.006056
1115.662599	-0.004560
1115.821727	-0.004308
1115.980838	-0.003789
1116.139930	-0.001858
1116.299004	-0.002625
1116.458059	-0.003226
1116.617097	-0.000950
1116.776116	0.000631
1116.935117	-0.001240
1117.094099	-0.002258
1117.253064	-0.002047
1117.412010	0.000519
1117.570938	-0.002283
1117.729848	0.003303
1117.888740	0.001485
1118.047613	0.002700
1118.206468	0.001707
1118.365305	-0.000486
1118.524124	-0.000303
1118.682924	-0.002881
1118.841707	-0.005562
1119.000471	-0.005059
1119.159216	-0.011190
1119.317944	-0.012226
1119.476653	-0.015502
1119.635344	-0.018155
1119.794017	-0.016955
1119.952672	-0.013014
1120.111308	-0.010010
1120.269927	-0.010537
1120.428527	-0.010102
1120.587108	-0.009822
1120.745672	-0.003343
1120.904217	-0.006913
1121.062744	-0.005822
1121.221253	0.000085
1121.379744	-0.002561
1121.538216	-0.002564
1121.696671	-0.001802
1121.855107	-0.002255
1122.013524	-0.000069
1122.171924	0.000277
1122.330305	0.004992
1122.488668	0.004082
1122.647013	0.002745
1122.805340	0.004376
1122.963648	0.001118
1123.121938	0.004300
1123.280210	0.005754
1123.438464	0.006382
1123.596700	0.003195
1123.754917	0.004026
1123.913116	0.006208
1124.071297	0.006080
1124.229459	0.005676
1124.387604	0.007144
1124.545730	0.001240
1124.703838	-0.001818
1124.861928	-0.002616
1125.019999	-0.002830
1125.178052	-0.001529
1125.336088	0.000995
1125.494104	-0.001175
1125.652103	-0.007783
1125.810083	-0.007640
1125.968045	-0.001185
1126.125989	0.002239
1126.283915	0.002617
1126.441823	0.002087
1126.599712	0.001373
1126.757583	-0.000383
1126.915436	-0.002375
1127.073270	0.004630
1127.231087	0.008759
1127.388885	0.012219
1127.546665	0.007732
1127.704426	0.001219
1127.862170	-0.001340
1128.019895	-0.000125
1128.177602	0.003234
1128.335291	0.000986
1128.492961	0.000944
1128.650614	-0.002209
1128.808248	-0.005181
1128.965864	-0.002154
1129.123461	0.003614
1129.281041	0.006767
1129.438602	0.003565
1129.596145	0.001312
1129.753670	0.006921
1129.911176	0.003202
1130.068665	0.006822
1130.226135	0.000831
1130.383587	0.002121
1130.541020	0.002006
1130.698436	0.004128
1130.855833	0.000259
1131.013212	-0.003596
1131.170573	-0.004074
1131.327915	-0.000804
1131.485239	-0.003721
1131.642545	-0.001141
1131.799833	0.001304
1131.957103	0.003724
1132.114354	-0.003252
1132.271588	-0.000024
1132.428803	0.004471
1132.585999	0.001164
1132.743178	-0.002167
1132.900338	-0.002766
1133.057480	-0.000631
1133.214604	-0.001030
1133.371710	-0.002936
1133.528797	0.002645
1133.685866	0.007432
1133.842917	0.005356
1133.999950	0.006374
1134.156964	0.003318
1134.313960	0.000765
1134.470938	-0.000511
1134.627898	-0.003220
1134.784840	-0.006048
1134.941763	-0.005480
1135.098668	-0.010872
1135.255555	-0.008591
1135.412424	-0.008106
1135.569274	-0.000285
1135.726107	0.005494
1135.882921	0.004034
1136.039716	0.003214
1136.196494	0.007354
1136.353253	0.003094
1136.509995	0.004505
1136.666717	-0.000300
1136.823422	-0.003401
1136.980109	-0.006987
1137.136777	-0.011123
1137.293427	-0.008654
1137.450059	-0.004214
1137.606672	-0.004080
1137.763267	-0.007796
1137.919844	-0.005121
1138.076403	-0.003929
1138.232944	-0.003232
1138.389466	0.002591
1138.545971	0.002574
1138.702457	0.000163
1138.858924	-0.001982
1139.015374	-0.003970
1139.171805	0.001906
1139.328218	0.005275
1139.484613	0.010905
1139.640990	0.017119
1139.797348	0.014588
1139.953688	0.012215
1140.110010	0.010183
1140.266314	0.009483
1140.422600	0.011057
1140.578867	0.008523
1140.735116	-0.001922
1140.891347	-0.001096
1141.047559	-0.008969
1141.203754	-0.010063
1141.359930	-0.007222
1141.516088	-0.003379
1141.672228	-0.000659
1141.828349	-0.003537
1141.984452	0.002102
1142.140537	0.004940
1142.296604	-0.003393
1142.452653	-0.001165
1142.608683	-0.005812
1142.764695	-0.008919
1142.920689	-0.011866
1143.076665	-0.011551
1143.232622	-0.009526
1143.388562	-0.008210
1143.544483	-0.010987
1143.700385	-0.002724
1143.856270	-0.002064
1144.012136	0.000212
1144.167985	-0.000187
1144.323814	0.001432
1144.479626	-0.003808
1144.635420	-0.000856
1144.791195	-0.005432
1144.946952	0.000975
1145.102691	-0.006450
1145.258411	-0.011682
1145.414113	-0.009748
1145.569798	-0.008650
1145.725463	-0.009200
1145.881111	-0.016497
1146.036741	-0.015149
1146.192352	-0.014069
1146.347945	-0.014859
1146.503519	-0.010864
1146.659076	-0.004214
1146.814614	-0.007649
1146.970134	-0.007445
1147.125636	0.004734
1147.281120	0.015792
1147.436585	0.016821
1147.592032	0.017585
1147.747461	0.015329
1147.902872	0.012333
1148.058265	0.011249
1148.213639	0.015024
1148.368995	0.017794
1148.524333	0.007025
1148.679653	0.003353
1148.834954	0.003730
1148.990237	-0.000888
1149.145502	0.005284
1149.300749	0.011200
1149.455977	0.012689
1149.611188	0.019265
1149.766380	0.022618
1149.921553	0.018502
1150.076709	0.017532
1150.231846	0.010953
1150.386966	0.018573
1150.542066	0.014924
1150.697149	0.010080
1150.852214	0.003294
1151.007260	-0.002139
1151.162288	-0.008102
1151.317298	-0.008117
1151.472289	-0.005494
1151.627263	-0.002721
1151.782218	-0.006805
1151.937155	-0.004769
1152.092073	0.001547
1152.246974	0.008767
1152.401856	-0.001665
1152.556720	0.005361
1152.711566	0.012857
1152.866393	0.014393
1153.021203	0.015324
1153.175994	0.008321
1153.330767	0.013035
1153.485521	0.012201
1153.640258	0.015971
1153.794976	0.028261
1153.949676	0.024783
1154.104358	0.027208
1154.259021	0.025287
1154.413667	0.022240
1154.568294	0.027912
1154.722903	0.026213
1154.877493	0.020183
1155.032066	0.016964
1155.186620	0.015262
1155.341156	0.011019
1155.495674	0.007175
1155.650173	0.004497
1155.804654	0.009590
1155.959118	0.018666
1156.113562	0.006477
1156.267989	0.004456
1156.422397	0.006917
1156.576788	-0.000815
1156.731160	0.005135
1156.885513	0.013418
1157.039849	0.010436
1157.194166	0.005690
1157.348465	-0.005125
1157.502746	0.002400
1157.657009	0.006828
1157.811253	-0.003098
1157.965479	0.001088
1158.119687	-0.005127
1158.273877	-0.011892
1158.428048	-0.003802
1158.582201	-0.009153
1158.736337	-0.013701
1158.890453	-0.005725
1159.044552	-0.001619
1159.198632	0.003860
1159.352694	0.008495
1159.506738	0.020181
1159.660764	0.011000
1159.814771	0.001250
1159.968761	0.010615
1160.122732	0.023007
1160.276685	0.011376
1160.430619	0.004093
1160.584535	0.002963
1160.738434	0.001776
1160.892313	-0.010375
1161.046175	-0.005079
1161.200019	0.004622
1161.353844	-0.002876
1161.507651	-0.008915
1161.661440	-0.015787
1161.815210	-0.015535
1161.968962	-0.022185
1162.122697	-0.023106
1162.276412	-0.018066
1162.430110	-0.021112
1162.583789	-0.025807
1162.737451	-0.012162
1162.891094	-0.005363
1163.044718	0.012772
1163.198325	0.019318
1163.351913	0.030636
1163.505483	0.018496
1163.659035	0.017497
1163.812569	0.024990
1163.966084	0.029361
1164.119581	0.017156
1164.273060	0.005995
1164.426521	-0.002974
1164.579964	-0.011749
1164.733388	-0.012971
1164.886794	-0.008671
1165.040182	-0.006889
1165.193551	-0.012496
1165.346903	-0.015650
1165.500236	-0.008864
1165.653551	0.000926
1165.806848	-0.005445
1165.960126	0.003644
1166.113386	0.005129
1166.266628	0.018708
1166.419852	0.025292
1166.573058	0.020516
1166.726245	0.027437
1166.879414	0.026109
1167.032565	0.020430
1167.185698	0.019389
1167.338812	0.011861
1167.491909	0.020658
1167.644987	0.025062
1167.798046	0.020071
1167.951088	0.024599
1168.104111	0.030848
1168.257117	0.017392
1168.410103	0.008087
1168.563072	0.017068
1168.716023	0.018316
1168.868955	0.017489
1169.021869	0.016172
1169.174765	0.014096
1169.327642	0.028476
1169.480501	0.014665
1169.633343	0.015161
1169.786165	0.040558
1169.938970	0.034216
1170.091757	0.038405
1170.244525	0.037565
1170.397275	0.022501
1170.550007	0.004495
1170.702720	-0.006555
1170.855415	0.000232
1171.008092	0.004517
1171.160751	-0.010060
1171.313392	-0.005956
1171.466014	0.039527
1171.618619	-0.017466
1171.771205	-0.017466
1171.923772	-0.017466
