sample name	sample
index	555
start time	 03-15-2021  12:16:13 PM


Wavelength (nm)	Absorbance
494.344910	-0.708942
494.563924	-0.708942
494.782919	-0.708942
495.001897	0.082156
495.220856	-0.314084
495.439797	-0.051471
495.658719	0.032743
495.877624	0.292482
496.096510	0.231192
496.315378	0.203728
496.534227	0.406764
496.753059	0.104881
496.971872	0.353619
497.190667	0.043819
497.409444	0.029669
497.628203	0.033310
497.846943	0.031285
498.065665	0.031401
498.284369	0.031677
498.503055	0.030620
498.721723	0.031238
498.940372	0.030491
499.159003	0.030153
499.377616	0.030673
499.596210	0.030432
499.814787	0.031191
500.033345	0.031506
500.251885	0.030756
500.470406	0.030500
500.688910	0.030156
500.907395	0.031280
501.125862	0.032402
501.344311	0.032483
501.562742	0.031701
501.781154	0.031552
501.999548	0.031284
502.217924	0.031469
502.436282	0.032280
502.654621	0.032425
502.872942	0.031626
503.091245	0.029622
503.309530	0.030413
503.527797	0.030801
503.746045	0.030636
503.964275	0.030926
504.182487	0.031189
504.400681	0.029474
504.618856	0.030015
504.837013	0.030407
505.055152	0.031550
505.273273	0.031846
505.491376	0.031948
505.709460	0.031998
505.927526	0.031314
506.145574	0.031056
506.363604	0.032767
506.581615	0.033148
506.799608	0.033144
507.017583	0.032604
507.235540	0.032435
507.453478	0.032858
507.671399	0.033638
507.889301	0.033862
508.107185	0.034003
508.325050	0.033948
508.542898	0.033589
508.760727	0.032410
508.978538	0.032596
509.196330	0.032381
509.414105	0.031308
509.631861	0.031320
509.849599	0.032394
510.067319	0.032227
510.285021	0.032651
510.502704	0.033207
510.720369	0.034378
510.938016	0.034321
511.155645	0.033614
511.373255	0.034799
511.590848	0.034884
511.808422	0.034182
512.025977	0.035043
512.243515	0.034632
512.461034	0.034310
512.678536	0.034514
512.896018	0.035908
513.113483	0.037373
513.330930	0.037599
513.548358	0.036771
513.765768	0.037555
513.983160	0.036404
514.200533	0.036416
514.417889	0.035978
514.635226	0.035950
514.852545	0.035122
515.069845	0.034486
515.287128	0.033237
515.504392	0.033542
515.721638	0.033657
515.938866	0.034133
516.156075	0.034722
516.373267	0.035790
516.590440	0.035875
516.807594	0.035800
517.024731	0.036079
517.241850	0.036294
517.458950	0.036552
517.676032	0.036180
517.893095	0.035787
518.110141	0.035625
518.327168	0.034555
518.544177	0.034511
518.761168	0.034943
518.978141	0.034937
519.195095	0.035763
519.412031	0.035722
519.628949	0.035595
519.845849	0.036490
520.062731	0.036158
520.279594	0.036727
520.496439	0.035640
520.713266	0.035738
520.930074	0.035674
521.146865	0.035255
521.363637	0.035033
521.580391	0.034772
521.797127	0.034532
522.013844	0.034830
522.230543	0.034788
522.447224	0.035374
522.663887	0.034920
522.880532	0.035229
523.097158	0.035751
523.313766	0.035875
523.530356	0.035651
523.746928	0.035897
523.963481	0.035408
524.180017	0.035700
524.396534	0.036207
524.613032	0.036334
524.829513	0.035992
525.045975	0.035831
525.262420	0.035996
525.478845	0.036707
525.695253	0.036282
525.911643	0.036533
526.128014	0.036318
526.344367	0.036354
526.560702	0.036734
526.777018	0.036565
526.993316	0.036364
527.209597	0.036944
527.425858	0.036716
527.642102	0.037094
527.858328	0.037898
528.074535	0.038147
528.290724	0.037787
528.506894	0.037665
528.723047	0.037591
528.939181	0.038182
529.155297	0.037630
529.371395	0.037528
529.587475	0.038199
529.803536	0.037240
530.019579	0.037177
530.235604	0.037076
530.451611	0.037355
530.667600	0.038187
530.883570	0.037769
531.099522	0.037425
531.315456	0.037609
531.531372	0.037846
531.747269	0.038234
531.963148	0.037851
532.179009	0.038082
532.394852	0.038347
532.610676	0.038191
532.826482	0.038977
533.042271	0.039405
533.258040	0.039441
533.473792	0.038728
533.689525	0.038664
533.905240	0.038953
534.120937	0.039055
534.336616	0.038944
534.552277	0.038749
534.767919	0.038865
534.983543	0.039403
535.199149	0.039235
535.414736	0.039520
535.630306	0.039953
535.845857	0.040053
536.061390	0.040464
536.276904	0.040292
536.492401	0.040284
536.707879	0.039575
536.923339	0.039151
537.138781	0.039637
537.354204	0.039386
537.569610	0.039551
537.784997	0.040074
538.000366	0.039669
538.215716	0.039664
538.431049	0.039753
538.646363	0.039853
538.861659	0.040182
539.076937	0.039800
539.292196	0.039762
539.507438	0.039701
539.722661	0.039265
539.937866	0.039225
540.153052	0.039725
540.368221	0.039584
540.583371	0.039770
540.798503	0.039593
541.013617	0.040022
541.228712	0.040479
541.443789	0.040844
541.658848	0.041170
541.873889	0.041520
542.088912	0.041121
542.303916	0.041926
542.518902	0.041843
542.733870	0.041704
542.948820	0.041854
543.163752	0.041505
543.378665	0.041223
543.593560	0.041346
543.808437	0.041344
544.023295	0.041322
544.238136	0.040874
544.452958	0.040988
544.667762	0.041441
544.882548	0.040889
545.097315	0.041076
545.312064	0.040436
545.526795	0.040246
545.741508	0.040600
545.956203	0.040905
546.170879	0.041100
546.385537	0.041088
546.600177	0.041083
546.814799	0.041882
547.029402	0.041626
547.243988	0.042370
547.458555	0.042764
547.673103	0.042566
547.887634	0.042364
548.102146	0.042594
548.316640	0.043005
548.531116	0.043091
548.745574	0.042793
548.960013	0.043246
549.174435	0.043219
549.388838	0.042961
549.603222	0.043062
549.817589	0.043075
550.031937	0.042573
550.246267	0.042199
550.460579	0.041939
550.674873	0.042315
550.889148	0.042212
551.103405	0.042008
551.317644	0.041699
551.531865	0.041800
551.746068	0.041680
551.960252	0.041861
552.174418	0.041889
552.388566	0.042222
552.602696	0.042119
552.816807	0.042201
553.030900	0.042624
553.244975	0.043228
553.459032	0.043235
553.673070	0.043305
553.887091	0.043518
554.101093	0.043716
554.315077	0.043677
554.529042	0.043652
554.742990	0.043690
554.956919	0.043430
555.170830	0.043229
555.384722	0.043051
555.598597	0.043149
555.812453	0.042888
556.026291	0.042810
556.240111	0.042814
556.453913	0.042561
556.667696	0.042592
556.881461	0.042695
557.095208	0.042752
557.308937	0.042903
557.522647	0.043342
557.736339	0.043683
557.950013	0.043584
558.163669	0.043736
558.377307	0.043860
558.590926	0.043692
558.804527	0.043433
559.018110	0.043416
559.231675	0.043235
559.445221	0.042887
559.658749	0.042889
559.872259	0.043148
560.085751	0.042850
560.299225	0.043077
560.512680	0.043235
560.726117	0.043757
560.939536	0.043759
561.152937	0.044184
561.366319	0.044487
561.579683	0.044229
561.793029	0.044284
562.006357	0.044997
562.219667	0.045136
562.432958	0.045209
562.646231	0.045070
562.859486	0.045412
563.072723	0.045466
563.285941	0.045527
563.499141	0.045983
563.712323	0.046084
563.925487	0.045816
564.138632	0.045638
564.351760	0.045843
564.564869	0.045891
564.777960	0.045934
564.991032	0.045996
565.204087	0.045818
565.417123	0.045345
565.630141	0.045331
565.843140	0.045114
566.056122	0.045025
566.269085	0.045208
566.482030	0.045502
566.694957	0.045323
566.907866	0.045280
567.120756	0.045546
567.333628	0.045813
567.546482	0.045731
567.759318	0.045939
567.972135	0.046050
568.184935	0.045777
568.397716	0.045687
568.610478	0.046064
568.823223	0.045896
569.035949	0.045873
569.248657	0.046077
569.461347	0.045922
569.674019	0.046022
569.886672	0.046337
570.099308	0.046395
570.311925	0.046007
570.524523	0.045816
570.737104	0.046048
570.949666	0.045857
571.162210	0.046047
571.374736	0.046586
571.587244	0.046821
571.799733	0.046858
572.012205	0.047197
572.224658	0.047603
572.437092	0.047469
572.649509	0.047311
572.861907	0.047283
573.074287	0.047155
573.286649	0.047353
573.498993	0.046937
573.711318	0.046696
573.923625	0.046468
574.135914	0.046084
574.348185	0.046297
574.560438	0.046452
574.772672	0.046551
574.984888	0.046499
575.197086	0.045809
575.409266	0.045626
575.621427	0.045677
575.833570	0.045736
576.045695	0.045751
576.257802	0.045652
576.469890	0.045720
576.681961	0.045680
576.894013	0.045519
577.106046	0.045754
577.318062	0.046070
577.530059	0.046134
577.742039	0.046165
577.954000	0.046312
578.165942	0.046492
578.377867	0.046639
578.589773	0.047127
578.801661	0.047347
579.013531	0.047485
579.225382	0.047745
579.437216	0.048102
579.649031	0.048239
579.860828	0.048824
580.072606	0.048725
580.284367	0.048749
580.496109	0.048606
580.707833	0.048559
580.919539	0.048777
581.131227	0.048877
581.342896	0.048970
581.554547	0.049142
581.766180	0.048936
581.977795	0.049238
582.189391	0.049274
582.400969	0.049308
582.612529	0.049592
582.824071	0.049524
583.035595	0.049537
583.247100	0.049202
583.458587	0.048924
583.670056	0.048857
583.881506	0.048719
584.092939	0.048566
584.304353	0.048666
584.515749	0.048930
584.727127	0.048878
584.938486	0.048966
585.149828	0.049009
585.361151	0.049152
585.572456	0.049430
585.783742	0.049344
585.995011	0.049483
586.206261	0.049582
586.417493	0.049106
586.628706	0.049031
586.839902	0.048876
587.051079	0.049109
587.262238	0.048858
587.473379	0.048728
587.684502	0.048762
587.895606	0.048577
588.106692	0.048584
588.317760	0.048861
588.528810	0.049137
588.739841	0.049319
588.950855	0.049478
589.161850	0.050023
589.372827	0.050003
589.583785	0.049984
589.794726	0.050177
590.005648	0.049997
590.216552	0.049939
590.427437	0.049911
590.638305	0.049724
590.849154	0.049690
591.059985	0.049362
591.270798	0.049778
591.481592	0.049753
591.692369	0.049919
591.903127	0.050057
592.113867	0.050153
592.324588	0.049645
592.535292	0.049992
592.745977	0.049909
592.956644	0.049871
593.167293	0.049575
593.377923	0.049484
593.588536	0.049367
593.799130	0.049425
594.009706	0.049677
594.220263	0.050297
594.430803	0.049715
594.641324	0.049849
594.851827	0.049941
595.062312	0.049750
595.272778	0.050095
595.483227	0.050224
595.693657	0.050234
595.904069	0.049748
596.114462	0.049509
596.324838	0.049742
596.535195	0.049449
596.745534	0.049842
596.955855	0.050233
597.166157	0.050213
597.376441	0.050083
597.586707	0.049968
597.796955	0.050436
598.007185	0.050562
598.217396	0.050655
598.427589	0.051043
598.637764	0.051050
598.847921	0.051284
599.058060	0.051264
599.268180	0.051317
599.478282	0.051383
599.688366	0.051132
599.898431	0.051290
600.108479	0.051474
600.318508	0.051409
600.528519	0.051072
600.738511	0.050754
600.948486	0.050602
601.158442	0.050560
601.368380	0.050569
601.578300	0.050637
601.788202	0.050496
601.998085	0.050296
602.207950	0.050139
602.417797	0.050405
602.627626	0.050519
602.837436	0.050597
603.047228	0.050897
603.257002	0.051172
603.466758	0.051207
603.676496	0.051280
603.886215	0.051471
604.095916	0.051410
604.305599	0.051069
604.515264	0.050899
604.724910	0.051216
604.934538	0.051332
605.144148	0.051078
605.353740	0.051029
605.563314	0.051049
605.772869	0.051188
605.982406	0.051472
606.191925	0.051840
606.401425	0.052208
606.610908	0.052252
606.820372	0.051980
607.029818	0.052418
607.239246	0.052543
607.448655	0.052904
607.658047	0.052801
607.867420	0.052689
608.076775	0.052642
608.286111	0.052614
608.495430	0.052332
608.704730	0.052600
608.914012	0.052303
609.123275	0.052319
609.332521	0.052415
609.541748	0.052633
609.750957	0.052776
609.960148	0.052955
610.169321	0.052863
610.378475	0.053133
610.587611	0.053068
610.796729	0.053144
611.005829	0.053219
611.214910	0.052888
611.423974	0.052682
611.633019	0.052843
611.842045	0.052884
612.051054	0.052893
612.260044	0.052758
612.469017	0.052637
612.677970	0.052564
612.886906	0.052635
613.095824	0.052630
613.304723	0.052769
613.513604	0.052642
613.722467	0.052556
613.931311	0.052660
614.140138	0.052880
614.348946	0.052944
614.557736	0.053160
614.766507	0.053288
614.975261	0.053566
615.183996	0.053645
615.392713	0.053518
615.601412	0.053437
615.810092	0.053409
616.018754	0.053477
616.227399	0.053507
616.436024	0.053705
616.644632	0.053584
616.853222	0.053498
617.061793	0.053508
617.270346	0.053742
617.478880	0.053984
617.687397	0.054117
617.895895	0.054126
618.104375	0.054069
618.312837	0.053949
618.521281	0.053715
618.729706	0.053722
618.938113	0.053767
619.146502	0.053625
619.354873	0.053573
619.563226	0.053676
619.771560	0.053576
619.979876	0.053696
620.188174	0.053611
620.396453	0.053785
620.604715	0.053905
620.812958	0.053823
621.021183	0.053787
621.229390	0.053854
621.437578	0.053548
621.645748	0.053782
621.853900	0.053894
622.062034	0.054099
622.270150	0.054369
622.478247	0.054291
622.686326	0.054175
622.894387	0.054206
623.102430	0.054339
623.310454	0.054348
623.518461	0.054233
623.726449	0.054375
623.934418	0.054378
624.142370	0.054540
624.350303	0.054539
624.558218	0.054836
624.766115	0.055077
624.973994	0.055214
625.181855	0.055444
625.389697	0.055571
625.597521	0.055548
625.805327	0.055442
626.013114	0.055279
626.220883	0.055412
626.428634	0.055335
626.636367	0.055340
626.844082	0.055035
627.051778	0.055126
627.259457	0.054989
627.467117	0.055015
627.674758	0.055073
627.882382	0.055330
628.089987	0.055356
628.297574	0.055314
628.505143	0.055307
628.712694	0.055420
628.920226	0.055162
629.127740	0.055252
629.335236	0.055403
629.542714	0.055511
629.750174	0.055111
629.957615	0.055018
630.165038	0.055249
630.372443	0.055347
630.579829	0.055348
630.787198	0.055593
630.994548	0.055843
631.201880	0.055743
631.409194	0.055669
631.616489	0.055596
631.823766	0.055571
632.031025	0.055394
632.238266	0.055302
632.445489	0.055365
632.652693	0.055475
632.859879	0.055163
633.067047	0.055026
633.274197	0.055201
633.481329	0.055646
633.688442	0.055956
633.895537	0.056135
634.102614	0.056279
634.309672	0.056192
634.516713	0.056208
634.723735	0.056330
634.930739	0.056643
635.137724	0.056647
635.344692	0.056547
635.551641	0.056550
635.758572	0.056616
635.965485	0.056705
636.172379	0.057006
636.379256	0.056813
636.586114	0.056877
636.792954	0.056672
636.999775	0.056644
637.206579	0.056647
637.413364	0.056390
637.620131	0.056447
637.826880	0.056538
638.033610	0.056423
638.240323	0.056753
638.447017	0.056823
638.653692	0.057040
638.860350	0.057103
639.066990	0.057276
639.273611	0.057673
639.480214	0.057566
639.686798	0.057564
639.893365	0.057485
640.099913	0.057542
640.306443	0.057683
640.512955	0.057680
640.719449	0.057782
640.925924	0.057691
641.132381	0.057691
641.338820	0.057885
641.545241	0.057946
641.751644	0.058058
641.958028	0.057952
642.164394	0.058172
642.370742	0.058242
642.577071	0.058262
642.783383	0.058276
642.989676	0.058265
643.195951	0.058235
643.402207	0.058199
643.608446	0.058161
643.814666	0.058460
644.020868	0.058189
644.227052	0.058219
644.433218	0.058214
644.639365	0.058173
644.845494	0.058059
645.051605	0.058011
645.257698	0.058051
645.463772	0.058232
645.669828	0.058115
645.875866	0.058186
646.081886	0.058209
646.287888	0.058330
646.493871	0.058551
646.699836	0.058842
646.905783	0.058866
647.111712	0.058804
647.317622	0.058883
647.523514	0.058800
647.729388	0.058887
647.935244	0.059045
648.141082	0.059126
648.346901	0.059058
648.552702	0.058985
648.758485	0.059193
648.964250	0.059390
649.169996	0.059408
649.375724	0.059470
649.581434	0.059514
649.787126	0.059424
649.992800	0.059325
650.198455	0.059305
650.404092	0.059541
650.609711	0.059436
650.815311	0.059523
651.020894	0.059701
651.226458	0.059627
651.432004	0.059674
651.637532	0.059737
651.843041	0.059807
652.048532	0.059998
652.254006	0.059720
652.459460	0.059790
652.664897	0.059763
652.870315	0.059522
653.075716	0.059658
653.281097	0.059676
653.486461	0.059799
653.691807	0.059781
653.897134	0.059900
654.102443	0.059951
654.307734	0.060066
654.513006	0.060223
654.718261	0.060434
654.923497	0.060423
655.128715	0.060423
655.333915	0.060306
655.539096	0.060574
655.744259	0.060652
655.949404	0.060773
656.154531	0.060885
656.359640	0.060685
656.564730	0.060809
656.769802	0.061076
656.974856	0.061216
657.179892	0.061412
657.384909	0.061461
657.589908	0.061623
657.794889	0.061677
657.999852	0.061665
658.204797	0.061845
658.409723	0.061765
658.614631	0.061903
658.819521	0.061828
659.024393	0.061704
659.229246	0.061767
659.434081	0.061573
659.638898	0.061873
659.843697	0.061877
660.048478	0.061847
660.253240	0.061816
660.457984	0.061594
660.662710	0.061674
660.867417	0.061862
661.072107	0.061880
661.276778	0.061911
661.481431	0.061811
661.686066	0.061970
661.890682	0.061948
662.095281	0.062099
662.299861	0.062397
662.504422	0.062382
662.708966	0.062382
662.913491	0.062587
663.117999	0.062909
663.322488	0.062940
663.526958	0.063002
663.731411	0.063262
663.935845	0.063269
664.140261	0.063308
664.344659	0.063430
664.549038	0.063631
664.753400	0.063457
664.957743	0.063122
665.162068	0.063178
665.366375	0.063009
665.570663	0.062999
665.774933	0.063231
665.979185	0.063028
666.183419	0.063081
666.387635	0.063166
666.591832	0.063187
666.796011	0.063369
667.000172	0.063448
667.204315	0.063633
667.408439	0.063643
667.612545	0.063523
667.816634	0.063620
668.020703	0.063562
668.224755	0.063471
668.428788	0.063302
668.632803	0.063484
668.836800	0.063489
669.040779	0.063624
669.244739	0.063591
669.448681	0.063586
669.652605	0.063573
669.856511	0.063585
670.060399	0.063577
670.264268	0.063771
670.468119	0.063722
670.671952	0.063685
670.875767	0.063534
671.079563	0.063525
671.283341	0.063577
671.487101	0.063866
671.690843	0.064091
671.894567	0.064006
672.098272	0.064069
672.301959	0.064183
672.505628	0.064316
672.709278	0.064478
672.912911	0.064686
673.116525	0.064628
673.320121	0.064519
673.523699	0.064562
673.727258	0.064873
673.930799	0.064901
674.134322	0.065025
674.337827	0.065098
674.541314	0.065221
674.744782	0.065206
674.948232	0.065355
675.151664	0.065577
675.355078	0.065505
675.558474	0.065486
675.761851	0.065279
675.965210	0.065095
676.168551	0.064988
676.371873	0.064903
676.575178	0.064912
676.778464	0.064955
676.981732	0.064951
677.184981	0.065290
677.388213	0.065356
677.591426	0.065630
677.794621	0.065740
677.997798	0.065806
678.200956	0.065825
678.404097	0.065957
678.607219	0.066059
678.810323	0.065998
679.013408	0.065880
679.216476	0.065901
679.419525	0.066049
679.622556	0.066057
679.825569	0.066132
680.028563	0.066370
680.231540	0.066198
680.434498	0.066356
680.637438	0.066323
680.840359	0.066362
681.043263	0.066428
681.246148	0.066381
681.449015	0.066456
681.651864	0.066512
681.854694	0.066502
682.057506	0.066839
682.260301	0.066837
682.463076	0.066906
682.665834	0.066851
682.868573	0.066683
683.071295	0.066684
683.273998	0.066620
683.476682	0.066574
683.679349	0.066553
683.881997	0.066600
684.084627	0.066585
684.287239	0.066616
684.489833	0.066687
684.692408	0.066867
684.894965	0.066930
685.097504	0.067030
685.300025	0.067104
685.502527	0.067138
685.705012	0.067058
685.907478	0.067069
686.109925	0.067110
686.312355	0.067146
686.514766	0.067238
686.717159	0.067382
686.919534	0.067409
687.121891	0.067706
687.324230	0.067633
687.526550	0.067536
687.728852	0.067555
687.931136	0.067414
688.133401	0.067343
688.335649	0.067381
688.537878	0.067325
688.740089	0.067327
688.942281	0.067230
689.144456	0.067185
689.346612	0.067335
689.548750	0.067259
689.750870	0.067538
689.952971	0.067610
690.155055	0.067464
690.357120	0.067448
690.559167	0.067570
690.761195	0.067523
690.963206	0.067835
691.165198	0.068094
691.367172	0.068265
691.569128	0.068105
691.771065	0.068224
691.972984	0.068458
692.174885	0.068680
692.376768	0.068753
692.578633	0.068705
692.780479	0.068537
692.982308	0.068556
693.184118	0.068766
693.385909	0.069005
693.587683	0.069167
693.789438	0.069009
693.991175	0.069055
694.192894	0.069146
694.394595	0.069387
694.596277	0.069542
694.797941	0.069394
694.999587	0.069339
695.201215	0.069351
695.402824	0.069165
695.604416	0.069165
695.805989	0.068998
696.007543	0.068719
696.209080	0.068700
696.410598	0.068805
696.612099	0.068827
696.813580	0.068791
697.015044	0.068851
697.216490	0.068950
697.417917	0.069104
697.619326	0.069166
697.820717	0.069199
698.022089	0.069099
698.223444	0.068752
698.424780	0.068764
698.626098	0.068818
698.827397	0.068792
699.028679	0.068778
699.229942	0.068746
699.431187	0.068830
699.632414	0.068956
699.833622	0.069121
700.034813	0.069452
700.235985	0.069386
700.437139	0.069264
700.638274	0.069469
700.839392	0.069441
701.040491	0.069506
701.241572	0.069555
701.442635	0.069526
701.643679	0.069347
701.844706	0.069219
702.045714	0.069296
702.246704	0.069578
702.447675	0.069335
702.648629	0.069434
702.849564	0.069586
703.050481	0.069577
703.251380	0.069628
703.452260	0.069734
703.653122	0.069873
703.853966	0.069829
704.054792	0.069595
704.255600	0.069596
704.456389	0.069699
704.657160	0.069501
704.857913	0.069416
705.058648	0.069491
705.259365	0.069479
705.460063	0.069452
705.660743	0.069548
705.861405	0.069641
706.062048	0.069596
706.262674	0.069512
706.463281	0.069688
706.663870	0.069703
706.864441	0.069661
707.064993	0.069533
707.265527	0.069418
707.466043	0.069333
707.666541	0.069289
707.867021	0.069379
708.067482	0.069381
708.267925	0.069180
708.468350	0.069274
708.668757	0.069578
708.869145	0.069794
709.069516	0.069937
709.269868	0.069983
709.470201	0.069851
709.670517	0.069847
709.870814	0.069857
710.071093	0.069899
710.271354	0.069825
710.471597	0.069544
710.671821	0.069373
710.872028	0.069176
711.072216	0.069064
711.272385	0.069129
711.472537	0.068969
711.672670	0.068867
711.872785	0.068983
712.072882	0.069002
712.272961	0.069012
712.473021	0.069002
712.673063	0.068991
712.873087	0.069144
713.073093	0.069168
713.273081	0.069326
713.473050	0.069384
713.673001	0.069248
713.872934	0.069249
714.072849	0.069143
714.272745	0.069154
714.472623	0.069378
714.672483	0.069196
714.872325	0.069221
715.072148	0.069200
715.271954	0.069100
715.471741	0.069026
715.671509	0.068843
715.871260	0.068939
716.070992	0.069055
716.270707	0.068847
716.470403	0.068877
716.670080	0.068585
716.869740	0.068435
717.069381	0.068551
717.269004	0.068539
717.468609	0.068615
717.668195	0.068636
717.867764	0.068595
718.067314	0.068581
718.266846	0.068648
718.466360	0.068920
718.665855	0.069044
718.865332	0.069001
719.064791	0.069019
719.264232	0.069020
719.463655	0.068735
719.663059	0.068754
719.862445	0.068823
720.061813	0.068931
720.261163	0.068877
720.460494	0.068817
720.659807	0.068687
720.859102	0.068775
721.058379	0.068731
721.257638	0.068907
721.456878	0.068723
721.656100	0.068584
721.855304	0.068516
722.054490	0.068512
722.253657	0.068544
722.452806	0.068570
722.651937	0.068503
722.851050	0.068460
723.050145	0.068507
723.249221	0.068589
723.448279	0.068836
723.647319	0.068698
723.846340	0.068660
724.045344	0.068653
724.244329	0.068530
724.443296	0.068454
724.642245	0.068457
724.841175	0.068364
725.040088	0.068293
725.238982	0.068044
725.437857	0.067980
725.636715	0.067809
725.835554	0.067560
726.034376	0.067678
726.233179	0.067639
726.431963	0.067474
726.630730	0.067404
726.829478	0.067097
727.028208	0.067033
727.226920	0.067010
727.425614	0.066998
727.624289	0.067101
727.822946	0.067105
728.021585	0.066959
728.220206	0.066969
728.418808	0.066913
728.617392	0.067025
728.815958	0.066953
729.014506	0.066964
729.213036	0.066900
729.411547	0.066631
729.610040	0.066353
729.808515	0.066328
730.006972	0.066285
730.205410	0.066085
730.403831	0.066117
730.602233	0.066117
730.800616	0.065978
730.998982	0.065972
731.197329	0.066102
731.395658	0.066017
731.593969	0.066050
731.792262	0.065988
731.990536	0.066111
732.188793	0.065957
732.387031	0.065816
732.585250	0.065860
732.783452	0.065711
732.981635	0.065675
733.179800	0.065680
733.377947	0.065553
733.576076	0.065689
733.774186	0.065718
733.972278	0.065793
734.170352	0.065994
734.368408	0.065943
734.566446	0.066148
734.764465	0.066056
734.962466	0.066053
735.160449	0.066009
735.358413	0.065621
735.556360	0.065472
735.754288	0.065389
735.952198	0.065079
736.150090	0.064980
736.347963	0.064821
736.545818	0.064931
736.743655	0.064833
736.941474	0.064843
737.139275	0.064979
737.337057	0.064903
737.534821	0.064815
737.732567	0.064916
737.930295	0.064889
738.128005	0.064754
738.325696	0.064569
738.523369	0.064602
738.721024	0.064580
738.918660	0.064606
739.116279	0.064477
739.313879	0.064613
739.511461	0.064444
739.709024	0.064282
739.906570	0.064216
740.104097	0.064260
740.301606	0.064216
740.499097	0.064026
740.696569	0.063996
740.894024	0.064085
741.091460	0.063902
741.288878	0.064015
741.486277	0.063980
741.683659	0.064006
741.881022	0.063783
742.078367	0.063546
742.275694	0.063516
742.473002	0.063475
742.670293	0.063291
742.867565	0.063247
743.064819	0.062988
743.262054	0.062991
743.459272	0.062997
743.656471	0.062967
743.853652	0.063200
744.050815	0.063401
744.247959	0.062916
744.445085	0.062975
744.642194	0.062941
744.839283	0.063075
745.036355	0.063068
745.233408	0.063055
745.430444	0.063237
745.627461	0.063137
745.824459	0.062930
746.021440	0.063304
746.218402	0.063311
746.415346	0.063244
746.612272	0.063186
746.809180	0.063099
747.006069	0.062979
747.202940	0.062951
747.399793	0.063133
747.596628	0.063126
747.793444	0.063086
747.990243	0.062973
748.187023	0.062891
748.383784	0.062758
748.580528	0.062725
748.777253	0.062741
748.973960	0.062605
749.170649	0.062404
749.367320	0.062281
749.563973	0.062275
749.760607	0.062410
749.957223	0.062455
750.153821	0.062522
750.350400	0.062737
750.546962	0.062672
750.743505	0.062620
750.940030	0.062740
751.136536	0.062734
751.333025	0.062700
751.529495	0.062605
751.725947	0.062561
751.922381	0.062536
752.118796	0.062095
752.315194	0.062089
752.511573	0.062126
752.707934	0.061895
752.904276	0.061887
753.100601	0.061750
753.296907	0.061842
753.493195	0.061797
753.689465	0.061697
753.885716	0.061936
754.081949	0.062040
754.278164	0.061998
754.474361	0.061911
754.670540	0.061919
754.866700	0.062018
755.062843	0.061666
755.258967	0.061852
755.455072	0.061962
755.651160	0.061834
755.847229	0.061827
756.043280	0.061962
756.239313	0.062155
756.435328	0.062372
756.631324	0.062342
756.827302	0.062496
757.023262	0.062157
757.219204	0.062009
757.415127	0.062060
757.611033	0.061980
757.806920	0.061814
758.002788	0.061595
758.198639	0.061430
758.394471	0.061350
758.590286	0.061489
758.786081	0.061579
758.981859	0.061808
759.177619	0.061767
759.373360	0.061921
759.569083	0.061972
759.764788	0.061965
759.960474	0.061928
760.156143	0.061990
760.351793	0.061780
760.547425	0.061815
760.743038	0.061718
760.938634	0.061960
761.134211	0.061813
761.329770	0.061749
761.525311	0.061740
761.720833	0.061694
761.916338	0.061588
762.111824	0.061604
762.307292	0.061404
762.502741	0.061413
762.698173	0.061170
762.893586	0.060941
763.088981	0.060942
763.284358	0.060971
763.479716	0.061007
763.675057	0.061183
763.870379	0.061193
764.065683	0.061516
764.260968	0.061470
764.456236	0.061558
764.651485	0.061671
764.846716	0.061618
765.041929	0.061686
765.237123	0.061551
765.432299	0.061555
765.627457	0.061584
765.822597	0.061525
766.017719	0.061365
766.212822	0.061353
766.407907	0.061617
766.602974	0.061562
766.798023	0.061498
766.993054	0.061772
767.188066	0.061430
767.383060	0.061267
767.578036	0.061335
767.772993	0.061467
767.967933	0.061303
768.162854	0.061026
768.357757	0.060995
768.552642	0.060809
768.747508	0.060591
768.942356	0.060788
769.137186	0.060929
769.331998	0.060725
769.526792	0.060645
769.721567	0.060650
769.916324	0.060578
770.111063	0.060754
770.305784	0.060901
770.500486	0.060679
770.695171	0.060690
770.889837	0.060702
771.084484	0.060748
771.279114	0.060852
771.473725	0.060918
771.668318	0.060919
771.862893	0.060678
772.057450	0.060798
772.251988	0.061023
772.446509	0.061213
772.641011	0.061088
772.835494	0.061203
773.029960	0.061050
773.224407	0.061127
773.418836	0.061386
773.613247	0.061452
773.807640	0.061323
774.002014	0.061372
774.196370	0.061192
774.390708	0.061295
774.585028	0.061197
774.779330	0.061278
774.973613	0.061316
775.167878	0.061154
775.362125	0.061265
775.556354	0.061630
775.750564	0.061593
775.944756	0.061449
776.138930	0.061467
776.333086	0.061367
776.527223	0.061391
776.721343	0.061360
776.915444	0.061364
777.109526	0.061394
777.303591	0.061025
777.497637	0.061049
777.691666	0.061190
777.885676	0.061216
778.079667	0.061396
778.273641	0.061333
778.467596	0.061224
778.661533	0.061294
778.855452	0.061139
779.049352	0.061217
779.243235	0.061304
779.437099	0.061266
779.630945	0.061198
779.824773	0.061130
780.018582	0.061218
780.212373	0.061420
780.406146	0.061515
780.599901	0.061985
780.793638	0.062203
780.987356	0.062093
781.181056	0.062247
781.374738	0.062222
781.568402	0.062358
781.762047	0.062370
781.955674	0.062275
782.149283	0.062220
782.342874	0.062042
782.536447	0.061824
782.730001	0.061988
782.923537	0.062026
783.117055	0.062227
783.310555	0.062295
783.504036	0.062507
783.697499	0.062584
783.890944	0.062404
784.084371	0.062287
784.277780	0.062456
784.471170	0.062231
784.664542	0.062138
784.857896	0.062224
785.051231	0.062091
785.244549	0.062116
785.437848	0.062324
785.631129	0.062576
785.824392	0.062450
786.017636	0.062451
786.210863	0.062765
786.404071	0.062833
786.597260	0.062731
786.790432	0.062700
786.983585	0.062689
787.176721	0.062454
787.369838	0.062360
787.562936	0.062546
787.756017	0.062428
787.949079	0.062372
788.142123	0.062298
788.335149	0.062495
788.528156	0.062839
788.721146	0.062721
788.914117	0.063035
789.107070	0.063174
789.300005	0.063206
789.492921	0.063332
789.685819	0.063427
789.878699	0.063713
790.071561	0.063854
790.264405	0.063827
790.457230	0.063814
790.650037	0.063750
790.842826	0.063734
791.035597	0.063749
791.228349	0.063920
791.421084	0.064086
791.613800	0.063857
791.806497	0.063712
791.999177	0.063598
792.191838	0.063589
792.384481	0.063543
792.577106	0.063612
792.769713	0.063842
792.962301	0.063802
793.154871	0.063488
793.347423	0.063724
793.539957	0.063713
793.732473	0.063720
793.924970	0.063913
794.117449	0.063897
794.309910	0.064005
794.502353	0.063986
794.694777	0.064158
794.887183	0.064590
795.079571	0.064489
795.271941	0.064504
795.464293	0.064745
795.656626	0.064592
795.848941	0.064715
796.041238	0.064791
796.233516	0.064636
796.425777	0.064452
796.618019	0.064141
796.810243	0.064315
797.002449	0.064282
797.194636	0.064168
797.386805	0.064384
797.578956	0.064597
797.771089	0.064594
797.963204	0.064845
798.155300	0.064851
798.347378	0.065097
798.539438	0.065033
798.731480	0.065135
798.923503	0.065253
799.115509	0.065386
799.307496	0.065088
799.499465	0.065197
799.691415	0.065178
799.883348	0.065351
800.075262	0.065447
800.267158	0.065692
800.459035	0.065740
800.650895	0.065809
800.842736	0.065834
801.034559	0.066022
801.226364	0.066018
801.418150	0.066340
801.609919	0.066358
801.801669	0.066477
801.993401	0.066326
802.185114	0.066382
802.376810	0.066426
802.568487	0.066506
802.760146	0.066533
802.951787	0.066591
803.143409	0.066484
803.335014	0.066529
803.526600	0.066371
803.718168	0.066498
803.909717	0.066838
804.101249	0.067015
804.292762	0.066891
804.484257	0.067029
804.675734	0.067070
804.867192	0.066852
805.058632	0.067240
805.250054	0.067308
805.441458	0.067606
805.632844	0.067358
805.824211	0.067276
806.015561	0.067556
806.206891	0.067456
806.398204	0.067421
806.589499	0.067568
806.780775	0.067359
806.972033	0.067383
807.163273	0.067288
807.354495	0.067602
807.545698	0.067482
807.736883	0.067551
807.928050	0.067805
808.119199	0.067958
808.310329	0.068115
808.501441	0.068238
808.692535	0.068462
808.883611	0.068536
809.074669	0.068395
809.265708	0.068533
809.456729	0.068658
809.647732	0.068664
809.838717	0.068855
810.029683	0.068898
810.220632	0.068875
810.411562	0.068737
810.602474	0.068751
810.793367	0.068880
810.984242	0.069015
811.175100	0.069028
811.365938	0.069169
811.556759	0.069089
811.747562	0.069303
811.938346	0.069410
812.129112	0.069604
812.319860	0.069627
812.510589	0.069541
812.701300	0.069557
812.891994	0.069427
813.082668	0.069529
813.273325	0.069530
813.463964	0.069466
813.654584	0.069298
813.845186	0.069354
814.035769	0.069342
814.226335	0.069410
814.416882	0.069538
814.607411	0.069832
814.797922	0.069739
814.988415	0.069730
815.178889	0.069880
815.369345	0.069956
815.559783	0.070206
815.750203	0.070488
815.940605	0.070808
816.130988	0.071024
816.321353	0.070961
816.511700	0.071082
816.702028	0.071258
816.892339	0.071185
817.082631	0.071634
817.272905	0.071457
817.463161	0.071468
817.653398	0.071501
817.843617	0.071478
818.033819	0.071450
818.224001	0.071496
818.414166	0.071505
818.604312	0.071693
818.794440	0.071713
818.984550	0.071876
819.174642	0.071783
819.364716	0.071753
819.554771	0.071795
819.744808	0.071894
819.934827	0.071884
820.124827	0.071999
820.314810	0.071760
820.504774	0.071622
820.694720	0.071713
820.884647	0.071807
821.074557	0.071898
821.264448	0.071985
821.454321	0.071959
821.644176	0.072006
821.834012	0.072151
822.023831	0.072541
822.213631	0.072492
822.403413	0.072486
822.593176	0.072747
822.782922	0.072707
822.972649	0.072754
823.162358	0.072971
823.352049	0.073215
823.541721	0.073214
823.731376	0.073288
823.921012	0.073385
824.110629	0.073391
824.300229	0.073369
824.489811	0.073363
824.679374	0.073388
824.868919	0.073311
825.058445	0.073357
825.247954	0.073454
825.437444	0.073456
825.626916	0.073547
825.816370	0.073580
826.005806	0.073417
826.195223	0.073532
826.384622	0.073660
826.574003	0.073904
826.763366	0.073918
826.952711	0.074046
827.142037	0.074106
827.331345	0.074358
827.520635	0.074613
827.709906	0.074798
827.899160	0.075063
828.088395	0.075203
828.277612	0.075214
828.466810	0.075118
828.655991	0.075030
828.845153	0.074996
829.034297	0.075119
829.223423	0.075167
829.412531	0.075365
829.601620	0.075295
829.790691	0.075227
829.979744	0.075449
830.168779	0.075525
830.357795	0.075689
830.546793	0.075998
830.735773	0.076036
830.924735	0.076187
831.113679	0.076180
831.302604	0.076483
831.491511	0.076650
831.680400	0.076542
831.869271	0.076768
832.058123	0.077081
832.246957	0.077153
832.435773	0.077138
832.624571	0.076859
832.813351	0.076943
833.002112	0.076802
833.190855	0.076989
833.379580	0.077229
833.568287	0.077404
833.756975	0.077368
833.945645	0.077304
834.134297	0.077418
834.322931	0.077663
834.511547	0.077869
834.700144	0.077740
834.888723	0.077718
835.077284	0.077714
835.265826	0.077693
835.454351	0.077587
835.642857	0.077739
835.831345	0.077660
836.019815	0.077718
836.208266	0.077596
836.396699	0.077768
836.585114	0.077766
836.773511	0.077887
836.961890	0.078075
837.150250	0.078177
837.338592	0.078280
837.526916	0.078500
837.715222	0.078896
837.903510	0.079071
838.091779	0.079232
838.280030	0.079112
838.468263	0.079230
838.656477	0.079122
838.844674	0.079323
839.032852	0.079276
839.221012	0.079215
839.409153	0.079138
839.597277	0.079204
839.785382	0.079414
839.973469	0.079585
840.161538	0.079702
840.349589	0.079791
840.537621	0.079819
840.725635	0.079822
840.913631	0.080156
841.101609	0.080275
841.289568	0.080469
841.477509	0.080637
841.665432	0.080776
841.853337	0.080671
842.041224	0.080866
842.229092	0.080837
842.416942	0.081148
842.604774	0.081249
842.792588	0.081273
842.980383	0.081235
843.168160	0.081456
843.355919	0.081855
843.543660	0.081857
843.731382	0.082091
843.919087	0.082372
844.106773	0.082480
844.294441	0.082637
844.482090	0.083007
844.669722	0.083311
844.857335	0.083266
845.044930	0.083295
845.232507	0.083996
845.420065	0.084223
845.607605	0.084137
845.795127	0.084118
845.982631	0.084247
846.170117	0.083978
846.357584	0.084078
846.545033	0.084201
846.732464	0.084119
846.919877	0.083871
847.107272	0.083527
847.294648	0.083917
847.482006	0.083966
847.669346	0.083823
847.856667	0.084119
848.043971	0.083922
848.231256	0.083792
848.418523	0.083987
848.605771	0.084011
848.793002	0.084274
848.980214	0.084281
849.167408	0.084632
849.354584	0.084920
849.541742	0.085024
849.728881	0.085423
849.916002	0.085790
850.103105	0.086028
850.290190	0.086078
850.477256	0.086131
850.664304	0.086394
850.851334	0.086436
851.038346	0.086512
851.225340	0.086401
851.412315	0.086434
851.599272	0.086573
851.786211	0.086362
851.973132	0.086618
852.160034	0.087137
852.346918	0.086891
852.533784	0.086782
852.720632	0.086853
852.907462	0.087016
853.094273	0.087193
853.281066	0.086917
853.467841	0.087075
853.654598	0.087010
853.841336	0.086504
854.028056	0.086547
854.214758	0.086883
854.401442	0.087069
854.588107	0.087314
854.774755	0.087160
854.961384	0.087410
855.147995	0.087643
855.334587	0.087859
855.521162	0.088258
855.707718	0.088609
855.894256	0.088405
856.080775	0.088473
856.267277	0.088418
856.453760	0.088609
856.640225	0.088604
856.826672	0.088880
857.013101	0.088840
857.199511	0.088872
857.385903	0.088758
857.572277	0.089071
857.758633	0.089091
857.944970	0.089350
858.131290	0.089435
858.317591	0.089509
858.503873	0.089190
858.690138	0.089304
858.876384	0.089449
859.062612	0.089646
859.248822	0.089413
859.435014	0.089602
859.621188	0.089626
859.807343	0.089750
859.993480	0.090303
860.179599	0.090630
860.365699	0.090684
860.551781	0.090714
860.737846	0.090822
860.923891	0.091058
861.109919	0.091145
861.295929	0.091309
861.481920	0.091511
861.667893	0.091439
861.853848	0.091522
862.039784	0.091762
862.225702	0.091801
862.411603	0.091942
862.597484	0.092012
862.783348	0.092077
862.969193	0.092172
863.155021	0.092204
863.340830	0.092127
863.526620	0.092268
863.712393	0.092284
863.898147	0.092252
864.083883	0.092468
864.269601	0.092697
864.455301	0.092573
864.640982	0.092400
864.826645	0.092319
865.012290	0.092402
865.197917	0.092428
865.383526	0.092516
865.569116	0.092957
865.754688	0.093091
865.940242	0.093230
866.125777	0.093591
866.311295	0.093710
866.496794	0.093789
866.682275	0.093707
866.867737	0.093418
867.053182	0.093713
867.238608	0.093517
867.424016	0.093351
867.609406	0.093179
867.794778	0.092789
867.980131	0.092981
868.165466	0.093119
868.350783	0.093399
868.536082	0.093708
868.721362	0.093466
868.906625	0.093685
869.091869	0.093535
869.277094	0.093700
869.462302	0.094223
869.647491	0.094185
869.832662	0.094436
870.017815	0.094979
870.202950	0.095533
870.388066	0.095800
870.573165	0.095938
870.758245	0.096403
870.943306	0.096809
871.128350	0.096778
871.313375	0.096922
871.498382	0.096749
871.683371	0.096377
871.868342	0.096020
872.053294	0.095961
872.238229	0.095882
872.423144	0.095565
872.608042	0.095838
872.792922	0.095916
872.977783	0.096175
873.162626	0.096282
873.347451	0.096383
873.532258	0.096497
873.717046	0.096572
873.901816	0.096592
874.086568	0.096998
874.271302	0.096711
874.456017	0.096652
874.640715	0.096485
874.825394	0.096705
875.010055	0.096538
875.194697	0.096424
875.379322	0.096727
875.563928	0.096807
875.748516	0.096938
875.933085	0.096809
876.117637	0.096768
876.302170	0.097004
876.486685	0.097106
876.671182	0.097488
876.855661	0.097422
877.040121	0.097276
877.224563	0.097180
877.408987	0.097034
877.593393	0.097036
877.777780	0.097209
877.962150	0.097246
878.146501	0.097105
878.330833	0.097128
878.515148	0.097318
878.699444	0.097550
878.883722	0.097529
879.067982	0.097556
879.252224	0.097979
879.436447	0.098388
879.620653	0.098130
879.804840	0.098409
879.989008	0.098235
880.173159	0.098147
880.357291	0.097975
880.541405	0.098255
880.725501	0.098348
880.909579	0.098144
881.093638	0.098143
881.277680	0.098520
881.461703	0.098306
881.645707	0.098293
881.829694	0.098563
882.013662	0.098581
882.197612	0.098490
882.381544	0.098431
882.565458	0.098632
882.749353	0.098489
882.933230	0.098601
883.117089	0.098840
883.300930	0.099170
883.484753	0.099271
883.668557	0.098870
883.852343	0.099008
884.036111	0.098944
884.219861	0.098733
884.403592	0.098576
884.587305	0.098158
884.771000	0.098048
884.954677	0.097586
885.138335	0.097662
885.321976	0.098321
885.505598	0.098281
885.689201	0.098646
885.872787	0.098690
886.056354	0.098840
886.239904	0.098858
886.423434	0.098792
886.606947	0.099090
886.790442	0.098842
886.973918	0.098448
887.157376	0.098620
887.340816	0.098449
887.524237	0.098594
887.707641	0.098561
887.891026	0.098805
888.074393	0.098696
888.257741	0.098593
888.441072	0.098579
888.624384	0.098647
888.807678	0.098574
888.990954	0.098343
889.174211	0.098034
889.357451	0.098204
889.540672	0.097983
889.723875	0.097978
889.907059	0.098130
890.090226	0.098098
890.273374	0.098033
890.456504	0.098039
890.639616	0.098259
890.822709	0.098279
891.005785	0.097903
891.188842	0.098007
891.371881	0.098218
891.554901	0.097956
891.737904	0.097771
891.920888	0.098061
892.103854	0.097708
892.286802	0.097548
892.469731	0.097649
892.652643	0.097796
892.835536	0.097671
893.018410	0.097481
893.201267	0.097371
893.384106	0.097605
893.566926	0.097326
893.749728	0.097673
893.932511	0.097712
894.115277	0.098047
894.298024	0.097808
894.480753	0.097952
894.663464	0.098002
894.846157	0.098459
895.028831	0.098272
895.211487	0.098351
895.394125	0.098273
895.576745	0.098243
895.759346	0.098140
895.941930	0.098415
896.124495	0.098158
896.307041	0.098084
896.489570	0.097889
896.672080	0.097709
896.854573	0.097628
897.037046	0.097666
897.219502	0.097667
897.401940	0.097308
897.584359	0.096976
897.766760	0.097202
897.949143	0.097126
898.131507	0.096963
898.313854	0.097223
898.496182	0.097629
898.678492	0.097414
898.860783	0.097286
899.043057	0.097182
899.225312	0.097392
899.407549	0.097254
899.589768	0.097241
899.771968	0.096858
899.954151	0.096905
900.136315	0.096741
900.318461	0.096612
900.500588	0.096417
900.682698	0.096598
900.864789	0.096199
901.046862	0.095919
901.228917	0.095676
901.410953	0.096162
901.592971	0.096228
901.774972	0.096023
901.956953	0.096115
902.138917	0.096114
902.320862	0.095792
902.502790	0.095644
902.684699	0.095847
902.866589	0.095994
903.048462	0.095537
903.230316	0.094974
903.412152	0.094728
903.593970	0.094637
903.775770	0.094380
903.957551	0.094189
904.139314	0.094366
904.321059	0.094567
904.502786	0.094576
904.684494	0.094727
904.866185	0.094902
905.047857	0.094608
905.229510	0.094771
905.411146	0.095008
905.592763	0.095459
905.774363	0.095029
905.955943	0.094618
906.137506	0.094276
906.319051	0.094083
906.500577	0.093640
906.682085	0.093503
906.863575	0.093488
907.045046	0.093746
907.226500	0.093463
907.407935	0.093826
907.589352	0.093859
907.770750	0.093840
907.952131	0.093749
908.133493	0.094068
908.314837	0.094627
908.496163	0.094048
908.677470	0.093725
908.858760	0.093385
909.040031	0.093220
909.221284	0.092722
909.402518	0.092612
909.583735	0.092187
909.764933	0.092051
909.946113	0.091244
910.127275	0.091645
910.308418	0.090774
910.489544	0.090667
910.670651	0.090584
910.851740	0.090629
911.032810	0.090525
911.213863	0.090997
911.394897	0.090844
911.575913	0.090485
911.756911	0.090050
911.937890	0.090255
912.118851	0.090479
912.299794	0.090200
912.480719	0.089953
912.661626	0.089939
912.842514	0.089412
913.023384	0.089134
913.204236	0.089463
913.385070	0.089208
913.565886	0.089101
913.746683	0.088484
913.927462	0.088257
914.108223	0.088000
914.288965	0.088322
914.469690	0.088593
914.650396	0.088567
914.831084	0.088325
915.011754	0.088266
915.192405	0.088084
915.373038	0.087779
915.553653	0.087887
915.734250	0.087894
915.914829	0.087190
916.095389	0.086672
916.275931	0.086797
916.456455	0.086993
916.636961	0.086490
916.817448	0.086518
916.997917	0.086895
917.178368	0.086890
917.358801	0.087182
917.539216	0.087321
917.719612	0.087157
917.899990	0.086564
918.080350	0.086048
918.260692	0.085771
918.441015	0.085467
918.621320	0.084632
918.801607	0.084446
918.981876	0.083960
919.162127	0.083570
919.342359	0.083275
919.522573	0.083314
919.702769	0.082672
919.882947	0.082831
920.063106	0.082665
920.243247	0.082832
920.423370	0.082305
920.603475	0.081744
920.783562	0.081690
920.963630	0.081694
921.143680	0.081345
921.323712	0.081502
921.503725	0.081396
921.683721	0.081245
921.863698	0.080940
922.043657	0.080812
922.223598	0.081291
922.403520	0.080927
922.583424	0.080574
922.763311	0.080155
922.943178	0.080167
923.123028	0.079555
923.302859	0.079116
923.482673	0.078962
923.662467	0.078729
923.842244	0.078103
924.022003	0.077774
924.201743	0.077549
924.381465	0.077716
924.561169	0.077543
924.740854	0.077244
924.920522	0.077108
925.100171	0.076581
925.279802	0.076159
925.459414	0.076138
925.639009	0.075547
925.818585	0.075158
925.998143	0.074670
926.177683	0.074441
926.357205	0.074402
926.536708	0.074056
926.716193	0.073932
926.895660	0.073551
927.075109	0.072769
927.254539	0.072745
927.433951	0.073139
927.613345	0.073006
927.792721	0.072843
927.972079	0.072447
928.151418	0.072805
928.330739	0.072752
928.510042	0.072445
928.689327	0.072261
928.868593	0.071861
929.047841	0.070942
929.227071	0.070709
929.406283	0.070631
929.585476	0.070722
929.764652	0.070050
929.943809	0.070241
930.122948	0.069855
930.302068	0.069719
930.481171	0.069502
930.660255	0.068922
930.839321	0.068559
931.018369	0.067687
931.197398	0.067075
931.376409	0.066994
931.555402	0.066756
931.734377	0.067059
931.913334	0.066767
932.092272	0.066588
932.271192	0.067210
932.450094	0.067455
932.628978	0.067745
932.807844	0.067944
932.986691	0.067411
933.165520	0.067148
933.344331	0.066232
933.523123	0.065468
933.701898	0.064918
933.880654	0.064340
934.059392	0.062996
934.238111	0.061675
934.416813	0.061171
934.595496	0.061232
934.774161	0.060450
934.952808	0.060179
935.131437	0.060311
935.310047	0.060368
935.488639	0.060205
935.667213	0.060604
935.845769	0.060470
936.024306	0.060060
936.202825	0.059772
936.381326	0.059838
936.559809	0.060016
936.738274	0.059864
936.916720	0.059251
937.095148	0.058140
937.273558	0.058134
937.451950	0.058664
937.630323	0.058599
937.808678	0.058168
937.987015	0.058121
938.165334	0.057821
938.343635	0.056977
938.521917	0.057082
938.700181	0.057490
938.878427	0.056358
939.056655	0.055230
939.234864	0.054965
939.413055	0.054256
939.591228	0.053058
939.769383	0.052602
939.947519	0.053727
940.125638	0.052679
940.303738	0.051710
940.481820	0.051149
940.659883	0.051184
940.837929	0.049952
941.015956	0.050285
941.193965	0.050455
941.371955	0.050175
941.549928	0.048600
941.727882	0.049604
941.905818	0.049391
942.083736	0.049934
942.261636	0.049913
942.439517	0.050287
942.617380	0.049079
942.795225	0.048555
942.973052	0.048945
943.150860	0.048616
943.328651	0.047554
943.506423	0.046865
943.684176	0.045317
943.861912	0.044829
944.039629	0.044792
944.217328	0.043651
944.395009	0.043483
944.572672	0.041794
944.750317	0.041993
944.927943	0.041394
945.105551	0.041977
945.283141	0.043094
945.460712	0.041471
945.638265	0.041442
945.815801	0.042114
945.993317	0.040943
946.170816	0.040893
946.348297	0.039739
946.525759	0.040097
946.703203	0.040217
946.880629	0.039182
947.058036	0.040639
947.235425	0.039237
947.412797	0.039670
947.590149	0.039908
947.767484	0.039455
947.944800	0.040560
948.122099	0.039711
948.299379	0.038332
948.476640	0.038337
948.653884	0.036917
948.831109	0.038346
949.008316	0.037753
949.185505	0.036988
949.362676	0.036453
949.539828	0.035734
949.716962	0.035198
949.894078	0.035739
950.071176	0.035630
950.248256	0.036201
950.425317	0.034931
950.602360	0.033269
950.779385	0.032639
950.956391	0.034371
951.133380	0.032448
951.310350	0.033020
951.487302	0.032702
951.664235	0.031429
951.841151	0.031121
952.018048	0.028958
952.194927	0.030149
952.371788	0.029734
952.548631	0.028251
952.725455	0.029074
952.902261	0.028655
953.079049	0.029480
953.255819	0.029361
953.432570	0.030024
953.609303	0.029502
953.786018	0.028130
953.962715	0.028487
954.139394	0.028938
954.316054	0.029252
954.492696	0.028213
954.669320	0.026025
954.845926	0.026314
955.022513	0.024799
955.199083	0.027281
955.375634	0.029139
955.552166	0.029464
955.728681	0.027394
955.905177	0.027836
956.081655	0.028522
956.258115	0.029533
956.434557	0.029792
956.610980	0.028257
956.787385	0.026001
956.963772	0.026394
957.140141	0.024587
957.316492	0.025583
957.492824	0.025505
957.669138	0.026233
957.845434	0.025545
958.021712	0.025791
958.197971	0.027008
958.374212	0.027979
958.550435	0.026125
958.726640	0.026164
958.902826	0.026566
959.078995	0.024530
959.255145	0.024564
959.431277	0.023691
959.607390	0.022511
959.783486	0.022959
959.959563	0.023164
960.135622	0.023758
960.311662	0.025860
960.487685	0.025249
960.663689	0.025823
960.839675	0.023519
961.015643	0.022868
961.191593	0.023331
961.367524	0.023150
961.543437	0.022067
961.719332	0.022171
961.895209	0.021912
962.071067	0.022049
962.246907	0.022713
962.422730	0.023648
962.598533	0.027017
962.774319	0.027360
962.950086	0.028465
963.125835	0.030863
963.301566	0.032089
963.477279	0.032114
963.652973	0.032618
963.828650	0.031863
964.004308	0.030164
964.179947	0.028393
964.355569	0.029466
964.531172	0.027589
964.706757	0.024832
964.882324	0.022097
965.057873	0.021005
965.233403	0.022604
965.408916	0.023034
965.584410	0.023148
965.759885	0.024483
965.935343	0.023067
966.110782	0.024540
966.286203	0.027609
966.461606	0.030018
966.636991	0.031357
966.812357	0.027524
966.987705	0.026418
967.163035	0.027437
967.338347	0.026220
967.513641	0.027711
967.688916	0.027503
967.864173	0.026382
968.039412	0.026663
968.214632	0.026438
968.389835	0.029435
968.565019	0.029256
968.740185	0.029661
968.915333	0.029869
969.090462	0.027583
969.265573	0.027082
969.440667	0.026396
969.615741	0.026140
969.790798	0.022879
969.965836	0.022180
970.140856	0.022421
970.315858	0.021739
970.490842	0.020626
970.665808	0.020294
970.840755	0.020915
971.015684	0.022806
971.190595	0.022221
971.365487	0.025417
971.540362	0.026060
971.715218	0.027928
971.890056	0.029893
972.064875	0.030625
972.239677	0.031799
972.414460	0.031134
972.589225	0.029547
972.763972	0.029356
972.938700	0.029263
973.113411	0.029070
973.288103	0.029002
973.462777	0.026676
973.637432	0.026528
973.812070	0.027339
973.986689	0.027409
974.161290	0.026576
974.335873	0.026772
974.510437	0.026204
974.684984	0.028226
974.859512	0.028871
975.034022	0.030038
975.208513	0.030670
975.382987	0.032151
975.557442	0.032291
975.731879	0.032909
975.906298	0.033691
976.080698	0.035891
976.255080	0.031150
976.429445	0.029988
976.603790	0.029611
976.778118	0.031640
976.952427	0.028941
977.126719	0.030099
977.300992	0.030006
977.475246	0.029114
977.649483	0.027253
977.823701	0.029722
977.997901	0.029571
978.172083	0.031100
978.346247	0.027003
978.520392	0.028612
978.694519	0.026610
978.868628	0.027441
979.042719	0.027843
979.216791	0.027896
979.390845	0.029892
979.564882	0.029033
979.738899	0.026733
979.912899	0.027464
980.086880	0.026724
980.260843	0.027993
980.434788	0.026574
980.608715	0.025206
980.782623	0.025188
980.956514	0.021654
981.130386	0.022938
981.304240	0.023528
981.478075	0.024729
981.651892	0.025948
981.825692	0.027520
981.999472	0.029653
982.173235	0.030905
982.346980	0.031184
982.520706	0.031839
982.694414	0.031489
982.868104	0.032001
983.041775	0.032361
983.215428	0.032915
983.389064	0.031391
983.562680	0.031133
983.736279	0.029410
983.909860	0.028087
984.083422	0.029614
984.256966	0.031111
984.430491	0.031456
984.603999	0.030958
984.777488	0.029169
984.950959	0.028594
985.124412	0.029368
985.297847	0.031906
985.471263	0.033736
985.644661	0.033306
985.818041	0.030491
985.991403	0.031097
986.164747	0.031607
986.338072	0.029940
986.511379	0.031638
986.684668	0.030378
986.857938	0.028147
987.031191	0.027401
987.204425	0.027404
987.377641	0.028659
987.550839	0.028011
987.724018	0.028060
987.897179	0.030132
988.070322	0.028969
988.243447	0.030694
988.416554	0.031472
988.589642	0.031738
988.762712	0.030595
988.935764	0.030527
989.108798	0.030538
989.281813	0.029317
989.454811	0.028473
989.627790	0.029137
989.800751	0.027723
989.973693	0.028594
990.146617	0.028438
990.319524	0.028992
990.492412	0.027503
990.665281	0.027468
990.838133	0.028177
991.010966	0.028165
991.183781	0.028642
991.356578	0.028146
991.529356	0.029991
991.702117	0.030442
991.874859	0.031505
992.047583	0.032181
992.220288	0.033773
992.392976	0.033415
992.565645	0.034342
992.738296	0.034434
992.910929	0.035701
993.083543	0.032742
993.256139	0.032550
993.428718	0.033287
993.601277	0.033487
993.773819	0.031276
993.946342	0.030424
994.118848	0.028712
994.291335	0.028157
994.463803	0.026279
994.636254	0.026775
994.808686	0.024991
994.981100	0.024370
995.153496	0.024480
995.325874	0.025902
995.498233	0.029308
995.670574	0.032361
995.842897	0.031585
996.015202	0.033389
996.187488	0.035556
996.359757	0.037829
996.532007	0.038621
996.704239	0.038498
996.876452	0.037819
997.048648	0.035646
997.220825	0.035320
997.392984	0.035534
997.565124	0.036700
997.737247	0.035470
997.909351	0.034841
998.081437	0.033661
998.253505	0.034203
998.425554	0.033318
998.597586	0.031929
998.769599	0.029836
998.941594	0.029526
999.113571	0.028538
999.285529	0.027202
999.457469	0.026822
999.629391	0.028224
999.801295	0.028968
999.973181	0.029579
1000.145048	0.029603
1000.316897	0.031329
1000.488728	0.032176
1000.660541	0.030929
1000.832335	0.030453
1001.004111	0.030867
1001.175869	0.029337
1001.347609	0.030983
1001.519331	0.030575
1001.691034	0.032014
1001.862719	0.031667
1002.034386	0.030607
1002.206035	0.030019
1002.377665	0.032088
1002.549277	0.032687
1002.720871	0.032183
1002.892447	0.030586
1003.064004	0.033430
1003.235544	0.033660
1003.407065	0.032601
1003.578568	0.031698
1003.750052	0.032367
1003.921519	0.031405
1004.092967	0.029505
1004.264397	0.030498
1004.435809	0.030445
1004.607202	0.028983
1004.778577	0.028640
1004.949934	0.029461
1005.121273	0.031123
1005.292594	0.031452
1005.463896	0.031050
1005.635180	0.033724
1005.806446	0.033245
1005.977694	0.033752
1006.148923	0.032369
1006.320135	0.033547
1006.491328	0.032791
1006.662503	0.032187
1006.833659	0.031919
1007.004798	0.033042
1007.175918	0.033325
1007.347020	0.034025
1007.518103	0.033879
1007.689169	0.034205
1007.860216	0.033427
1008.031245	0.033911
1008.202256	0.032652
1008.373248	0.031686
1008.544223	0.030943
1008.715179	0.030240
1008.886117	0.028090
1009.057036	0.026759
1009.227938	0.027119
1009.398821	0.026353
1009.569686	0.025909
1009.740533	0.026910
1009.911361	0.029416
1010.082172	0.030586
1010.252964	0.030118
1010.423738	0.033789
1010.594493	0.033212
1010.765231	0.032225
1010.935950	0.033526
1011.106651	0.032133
1011.277334	0.032990
1011.447998	0.032461
1011.618645	0.030260
1011.789273	0.029405
1011.959882	0.027058
1012.130474	0.027588
1012.301048	0.028968
1012.471603	0.028186
1012.642140	0.029363
1012.812658	0.028520
1012.983159	0.028703
1013.153641	0.029966
1013.324105	0.031205
1013.494551	0.032271
1013.664979	0.033674
1013.835388	0.033514
1014.005779	0.032856
1014.176152	0.033616
1014.346507	0.035399
1014.516843	0.033207
1014.687162	0.033471
1014.857462	0.032164
1015.027744	0.032264
1015.198007	0.031723
1015.368252	0.032767
1015.538480	0.033140
1015.708689	0.033566
1015.878879	0.033687
1016.049052	0.035115
1016.219206	0.035408
1016.389342	0.035170
1016.559460	0.034596
1016.729559	0.034345
1016.899641	0.032103
1017.069704	0.032102
1017.239749	0.031848
1017.409775	0.030442
1017.579784	0.030514
1017.749774	0.029803
1017.919746	0.031030
1018.089700	0.030813
1018.259635	0.029817
1018.429553	0.030871
1018.599452	0.030688
1018.769333	0.031228
1018.939195	0.031001
1019.109040	0.029240
1019.278866	0.029672
1019.448674	0.029262
1019.618464	0.027552
1019.788235	0.029085
1019.957989	0.029284
1020.127724	0.029823
1020.297441	0.029069
1020.467139	0.028728
1020.636820	0.030108
1020.806482	0.030487
1020.976126	0.031993
1021.145752	0.033976
1021.315359	0.033416
1021.484948	0.033360
1021.654519	0.033504
1021.824072	0.033133
1021.993607	0.033578
1022.163123	0.034282
1022.332621	0.034371
1022.502101	0.032821
1022.671563	0.032688
1022.841007	0.032162
1023.010432	0.031165
1023.179839	0.029137
1023.349228	0.028439
1023.518598	0.028025
1023.687951	0.028944
1023.857285	0.028161
1024.026601	0.030055
1024.195899	0.029277
1024.365178	0.030137
1024.534439	0.031209
1024.703682	0.034234
1024.872907	0.035052
1025.042114	0.034994
1025.211302	0.034188
1025.380472	0.034442
1025.549624	0.032795
1025.718758	0.032296
1025.887873	0.032167
1026.056970	0.033192
1026.226049	0.031898
1026.395110	0.031287
1026.564153	0.032294
1026.733177	0.032588
1026.902183	0.034393
1027.071171	0.033932
1027.240141	0.035100
1027.409092	0.033842
1027.578026	0.031878
1027.746940	0.032264
1027.915837	0.032805
1028.084716	0.032047
1028.253576	0.030953
1028.422418	0.027954
1028.591242	0.029038
1028.760048	0.029299
1028.928835	0.031732
1029.097604	0.030844
1029.266355	0.031343
1029.435088	0.031611
1029.603803	0.031189
1029.772499	0.031517
1029.941177	0.034336
1030.109837	0.033346
1030.278478	0.032929
1030.447102	0.031356
1030.615707	0.032447
1030.784294	0.032359
1030.952863	0.033509
1031.121413	0.036534
1031.289945	0.036990
1031.458460	0.034196
1031.626955	0.034526
1031.795433	0.033995
1031.963892	0.035263
1032.132334	0.035693
1032.300756	0.034893
1032.469161	0.032776
1032.637548	0.031399
1032.805916	0.031610
1032.974266	0.032135
1033.142598	0.032180
1033.310911	0.031639
1033.479207	0.030400
1033.647484	0.030427
1033.815743	0.030481
1033.983983	0.031711
1034.152206	0.031117
1034.320410	0.029841
1034.488596	0.031070
1034.656764	0.031324
1034.824914	0.032262
1034.993045	0.032405
1035.161158	0.031522
1035.329253	0.030909
1035.497330	0.030746
1035.665388	0.030830
1035.833428	0.030709
1036.001450	0.028938
1036.169454	0.027446
1036.337440	0.027178
1036.505407	0.027915
1036.673356	0.028510
1036.841287	0.027886
1037.009200	0.030265
1037.177094	0.029558
1037.344970	0.028819
1037.512828	0.028567
1037.680668	0.028809
1037.848489	0.029494
1038.016293	0.029149
1038.184078	0.029969
1038.351845	0.031847
1038.519593	0.028768
1038.687324	0.029647
1038.855036	0.031411
1039.022730	0.033391
1039.190406	0.033779
1039.358063	0.033853
1039.525702	0.034235
1039.693323	0.034602
1039.860926	0.034509
1040.028511	0.036058
1040.196077	0.035584
1040.363625	0.035734
1040.531155	0.034446
1040.698667	0.035320
1040.866161	0.036236
1041.033636	0.036128
1041.201093	0.034928
1041.368532	0.034473
1041.535952	0.034133
1041.703355	0.034143
1041.870739	0.032731
1042.038105	0.032581
1042.205452	0.032564
1042.372782	0.032454
1042.540093	0.030929
1042.707386	0.031041
1042.874661	0.031466
1043.041918	0.030506
1043.209156	0.030437
1043.376376	0.031365
1043.543578	0.032724
1043.710762	0.032590
1043.877927	0.030352
1044.045074	0.029767
1044.212203	0.029834
1044.379314	0.028577
1044.546407	0.029105
1044.713481	0.029679
1044.880537	0.030234
1045.047575	0.029558
1045.214595	0.029997
1045.381596	0.031193
1045.548579	0.033394
1045.715544	0.032474
1045.882491	0.033088
1046.049420	0.034670
1046.216330	0.033603
1046.383222	0.033629
1046.550096	0.034511
1046.716951	0.034023
1046.883789	0.033132
1047.050608	0.033407
1047.217409	0.034922
1047.384192	0.037454
1047.550956	0.035323
1047.717703	0.037230
1047.884431	0.036876
1048.051140	0.036512
1048.217832	0.037432
1048.384505	0.039388
1048.551161	0.039139
1048.717798	0.038986
1048.884416	0.036762
1049.051017	0.037910
1049.217599	0.037734
1049.384163	0.037717
1049.550709	0.035987
1049.717237	0.033899
1049.883746	0.031906
1050.050237	0.031049
1050.216710	0.030054
1050.383165	0.030194
1050.549601	0.029906
1050.716019	0.027561
1050.882420	0.029483
1051.048801	0.029509
1051.215165	0.030060
1051.381510	0.031594
1051.547837	0.030540
1051.714146	0.032394
1051.880437	0.031393
1052.046709	0.030328
1052.212964	0.030647
1052.379200	0.028940
1052.545417	0.029360
1052.711617	0.030165
1052.877798	0.031003
1053.043961	0.033816
1053.210106	0.034472
1053.376233	0.035112
1053.542341	0.035377
1053.708432	0.036336
1053.874504	0.035735
1054.040557	0.035198
1054.206593	0.034407
1054.372610	0.033552
1054.538609	0.031078
1054.704590	0.030762
1054.870553	0.031179
1055.036497	0.031681
1055.202424	0.033260
1055.368331	0.032817
1055.534221	0.033001
1055.700093	0.034889
1055.865946	0.035364
1056.031781	0.039029
1056.197598	0.036480
1056.363397	0.035819
1056.529177	0.035107
1056.694939	0.032407
1056.860683	0.033524
1057.026409	0.035120
1057.192116	0.033281
1057.357806	0.033034
1057.523477	0.030465
1057.689130	0.032470
1057.854764	0.033165
1058.020381	0.032406
1058.185979	0.035356
1058.351559	0.034203
1058.517120	0.034751
1058.682664	0.034233
1058.848189	0.034159
1059.013696	0.034169
1059.179185	0.033494
1059.344656	0.033660
1059.510108	0.035840
1059.675542	0.033354
1059.840958	0.032489
1060.006356	0.031221
1060.171735	0.032529
1060.337096	0.030842
1060.502439	0.029749
1060.667764	0.028770
1060.833071	0.028210
1060.998359	0.027524
1061.163629	0.028184
1061.328881	0.029907
1061.494115	0.030104
1061.659330	0.030512
1061.824527	0.030697
1061.989706	0.031386
1062.154867	0.032702
1062.320010	0.031826
1062.485134	0.032365
1062.650240	0.033598
1062.815328	0.033476
1062.980398	0.034395
1063.145449	0.034365
1063.310482	0.034060
1063.475497	0.035587
1063.640494	0.036487
1063.805473	0.037306
1063.970433	0.037538
1064.135375	0.035396
1064.300299	0.035392
1064.465204	0.035724
1064.630092	0.033730
1064.794961	0.035797
1064.959812	0.036049
1065.124645	0.034093
1065.289459	0.036764
1065.454256	0.036298
1065.619034	0.037660
1065.783793	0.036559
1065.948535	0.035764
1066.113258	0.037427
1066.277964	0.038882
1066.442651	0.036072
1066.607319	0.038032
1066.771970	0.035568
1066.936602	0.035306
1067.101216	0.032886
1067.265812	0.035778
1067.430389	0.035982
1067.594949	0.035697
1067.759490	0.031822
1067.924013	0.033521
1068.088518	0.032150
1068.253004	0.034043
1068.417472	0.034706
1068.581922	0.037214
1068.746354	0.034904
1068.910768	0.035292
1069.075163	0.035334
1069.239540	0.036164
1069.403899	0.037662
1069.568240	0.037727
1069.732562	0.035510
1069.896866	0.035181
1070.061152	0.036454
1070.225420	0.036780
1070.389670	0.034688
1070.553901	0.034303
1070.718114	0.034722
1070.882309	0.034001
1071.046486	0.034055
1071.210644	0.033841
1071.374784	0.033325
1071.538906	0.031099
1071.703010	0.032074
1071.867096	0.035045
1072.031163	0.033931
1072.195212	0.034794
1072.359243	0.032551
1072.523256	0.032256
1072.687250	0.032377
1072.851226	0.034150
1073.015184	0.035049
1073.179124	0.034440
1073.343045	0.034224
1073.506949	0.034816
1073.670834	0.034616
1073.834701	0.035492
1073.998549	0.035853
1074.162380	0.037830
1074.326192	0.036677
1074.489986	0.037773
1074.653761	0.036228
1074.817519	0.036097
1074.981258	0.038767
1075.144979	0.039498
1075.308682	0.040507
1075.472367	0.040450
1075.636033	0.039790
1075.799681	0.037292
1075.963311	0.034331
1076.126923	0.035526
1076.290516	0.033489
1076.454092	0.034038
1076.617649	0.033663
1076.781187	0.031845
1076.944708	0.031341
1077.108210	0.031000
1077.271695	0.034427
1077.435160	0.036016
1077.598608	0.035411
1077.762038	0.035433
1077.925449	0.033266
1078.088842	0.032591
1078.252217	0.033948
1078.415573	0.035057
1078.578912	0.034462
1078.742232	0.033290
1078.905534	0.031331
1079.068817	0.032211
1079.232083	0.032204
1079.395330	0.031661
1079.558559	0.031512
1079.721770	0.030786
1079.884962	0.029252
1080.048136	0.029700
1080.211293	0.030129
1080.374430	0.032011
1080.537550	0.030040
1080.700651	0.030343
1080.863735	0.031908
1081.026800	0.032419
1081.189846	0.034271
1081.352875	0.035878
1081.515885	0.036658
1081.678877	0.036892
1081.841851	0.038775
1082.004807	0.040553
1082.167744	0.037801
1082.330663	0.036339
1082.493564	0.036920
1082.656447	0.036058
1082.819312	0.033652
1082.982158	0.033689
1083.144986	0.032822
1083.307796	0.029267
1083.470587	0.028161
1083.633361	0.032092
1083.796116	0.033179
1083.958853	0.032701
1084.121571	0.031055
1084.284272	0.034944
1084.446954	0.032096
1084.609618	0.032474
1084.772264	0.031469
1084.934892	0.033601
1085.097501	0.033020
1085.260092	0.034368
1085.422665	0.031219
1085.585220	0.030587
1085.747756	0.029794
1085.910274	0.031612
1086.072774	0.030775
1086.235256	0.033863
1086.397720	0.034196
1086.560165	0.033851
1086.722592	0.033759
1086.885001	0.037231
1087.047392	0.039561
1087.209764	0.041929
1087.372119	0.042244
1087.534455	0.042651
1087.696772	0.043345
1087.859072	0.044015
1088.021353	0.043806
1088.183616	0.045465
1088.345861	0.044029
1088.508088	0.043801
1088.670296	0.043243
1088.832486	0.041665
1088.994658	0.041364
1089.156812	0.039893
1089.318948	0.036673
1089.481065	0.035995
1089.643164	0.031822
1089.805245	0.033702
1089.967308	0.031990
1090.129352	0.028574
1090.291378	0.029044
1090.453386	0.028641
1090.615376	0.030336
1090.777347	0.031942
1090.939301	0.032337
1091.101236	0.035557
1091.263153	0.035053
1091.425051	0.038552
1091.586932	0.039529
1091.748794	0.038139
1091.910638	0.038970
1092.072463	0.036896
1092.234271	0.037526
1092.396060	0.040402
1092.557831	0.038528
1092.719584	0.035858
1092.881319	0.035583
1093.043035	0.037705
1093.204733	0.039735
1093.366413	0.038371
1093.528075	0.039565
1093.689718	0.040546
1093.851343	0.038570
1094.012950	0.038455
1094.174539	0.040890
1094.336110	0.042102
1094.497662	0.040813
1094.659196	0.041392
1094.820712	0.041993
1094.982210	0.042190
1095.143689	0.040421
1095.305151	0.039294
1095.466594	0.035835
1095.628018	0.035565
1095.789425	0.033073
1095.950813	0.029967
1096.112183	0.032306
1096.273535	0.036284
1096.434869	0.035215
1096.596184	0.035844
1096.757482	0.037528
1096.918761	0.037879
1097.080021	0.038124
1097.241264	0.037573
1097.402488	0.040166
1097.563694	0.037855
1097.724882	0.035287
1097.886052	0.036884
1098.047203	0.035632
1098.208336	0.037648
1098.369451	0.037587
1098.530548	0.034239
1098.691627	0.033135
1098.852687	0.034441
1099.013729	0.034013
1099.174753	0.034657
1099.335758	0.037308
1099.496746	0.038173
1099.657715	0.035786
1099.818666	0.037540
1099.979599	0.041485
1100.140513	0.042673
1100.301409	0.038588
1100.462287	0.038919
1100.623147	0.040189
1100.783989	0.038963
1100.944812	0.038961
1101.105617	0.036329
1101.266404	0.035563
1101.427173	0.033832
1101.587923	0.035599
1101.748656	0.037157
1101.909370	0.037438
1102.070066	0.035274
1102.230743	0.031557
1102.391403	0.033047
1102.552044	0.035511
1102.712667	0.037782
1102.873271	0.037966
1103.033858	0.040116
1103.194426	0.044274
1103.354976	0.044367
1103.515508	0.045405
1103.676021	0.049432
1103.836517	0.048747
1103.996994	0.046672
1104.157453	0.044350
1104.317893	0.047768
1104.478316	0.044943
1104.638720	0.041492
1104.799106	0.039701
1104.959474	0.037309
1105.119823	0.035091
1105.280155	0.034091
1105.440468	0.037562
1105.600763	0.041829
1105.761039	0.040464
1105.921298	0.040363
1106.081538	0.038821
1106.241760	0.038824
1106.401964	0.040751
1106.562149	0.039377
1106.722316	0.039311
1106.882465	0.037632
1107.042596	0.036347
1107.202709	0.033536
1107.362803	0.033919
1107.522879	0.036520
1107.682937	0.040215
1107.842977	0.037579
1108.002999	0.036806
1108.163002	0.038350
1108.322987	0.039518
1108.482954	0.034699
1108.642902	0.035745
1108.802833	0.033977
1108.962745	0.032414
1109.122639	0.030446
1109.282515	0.032908
1109.442372	0.037800
1109.602211	0.037012
1109.762032	0.037647
1109.921835	0.042567
1110.081620	0.045393
1110.241386	0.046569
1110.401134	0.042260
1110.560864	0.039673
1110.720576	0.041962
1110.880269	0.039777
1111.039945	0.039030
1111.199602	0.038241
1111.359240	0.037776
1111.518861	0.031272
1111.678463	0.033316
1111.838047	0.037407
1111.997613	0.041006
1112.157161	0.036917
1112.316690	0.040254
1112.476202	0.037012
1112.635695	0.036393
1112.795169	0.041694
1112.954626	0.045168
1113.114064	0.043228
1113.273484	0.043271
1113.432886	0.044000
1113.592270	0.042362
1113.751635	0.039681
1113.910983	0.043366
1114.070312	0.048160
1114.229622	0.040840
1114.388915	0.043497
1114.548189	0.046344
1114.707445	0.048117
1114.866683	0.045244
1115.025903	0.046819
1115.185104	0.047371
1115.344287	0.047229
1115.503452	0.037153
1115.662599	0.040558
1115.821727	0.040408
1115.980838	0.034111
1116.139930	0.032265
1116.299004	0.031467
1116.458059	0.031134
1116.617097	0.028747
1116.776116	0.027463
1116.935117	0.030933
1117.094099	0.028569
1117.253064	0.027558
1117.412010	0.031485
1117.570938	0.030164
1117.729848	0.031545
1117.888740	0.033195
1118.047613	0.033704
1118.206468	0.039750
1118.365305	0.041125
1118.524124	0.041767
1118.682924	0.042578
1118.841707	0.044425
1119.000471	0.047336
1119.159216	0.047258
1119.317944	0.045714
1119.476653	0.048718
1119.635344	0.045572
1119.794017	0.038466
1119.952672	0.035343
1120.111308	0.032055
1120.269927	0.026385
1120.428527	0.020403
1120.587108	0.023583
1120.745672	0.026193
1120.904217	0.024782
1121.062744	0.023759
1121.221253	0.031714
1121.379744	0.034298
1121.538216	0.039358
1121.696671	0.044406
1121.855107	0.050472
1122.013524	0.044727
1122.171924	0.045675
1122.330305	0.045532
1122.488668	0.043534
1122.647013	0.042926
1122.805340	0.043112
1122.963648	0.044488
1123.121938	0.041934
1123.280210	0.041743
1123.438464	0.040884
1123.596700	0.042537
1123.754917	0.043411
1123.913116	0.046475
1124.071297	0.047836
1124.229459	0.051905
1124.387604	0.048110
1124.545730	0.043691
1124.703838	0.041733
1124.861928	0.046138
1125.019999	0.039966
1125.178052	0.035470
1125.336088	0.034956
1125.494104	0.034248
1125.652103	0.029333
1125.810083	0.028999
1125.968045	0.033593
1126.125989	0.032252
1126.283915	0.032495
1126.441823	0.035175
1126.599712	0.036781
1126.757583	0.037747
1126.915436	0.035533
1127.073270	0.035655
1127.231087	0.031841
1127.388885	0.028518
1127.546665	0.028457
1127.704426	0.028238
1127.862170	0.028378
1128.019895	0.029189
1128.177602	0.025698
1128.335291	0.023947
1128.492961	0.028275
1128.650614	0.035294
1128.808248	0.039374
1128.965864	0.038674
1129.123461	0.037680
1129.281041	0.041409
1129.438602	0.038914
1129.596145	0.041575
1129.753670	0.043300
1129.911176	0.040522
1130.068665	0.038572
1130.226135	0.036237
1130.383587	0.038332
1130.541020	0.040559
1130.698436	0.036398
1130.855833	0.040454
1131.013212	0.034530
1131.170573	0.039036
1131.327915	0.039735
1131.485239	0.029973
1131.642545	0.034981
1131.799833	0.036599
1131.957103	0.039273
1132.114354	0.038332
1132.271588	0.043714
1132.428803	0.049744
1132.585999	0.046078
1132.743178	0.043463
1132.900338	0.052013
1133.057480	0.049741
1133.214604	0.054206
1133.371710	0.048104
1133.528797	0.046034
1133.685866	0.039784
1133.842917	0.038060
1133.999950	0.035415
1134.156964	0.040656
1134.313960	0.043771
1134.470938	0.039983
1134.627898	0.033106
1134.784840	0.032374
1134.941763	0.034470
1135.098668	0.034691
1135.255555	0.034209
1135.412424	0.037585
1135.569274	0.030771
1135.726107	0.030883
1135.882921	0.037880
1136.039716	0.043396
1136.196494	0.043654
1136.353253	0.037306
1136.509995	0.039600
1136.666717	0.037603
1136.823422	0.034932
1136.980109	0.043880
1137.136777	0.039920
1137.293427	0.036357
1137.450059	0.030070
1137.606672	0.034210
1137.763267	0.041581
1137.919844	0.033307
1138.076403	0.032904
1138.232944	0.040395
1138.389466	0.037684
1138.545971	0.042558
1138.702457	0.039158
1138.858924	0.044012
1139.015374	0.044803
1139.171805	0.046904
1139.328218	0.045580
1139.484613	0.049003
1139.640990	0.042765
1139.797348	0.038906
1139.953688	0.027745
1140.110010	0.027943
1140.266314	0.026841
1140.422600	0.025545
1140.578867	0.024191
1140.735116	0.028008
1140.891347	0.028862
1141.047559	0.033028
1141.203754	0.033406
1141.359930	0.036698
1141.516088	0.036767
1141.672228	0.035197
1141.828349	0.030735
1141.984452	0.027018
1142.140537	0.029508
1142.296604	0.029845
1142.452653	0.022707
1142.608683	0.024775
1142.764695	0.029267
1142.920689	0.029288
1143.076665	0.032374
1143.232622	0.036605
1143.388562	0.042926
1143.544483	0.041942
1143.700385	0.037405
1143.856270	0.036182
1144.012136	0.033060
1144.167985	0.033938
1144.323814	0.040474
1144.479626	0.037885
1144.635420	0.036720
1144.791195	0.034304
1144.946952	0.034228
1145.102691	0.035130
1145.258411	0.041678
1145.414113	0.047015
1145.569798	0.043322
1145.725463	0.039112
1145.881111	0.040948
1146.036741	0.040899
1146.192352	0.040985
1146.347945	0.041396
1146.503519	0.039977
1146.659076	0.044202
1146.814614	0.043013
1146.970134	0.046180
1147.125636	0.051371
1147.281120	0.049303
1147.436585	0.049853
1147.592032	0.051678
1147.747461	0.055457
1147.902872	0.061910
1148.058265	0.055086
1148.213639	0.059026
1148.368995	0.060317
1148.524333	0.058374
1148.679653	0.053714
1148.834954	0.054438
1148.990237	0.059026
1149.145502	0.050004
1149.300749	0.046225
1149.455977	0.045677
1149.611188	0.041823
1149.766380	0.038646
1149.921553	0.035643
1150.076709	0.047887
1150.231846	0.042688
1150.386966	0.039540
1150.542066	0.049682
1150.697149	0.047492
1150.852214	0.044492
1151.007260	0.040045
1151.162288	0.044215
1151.317298	0.041040
1151.472289	0.036796
1151.627263	0.040801
1151.782218	0.036308
1151.937155	0.035893
1152.092073	0.045023
1152.246974	0.048160
1152.401856	0.049632
1152.556720	0.046101
1152.711566	0.050066
1152.866393	0.039827
1153.021203	0.037170
1153.175994	0.042870
1153.330767	0.035402
1153.485521	0.039429
1153.640258	0.044102
1153.794976	0.038650
1153.949676	0.037224
1154.104358	0.032501
1154.259021	0.039946
1154.413667	0.043702
1154.568294	0.030425
1154.722903	0.041844
1154.877493	0.032664
1155.032066	0.035279
1155.186620	0.042879
1155.341156	0.041326
1155.495674	0.044781
1155.650173	0.044991
1155.804654	0.034477
1155.959118	0.046794
1156.113562	0.046573
1156.267989	0.047353
1156.422397	0.032200
1156.576788	0.031162
1156.731160	0.032250
1156.885513	0.033220
1157.039849	0.032471
1157.194166	0.041898
1157.348465	0.040893
1157.502746	0.029179
1157.657009	0.025391
1157.811253	0.034380
1157.965479	0.032721
1158.119687	0.031986
1158.273877	0.030306
1158.428048	0.028050
1158.582201	0.026150
1158.736337	0.020096
1158.890453	0.024760
1159.044552	0.024198
1159.198632	0.028583
1159.352694	0.037515
1159.506738	0.043144
1159.660764	0.046160
1159.814771	0.045821
1159.968761	0.042068
1160.122732	0.042687
1160.276685	0.044333
1160.430619	0.051355
1160.584535	0.051780
1160.738434	0.042032
1160.892313	0.031953
1161.046175	0.031187
1161.200019	0.033533
1161.353844	0.034559
1161.507651	0.042574
1161.661440	0.039080
1161.815210	0.032869
1161.968962	0.031495
1162.122697	0.036794
1162.276412	0.037444
1162.430110	0.027181
1162.583789	0.029097
1162.737451	0.035410
1162.891094	0.031916
1163.044718	0.023313
1163.198325	0.032354
1163.351913	0.027801
1163.505483	0.020749
1163.659035	0.033162
1163.812569	0.053067
1163.966084	0.055659
1164.119581	0.054744
1164.273060	0.060193
1164.426521	0.075804
1164.579964	0.067648
1164.733388	0.066876
1164.886794	0.078188
1165.040182	0.066861
1165.193551	0.059170
1165.346903	0.053837
1165.500236	0.038614
1165.653551	0.040033
1165.806848	0.018837
1165.960126	0.021360
1166.113386	0.025961
1166.266628	0.017497
1166.419852	0.019861
1166.573058	0.006174
1166.726245	-0.002032
1166.879414	0.007809
1167.032565	0.001759
1167.185698	0.022180
1167.338812	0.016887
1167.491909	0.017464
1167.644987	0.029155
1167.798046	0.023352
1167.951088	0.038669
1168.104111	0.040105
1168.257117	0.039161
1168.410103	0.053318
1168.563072	0.041715
1168.716023	0.042372
1168.868955	0.038326
1169.021869	0.023682
1169.174765	0.037976
1169.327642	0.034362
1169.480501	0.054611
1169.633343	0.052850
1169.786165	0.032658
1169.938970	0.048022
1170.091757	0.063018
1170.244525	0.063847
1170.397275	0.064446
1170.550007	0.056256
1170.702720	0.056445
1170.855415	0.023808
1171.008092	0.041469
1171.160751	0.053718
1171.313392	0.055057
1171.466014	-0.136160
1171.618619	0.150128
1171.771205	0.150128
1171.923772	0.150128
