sample name	sample
index	351
start time	 03-01-2021  12:01:41 PM
880	-0.047309
Peak Time (s)	91.535
Peak Height 	-0.04731
calc peak height	90,93
Baseline Time (s)	9.543
Baseline Value 	-0.003601
subtract baseline	10,4
Abs	-0.008632
Peak Time (s)	91.038
Peak Height 	-0.008632
calc peak height	90,93
Baseline Time (s)	11.536
Baseline Value 	0.001608
subtract baseline	10,3
PK_550	-0.004447
Peak Time (s)	92.535
Peak Height 	-0.004447
calc peak height	90,93
Baseline Time (s)	10.536
Baseline Value 	2.3467E-4
subtract baseline	10,2
PK_880	-0.006734
Peak Time (s)	90.04
Peak Height 	-0.006734
calc peak height	90,93
Baseline Time (s)	10.536
Baseline Value 	0.001475
subtract baseline	10,1


Time (s)	A880-A510	A880-A775	A880-A975	A880	I510	I775	I975	I880	
0.034500	-0.004012	-0.000528	-0.004005	0.007614	6840.186041	47301.771522	3975.508315	24970.619206
0.538000	-0.001215	-0.000079	-0.001180	0.005149	6888.502319	47600.775178	3989.307544	25096.452791
1.035500	-0.001257	-0.000023	0.000756	0.004814	6891.210396	47641.096171	3995.283287	25113.612167
1.538500	-0.000026	-0.000211	0.001962	0.001608	6932.426235	47953.029637	4006.979252	25278.434061
2.036000	-0.002348	-0.000443	-0.006597	0.007324	6858.063057	47340.217227	3969.554278	24985.393579
2.536500	-0.000987	-0.000447	0.000463	0.000926	6929.825276	47999.358327	4004.805893	25313.656758
3.037000	0.002511	-0.000134	-0.003633	-0.000721	6978.128856	48203.388412	3998.311722	25398.998871
3.537000	0.000777	0.000919	-0.002390	0.001539	6940.581693	48077.675277	3995.623551	25282.017355
4.037000	-0.001949	-0.000106	-0.001482	0.001288	6917.492481	47997.240807	3998.685967	25294.977683
4.534500	0.000216	0.000389	0.000838	0.000807	6942.177339	48098.673633	4006.120628	25319.819288
5.035000	0.001077	-0.000185	-0.003063	0.000199	6955.953453	48102.257033	3997.384967	25351.295566
5.538000	-0.001461	0.000237	0.006863	0.000521	6929.181237	48112.628898	4023.050182	25334.610563
6.035500	-0.000838	-0.000613	-0.001377	-0.000007	6939.934443	48079.065058	4002.395569	25361.955149
6.536000	0.000892	-0.000398	-0.001477	-0.000038	6956.439830	48104.625556	4002.212311	25363.551468
7.039000	0.000532	0.000165	0.001983	0.000507	6947.956695	48106.585220	4009.976134	25335.367361
7.536500	-0.001521	-0.000778	-0.000946	-0.000518	6938.332374	48115.140189	4004.898606	25388.448093
8.037000	0.000670	-0.000362	0.001106	0.000018	6953.837191	48102.696160	4008.939831	25360.685263
8.537000	-0.000552	-0.000004	-0.001381	0.000203	6940.645875	48120.589593	4001.827256	25351.082208
9.037000	-0.000020	0.000424	0.000737	0.000722	6940.763714	48111.126250	4006.077129	25324.218762
9.543000	0.000266	-0.000057	0.000375	0.000000	6950.212290	48136.258187	4007.037021	25361.597822
10.034000	-0.001206	-0.000069	0.003902	-0.000388	6940.060039	48175.410079	4017.517418	25381.690958
10.535500	0.000000	0.000000	-0.006633	-0.000343	6950.935284	48177.946805	3989.408520	25379.375381
11.036000	0.001077	0.000225	-0.001543	0.000352	6954.521201	48128.913078	4001.003577	25343.368299
11.536000	0.001367	0.000092	0.000000	-0.000252	6962.919255	48177.987710	4006.708771	25374.632961
12.036000	-0.000316	-0.000113	-0.000667	-0.000227	6946.884532	48154.007442	4004.866519	25373.353933
12.536500	0.001510	-0.000371	-0.001902	-0.000299	6964.710904	48134.640201	4001.776992	25377.081975
13.037000	-0.000466	-0.000727	0.000940	-0.000831	6951.139390	48153.008228	4010.763974	25404.673341
13.539000	-0.001614	-0.000726	0.001946	-0.000033	6932.930745	48070.071823	4011.320409	25363.309469
14.040000	-0.002083	-0.000466	-0.002378	0.002727	6902.878054	47810.749165	3992.522921	25220.780174
14.537500	0.000866	-0.000534	-0.000443	0.001436	6942.379420	47937.405263	4001.045648	25287.335430
15.035500	-0.001035	-0.000535	-0.003666	-0.001030	6947.669237	48193.786585	3999.039917	25415.006217
15.538000	-0.002293	-0.000489	0.001604	0.000128	6925.086313	48077.958946	4009.976289	25354.975812
16.036000	-0.000929	-0.000037	0.000314	-0.000302	6941.854505	48169.867657	4007.681435	25377.272114
16.535500	-0.001232	-0.000359	0.001082	-0.000219	6938.232766	48127.636201	4009.509710	25372.956990
17.036500	0.000801	-0.000216	0.000239	-0.002930	6982.847808	48425.851600	4014.510912	25513.905632
17.537000	-0.003676	-0.000353	-0.001836	0.000556	6908.240897	48047.530517	3999.684847	25332.808647
18.037000	-0.000768	-0.000784	0.000936	0.000915	6931.964415	47965.496517	4006.093138	25314.226067
18.534500	-0.000269	-0.000546	-0.001738	0.001023	6935.626124	47978.982204	3998.709257	25308.669032
19.038000	0.000311	0.000357	0.001166	0.001507	6936.522937	48022.521481	4005.132334	25283.686109
19.534500	0.000103	0.000753	0.000566	0.001885	6931.049321	48024.384373	4002.531540	25264.172051
20.035500	-0.002479	0.000240	-0.001868	0.001096	6914.346151	48053.117123	3998.174012	25304.906368
20.535500	-0.001396	0.000321	-0.000545	0.001508	6920.590935	48018.759461	4000.584336	25283.629163
21.036000	-0.000585	-0.000275	0.001980	0.001092	6932.023260	47999.972229	4008.404362	25305.088656
21.536500	-0.000938	0.000495	-0.001195	0.001426	6925.620617	48045.323788	3999.080937	25287.850230
22.036500	-0.000303	0.000601	-0.003268	0.001784	6928.201566	48019.156326	3992.662507	25269.382589
22.536500	-0.000058	-0.000323	-0.001319	0.000765	6940.015522	48028.974586	4000.501314	25322.005217
23.037000	-0.001088	-0.000286	-0.002738	0.001009	6928.105714	48007.470452	3996.103127	25309.374933
23.537000	-0.002843	-0.000423	-0.005691	0.000983	6912.017234	47996.015346	3988.403322	25310.757741
24.037500	-0.001177	0.000290	-0.001782	0.001299	6924.575331	48037.186687	3997.860704	25294.388616
24.535500	-0.001529	-0.000040	-0.001888	0.000910	6924.922920	48043.307653	3998.612258	25314.514930
25.035500	-0.000002	0.000051	-0.001381	0.001122	6937.192373	48030.675465	3999.390785	25303.529876
25.538500	-0.000421	0.000989	0.000425	0.001978	6925.291309	48039.274360	4001.909228	25259.365230
26.036000	-0.001961	-0.000347	-0.004952	0.000911	6920.881061	48011.322286	3990.528895	25314.444060
26.536500	-0.002043	-0.000082	0.002942	0.000864	6920.558918	48043.745426	4011.584950	25316.898252
27.036500	0.001007	-0.000113	0.004629	-0.001873	6974.807076	48326.004625	4023.485656	25458.852549
27.536500	0.000816	0.000097	0.001765	-0.000165	6956.922650	48169.449532	4011.190428	25370.136809
28.037000	-0.000071	0.001043	-0.000175	0.000749	6940.032321	48172.764058	4003.578826	25322.812522
28.537500	-0.000859	-0.000058	0.001379	-0.000308	6942.554919	48168.255749	4010.540900	25377.558693
29.035000	-0.000956	0.000369	0.002464	-0.000012	6938.882685	48181.950251	4012.652135	25362.223290
29.535500	-0.000192	0.000297	-0.000594	0.000170	6944.321469	48155.345256	4004.004144	25352.773249
30.038500	0.001178	0.000416	0.002975	0.000247	6956.453516	48159.746612	4013.325469	25348.782754
30.535500	-0.003520	-0.000025	-0.001203	0.002046	6895.876926	47926.989600	3997.420807	25255.880209
31.036000	0.000079	0.000708	0.001399	0.001534	6934.099008	48056.177314	4005.678252	25282.262752
31.539000	0.001094	0.000565	-0.000558	0.000554	6952.780739	48143.323253	4003.079713	25332.915070
32.037000	-0.000680	0.000404	-0.000064	0.000495	6936.720374	48132.729774	4004.550509	25335.954717
32.537000	-0.001512	-0.000612	-0.000635	-0.000549	6938.703085	48135.686271	4005.810333	25390.061856
33.037500	0.001841	-0.000020	0.005561	-0.001585	6979.953560	48305.471945	4025.225417	25443.845931
33.535000	-0.002060	0.000409	0.004513	0.001781	6911.880225	47999.533615	4013.339223	25269.554497
34.035000	-0.001713	-0.000244	-0.002177	0.001679	6916.052472	47942.252356	3995.816879	25274.796982
34.538000	-0.000277	0.000387	-0.001053	0.002137	6925.150347	47960.213850	3997.574147	25251.147383
35.036000	-0.001465	0.000145	-0.001134	0.001531	6919.732414	47998.077348	3998.965605	25282.450126
35.535500	-0.002872	-0.000627	-0.002766	0.001387	6907.994991	47932.837042	3995.033171	25289.877937
36.036000	0.002006	-0.000043	-0.001657	0.002034	6947.457522	47926.332357	3996.253093	25256.498453
36.536500	-0.001340	-0.000134	-0.002757	0.001649	6919.790172	47956.721088	3994.364484	25276.322401
37.035500	0.001061	0.000797	-0.001587	0.002364	6935.525282	47979.227182	3995.566229	25239.477150
37.537000	-0.001170	-0.000249	-0.001656	0.001485	6922.912045	47961.937983	3997.703680	25284.807153
38.037500	-0.001678	-0.000510	-0.004348	0.001487	6918.160039	47934.661902	3990.603947	25284.711621
38.535000	-0.001771	0.000387	-0.004192	0.001730	6915.028235	48002.458270	3990.375331	25272.147029
39.035000	-0.001076	-0.000036	-0.002379	0.001772	6921.109279	47954.281171	3995.037302	25270.007484
39.535500	-0.001416	0.000024	0.004540	0.001913	6916.633120	47945.830391	4013.056486	25262.718075
40.036000	-0.000084	0.000692	0.000718	0.002281	6925.606436	47976.931517	4001.883236	25243.746434
40.536000	-0.000713	0.000474	0.001932	0.002369	6918.929378	47945.157363	4004.875161	25239.194092
41.036500	-0.000657	-0.000479	-0.001902	0.001820	6924.567871	47903.323726	3996.170226	25267.533953
41.537000	-0.000895	0.000232	0.001720	0.001982	6920.841881	47960.201765	4005.339777	25259.162635
42.037000	0.000408	-0.000470	0.001123	0.001312	6939.255818	47956.899306	4005.534001	25293.729129
42.537000	-0.003381	-0.000187	0.001268	0.001464	6902.555664	47970.469404	4005.516494	25285.895049
43.035000	-0.000175	0.000110	-0.000403	0.001705	6930.133832	47976.329371	4000.438879	25273.458365
43.538000	0.002387	0.000775	0.002303	-0.002073	6989.747352	48439.983635	4017.752954	25469.260870
44.035500	-0.000757	0.000217	0.001360	0.000393	6936.960153	48123.922375	4008.618639	25341.271861
44.536000	0.001139	0.000682	0.001879	0.000283	6955.750879	48183.777712	4010.295071	25346.922296
45.035500	0.000375	0.000094	-0.001286	-0.000535	6956.257513	48207.810129	4004.040138	25389.321900
45.536000	-0.003503	0.000023	-0.007963	0.004086	6877.199345	47720.888925	3974.392518	25150.937527
46.036500	-0.000041	-0.000685	0.000424	-0.000487	6951.905024	48121.576319	4008.467330	25386.849575
46.536500	0.001397	0.000387	0.001823	-0.000244	6963.135021	48208.025005	4011.556100	25374.262636
47.037000	-0.001401	0.000601	0.005469	0.002472	6911.572460	47947.658932	4014.046743	25233.907392
47.537500	-0.000180	-0.000006	0.001023	0.001969	6927.626748	47936.906535	4003.523071	25259.850908
48.037000	0.001426	0.000461	0.005891	0.000179	6959.423903	48171.684021	4021.351957	25352.353202
48.537500	0.000567	-0.000452	-0.002960	-0.000758	6960.163350	48174.068529	4000.188763	25400.904842
49.035500	0.001223	0.001044	0.002063	-0.000650	6965.314675	48319.040213	4013.286772	25395.289808
49.538500	-0.003527	-0.000014	-0.002368	0.004540	6872.794730	47670.168492	3987.787689	25127.643635
50.036000	0.003168	0.000584	0.006004	0.009014	6893.287972	47272.342453	3998.051089	24899.465766
50.536000	0.027273	0.007276	0.001430	-0.000822	7219.767610	48993.796806	4012.050170	25404.194637
51.036500	-0.010108	-0.009899	-0.009985	0.199129	5391.341537	30856.869642	3564.077668	17087.927695
51.537000	-0.028959	-0.027249	-0.014145	-0.068547	7336.234103	52656.009175	4160.373597	29207.885633
52.037000	-0.036279	-0.155807	-0.018585	-0.297068	10298.085026	65535.000000	5045.539786	47449.523652
52.535000	-0.063646	-0.303683	-0.043085	-0.444944	12671.408853	65535.000000	5767.029362	65535.000000
53.038000	-0.095929	-0.303683	-0.080367	-0.444944	11969.756708	65535.000000	5527.028788	65535.000000
53.535000	-0.010488	-0.160423	0.002026	-0.301685	10836.312688	65535.000000	5176.881004	47925.957839
54.035500	-0.019335	-0.083857	-0.004839	-0.223014	9383.627813	65232.241026	4760.819560	40460.014749
54.536000	-0.022679	-0.068423	-0.014222	-0.204410	9062.960931	64778.816168	4641.530288	38883.515789
55.036000	-0.016580	-0.049920	-0.010366	-0.178454	8786.485463	63725.945219	4552.621099	36793.908002
55.536500	-0.017376	-0.047529	-0.018193	-0.179025	8783.431724	64142.217124	4524.407317	36838.580023
56.036500	-0.008864	-0.069591	-0.015824	-0.210686	9355.868711	65511.075066	4660.925387	39407.838790
56.537000	-0.004000	-0.058254	-0.008950	-0.195939	9210.100734	65021.366299	4628.382462	38187.809495
57.034500	-0.003449	-0.042423	-0.011861	-0.173332	8896.483599	64059.595571	4526.874602	36396.155593
57.535000	-0.003893	-0.034687	-0.010910	-0.161100	8723.329752	63429.648504	4483.861642	35464.906943
58.035000	-0.004047	-0.029086	-0.009291	-0.149970	8573.370999	62663.768967	4448.460079	34640.038974
58.535000	-0.005285	-0.021353	-0.011579	-0.132412	8332.087096	61326.798724	4377.033556	33381.009424
59.036000	-0.007718	-0.017647	-0.008618	-0.120793	8158.412978	60271.944893	4346.888045	32575.485889
59.536000	-0.011697	-0.015126	-0.015911	-0.108728	7966.849245	59024.645411	4281.608352	31761.435548
60.035500	-0.009966	-0.014382	-0.011423	-0.109248	7993.310238	59188.255516	4298.217609	31796.066589
60.536500	-0.010656	-0.018388	-0.010566	-0.125227	8176.630813	60761.880511	4355.484257	32880.360362
61.037000	-0.011430	-0.014711	-0.014178	-0.105969	7937.728793	58722.488730	4278.227757	31578.430088
61.536500	-0.013143	-0.004553	-0.017497	-0.087868	7712.020806	57710.769347	4209.471090	30406.289004
62.037500	-0.011462	-0.008814	-0.016819	-0.107475	7954.935089	59682.305947	4274.500580	31678.176577
62.538000	-0.011709	-0.009583	-0.019583	-0.110444	7986.861596	59970.703673	4275.172193	31875.822217
63.040500	-0.010297	-0.010149	-0.012574	-0.113055	8034.418466	60240.214557	4307.103839	32050.786397
63.544500	-0.012285	-0.008649	-0.017576	-0.107461	7945.157502	59702.007816	4271.971240	31677.236706
64.036000	-0.010015	-0.009260	-0.017600	-0.110768	8010.664512	60055.841058	4282.766598	31897.484176
64.536000	-0.011700	-0.009658	-0.015630	-0.108759	7967.184086	59739.932014	4282.637667	31763.521906
65.036500	-0.013265	-0.009606	-0.020114	-0.106120	7918.142641	59402.325493	4259.323423	31588.407172
65.536500	-0.017618	-0.007242	-0.019766	-0.096315	7756.448096	58442.353899	4228.955442	30947.209383
66.037000	-0.013389	-0.008152	-0.015910	-0.099500	7840.470874	58734.196395	4251.503483	31153.945203
66.537500	-0.010291	-0.007689	-0.013715	-0.096531	7841.937268	58412.842176	4249.005696	30961.174976
67.037500	-0.011607	-0.007954	-0.017669	-0.094998	7809.470628	58183.419501	4231.436015	30862.170575
67.535500	-0.014281	-0.006705	-0.019289	-0.085860	7677.115810	57188.175352	4197.623885	30279.231857
68.035500	-0.012832	-0.006805	-0.016960	-0.088899	7726.987664	57556.874100	4214.390544	30471.729167
68.536000	-0.010570	-0.006120	-0.017166	-0.086169	7721.756050	57300.044863	4205.195361	30298.749222
69.036000	-0.011328	-0.007284	-0.015372	-0.084268	7692.189884	56917.477588	4204.860950	30178.935587
69.535500	-0.012127	-0.006885	-0.016333	-0.081295	7650.554765	56598.334420	4192.641910	29992.621114
70.036500	-0.011618	-0.006750	-0.016016	-0.079588	7637.398381	56404.256958	4188.347556	29886.158520
70.544500	-0.010641	-0.006014	-0.013184	-0.076598	7615.382568	56127.358173	4187.861302	29700.812912
71.037000	-0.012532	-0.007136	-0.011207	-0.075648	7584.494726	55873.972771	4191.031596	29642.167270
71.537000	-0.012544	-0.006800	-0.015920	-0.073578	7561.973069	55662.743312	4170.239256	29514.806159
72.038000	-0.012394	-0.006930	-0.011450	-0.071450	7540.682028	55389.182197	4177.380457	29384.575208
72.540500	-0.013705	-0.006337	-0.015641	-0.069480	7505.585228	55223.050126	4158.678764	29264.557779
73.036500	-0.013379	-0.007188	-0.012387	-0.068400	7497.552748	54990.834121	4165.246695	29198.976985
73.536000	-0.018239	-0.007349	-0.017601	-0.061783	7377.046472	54184.201843	4129.888476	28800.822759
74.036000	-0.013386	-0.006998	-0.012506	-0.065047	7461.947436	54612.894687	4154.772615	28996.475192
74.536500	-0.013216	-0.006593	-0.014769	-0.063571	7448.169741	54485.328420	4143.578914	28907.772956
75.037000	-0.012820	-0.006548	-0.012232	-0.062131	7437.200571	54320.000554	4146.853713	28821.570960
75.537000	-0.016547	-0.007146	-0.018350	-0.055927	7334.102029	53520.802210	4110.561079	28453.407265
76.095000	-0.012775	-0.007331	-0.014287	-0.059839	7413.667770	53957.145439	4133.933471	28684.967849
76.567500	-0.011908	-0.006951	-0.012810	-0.058659	7410.400142	53863.164069	4134.811011	28614.896440
77.053500	-0.012675	-0.007571	-0.012200	-0.058468	7400.406393	53768.036048	4136.052055	28603.575872
77.540000	-0.015223	-0.007314	-0.012458	-0.051663	7304.034071	53006.863526	4115.299530	28203.444051
78.035500	-0.012184	-0.006047	-0.010894	-0.054809	7367.527983	53518.623788	4129.102288	28387.638921
78.535500	-0.011748	-0.006935	-0.011732	-0.054802	7371.972965	53414.454980	4126.615553	28387.239961
79.036000	-0.011504	-0.006498	-0.008761	-0.053655	7362.627851	53331.921281	4131.987678	28319.906399
79.536000	-0.015991	-0.006713	-0.012783	-0.047753	7256.596818	52626.423477	4103.015578	27976.302762
80.039500	-0.012864	-0.006666	-0.011513	-0.052120	7332.824672	53134.448287	4119.390056	28230.089832
80.537000	-0.011533	-0.005973	-0.011841	-0.051520	7340.329965	53145.252796	4116.680850	28195.059673
81.035000	-0.009640	-0.005890	-0.014859	-0.050520	7349.529868	53039.274306	4105.013064	28136.840333
81.535000	-0.013458	-0.006225	-0.011399	-0.045191	7256.300664	52389.534018	4099.619370	27828.620898
82.038000	-0.010720	-0.005409	-0.008214	-0.049616	7329.127833	52990.444469	4121.715705	28084.255214
82.536000	-0.009957	-0.005672	-0.010762	-0.049529	7336.068980	52950.078048	4114.022802	28079.205189
83.035500	-0.008775	-0.005661	-0.011242	-0.049570	7348.641949	52956.072158	4112.744353	28081.580867
83.536500	-0.009944	-0.005415	-0.008777	-0.049095	7331.747618	52929.628590	4118.547510	28054.032669
84.036500	-0.007924	-0.004907	-0.009634	-0.048762	7349.088749	52949.820270	4115.075717	28034.735076
84.536500	-0.008982	-0.005576	-0.005977	-0.049199	7342.698359	52923.144779	4127.061458	28060.059952
85.037500	-0.008651	-0.004754	-0.011455	-0.048713	7341.106369	52961.852967	4109.637096	28031.905204
85.537000	-0.012307	-0.005300	-0.016381	-0.044876	7264.737009	52459.054116	4084.463248	27810.506192
86.037500	-0.006546	-0.005518	-0.012309	-0.049389	7369.778983	52951.653846	4109.118307	28071.068950
86.535000	-0.007869	-0.004886	-0.009572	-0.048891	7350.984798	52967.087349	4115.630947	28042.197928
87.038500	-0.006854	-0.004684	-0.011436	-0.048913	7361.681975	52992.959368	4110.272490	28043.479058
87.536000	-0.010051	-0.004377	-0.010504	-0.044384	7282.601673	52508.364224	4099.875425	27782.305603
88.036000	-0.009512	-0.005310	-0.009764	-0.049621	7341.588694	53002.394860	4117.199414	28084.557496
88.536000	-0.007597	-0.004740	-0.011569	-0.049357	7358.586437	53037.727804	4111.175060	28069.217793
89.036500	-0.007856	-0.005266	-0.011592	-0.049598	7358.416274	53004.909612	4111.809181	28083.247245
89.537000	-0.011368	-0.005433	-0.010801	-0.046443	7290.135078	52623.047683	4104.956861	27900.711047
90.039500	-0.006734	-0.004480	-0.008925	-0.049388	7367.825323	53071.328907	4118.970659	28071.015379
90.540000	-0.009856	-0.004942	-0.012814	-0.050029	7342.254127	53092.100009	4109.512451	28108.291201
91.037500	-0.008476	-0.004541	-0.008632	-0.049718	7353.250373	53102.435490	4120.790069	28090.171293
91.535000	-0.007937	-0.004573	-0.012429	-0.047309	7334.024013	52821.131430	4102.755099	27950.682249
92.035500	-0.007084	-0.004547	-0.010715	-0.050658	7377.354633	53210.495922	4117.452836	28144.856189
92.535500	-0.007948	-0.004447	-0.009349	-0.050308	7364.781417	53181.499900	4120.421402	28124.471028
93.041000	-0.008288	-0.004795	-0.007530	-0.050933	7367.740736	53213.715067	4127.592280	28160.876740
93.535500	-0.010020	-0.004576	-0.009223	-0.048613	7326.025971	52970.855614	4115.837030	28026.083854
94.036500	-0.008112	-0.004240	-0.014841	-0.051034	7370.601782	53289.738807	4106.551631	28166.770288
94.539000	-0.008023	-0.004223	-0.012969	-0.050985	7371.014639	53286.083501	4111.837963	28163.909980
95.037000	-0.008010	-0.004078	-0.010975	-0.051062	7371.946779	53311.796912	4117.873282	28168.398159
95.535000	-0.010566	-0.004353	-0.010531	-0.049227	7326.727422	53067.483847	4113.816719	28061.694803
