sample name	sample
index	1069
start time	 04-22-2021  10:27:11 AM
880	0.041883
Peak Time (s)	101.035
Peak Height 	0.04188
calc peak height	100,103
Baseline Time (s)	10.037
Baseline Value 	-0.005767
subtract baseline	10,4
Abs	0.022773
Peak Time (s)	101.535
Peak Height 	0.02277
calc peak height	100,103
Baseline Time (s)	10.538
Baseline Value 	0.002881
subtract baseline	10,3
PK_550	0.027764
Peak Time (s)	101.535
Peak Height 	0.02776
calc peak height	100,103
Baseline Time (s)	11.534
Baseline Value 	0.001028
subtract baseline	10,2
PK_880	0.025146
Peak Time (s)	102.035
Peak Height 	0.02515
calc peak height	100,103
Baseline Time (s)	11.035
Baseline Value 	0.003065
subtract baseline	10,1


Time (s)	A880-A510	A880-A775	A880-A975	A880	I510	I775	I975	I880	
0.034000	0.001070	-0.000336	0.001218	0.002780	6245.987546	43301.733875	3848.705335	22717.797095
0.537000	-0.003837	-0.000943	-0.000427	0.004621	6191.792354	43073.791545	3839.613694	22633.228567
1.035000	-0.002280	-0.000929	-0.003716	0.003882	6210.141665	43143.816853	3833.007514	22667.142670
1.535000	-0.003932	-0.000719	-0.000280	0.007383	6169.100880	42838.893776	3832.837786	22507.022884
2.035500	0.000366	-0.000343	-0.001917	0.000948	6255.137300	43472.497284	3845.300108	22802.321462
2.536000	-0.003599	-0.000487	0.000589	0.000860	6223.806610	43467.193358	3852.090888	22806.363366
3.036000	0.003433	0.000316	0.000411	-0.000444	6291.502168	43665.110808	3855.052310	22866.746767
3.536500	-0.000604	0.000198	-0.002969	0.003427	6227.253343	43291.099765	3836.114995	22688.021786
4.036500	-0.001936	-0.000429	0.001263	0.000301	6241.722510	43525.013518	3855.333308	22832.229245
4.537000	0.000803	-0.000496	-0.000009	0.000636	6261.215824	43487.389890	3851.110856	22816.737149
5.037000	-0.001655	-0.000743	-0.002796	0.000047	6246.060671	43519.425575	3845.357050	22844.017846
5.535000	-0.003545	-0.000766	-0.002958	0.000029	6230.928196	43518.927891	3844.979295	22844.819523
6.035000	-0.001890	-0.000758	0.000624	0.000180	6243.082823	43505.553973	3853.970856	22837.855346
6.535500	-0.000205	-0.000169	-0.000767	0.000139	6257.066453	43564.754428	3850.426248	22839.751236
7.036000	-0.000929	-0.000226	-0.000525	-0.000142	6253.477028	43585.794662	3851.797789	22852.785985
7.541500	-0.000064	0.000862	0.001217	0.000712	6253.562603	43607.827919	3854.132389	22813.248462
8.036000	0.001313	-0.000126	0.004944	0.000251	6268.498827	43558.191259	3865.206024	22834.553575
8.536500	-0.000322	0.000266	0.002191	0.000160	6255.939841	43603.606887	3858.154834	22838.762545
9.037000	0.001269	-0.000362	-0.003262	-0.000250	6272.224620	43583.114015	3844.915277	22857.777957
9.537000	0.000199	-0.000023	0.003388	-0.000472	6265.312279	43635.853621	3862.993900	22868.044806
10.037500	-0.002192	0.000038	-0.002806	0.000000	6242.089960	43597.251214	3845.453671	22846.184703
10.538000	-0.001124	-0.000513	0.000000	-0.000389	6253.892009	43581.962218	3853.826381	22864.208866
11.035000	0.000000	0.000279	0.001937	0.000220	6258.075225	43599.238453	3857.325750	22836.015884
11.534500	0.000579	0.000000	-0.000473	0.000106	6263.702551	43583.699060	3851.282977	22841.277349
12.035000	0.000385	0.000535	-0.003390	0.000075	6262.383840	43636.949790	3843.735014	22842.731356
12.536000	-0.000934	-0.000419	-0.001565	-0.000488	6256.234069	43600.122090	3849.976125	22868.800428
13.036000	0.000255	0.000347	-0.000370	-0.000410	6265.267218	43664.840139	3852.908473	22865.179472
13.536500	-0.000624	-0.000081	-0.000153	0.003239	6228.607975	43282.666746	3843.925106	22696.705759
14.037000	-0.001853	-0.000683	-0.000480	0.002578	6224.035322	43288.165589	3844.794831	22727.120192
14.537000	-0.000162	0.000035	-0.003129	0.002130	6241.284158	43397.126650	3839.064179	22747.738056
15.037500	0.000638	0.000295	0.001258	-0.000049	6265.445978	43626.029301	3856.245345	22848.468844
15.535500	-0.002075	0.000221	0.000612	0.002878	6219.836245	43344.580441	3846.864959	22713.301150
16.035500	-0.000181	0.000637	0.004400	0.000026	6258.178390	43651.123757	3864.357024	22844.976873
16.535500	-0.000757	0.000294	0.000423	-0.000377	6256.769854	43656.855201	3854.909109	22863.663440
17.039000	0.000475	0.000034	0.002733	-0.003212	6289.947530	43900.072390	3868.536958	22995.559685
17.536500	-0.002551	0.000458	-0.000336	0.002068	6222.520458	43442.501866	3846.501250	22750.589398
18.036500	-0.001706	0.000262	-0.001967	0.001268	6235.772645	43499.127145	3844.330594	22787.504708
18.537000	0.000129	-0.000436	0.001369	0.000559	6256.363568	43500.235014	3854.933673	22820.305917
19.037000	0.000098	-0.000924	-0.000262	0.000661	6255.287501	43444.923893	3850.381767	22815.598447
19.535000	0.000622	-0.000077	0.003117	0.001761	6250.621318	43421.232017	3856.373588	22764.784777
20.037000	-0.001742	-0.000617	-0.002006	0.000749	6239.672850	43465.439561	3845.584926	22811.515124
20.535000	-0.001628	-0.000171	0.001219	0.000936	6239.082962	43489.707491	3853.548154	22802.875098
21.035500	0.000797	0.000361	0.004470	0.001200	6256.584869	43514.789000	3861.430615	22790.649335
21.538500	-0.000023	-0.000721	0.000072	0.001616	6246.564044	43374.479673	3848.750866	22771.437834
22.037000	-0.000609	-0.000435	0.005218	0.001061	6246.317249	43453.226064	3863.782945	22797.108038
22.536500	-0.000733	-0.000462	-0.000492	0.000972	6246.031470	43459.112636	3848.964919	22801.226195
23.037000	-0.001104	-0.000258	-0.000275	0.000831	6244.174701	43491.464217	3849.902191	22807.741271
23.536500	-0.000950	-0.000045	0.003769	0.002476	6232.131390	43357.364646	3856.207320	22731.820772
24.037000	-0.001214	-0.000079	0.001422	0.001344	6239.133606	43460.126974	3853.010517	22784.030212
24.535000	-0.001395	-0.000107	0.004576	0.001125	6239.435886	43477.977597	3861.911240	22794.128460
25.035000	-0.001742	-0.000487	-0.002562	0.000828	6239.035975	43470.193508	3843.926535	22807.838910
25.535000	-0.002280	-0.000614	0.003851	0.001734	6227.386450	43373.489157	3858.381660	22766.005843
26.035500	-0.000561	0.000143	0.000442	0.001337	6244.465568	43481.462723	3850.452998	22784.322420
26.536000	0.000205	0.000369	0.002258	0.001859	6246.444871	43453.790363	3853.854542	22760.256227
27.036000	0.002644	0.000045	0.001690	-0.001577	6294.320821	43746.450668	3861.422644	22919.362506
27.537500	-0.000909	0.000468	-0.000983	-0.000705	6258.202106	43704.096659	3852.073227	22878.869920
28.037000	-0.002215	-0.000160	0.004853	-0.000590	6246.678869	43634.176693	3867.200945	22873.555365
28.537000	0.001239	0.000400	0.002348	0.000032	6269.678553	43628.297775	3858.907816	22844.712405
29.034500	0.001572	0.000967	-0.002213	-0.000004	6272.686885	43684.993201	3847.010571	22846.353968
29.535000	-0.000081	-0.000698	0.004775	-0.000043	6259.545374	43532.074372	3865.535858	22848.169846
30.037500	0.000433	0.000388	-0.000513	0.000260	6261.263009	43605.663469	3850.772537	22834.131787
30.535500	-0.000148	0.000393	-0.000521	0.002797	6236.004371	43368.244613	3844.115559	22717.004018
31.038000	0.000190	-0.000687	0.000234	0.002165	6243.845739	43326.407001	3847.740934	22746.137705
31.536000	-0.000009	-0.000154	0.003584	0.000423	6256.349141	43539.420964	3861.140304	22826.584585
32.036000	-0.002730	-0.001100	-0.002522	-0.000885	6244.898189	43573.380938	3848.509167	22887.208121
32.536500	-0.000266	-0.000596	0.002177	-0.000973	6265.614658	43629.157259	3861.115138	22891.331395
33.037000	0.001919	0.000567	0.000771	0.000167	6274.126697	43631.291479	3854.392421	22838.454343
33.537000	-0.003013	-0.000690	-0.001503	0.003405	6208.083111	43210.407608	3839.975527	22689.040135
34.037500	-0.001505	0.000182	0.000730	0.001810	6233.022620	43440.825413	3849.968912	22762.502110
34.535000	-0.003055	-0.000277	-0.001430	0.001158	6225.781713	43458.935041	3846.021898	22792.589294
35.038000	-0.000483	0.000063	0.004819	0.001960	6240.066487	43415.658594	3860.342773	22755.597614
35.539000	-0.001665	-0.000104	0.004959	0.001527	6234.014544	43440.631943	3861.859100	22775.567692
36.036000	-0.001154	-0.000332	0.002167	0.002102	6233.497485	43365.364013	3852.974144	22749.027311
36.536500	-0.001756	-0.000260	0.002777	0.001601	6232.686099	43419.021003	3855.899280	22772.145690
37.090500	-0.001427	-0.000402	0.006058	0.003285	6221.778887	43248.453316	3860.116463	22694.582398
37.537000	-0.002170	-0.000574	-0.003325	0.001889	6227.029424	43362.734105	3839.182058	22758.880704
38.037500	-0.002101	-0.000545	0.006015	0.000969	6235.000885	43451.564755	3866.144278	22801.334665
38.537500	-0.002974	-0.000381	-0.000740	0.000751	6229.717491	43487.353140	3848.892570	22811.437366
39.037500	-0.001919	0.000393	0.002711	0.001392	6233.052710	43499.856496	3856.275314	22781.790262
39.535500	-0.001468	0.000652	-0.001879	0.002511	6227.673414	43419.207717	3841.324536	22730.196447
40.035000	-0.003178	0.000118	0.002179	0.001620	6221.082574	43452.655101	3854.273783	22771.261138
40.538000	-0.000577	0.000183	0.000013	0.001966	6239.257670	43426.371239	3847.682407	22755.317321
41.036000	-0.001249	-0.000099	0.005367	0.001393	6238.451077	43453.635930	3863.296828	22781.754617
41.536000	-0.002235	0.000316	-0.005889	0.002424	6222.195054	43395.916076	3831.160907	22734.179304
42.036500	-0.000853	0.000120	-0.002886	0.001373	6241.814311	43476.032820	3841.663613	22782.669277
42.536500	-0.001825	-0.000529	-0.001736	0.000899	6237.793500	43459.674847	3845.900782	22804.591106
43.037000	-0.000563	0.000169	0.002410	0.001452	6243.526709	43473.236486	3855.325803	22779.029098
43.534500	0.000271	0.000741	0.004909	0.001368	6250.952750	43534.725081	3862.146776	22782.887301
44.035000	0.000794	0.000048	0.003421	-0.000781	6272.676015	43671.634921	3863.900601	22882.385865
44.535000	-0.002165	0.000048	0.002527	-0.000569	6246.910545	43651.700524	3860.971626	22872.567575
45.035500	-0.001036	-0.000392	-0.003149	0.000876	6244.354449	43474.633096	3842.274443	22805.656259
45.535500	-0.000560	0.000559	-0.002978	0.003438	6227.518420	43323.801850	3836.064731	22687.519376
46.038500	-0.001062	0.000290	0.003459	0.000217	6249.476672	43600.529759	3861.355563	22836.121589
46.536000	-0.000650	-0.000135	-0.000585	-0.000460	6258.317178	43624.250767	3852.476011	22867.521795
47.037000	-0.002474	0.000204	-0.003029	0.002522	6219.490831	43376.224516	3838.306686	22729.668534
47.537000	-0.000124	-0.000435	0.002737	0.003526	6230.322102	43222.865132	3850.731964	22683.474493
48.034500	-0.000801	-0.000224	0.002094	-0.000873	6260.441100	43654.761100	3860.627368	22886.662038
48.534500	0.000027	0.000127	0.005155	-0.000663	6265.474338	43667.967713	3868.198328	22876.923705
49.038000	-0.002292	-0.000431	0.001143	0.001568	6228.625910	43406.081945	3851.687501	22773.665334
49.535500	-0.002046	-0.000533	-0.002353	0.001616	6230.225163	43392.118624	3842.420571	22771.464604
50.038500	0.000719	-0.000092	0.003559	0.010424	6181.874941	42616.729839	3834.902130	22369.022322
50.535500	0.037348	-0.000882	0.055803	0.273580	4779.224474	24463.215947	3402.668247	13442.502464
51.036000	0.010706	-0.013522	-0.017893	0.087286	5689.335028	35134.304930	3607.287758	19182.838786
51.536500	-0.030210	-0.032977	-0.063637	-0.144900	7326.497970	55598.348062	4087.678626	30814.696239
52.039500	-0.006157	-0.137514	-0.042087	-0.324270	10072.165225	65535.000000	4897.317042	45178.259043
52.536500	-0.007689	-0.095967	-0.031575	-0.282353	9373.244429	65481.578541	4744.822700	41272.444589
53.036500	-0.013368	-0.088722	-0.030831	-0.274888	9175.214019	65449.748466	4713.593170	40615.528590
53.534500	-0.011433	-0.073733	-0.030924	-0.257133	8944.685397	65051.726576	4632.978762	39097.749626
54.035000	-0.017329	-0.061364	-0.034005	-0.240444	8629.795451	64435.198013	4547.461891	37726.620076
54.538000	-0.019850	-0.064027	-0.036727	-0.245899	8669.784775	64833.086034	4559.054401	38169.019301
55.036000	-0.021406	-0.057450	-0.039700	-0.236260	8518.643678	64396.930453	4506.166625	37391.021609
55.536000	-0.012016	-0.051118	-0.029707	-0.227285	8524.169815	64022.876765	4510.380057	36681.985508
56.036000	-0.010934	-0.029661	-0.028608	-0.188156	8038.237196	61579.988018	4359.541491	33756.421614
56.537000	-0.010824	-0.018218	-0.023330	-0.150261	7595.973446	58104.059355	4240.288660	31163.569291
57.036500	-0.010956	-0.012702	-0.023466	-0.119888	7265.968663	55025.124638	4136.567986	29242.712716
57.537000	-0.001015	-0.008691	-0.016205	-0.102541	7189.289513	53444.557937	4103.852184	28204.451478
58.037500	-0.007820	-0.006604	-0.015310	-0.074132	6842.037573	50463.645500	4018.366263	26591.150910
58.535000	-0.008167	-0.004162	-0.017509	-0.056569	6675.936042	48831.242532	3960.225672	25645.288765
59.035000	-0.007731	-0.001835	-0.013165	-0.042004	6549.655203	47551.039933	3931.177539	24889.386712
59.536000	-0.005402	-0.001281	-0.015503	-0.043722	6585.403453	47785.915857	3929.433784	24977.202020
60.041000	-0.001658	0.000404	-0.010026	-0.033541	6528.687392	46913.558424	3916.313535	24461.658987
60.536500	-0.001462	0.000312	-0.010915	-0.022448	6434.576198	45790.861424	3883.520494	23913.497898
61.036000	-0.005699	0.001469	-0.006358	-0.007859	6277.453368	44480.286610	3856.755561	23213.585972
61.537000	0.000407	0.002821	-0.008119	0.008945	6191.151823	43021.791013	3808.821961	22436.002522
62.037000	0.001463	0.002434	0.003060	0.027132	6057.317864	41336.069308	3791.257615	21627.676672
62.534500	-0.003272	0.002151	-0.004964	-0.002086	6250.234400	43994.011736	3845.264716	22943.042457
63.034500	-0.004982	0.002540	-0.011265	-0.009983	6300.735767	44788.364525	3849.440432	23314.047809
63.535000	-0.005341	0.001584	-0.003353	0.054691	5804.244808	38893.247853	3710.002029	20465.500399
64.038000	-0.002466	0.003761	-0.004773	0.052911	5837.362602	39223.967874	3710.827137	20538.330651
64.536000	-0.005489	0.004211	0.000355	0.050915	5830.027473	39429.914263	3727.358105	20620.390247
65.053500	-0.004361	0.007398	-0.000199	0.051481	5834.041712	39651.966999	3724.741767	20597.097822
65.548500	-0.001416	0.008958	0.002886	0.047664	5882.738830	40111.533662	3740.977089	20754.851102
66.042500	-0.000202	0.010400	0.002921	0.041669	5935.499596	40756.768424	3755.373240	21005.460872
66.534500	0.000642	0.011319	0.006786	0.040439	5950.839340	40945.224691	3767.692808	21057.287659
67.037000	0.000889	0.012009	0.004670	0.038022	5970.651931	41219.485932	3768.424824	21159.599727
67.537000	-0.002308	0.012537	-0.000486	0.039181	5938.313754	41163.640451	3753.165247	21110.472523
68.038000	0.002915	0.012300	-0.000680	0.032627	6026.489609	41726.334795	3768.535646	21390.022601
68.535000	0.002715	0.012695	0.001762	0.031383	6034.420505	41873.664692	3777.545178	21443.542323
69.035500	-0.000552	0.011916	0.003917	0.035080	5981.870762	41472.584553	3773.765774	21284.889214
69.539000	0.000381	0.012617	0.003585	0.032703	6006.746090	41748.002406	3778.783055	21386.767244
70.035500	0.002687	0.014225	0.008699	0.026339	6072.801929	42470.296670	3807.370168	21662.209293
70.539000	0.003456	0.014963	0.003607	0.024238	6094.965375	42730.855006	3799.846770	21754.058837
71.037000	0.000449	0.015480	0.004568	0.028826	6036.642749	42357.873151	3790.795770	21554.101774
71.537500	0.004641	0.015973	0.004148	0.022718	6115.975282	42964.293413	3805.024310	21820.733332
72.037000	0.005466	0.015396	0.003722	0.021558	6131.483261	43018.307882	3806.873620	21871.814839
72.537000	0.004056	0.015234	0.006297	0.019196	6138.953078	43222.818311	3819.399874	21976.243318
73.040000	0.000777	0.015519	0.000729	0.022839	6085.058585	42911.187924	3796.147238	21815.444975
73.538000	0.003036	0.015868	0.004118	0.019547	6128.205059	43249.190870	3812.962440	21960.675693
74.035500	0.005299	0.015618	0.003720	0.011546	6209.458445	43978.339700	3832.419371	22318.339653
74.536000	0.006232	0.016897	0.006757	0.010884	6222.256222	44163.016826	3842.006889	22348.207759
75.036000	0.004500	0.016779	0.002803	0.014698	6177.949588	43789.790066	3821.964226	22176.639706
75.536500	0.003965	0.017417	0.002613	0.014485	6175.398383	43870.334291	3822.024784	22186.200898
76.037000	0.006330	0.018105	0.000609	0.009132	6237.165173	44446.175904	3830.622649	22427.552934
76.536500	0.006032	0.019191	0.008803	0.009533	6231.521542	44511.963095	3850.885528	22409.342001
77.039000	0.002067	0.020136	0.004897	0.016524	6144.317403	43934.731226	3822.649885	22095.058132
77.535000	0.004866	0.019637	0.005225	0.015976	6170.724541	43939.334659	3824.894698	22119.491903
78.040000	0.008670	0.019863	0.007004	0.012406	6229.626135	44300.841083	3838.691518	22279.553963
78.535500	0.006098	0.020300	0.005884	0.013904	6196.989184	44199.538261	3831.918312	22212.225724
79.037000	0.003574	0.020476	0.010854	0.020585	6124.295665	43583.442930	3827.513515	21914.777107
79.536500	0.002797	0.020249	0.011285	0.020410	6119.591536	43578.540227	3829.071017	21922.488366
80.036000	0.006308	0.021888	0.012763	0.018321	6163.579436	43930.403827	3838.288199	22015.053227
80.536500	0.007897	0.022360	0.013328	0.020606	6158.073506	43758.878895	3833.833292	21913.818317
81.037000	0.005537	0.021799	0.004144	0.027120	6088.764565	43096.414993	3793.986807	21628.203477
81.537500	0.008976	0.021409	0.006242	0.021430	6160.089470	43591.706173	3813.573271	21877.457483
82.040000	0.010112	0.022151	0.008358	0.021969	6164.811139	43610.720970	3817.584372	21853.700523
82.535000	0.010806	0.020999	0.013187	0.021131	6176.940470	43581.199414	3832.113585	21890.639478
83.038500	0.006860	0.021329	0.007760	0.026495	6103.849460	43110.703822	3804.608443	21655.389208
83.535500	0.010394	0.021515	0.011467	0.021834	6168.111278	43563.619753	3825.879085	21859.651284
84.036000	0.008427	0.020627	0.010516	0.021299	6156.794470	43530.565664	3824.810626	21883.246259
84.536500	0.011131	0.021578	0.012900	0.022650	6167.486459	43492.988325	3827.464611	21823.753787
85.036500	0.005823	0.020739	0.007325	0.028503	6080.286767	42870.073547	3798.474781	21568.069262
85.536500	0.010860	0.021202	0.013479	0.023387	6159.516628	43388.689419	3827.056558	21791.349704
86.037500	0.013000	0.021646	0.015040	0.024150	6170.410797	43358.867293	3829.110832	21757.905400
86.535000	0.012704	0.022022	0.016218	0.025196	6159.789907	43296.226792	3829.448481	21712.101329
87.035000	0.009670	0.022306	0.010966	0.031031	6090.475481	42781.393650	3801.266854	21458.734123
87.538000	0.015250	0.024253	0.009866	0.027135	6164.588851	43323.559288	3808.305875	21627.552049
88.035500	0.012257	0.023151	0.013725	0.026497	6146.017004	43280.280296	3819.722718	21655.321493
88.536000	0.014871	0.023589	0.015318	0.027145	6161.514607	43260.687284	3822.137862	21627.106407
89.036500	0.011585	0.023080	0.011659	0.033084	6089.410680	42663.779328	3797.860266	21370.406390
89.539500	0.013426	0.023552	0.010453	0.032625	6107.238040	42749.315483	3795.989388	21390.087331
90.036500	0.016443	0.023468	0.014491	0.027995	6167.217924	43170.120472	3817.855902	21590.123420
90.537000	0.016525	0.023271	0.013050	0.027533	6171.530096	43194.897695	3815.365930	21610.225248
91.037000	0.017356	0.023475	0.014451	0.027733	6176.530824	43195.277586	3818.423905	21601.527466
91.535000	0.015035	0.023935	0.016489	0.033247	6114.919226	42727.312054	3809.595375	21363.371764
92.035000	0.015560	0.023472	0.019024	0.028639	6155.161125	43110.640925	3827.807956	21562.169282
92.535000	0.019412	0.024816	0.015994	0.029689	6177.322941	43137.979427	3817.369492	21516.703978
93.036000	0.014468	0.023812	0.012683	0.034292	6102.392454	42620.026402	3797.399850	21318.610589
93.539000	0.015778	0.024297	0.012224	0.035238	6105.208241	42577.706048	3793.888689	21278.125099
94.036500	0.019298	0.025319	0.018472	0.031122	6165.074931	43051.655125	3820.035647	21454.823189
94.536500	0.017762	0.024966	0.020622	0.031090	6153.192001	43021.772757	3825.618451	21456.165175
95.036500	0.016176	0.024714	0.012541	0.036622	6097.556305	42489.153904	3791.232965	21219.098095
95.537000	0.017211	0.025707	0.014680	0.037834	6096.189568	42469.096387	3793.541796	21167.574553
96.037000	0.019929	0.025906	0.014707	0.032590	6158.452815	42969.974429	3806.755809	21391.587094
96.535000	0.022462	0.026146	0.019543	0.032624	6178.244359	42989.093451	3818.937133	21390.160339
97.038000	0.017394	0.025162	0.012996	0.038438	6092.931032	42364.177719	3787.856140	21141.947151
97.535500	0.019670	0.026534	0.018622	0.033572	6148.683825	42937.214685	3814.180263	21349.463293
98.035500	0.022052	0.026256	0.021254	0.033796	6165.707656	42890.800722	3820.310861	21339.861078
98.536000	0.020990	0.026601	0.019302	0.034350	6152.942043	42871.486893	3813.930526	21316.101955
99.036000	0.016448	0.025684	0.016112	0.039108	6080.436919	42350.663413	3793.934064	21113.541232
99.536500	0.022980	0.026930	0.023402	0.035605	6158.742694	42786.047089	3821.177815	21262.480165
100.037000	0.024974	0.027746	0.021985	0.036593	6166.691674	42770.216757	3815.047062	21220.348184
100.537500	0.023791	0.027069	0.020597	0.036339	6159.353729	42731.205234	3812.170469	21231.170533
101.035000	0.020335	0.027010	0.018240	0.041883	6089.036065	42218.881992	3792.325850	20996.463306
101.535000	0.025016	0.027764	0.022773	0.038133	6154.868232	42630.268699	3813.139226	21154.906846
102.035000	0.025146	0.027554	0.019760	0.038530	6152.756416	42574.513691	3804.519568	21138.038745
102.535500	0.024789	0.027329	0.019272	0.039117	6145.323507	42500.083255	3801.817506	21113.174701
103.038500	0.021591	0.026036	0.019753	0.043391	6087.081367	41993.939940	3792.336902	20933.128127
103.536500	0.026290	0.027641	0.027105	0.040877	6143.292919	42367.809935	3817.174151	21038.814304
104.036500	0.025221	0.027746	0.022798	0.041953	6126.474776	42279.361063	3803.550433	20993.482949
104.537000	0.026282	0.027474	0.025933	0.042038	6134.119894	42246.992472	3811.250169	20989.946519
105.037000	0.026459	0.027996	0.028172	0.043025	6127.776688	42204.645878	3814.427297	20948.481006
105.537000	0.023755	0.027369	0.022360	0.049676	6055.384907	41549.089167	3783.221591	20671.535703
106.034500	0.029642	0.028468	0.024935	0.045530	6133.078907	42020.398504	3799.936557	20843.651703
106.537500	0.026776	0.027458	0.023865	0.045431	6111.474073	41938.102460	3797.505112	20847.780898
107.035500	0.029096	0.027735	0.024982	0.046593	6120.496748	41858.371559	3797.391363	20799.350818
107.536000	0.027087	0.027300	0.025810	0.052237	6061.290452	41314.935269	3785.417035	20566.026850
108.035500	0.028791	0.027921	0.025644	0.048377	6104.238946	41714.749683	3794.591699	20725.291954
