sample name	sample
index	1047
start time	 04-19-2021  02:24:01 PM
880	0.032498
Peak Time (s)	102.038
Peak Height 	0.0325
calc peak height	100,103
Baseline Time (s)	10.535
Baseline Value 	-0.002772
subtract baseline	10,4
Abs	0.030770
Peak Time (s)	102.038
Peak Height 	0.03077
calc peak height	100,103
Baseline Time (s)	10.037
Baseline Value 	0.001948
subtract baseline	10,3
PK_550	0.026321
Peak Time (s)	102.038
Peak Height 	0.02632
calc peak height	100,103
Baseline Time (s)	8.537
Baseline Value 	5.4267E-4
subtract baseline	10,2
PK_880	0.034890
Peak Time (s)	101.038
Peak Height 	0.03489
calc peak height	100,103
Baseline Time (s)	9.54
Baseline Value 	-1.0824E-4
subtract baseline	10,1


Time (s)	A880-A510	A880-A775	A880-A975	A880	I510	I775	I975	I880	
0.034000	-0.000519	-0.001276	-0.004473	0.001310	6572.222365	45881.026629	3985.886755	24345.509317
0.540500	-0.002639	-0.000871	0.002528	0.006390	6512.262590	45422.019450	3990.769544	24096.405773
1.037500	-0.001204	-0.000260	-0.005335	0.003884	6544.966538	45727.584389	3977.206987	24218.945102
1.537500	0.002152	0.000155	0.002934	0.001166	6595.946130	46036.872841	4005.203255	24352.620075
2.035500	-0.000747	-0.000095	-0.002049	0.000402	6577.944951	46087.853561	3994.368013	24390.355530
2.535500	-0.002190	0.000459	-0.004245	0.007375	6507.834456	45455.692110	3971.182408	24048.417905
3.036000	0.002059	-0.000108	0.001537	-0.001277	6615.856352	46253.440907	4007.906161	24473.488282
3.536500	0.000537	-0.000360	0.001629	0.000590	6587.168273	46042.884695	4003.324803	24381.052588
4.036500	-0.001243	-0.000418	0.001840	0.000137	6576.004582	46082.105143	4005.037745	24403.480372
4.537000	-0.000242	-0.000304	-0.001504	0.002553	6564.122294	45854.308639	3990.271188	24284.273762
5.040000	0.002281	-0.000312	0.003050	0.000021	6606.731105	46104.093301	4008.462665	24409.187509
5.537500	-0.001006	-0.000468	-0.004989	-0.000483	6583.211002	46138.670582	3989.128504	24434.130244
6.035000	0.000292	-0.000077	0.004229	0.000170	6588.646673	46112.618661	4011.131075	24401.820914
6.535500	0.000213	-0.000253	-0.004807	-0.000504	6593.671414	46162.102867	3989.646018	24435.203162
7.035500	-0.000039	0.000041	0.001594	-0.000139	6588.468210	46155.047671	4005.114225	24417.115348
7.536000	-0.000276	-0.000184	-0.000887	-0.000529	6589.751397	46171.442503	3999.731136	24436.406808
8.036500	0.000703	-0.000672	-0.000267	-0.000607	6598.686569	46130.714281	4001.524173	24440.281012
8.536500	-0.000794	0.000000	-0.003756	0.000168	6579.518659	46120.466691	3990.609283	24401.912932
9.036500	-0.000940	0.000444	0.002492	0.000426	6576.117826	46138.940719	4005.971798	24389.154413
9.540000	0.000000	-0.000351	-0.004560	-0.000326	6590.374635	46134.705588	3989.822804	24426.391971
10.037500	-0.000276	-0.000283	0.000000	-0.000169	6586.717619	46125.847706	4001.084499	24418.582652
10.535000	0.000973	0.000166	0.000356	0.000000	6595.832045	46153.668602	4001.565796	24410.237836
11.035000	0.001468	0.000510	0.002662	0.000104	6599.138706	46177.488744	4007.244464	24405.075248
11.535500	0.001877	-0.000550	-0.001119	-0.000768	6609.993792	46158.803961	3999.749089	24448.261764
12.035500	0.001744	0.000509	0.004382	-0.000281	6604.735004	46215.719775	4012.698716	24424.143237
12.536000	0.000660	-0.000229	0.000288	-0.000088	6593.938170	46123.192199	4001.617110	24414.596037
13.036000	0.000438	0.000046	0.003423	-0.000555	6596.004481	46196.869865	4010.922805	24437.715408
13.536500	0.001247	-0.000288	0.001173	-0.000235	6600.145947	46131.962593	4004.277326	24421.879909
14.039000	-0.000618	0.000283	-0.000485	0.002259	6563.436752	45941.382324	3993.621572	24298.778374
14.537000	-0.001833	-0.000377	0.001736	0.001883	6556.418627	45913.341296	4000.274264	24317.287099
15.035500	-0.000027	-0.000877	-0.003689	-0.000451	6591.199163	46094.887003	3992.359356	24432.552064
15.535000	0.000810	0.000180	0.002129	0.000540	6589.892952	46101.380849	4004.742390	24383.527861
16.035000	0.001925	0.000044	0.000332	0.000210	6602.113984	46120.692242	4000.966086	24399.863717
16.535500	0.000633	-0.000191	-0.001256	-0.000459	6596.842004	46163.794993	3998.602721	24432.945913
17.035500	0.002084	-0.000252	0.000509	-0.003620	6636.046326	46473.048527	4011.313576	24590.090994
17.536000	-0.001199	-0.000235	0.000445	0.000562	6572.799258	46058.107937	4000.350676	24382.457470
18.036500	-0.000386	0.000221	0.002767	0.000785	6577.763473	46081.259281	4005.756695	24371.449045
18.539500	-0.000381	-0.000001	0.001670	0.000641	6579.010394	46073.442965	4003.297897	24378.523287
19.037000	-0.001776	-0.000590	-0.000448	0.000626	6567.420209	46016.520175	3997.892704	24379.282162
19.537500	0.002190	0.000138	0.000402	0.001300	6595.139883	46022.001641	3998.345461	24346.036780
20.038000	0.000696	-0.000475	-0.000338	-0.000020	6593.663805	46091.989485	3999.835795	24411.238198
20.535500	-0.001441	-0.000228	0.002905	0.000406	6572.077895	46074.238912	4007.092466	24390.155615
21.035500	0.002065	0.000331	-0.005559	0.001291	6594.157494	46041.900881	3983.182885	24346.455895
21.535500	-0.000170	-0.000656	-0.000945	0.000254	6584.047636	46046.933314	3997.574302	24397.682692
22.035000	0.000422	0.000795	0.000616	0.000777	6584.623293	46138.961191	4000.236325	24371.809954
22.536500	0.000163	0.000942	0.001563	0.001313	6577.940652	46100.332068	4001.294421	24345.381051
23.039000	-0.000433	-0.000428	0.001177	0.000543	6579.392964	46040.778930	4002.281579	24383.369189
23.536500	-0.000664	-0.000087	-0.002313	0.000163	6580.655202	46112.414552	3994.306629	24402.183808
24.037000	0.000041	-0.000278	0.002971	0.000800	6581.231255	46030.286234	4006.245652	24370.703559
24.537500	0.000153	0.000509	0.001961	0.001138	6579.324039	46074.753442	4002.770312	24354.029532
25.034500	0.000416	-0.000124	0.004753	0.000379	6587.930547	46087.228818	4011.950020	24391.496553
25.535000	-0.000097	-0.000646	0.002962	0.000101	6585.948873	46062.993537	4008.026967	24405.236807
26.035500	0.000685	0.000522	0.003440	0.001060	6584.464001	46083.790238	4006.784805	24357.860179
26.536000	-0.001506	-0.000743	-0.001240	0.000218	6573.111519	46041.871437	3996.909678	24399.454080
27.036000	0.001389	-0.000869	-0.001813	-0.001566	6612.628597	46206.487164	4000.016780	24487.851178
27.539000	0.003999	0.000284	0.001871	-0.002505	6642.881540	46415.069339	4011.954375	24534.526328
28.036500	-0.000019	-0.000281	0.002363	-0.000785	6594.081010	46187.192506	4008.769053	24449.090906
28.537000	0.000968	-0.000343	-0.001660	0.000679	6590.061089	46035.816462	3994.656447	24376.687529
29.037500	-0.001618	-0.000646	-0.000147	-0.000568	6578.775507	46129.423378	4001.733717	24438.376759
29.534500	-0.001993	-0.000003	-0.001546	-0.000509	6575.126544	46187.498203	3997.987897	24435.433728
30.035000	0.001412	0.000612	0.002716	0.000284	6597.144087	46169.722142	4006.918538	24396.172343
30.535500	-0.000451	-0.000446	0.001808	0.002749	6560.733714	45821.025594	3998.236068	24274.664171
31.036000	-0.000146	-0.000212	0.000091	0.001957	6569.926008	45922.273098	3995.864441	24313.620363
31.536000	0.000759	-0.000091	0.004606	0.000928	6586.195816	46036.044430	4010.143607	24364.375827
32.038500	0.000638	-0.000008	0.000503	0.000211	6591.227425	46115.450225	4001.403281	24399.814654
32.536500	0.002007	0.000337	0.001787	0.001097	6595.300411	46061.767088	4002.425830	24356.017141
33.037000	0.002558	-0.000204	0.001283	-0.000119	6610.271962	46128.761923	4004.262006	24416.150425
33.537000	-0.000467	-0.000895	0.000790	-0.000953	6591.721756	46143.025685	4005.140528	24457.463125
34.036500	0.000257	-0.000550	-0.000150	-0.001020	6598.410080	46183.884719	4002.888881	24460.769501
34.535000	-0.001903	-0.000302	0.003404	0.000852	6564.458716	46022.701200	4007.229815	24368.128806
35.035500	-0.000135	0.000088	0.004906	0.001309	6575.458816	46016.097711	4009.932635	24345.565087
35.535500	0.000136	0.000439	0.000637	0.001042	6579.992338	46077.345904	3999.612430	24358.766933
36.035500	-0.000886	0.000646	0.003180	0.001583	6566.857052	46044.249573	4004.763065	24332.064748
36.539000	-0.000112	0.000112	0.001550	0.001720	6572.204084	45977.751506	4000.213638	24325.292819
37.036500	-0.002155	-0.001191	0.001687	0.000260	6567.311906	45993.320984	4004.323391	24397.378035
37.536500	0.000419	0.000118	-0.000664	0.001185	6581.173348	46031.376287	3995.910264	24351.703971
38.036500	0.000436	0.000362	0.006768	0.001054	6582.408708	46068.455411	4015.431815	24358.132139
38.537500	0.000024	-0.000594	-0.003176	0.000329	6585.051961	46045.577591	3991.677673	24393.962226
39.035000	0.000327	-0.000115	-0.000677	0.000318	6587.699266	46094.235821	3998.098358	24394.531084
39.535000	-0.000158	-0.000257	-0.002957	0.000138	6585.131311	46097.999965	3992.726302	24403.430377
40.035500	0.002611	-0.000360	0.001338	0.000376	6606.517167	46064.045778	4003.124951	24391.618917
40.535500	0.000717	-0.000812	0.000390	0.000117	6592.689026	46045.011718	4001.354067	24404.473486
41.038500	-0.002223	-0.000711	0.000512	-0.000082	6569.615921	46074.839502	4002.180603	24414.315598
41.536000	0.000279	-0.000181	0.005291	0.000441	6586.257775	46075.395634	4013.184746	24388.428326
42.037500	0.001838	0.000452	0.003481	0.001178	6593.188347	46065.093644	4006.585400	24352.026585
42.536500	0.000274	-0.000121	0.001599	0.000525	6585.503703	46073.002941	4003.413230	24384.268390
43.037000	-0.000682	-0.000344	0.000624	0.000750	6575.563266	46028.618424	4000.327455	24373.164846
43.536500	-0.000875	0.000189	0.002930	0.000854	6573.062160	46071.152757	4005.999288	24368.009988
44.035000	0.001528	0.000284	-0.000256	0.001084	6591.363249	46057.717755	3997.210437	24356.653196
44.535500	0.001170	0.000427	0.005168	-0.000056	6597.976125	46185.135741	4014.158615	24412.990813
45.035000	0.001458	0.000531	0.003456	0.000040	6599.596871	46186.006615	4009.466211	24408.266709
45.538500	0.000476	0.000269	-0.000413	0.001822	6576.289669	45983.251375	3994.922193	24320.295402
46.036000	0.000519	0.000243	-0.000193	-0.000389	6595.290479	46200.066616	4001.155196	24429.506703
46.536000	0.000323	-0.000327	0.003096	-0.000872	6597.710901	46191.313984	4010.894713	24453.414333
47.036500	0.001755	0.000665	-0.001626	0.000198	6600.771112	46183.564355	3995.973145	24400.424151
47.536500	-0.001995	0.000754	-0.003508	0.003193	6544.131634	45895.652393	3983.561174	24252.850757
48.037500	0.000524	0.000105	0.001042	0.001323	6580.891028	46016.409193	3999.930161	24344.883307
48.537000	0.001183	0.000169	0.001038	-0.000643	6603.052399	46217.919711	4004.980802	24442.091657
49.035000	0.000708	0.000637	-0.000192	-0.000277	6595.938916	46228.081899	4000.869086	24423.946782
49.535500	0.000312	0.000170	-0.000425	0.000421	6586.697806	46112.203979	3998.479574	24389.409196
50.038000	0.001888	0.000708	0.003352	-0.003309	6631.710635	46537.986561	4017.901044	24574.563344
50.536000	0.002383	0.000367	0.000880	0.000011	6607.685874	46172.590638	4002.886334	24409.707334
51.036000	0.000356	-0.000931	0.003832	0.030419	6342.661655	43133.144492	3934.368266	22956.723999
51.536000	0.025102	-0.015857	0.025586	0.631356	3831.845223	12721.035900	3161.134890	7944.540980
52.036500	0.008038	-0.013635	-0.015578	0.050029	6250.071056	40255.572251	3844.151019	22072.256532
52.537000	-0.020127	-0.082347	-0.035976	-0.239084	8988.866238	64884.538876	4666.206227	40184.691244
53.037000	-0.004270	-0.117289	-0.016749	-0.278567	9812.933653	65535.000000	4924.110136	43731.004298
53.535000	-0.006958	-0.101463	-0.012958	-0.262742	9525.494103	65535.000000	4868.369437	42270.790607
54.035000	-0.006044	-0.083714	-0.018374	-0.244271	9263.985295	65431.209160	4762.200035	40632.402496
54.537500	-0.006151	-0.070916	-0.016283	-0.228312	9033.768145	64978.405401	4703.184829	39271.851730
55.035500	-0.005929	-0.069092	-0.015478	-0.226896	9016.998620	65036.769755	4700.630994	39153.551990
55.535500	-0.014752	-0.059920	-0.017591	-0.213900	8718.489502	64492.946725	4638.531374	38085.455526
56.036500	-0.006096	-0.071307	-0.014196	-0.229773	9055.116994	65131.379510	4718.103832	39394.327774
56.536500	-0.005179	-0.043776	-0.012312	-0.188746	8514.320735	63230.283211	4560.066967	36106.707097
57.036500	-0.001256	-0.024896	-0.009136	-0.148290	8063.389211	60311.361522	4422.234746	33155.194966
57.537000	-0.000053	-0.015131	-0.008722	-0.113957	7685.980625	57159.281669	4306.701346	30857.218999
58.037000	0.002115	-0.010536	-0.006494	-0.081758	7367.891086	53824.285225	4211.862547	28861.103611
58.537500	-0.003548	-0.009757	-0.011705	-0.065045	7144.771213	51993.362349	4146.515704	27881.855843
59.038000	-0.003571	-0.005899	-0.002855	-0.045448	6958.375999	50249.580449	4115.667389	26780.654177
59.535500	-0.002680	-0.002951	-0.012143	-0.035640	6876.409798	49509.229550	4062.703804	26247.932691
60.036000	-0.001812	-0.001836	-0.010826	-0.022425	6765.650031	48231.317726	4030.863064	25548.870123
60.536500	-0.002791	-0.000069	-0.010367	-0.012443	6669.928518	47383.807445	4005.998462	25034.756848
61.036000	-0.000133	-0.000297	-0.005900	-0.001362	6597.995839	46243.067414	3989.047134	24477.722968
61.536500	0.003988	0.000651	-0.004436	0.005520	6574.718727	45656.265670	3975.353236	24138.852638
62.037000	0.001761	0.000013	-0.002670	0.001969	6585.869671	45943.317085	3988.793179	24313.048259
62.537000	0.002399	0.002395	-0.003961	0.012820	6500.784413	45114.072529	3958.345325	23785.231483
63.034500	0.005291	0.003639	-0.001152	0.019522	6469.546414	44588.089814	3948.761043	23465.738155
63.538000	0.006840	0.005692	-0.003484	0.029575	6400.812340	43829.053087	3918.838296	22995.691709
64.035000	0.002668	0.005359	-0.000234	0.026571	6391.482394	44080.919856	3933.841662	23135.017385
64.535500	0.005935	0.006280	0.005246	0.044748	6274.490244	42480.810772	3903.605538	22306.540436
65.036000	0.010011	0.008293	0.002804	0.037813	6360.505122	43302.665961	3914.206741	22618.562548
65.536000	0.013918	0.008841	0.004492	0.038402	6386.840519	43298.813468	3916.813009	22591.832028
66.036000	0.010009	0.010975	0.000013	0.044251	6309.929050	42955.601225	3892.552404	22328.726612
66.536500	0.014131	0.014032	0.009376	0.051187	6288.063932	42600.287032	3898.200656	22021.256482
67.037000	0.009126	0.013635	0.003312	0.040167	6334.971921	43580.820145	3909.836889	22512.071558
67.537000	0.015448	0.013928	0.001470	0.033775	6436.282816	44210.371042	3920.637341	22802.538585
68.038000	0.011210	0.012659	0.003514	0.032455	6412.761626	44215.173164	3928.694711	22863.046908
68.535000	0.013741	0.014418	0.007413	0.016045	6568.243552	45975.939793	3978.685890	23630.889077
69.035500	0.013212	0.014622	0.012971	0.008522	6627.386506	46747.365489	4012.145741	23992.724077
69.535500	0.014510	0.014207	0.007878	0.001434	6699.580654	47424.737414	4017.337172	24339.421689
70.035500	0.014569	0.015898	0.013509	-0.001813	6728.420565	47932.576060	4040.732562	24500.118330
70.536500	0.014547	0.015478	0.009634	-0.004151	6748.756738	48131.462346	4036.647373	24616.585741
71.036000	0.017965	0.016380	0.015179	-0.003754	6775.452421	48184.096757	4050.388746	24596.798401
71.537000	0.016081	0.016393	0.016334	-0.004120	6762.017127	48223.495074	4054.477912	24615.059147
72.037500	0.018163	0.015921	0.018684	-0.003558	6775.469171	48115.944741	4059.306908	24587.018467
72.537500	0.016958	0.015630	0.010413	-0.001498	6746.624467	47872.288517	4031.687948	24484.470448
73.037500	0.018203	0.017303	0.014785	0.000793	6737.431382	47808.600297	4037.198403	24371.054179
73.535500	0.016904	0.016434	0.009959	-0.001679	6747.740357	47974.230857	4030.965624	24493.466479
74.035000	0.017011	0.016621	0.009972	-0.001889	6750.531243	48015.315332	4031.554817	24503.878649
74.536000	0.020020	0.017013	0.016184	-0.001570	6774.299327	48022.938178	4047.226491	24488.031273
75.036000	0.021755	0.017336	0.016314	-0.001688	6790.767855	48068.689495	4047.891407	24493.932008
75.536500	0.020871	0.016593	0.017148	-0.002672	6791.646783	48093.640724	4052.769996	24542.839860
76.036000	0.019725	0.016789	0.015763	0.000611	6752.418646	47774.360702	4040.279736	24380.031712
76.536500	0.021787	0.017211	0.020515	-0.003425	6806.538638	48236.292865	4063.907804	24580.367518
77.040000	0.022499	0.017478	0.014945	-0.004616	6823.579860	48388.337396	4052.072391	24639.811291
77.535000	0.024803	0.017438	0.017867	-0.005165	6849.284015	48441.605870	4061.446235	24667.325623
78.035000	0.020804	0.017898	0.016974	-0.002248	6787.281398	48185.286567	4051.163366	24521.741520
78.535500	0.024396	0.018111	0.020751	-0.006025	6853.379531	48602.264550	4071.635117	24710.409865
79.036000	0.027073	0.017489	0.018660	-0.006906	6885.685988	48629.485900	4068.331692	24754.633076
79.535500	0.028227	0.018921	0.026847	-0.006819	6895.436203	48771.043063	4090.620355	24750.286339
80.036500	0.025432	0.018384	0.016780	-0.004019	6844.614669	48420.621979	4055.408282	24609.993479
80.536500	0.027110	0.018449	0.018708	-0.007474	6891.207432	48790.254078	4070.009397	24783.200378
81.037000	0.026647	0.019270	0.019143	-0.007179	6884.296672	48845.797287	4070.394744	24768.375742
81.540000	0.029713	0.020084	0.019321	-0.006480	6905.933374	48857.909306	4068.973696	24733.257994
82.038500	0.024500	0.019562	0.020345	-0.002756	6824.852177	48411.832652	4061.632041	24547.039388
82.535500	0.025415	0.020177	0.027607	-0.006299	6865.086419	48848.624785	4091.283103	24724.134300
83.035000	0.026731	0.019922	0.024756	-0.005534	6870.091594	48741.004597	4081.278082	24685.766640
83.535000	0.026432	0.020721	0.018673	-0.004623	6859.111751	48729.277541	4062.158644	24640.183298
84.035500	0.022397	0.019248	0.017424	-0.000479	6785.725180	48141.730114	4047.627400	24433.966729
84.536000	0.026429	0.020019	0.025603	-0.003079	6845.126936	48493.399583	4076.855847	24563.128312
85.036500	0.027375	0.019921	0.022314	-0.000718	6832.370563	48236.568515	4061.444428	24445.786248
85.536500	0.027380	0.020613	0.024576	0.000619	6820.408628	48169.482510	4063.955211	24379.655314
86.040000	0.025251	0.019546	0.023895	0.005190	6760.777765	47586.830314	4049.774989	24154.985539
86.537500	0.029638	0.019488	0.026728	0.002196	6826.526581	47889.325193	4065.516173	24301.869728
87.034500	0.030224	0.019811	0.022810	0.003507	6820.020426	47787.367930	4051.381998	24237.442767
87.534500	0.029319	0.019924	0.023745	0.004177	6805.915845	47729.915430	4052.093202	24204.584582
88.035000	0.025868	0.018866	0.027583	0.010132	6722.770906	47013.506860	4046.415206	23914.769318
88.535500	0.029454	0.019067	0.023291	0.006235	6788.773632	47430.687139	4045.359520	24103.969609
89.036000	0.030751	0.019776	0.024352	0.008218	6782.670848	47300.537932	4042.897124	24007.458498
89.536500	0.031574	0.020526	0.030046	0.009657	6777.195008	47230.324317	4054.300300	23937.700622
90.036500	0.031936	0.022190	0.026087	0.011990	6759.754911	47162.251001	4037.476543	23825.116259
90.533500	0.032054	0.021526	0.023950	0.012646	6755.018173	47028.325582	4030.086947	23793.609989
91.037500	0.032327	0.021875	0.030684	0.013835	6746.943646	46943.176404	4044.807371	23736.550591
91.534000	0.033539	0.021119	0.025583	0.013983	6756.322506	46851.803079	4030.866300	23729.455292
92.035000	0.033402	0.022411	0.025740	0.015416	6742.489622	46837.617925	4027.502764	23660.901962
92.535500	0.035787	0.021925	0.029193	0.015892	6759.310137	46740.610331	4035.366290	23638.184772
93.035500	0.031791	0.021869	0.024968	0.017557	6709.649257	46567.526465	4019.860350	23558.896086
93.536000	0.032148	0.022275	0.028131	0.017241	6715.524811	46640.107027	4028.995801	23573.955831
94.036000	0.033852	0.022922	0.024474	0.018311	6721.053963	46597.598696	4016.602988	23523.104592
94.536500	0.033801	0.022117	0.025150	0.017671	6726.208994	46581.042547	4020.039321	23553.501306
95.039000	0.034261	0.023492	0.030140	0.019391	6715.191205	46546.361316	4028.621263	23471.935069
95.537000	0.032184	0.022742	0.027134	0.019377	6697.238595	46472.768411	4020.766448	23472.633782
96.034500	0.030023	0.023918	0.027770	0.026184	6620.145302	45912.734205	4004.735643	23153.050300
96.537500	0.037416	0.023849	0.026492	0.021241	6726.604113	46397.006990	4014.227970	23384.608867
97.035500	0.032439	0.024323	0.027980	0.022851	6669.376131	46283.630473	4013.909928	23308.887383
97.535500	0.035813	0.024481	0.026085	0.022589	6700.861815	46325.489911	4009.672604	23321.189431
98.036000	0.029621	0.024008	0.025088	0.027814	6602.888561	45760.781026	3993.665227	23077.242724
98.536000	0.032987	0.023510	0.029635	0.023022	6672.632543	46185.586532	4017.776846	23300.852189
99.036500	0.033020	0.024620	0.032054	0.024104	6663.587042	46188.393724	4021.272464	23250.156826
99.539500	0.034140	0.024637	0.027579	0.024792	6667.305472	46121.702131	4007.835688	23217.968178
100.037000	0.029703	0.025174	0.027737	0.031032	6576.428012	45559.223927	3992.213366	22928.473926
100.536500	0.034634	0.025714	0.028261	0.026284	6658.720408	46080.528557	4005.743767	23148.364430
101.037500	0.034890	0.025464	0.026959	0.027617	6649.475988	45923.866549	3998.961473	23086.421530
101.535000	0.033943	0.025598	0.026493	0.027051	6646.212856	45993.155767	3999.218423	23112.715247
102.038000	0.030007	0.026321	0.030770	0.032498	6566.669893	45527.926930	3996.217633	22861.038759
102.535500	0.032524	0.025433	0.027099	0.027288	6632.049478	45953.359375	4000.165921	23101.684139
103.036000	0.034183	0.026629	0.029300	0.028470	6636.121970	45954.670621	4002.785203	23046.840809
103.536000	0.035241	0.025887	0.024249	0.028501	6644.905014	45878.290007	3989.776516	23045.389269
104.039500	0.031443	0.026396	0.028502	0.034436	6562.467605	45345.957825	3985.501768	22772.271848
104.537000	0.036198	0.026229	0.029086	0.029681	6642.998095	45795.708517	3999.123300	22990.824392
105.037000	0.034728	0.026001	0.029313	0.029343	6633.316953	45806.550197	4000.573371	23006.439217
105.537500	0.034653	0.026736	0.028900	0.030253	6624.918406	45789.281762	3997.177232	22964.376364
106.034500	0.031454	0.026670	0.025769	0.035624	6552.615905	45256.931399	3975.607569	22718.055277
106.535000	0.034929	0.026344	0.029276	0.031278	6618.541010	45649.838237	3995.516791	22917.125412
107.035500	0.031773	0.026710	0.031148	0.032847	6578.569227	45531.861969	3996.292237	22845.025243
107.536000	0.035696	0.026685	0.028641	0.032721	6612.797129	45541.853776	3990.213264	22850.829331
108.036000	0.030808	0.026586	0.026816	0.037984	6527.597096	45019.807033	3972.312251	22610.771058
108.535500	0.035431	0.026899	0.029745	0.033561	6603.417379	45480.520053	3990.885702	22812.295897
109.036500	0.034445	0.027815	0.034260	0.034798	6584.641970	45449.076700	3999.267414	22755.731831
109.536500	0.035181	0.027825	0.026989	0.034902	6589.982431	45440.051128	3980.499000	22751.022559
110.037000	0.034229	0.027494	0.031319	0.035698	6575.246409	45329.938271	3989.450969	22714.677520
110.537500	0.035284	0.028140	0.030930	0.036091	6580.824426	45354.629744	3987.464534	22696.799251
111.035000	0.033751	0.027116	0.033113	0.036545	6564.136079	45210.722057	3991.865803	22676.124984
111.534500	0.035453	0.027661	0.031389	0.037506	6570.342571	45170.309804	3985.039183	22632.449238
112.035500	0.032812	0.028089	0.029808	0.037896	6544.999247	45174.063054	3980.056916	22614.783151
112.535500	0.034548	0.028031	0.030230	0.038773	6552.166980	45083.361200	3978.908516	22575.062859
