sample name	sample
index	166
start time	 02-18-2021  10:11:10 AM


Wavelength (nm)	Absorbance
494.344910	-0.071915
494.563924	-0.071915
494.782919	-0.071915
495.001897	0.061421
495.220856	-0.092800
495.439797	-0.083073
495.658719	-0.063032
495.877624	-0.069463
496.096510	-0.091171
496.315378	-0.124810
496.534227	-0.114598
496.753059	-0.095632
496.971872	-0.083911
497.190667	-0.004392
497.409444	0.010438
497.628203	0.013549
497.846943	0.013426
498.065665	0.014061
498.284369	0.014476
498.503055	0.014238
498.721723	0.012856
498.940372	0.013129
499.159003	0.012889
499.377616	0.010811
499.596210	0.009693
499.814787	0.009231
500.033345	0.009063
500.251885	0.008928
500.470406	0.009221
500.688910	0.009889
500.907395	0.010069
501.125862	0.009610
501.344311	0.011122
501.562742	0.010126
501.781154	0.010970
501.999548	0.010355
502.217924	0.010418
502.436282	0.010879
502.654621	0.010970
502.872942	0.010235
503.091245	0.010993
503.309530	0.010321
503.527797	0.010498
503.746045	0.009669
503.964275	0.010025
504.182487	0.010330
504.400681	0.009505
504.618856	0.009296
504.837013	0.009334
505.055152	0.008393
505.273273	0.008106
505.491376	0.008697
505.709460	0.009333
505.927526	0.008776
506.145574	0.008302
506.363604	0.007888
506.581615	0.008115
506.799608	0.009095
507.017583	0.009777
507.235540	0.009550
507.453478	0.009630
507.671399	0.009289
507.889301	0.009798
508.107185	0.009150
508.325050	0.009411
508.542898	0.008895
508.760727	0.008025
508.978538	0.007632
509.196330	0.007754
509.414105	0.007741
509.631861	0.007535
509.849599	0.007064
510.067319	0.007747
510.285021	0.007794
510.502704	0.007584
510.720369	0.007631
510.938016	0.007312
511.155645	0.007952
511.373255	0.007831
511.590848	0.007915
511.808422	0.008572
512.025977	0.008565
512.243515	0.008404
512.461034	0.008238
512.678536	0.007997
512.896018	0.008576
513.113483	0.008254
513.330930	0.007970
513.548358	0.007626
513.765768	0.006638
513.983160	0.006748
514.200533	0.007446
514.417889	0.007828
514.635226	0.008202
514.852545	0.007353
515.069845	0.006872
515.287128	0.006349
515.504392	0.006187
515.721638	0.007298
515.938866	0.007269
516.156075	0.006545
516.373267	0.005828
516.590440	0.005891
516.807594	0.006061
517.024731	0.005745
517.241850	0.006067
517.458950	0.005967
517.676032	0.005601
517.893095	0.005368
518.110141	0.005686
518.327168	0.005896
518.544177	0.005525
518.761168	0.005652
518.978141	0.005940
519.195095	0.006291
519.412031	0.006845
519.628949	0.006987
519.845849	0.006402
520.062731	0.006194
520.279594	0.006416
520.496439	0.006423
520.713266	0.006354
520.930074	0.006252
521.146865	0.006078
521.363637	0.005374
521.580391	0.005192
521.797127	0.005616
522.013844	0.005127
522.230543	0.005130
522.447224	0.005285
522.663887	0.005138
522.880532	0.005180
523.097158	0.005288
523.313766	0.005315
523.530356	0.004362
523.746928	0.004017
523.963481	0.004252
524.180017	0.004409
524.396534	0.004447
524.613032	0.004075
524.829513	0.003848
525.045975	0.004024
525.262420	0.004342
525.478845	0.004409
525.695253	0.004501
525.911643	0.004284
526.128014	0.003923
526.344367	0.003637
526.560702	0.003719
526.777018	0.004065
526.993316	0.003192
527.209597	0.003440
527.425858	0.004013
527.642102	0.003809
527.858328	0.003421
528.074535	0.003403
528.290724	0.003468
528.506894	0.003231
528.723047	0.002691
528.939181	0.002904
529.155297	0.002734
529.371395	0.002353
529.587475	0.002100
529.803536	0.002686
530.019579	0.003596
530.235604	0.003541
530.451611	0.003855
530.667600	0.004036
530.883570	0.004127
531.099522	0.003739
531.315456	0.003620
531.531372	0.003983
531.747269	0.003368
531.963148	0.002579
532.179009	0.002174
532.394852	0.002053
532.610676	0.002014
532.826482	0.001574
533.042271	0.001672
533.258040	0.001798
533.473792	0.002068
533.689525	0.002298
533.905240	0.002248
534.120937	0.002249
534.336616	0.002389
534.552277	0.002539
534.767919	0.002759
534.983543	0.002572
535.199149	0.002264
535.414736	0.001755
535.630306	0.001586
535.845857	0.001614
536.061390	0.002146
536.276904	0.002224
536.492401	0.002231
536.707879	0.002257
536.923339	0.002505
537.138781	0.002935
537.354204	0.003192
537.569610	0.003324
537.784997	0.003029
538.000366	0.002599
538.215716	0.002149
538.431049	0.002007
538.646363	0.002017
538.861659	0.001775
539.076937	0.001467
539.292196	0.001342
539.507438	0.001393
539.722661	0.001403
539.937866	0.001144
540.153052	0.001210
540.368221	0.001029
540.583371	0.001008
540.798503	0.000891
541.013617	0.001183
541.228712	0.001171
541.443789	0.001429
541.658848	0.001697
541.873889	0.001619
542.088912	0.001820
542.303916	0.001795
542.518902	0.001608
542.733870	0.001570
542.948820	0.001457
543.163752	0.001340
543.378665	0.000985
543.593560	0.000777
543.808437	0.000664
544.023295	0.000257
544.238136	0.000199
544.452958	0.000233
544.667762	0.000184
544.882548	0.000065
545.097315	0.000093
545.312064	-0.000046
545.526795	-0.000210
545.741508	0.000213
545.956203	0.000773
546.170879	0.000521
546.385537	0.000430
546.600177	0.000605
546.814799	0.000595
547.029402	0.000137
547.243988	0.000013
547.458555	-0.000179
547.673103	-0.000254
547.887634	-0.000189
548.102146	0.000007
548.316640	-0.000251
548.531116	-0.000431
548.745574	-0.000757
548.960013	-0.000568
549.174435	-0.000178
549.388838	-0.000348
549.603222	-0.000579
549.817589	-0.001198
550.031937	-0.001449
550.246267	-0.001573
550.460579	-0.001480
550.674873	-0.001463
550.889148	-0.001339
551.103405	-0.001570
551.317644	-0.001304
551.531865	-0.001473
551.746068	-0.001303
551.960252	-0.001270
552.174418	-0.000904
552.388566	-0.001116
552.602696	-0.001222
552.816807	-0.001406
553.030900	-0.001641
553.244975	-0.001497
553.459032	-0.001476
553.673070	-0.001699
553.887091	-0.001762
554.101093	-0.001694
554.315077	-0.001593
554.529042	-0.001374
554.742990	-0.001297
554.956919	-0.000709
555.170830	-0.000817
555.384722	-0.000586
555.598597	-0.000299
555.812453	-0.000049
556.026291	-0.000100
556.240111	-0.000627
556.453913	-0.000431
556.667696	-0.000712
556.881461	-0.001353
557.095208	-0.001591
557.308937	-0.001965
557.522647	-0.001875
557.736339	-0.002009
557.950013	-0.002207
558.163669	-0.001901
558.377307	-0.002029
558.590926	-0.001794
558.804527	-0.001719
559.018110	-0.001667
559.231675	-0.001693
559.445221	-0.002118
559.658749	-0.002231
559.872259	-0.002139
560.085751	-0.001853
560.299225	-0.002110
560.512680	-0.001990
560.726117	-0.001691
560.939536	-0.001590
561.152937	-0.001337
561.366319	-0.001655
561.579683	-0.001767
561.793029	-0.001987
562.006357	-0.002160
562.219667	-0.002183
562.432958	-0.002133
562.646231	-0.002227
562.859486	-0.002596
563.072723	-0.002705
563.285941	-0.002289
563.499141	-0.002052
563.712323	-0.001853
563.925487	-0.002153
564.138632	-0.001954
564.351760	-0.002164
564.564869	-0.002230
564.777960	-0.002010
564.991032	-0.002284
565.204087	-0.002329
565.417123	-0.002610
565.630141	-0.002688
565.843140	-0.002764
566.056122	-0.002841
566.269085	-0.002591
566.482030	-0.002658
566.694957	-0.002908
566.907866	-0.002623
567.120756	-0.002557
567.333628	-0.002064
567.546482	-0.002163
567.759318	-0.001829
567.972135	-0.001790
568.184935	-0.002044
568.397716	-0.002275
568.610478	-0.002023
568.823223	-0.002353
569.035949	-0.002780
569.248657	-0.003297
569.461347	-0.002969
569.674019	-0.003237
569.886672	-0.003286
570.099308	-0.003176
570.311925	-0.002946
570.524523	-0.002963
570.737104	-0.002769
570.949666	-0.002385
571.162210	-0.002106
571.374736	-0.002370
571.587244	-0.001952
571.799733	-0.002104
572.012205	-0.002163
572.224658	-0.002481
572.437092	-0.002506
572.649509	-0.002620
572.861907	-0.002841
573.074287	-0.003071
573.286649	-0.003255
573.498993	-0.003742
573.711318	-0.003508
573.923625	-0.003369
574.135914	-0.003404
574.348185	-0.003257
574.560438	-0.003054
574.772672	-0.002989
574.984888	-0.002941
575.197086	-0.002870
575.409266	-0.002663
575.621427	-0.002879
575.833570	-0.003109
576.045695	-0.002935
576.257802	-0.003089
576.469890	-0.003280
576.681961	-0.003233
576.894013	-0.003110
577.106046	-0.003009
577.318062	-0.002895
577.530059	-0.002951
577.742039	-0.002865
577.954000	-0.002615
578.165942	-0.002352
578.377867	-0.002039
578.589773	-0.002179
578.801661	-0.002249
579.013531	-0.002348
579.225382	-0.002569
579.437216	-0.002676
579.649031	-0.002922
579.860828	-0.002991
580.072606	-0.003508
580.284367	-0.003613
580.496109	-0.003247
580.707833	-0.003388
580.919539	-0.003235
581.131227	-0.003338
581.342896	-0.003050
581.554547	-0.002852
581.766180	-0.003005
581.977795	-0.002796
582.189391	-0.002817
582.400969	-0.002944
582.612529	-0.002995
582.824071	-0.003155
583.035595	-0.003079
583.247100	-0.003354
583.458587	-0.003423
583.670056	-0.003533
583.881506	-0.003794
584.092939	-0.004187
584.304353	-0.004193
584.515749	-0.003746
584.727127	-0.003646
584.938486	-0.003698
585.149828	-0.003776
585.361151	-0.003641
585.572456	-0.003560
585.783742	-0.003369
585.995011	-0.002919
586.206261	-0.003254
586.417493	-0.003854
586.628706	-0.003998
586.839902	-0.003892
587.051079	-0.003916
587.262238	-0.003990
587.473379	-0.004290
587.684502	-0.004155
587.895606	-0.004394
588.106692	-0.004051
588.317760	-0.003724
588.528810	-0.003698
588.739841	-0.003776
588.950855	-0.003680
589.161850	-0.003686
589.372827	-0.003354
589.583785	-0.003500
589.794726	-0.003369
590.005648	-0.003630
590.216552	-0.003814
590.427437	-0.003604
590.638305	-0.003369
590.849154	-0.003571
591.059985	-0.003683
591.270798	-0.003582
591.481592	-0.003850
591.692369	-0.003839
591.903127	-0.003909
592.113867	-0.003793
592.324588	-0.004034
592.535292	-0.004160
592.745977	-0.003998
592.956644	-0.004223
593.167293	-0.004369
593.377923	-0.004133
593.588536	-0.004142
593.799130	-0.004059
594.009706	-0.003985
594.220263	-0.003953
594.430803	-0.004067
594.641324	-0.004020
594.851827	-0.003965
595.062312	-0.004101
595.272778	-0.003982
595.483227	-0.003955
595.693657	-0.004212
595.904069	-0.004239
596.114462	-0.004191
596.324838	-0.004354
596.535195	-0.004199
596.745534	-0.004089
596.955855	-0.003938
597.166157	-0.004089
597.376441	-0.004366
597.586707	-0.004165
597.796955	-0.004346
598.007185	-0.004433
598.217396	-0.004352
598.427589	-0.004484
598.637764	-0.004795
598.847921	-0.005114
599.058060	-0.005334
599.268180	-0.005103
599.478282	-0.005090
599.688366	-0.004743
599.898431	-0.004910
600.108479	-0.004825
600.318508	-0.004699
600.528519	-0.004468
600.738511	-0.004341
600.948486	-0.003933
601.158442	-0.004122
601.368380	-0.004099
601.578300	-0.004428
601.788202	-0.004488
601.998085	-0.004429
602.207950	-0.004720
602.417797	-0.004820
602.627626	-0.004671
602.837436	-0.004951
603.047228	-0.004846
603.257002	-0.005067
603.466758	-0.004937
603.676496	-0.004755
603.886215	-0.004799
604.095916	-0.004657
604.305599	-0.004318
604.515264	-0.004555
604.724910	-0.004649
604.934538	-0.004819
605.144148	-0.004731
605.353740	-0.004927
605.563314	-0.004909
605.772869	-0.004759
605.982406	-0.004851
606.191925	-0.005148
606.401425	-0.004958
606.610908	-0.004756
606.820372	-0.004871
607.029818	-0.004967
607.239246	-0.004945
607.448655	-0.004980
607.658047	-0.005111
607.867420	-0.005088
608.076775	-0.004860
608.286111	-0.004686
608.495430	-0.004546
608.704730	-0.004324
608.914012	-0.004144
609.123275	-0.004188
609.332521	-0.004330
609.541748	-0.004490
609.750957	-0.004496
609.960148	-0.004719
610.169321	-0.004796
610.378475	-0.004832
610.587611	-0.004922
610.796729	-0.004971
611.005829	-0.004725
611.214910	-0.004300
611.423974	-0.004357
611.633019	-0.004374
611.842045	-0.004338
612.051054	-0.004596
612.260044	-0.004693
612.469017	-0.004677
612.677970	-0.004503
612.886906	-0.004990
613.095824	-0.005379
613.304723	-0.005415
613.513604	-0.005392
613.722467	-0.005434
613.931311	-0.005512
614.140138	-0.005628
614.348946	-0.005778
614.557736	-0.005918
614.766507	-0.005471
614.975261	-0.005516
615.183996	-0.005501
615.392713	-0.005488
615.601412	-0.005545
615.810092	-0.005512
616.018754	-0.005583
616.227399	-0.005588
616.436024	-0.005584
616.644632	-0.005929
616.853222	-0.005746
617.061793	-0.005659
617.270346	-0.005915
617.478880	-0.005637
617.687397	-0.005553
617.895895	-0.005442
618.104375	-0.005294
618.312837	-0.005432
618.521281	-0.005232
618.729706	-0.005440
618.938113	-0.005480
619.146502	-0.005248
619.354873	-0.005504
619.563226	-0.005549
619.771560	-0.005453
619.979876	-0.005442
620.188174	-0.005446
620.396453	-0.005626
620.604715	-0.005426
620.812958	-0.005279
621.021183	-0.005294
621.229390	-0.005167
621.437578	-0.005050
621.645748	-0.005043
621.853900	-0.004966
622.062034	-0.004879
622.270150	-0.004871
622.478247	-0.004971
622.686326	-0.005176
622.894387	-0.005222
623.102430	-0.005330
623.310454	-0.005253
623.518461	-0.005428
623.726449	-0.005401
623.934418	-0.005504
624.142370	-0.005284
624.350303	-0.005244
624.558218	-0.005063
624.766115	-0.004852
624.973994	-0.004730
625.181855	-0.004796
625.389697	-0.004623
625.597521	-0.004696
625.805327	-0.004611
626.013114	-0.004527
626.220883	-0.004431
626.428634	-0.004416
626.636367	-0.004559
626.844082	-0.004577
627.051778	-0.004531
627.259457	-0.004699
627.467117	-0.004856
627.674758	-0.004824
627.882382	-0.005079
628.089987	-0.005095
628.297574	-0.005185
628.505143	-0.005069
628.712694	-0.005171
628.920226	-0.005145
629.127740	-0.005061
629.335236	-0.004856
629.542714	-0.004898
629.750174	-0.004855
629.957615	-0.004891
630.165038	-0.005020
630.372443	-0.005242
630.579829	-0.005113
630.787198	-0.005374
630.994548	-0.005440
631.201880	-0.005361
631.409194	-0.005334
631.616489	-0.005356
631.823766	-0.005386
632.031025	-0.005292
632.238266	-0.005245
632.445489	-0.005449
632.652693	-0.005327
632.859879	-0.005376
633.067047	-0.005615
633.274197	-0.005618
633.481329	-0.005313
633.688442	-0.005486
633.895537	-0.005551
634.102614	-0.005682
634.309672	-0.005708
634.516713	-0.005748
634.723735	-0.005852
634.930739	-0.006002
635.137724	-0.006001
635.344692	-0.006352
635.551641	-0.006246
635.758572	-0.006240
635.965485	-0.006114
636.172379	-0.005972
636.379256	-0.005904
636.586114	-0.005620
636.792954	-0.005407
636.999775	-0.005521
637.206579	-0.005331
637.413364	-0.005248
637.620131	-0.005215
637.826880	-0.005154
638.033610	-0.005087
638.240323	-0.005127
638.447017	-0.005307
638.653692	-0.005331
638.860350	-0.005280
639.066990	-0.005248
639.273611	-0.005355
639.480214	-0.005264
639.686798	-0.005193
639.893365	-0.005317
640.099913	-0.005177
640.306443	-0.005170
640.512955	-0.005381
640.719449	-0.005388
640.925924	-0.005665
641.132381	-0.005694
641.338820	-0.005793
641.545241	-0.005971
641.751644	-0.005969
641.958028	-0.006100
642.164394	-0.006084
642.370742	-0.005907
642.577071	-0.005827
642.783383	-0.005664
642.989676	-0.005603
643.195951	-0.005476
643.402207	-0.005252
643.608446	-0.005419
643.814666	-0.005320
644.020868	-0.005235
644.227052	-0.005196
644.433218	-0.005167
644.639365	-0.005195
644.845494	-0.005095
645.051605	-0.005140
645.257698	-0.005292
645.463772	-0.005069
645.669828	-0.004983
645.875866	-0.004981
646.081886	-0.004959
646.287888	-0.004957
646.493871	-0.004938
646.699836	-0.005077
646.905783	-0.005111
647.111712	-0.005110
647.317622	-0.005111
647.523514	-0.005368
647.729388	-0.005323
647.935244	-0.005156
648.141082	-0.005195
648.346901	-0.005088
648.552702	-0.005001
648.758485	-0.005120
648.964250	-0.005169
649.169996	-0.005259
649.375724	-0.005178
649.581434	-0.005430
649.787126	-0.005748
649.992800	-0.005765
650.198455	-0.005991
650.404092	-0.006068
650.609711	-0.005894
650.815311	-0.005787
651.020894	-0.005854
651.226458	-0.005788
651.432004	-0.005627
651.637532	-0.005583
651.843041	-0.005520
652.048532	-0.005495
652.254006	-0.005484
652.459460	-0.005566
652.664897	-0.005604
652.870315	-0.005357
653.075716	-0.005551
653.281097	-0.005588
653.486461	-0.005503
653.691807	-0.005468
653.897134	-0.005355
654.102443	-0.005232
654.307734	-0.005286
654.513006	-0.005344
654.718261	-0.005527
654.923497	-0.005476
655.128715	-0.005572
655.333915	-0.005577
655.539096	-0.005769
655.744259	-0.005896
655.949404	-0.006053
656.154531	-0.006050
656.359640	-0.005908
656.564730	-0.005762
656.769802	-0.005791
656.974856	-0.005598
657.179892	-0.005900
657.384909	-0.005767
657.589908	-0.005696
657.794889	-0.005836
657.999852	-0.005844
658.204797	-0.006019
658.409723	-0.006354
658.614631	-0.006534
658.819521	-0.006696
659.024393	-0.006472
659.229246	-0.006580
659.434081	-0.006418
659.638898	-0.006388
659.843697	-0.006353
660.048478	-0.006173
660.253240	-0.005984
660.457984	-0.005768
660.662710	-0.005732
660.867417	-0.005531
661.072107	-0.005277
661.276778	-0.005420
661.481431	-0.005238
661.686066	-0.005230
661.890682	-0.005264
662.095281	-0.005229
662.299861	-0.005196
662.504422	-0.005138
662.708966	-0.005379
662.913491	-0.005651
663.117999	-0.005680
663.322488	-0.005746
663.526958	-0.005783
663.731411	-0.005918
663.935845	-0.005860
664.140261	-0.005871
664.344659	-0.005874
664.549038	-0.005830
664.753400	-0.005870
664.957743	-0.005803
665.162068	-0.005853
665.366375	-0.005834
665.570663	-0.005768
665.774933	-0.005878
665.979185	-0.005753
666.183419	-0.005677
666.387635	-0.005550
666.591832	-0.005505
666.796011	-0.005510
667.000172	-0.005548
667.204315	-0.005593
667.408439	-0.005704
667.612545	-0.005653
667.816634	-0.005847
668.020703	-0.005957
668.224755	-0.006007
668.428788	-0.005903
668.632803	-0.005977
668.836800	-0.005844
669.040779	-0.005905
669.244739	-0.005842
669.448681	-0.005893
669.652605	-0.005790
669.856511	-0.005778
670.060399	-0.005731
670.264268	-0.005656
670.468119	-0.005676
670.671952	-0.005709
670.875767	-0.005600
671.079563	-0.005491
671.283341	-0.005304
671.487101	-0.005147
671.690843	-0.005185
671.894567	-0.005253
672.098272	-0.005578
672.301959	-0.005510
672.505628	-0.005370
672.709278	-0.005363
672.912911	-0.005406
673.116525	-0.005540
673.320121	-0.005823
673.523699	-0.005762
673.727258	-0.005843
673.930799	-0.005784
674.134322	-0.005873
674.337827	-0.006029
674.541314	-0.006113
674.744782	-0.006355
674.948232	-0.006380
675.151664	-0.006306
675.355078	-0.006312
675.558474	-0.006179
675.761851	-0.006027
675.965210	-0.006069
676.168551	-0.006004
676.371873	-0.005993
676.575178	-0.005741
676.778464	-0.005627
676.981732	-0.005674
677.184981	-0.005725
677.388213	-0.005757
677.591426	-0.005594
677.794621	-0.005381
677.997798	-0.005479
678.200956	-0.005331
678.404097	-0.005437
678.607219	-0.005505
678.810323	-0.005439
679.013408	-0.005316
679.216476	-0.005294
679.419525	-0.005491
679.622556	-0.005585
679.825569	-0.005545
680.028563	-0.005726
680.231540	-0.005685
680.434498	-0.005759
680.637438	-0.005795
680.840359	-0.005995
681.043263	-0.006052
681.246148	-0.006006
681.449015	-0.006019
681.651864	-0.006071
681.854694	-0.005918
682.057506	-0.005927
682.260301	-0.005765
682.463076	-0.005742
682.665834	-0.005696
682.868573	-0.005604
683.071295	-0.005571
683.273998	-0.005460
683.476682	-0.005413
683.679349	-0.005470
683.881997	-0.005303
684.084627	-0.005295
684.287239	-0.005331
684.489833	-0.005221
684.692408	-0.005242
684.894965	-0.005306
685.097504	-0.005465
685.300025	-0.005503
685.502527	-0.005537
685.705012	-0.005769
685.907478	-0.005944
686.109925	-0.005810
686.312355	-0.005846
686.514766	-0.005977
686.717159	-0.006090
686.919534	-0.006059
687.121891	-0.005991
687.324230	-0.005895
687.526550	-0.005820
687.728852	-0.005736
687.931136	-0.005849
688.133401	-0.006029
688.335649	-0.005965
688.537878	-0.005835
688.740089	-0.005771
688.942281	-0.005819
689.144456	-0.005832
689.346612	-0.005746
689.548750	-0.005804
689.750870	-0.005769
689.952971	-0.005501
690.155055	-0.005413
690.357120	-0.005355
690.559167	-0.005368
690.761195	-0.005344
690.963206	-0.005294
691.165198	-0.005483
691.367172	-0.005434
691.569128	-0.005400
691.771065	-0.005307
691.972984	-0.005258
692.174885	-0.005300
692.376768	-0.005341
692.578633	-0.005286
692.780479	-0.005276
692.982308	-0.005090
693.184118	-0.005112
693.385909	-0.005055
693.587683	-0.005317
693.789438	-0.005301
693.991175	-0.005267
694.192894	-0.005290
694.394595	-0.005300
694.596277	-0.005356
694.797941	-0.005375
694.999587	-0.005394
695.201215	-0.005476
695.402824	-0.005482
695.604416	-0.005643
695.805989	-0.005707
696.007543	-0.005744
696.209080	-0.005762
696.410598	-0.005773
696.612099	-0.005770
696.813580	-0.005767
697.015044	-0.005771
697.216490	-0.005484
697.417917	-0.005342
697.619326	-0.005283
697.820717	-0.005237
698.022089	-0.005180
698.223444	-0.005084
698.424780	-0.005116
698.626098	-0.005113
698.827397	-0.004965
699.028679	-0.005149
699.229942	-0.005268
699.431187	-0.005276
699.632414	-0.005291
699.833622	-0.005310
700.034813	-0.005403
700.235985	-0.005474
700.437139	-0.005441
700.638274	-0.005535
700.839392	-0.005465
701.040491	-0.005489
701.241572	-0.005598
701.442635	-0.005671
701.643679	-0.005556
701.844706	-0.005584
702.045714	-0.005493
702.246704	-0.005437
702.447675	-0.005449
702.648629	-0.005356
702.849564	-0.005331
703.050481	-0.005247
703.251380	-0.005157
703.452260	-0.005353
703.653122	-0.005367
703.853966	-0.005301
704.054792	-0.005283
704.255600	-0.005227
704.456389	-0.005437
704.657160	-0.005420
704.857913	-0.005450
705.058648	-0.005411
705.259365	-0.005201
705.460063	-0.005096
705.660743	-0.005332
705.861405	-0.005676
706.062048	-0.005857
706.262674	-0.005792
706.463281	-0.005774
706.663870	-0.005788
706.864441	-0.005889
707.064993	-0.006084
707.265527	-0.006220
707.466043	-0.006133
707.666541	-0.005969
707.867021	-0.005922
708.067482	-0.006159
708.267925	-0.006261
708.468350	-0.006454
708.668757	-0.006272
708.869145	-0.006191
709.069516	-0.006290
709.269868	-0.006235
709.470201	-0.006236
709.670517	-0.006236
709.870814	-0.006108
710.071093	-0.005919
710.271354	-0.005754
710.471597	-0.005896
710.671821	-0.006028
710.872028	-0.005988
711.072216	-0.006029
711.272385	-0.005905
711.472537	-0.005919
711.672670	-0.005963
711.872785	-0.006167
712.072882	-0.006116
712.272961	-0.006113
712.473021	-0.005997
712.673063	-0.005917
712.873087	-0.005946
713.073093	-0.005955
713.273081	-0.005908
713.473050	-0.005904
713.673001	-0.005817
713.872934	-0.005784
714.072849	-0.005711
714.272745	-0.005851
714.472623	-0.005791
714.672483	-0.005675
714.872325	-0.005784
715.072148	-0.005749
715.271954	-0.005672
715.471741	-0.005808
715.671509	-0.005967
715.871260	-0.006119
716.070992	-0.006179
716.270707	-0.006216
716.470403	-0.006270
716.670080	-0.006286
716.869740	-0.006359
717.069381	-0.006452
717.269004	-0.006344
717.468609	-0.006203
717.668195	-0.006171
717.867764	-0.006095
718.067314	-0.006231
718.266846	-0.006344
718.466360	-0.006356
718.665855	-0.006314
718.865332	-0.006288
719.064791	-0.006506
719.264232	-0.006630
719.463655	-0.006727
719.663059	-0.006883
719.862445	-0.006821
720.061813	-0.006882
720.261163	-0.006981
720.460494	-0.006965
720.659807	-0.006826
720.859102	-0.006690
721.058379	-0.006664
721.257638	-0.006602
721.456878	-0.006409
721.656100	-0.006334
721.855304	-0.006190
722.054490	-0.006041
722.253657	-0.006170
722.452806	-0.006356
722.651937	-0.006317
722.851050	-0.006368
723.050145	-0.006323
723.249221	-0.006345
723.448279	-0.006472
723.647319	-0.006610
723.846340	-0.006688
724.045344	-0.006623
724.244329	-0.006628
724.443296	-0.006665
724.642245	-0.006638
724.841175	-0.006671
725.040088	-0.006691
725.238982	-0.006688
725.437857	-0.006779
725.636715	-0.006840
725.835554	-0.006856
726.034376	-0.006844
726.233179	-0.006990
726.431963	-0.007016
726.630730	-0.007021
726.829478	-0.007010
727.028208	-0.007013
727.226920	-0.006908
727.425614	-0.006909
727.624289	-0.007064
727.822946	-0.007104
728.021585	-0.007122
728.220206	-0.007157
728.418808	-0.007192
728.617392	-0.007211
728.815958	-0.007194
729.014506	-0.007248
729.213036	-0.007148
729.411547	-0.007251
729.610040	-0.007318
729.808515	-0.007237
730.006972	-0.007250
730.205410	-0.007335
730.403831	-0.007366
730.602233	-0.007580
730.800616	-0.007664
730.998982	-0.007858
731.197329	-0.007756
731.395658	-0.007775
731.593969	-0.007977
731.792262	-0.007990
731.990536	-0.007969
732.188793	-0.008110
732.387031	-0.008078
732.585250	-0.008048
732.783452	-0.007949
732.981635	-0.008127
733.179800	-0.008170
733.377947	-0.008070
733.576076	-0.008187
733.774186	-0.008314
733.972278	-0.008248
734.170352	-0.008243
734.368408	-0.008387
734.566446	-0.008698
734.764465	-0.008763
734.962466	-0.008645
735.160449	-0.008677
735.358413	-0.008682
735.556360	-0.008632
735.754288	-0.008796
735.952198	-0.008672
736.150090	-0.008518
736.347963	-0.008382
736.545818	-0.008185
736.743655	-0.008300
736.941474	-0.008267
737.139275	-0.008277
737.337057	-0.008447
737.534821	-0.008487
737.732567	-0.008698
737.930295	-0.008771
738.128005	-0.008617
738.325696	-0.008624
738.523369	-0.008784
738.721024	-0.008886
738.918660	-0.009016
739.116279	-0.009004
739.313879	-0.008881
739.511461	-0.008976
739.709024	-0.008956
739.906570	-0.009086
740.104097	-0.008950
740.301606	-0.008702
740.499097	-0.008664
740.696569	-0.008470
740.894024	-0.008363
741.091460	-0.008278
741.288878	-0.007988
741.486277	-0.007921
741.683659	-0.007953
741.881022	-0.008191
742.078367	-0.008440
742.275694	-0.008444
742.473002	-0.008508
742.670293	-0.008498
742.867565	-0.008697
743.064819	-0.008913
743.262054	-0.009095
743.459272	-0.009130
743.656471	-0.009032
743.853652	-0.009064
744.050815	-0.009053
744.247959	-0.009069
744.445085	-0.008847
744.642194	-0.008708
744.839283	-0.008532
745.036355	-0.008288
745.233408	-0.008035
745.430444	-0.008039
745.627461	-0.007947
745.824459	-0.008052
746.021440	-0.008022
746.218402	-0.008075
746.415346	-0.008095
746.612272	-0.008191
746.809180	-0.008261
747.006069	-0.008289
747.202940	-0.008434
747.399793	-0.008301
747.596628	-0.007931
747.793444	-0.008000
747.990243	-0.008001
748.187023	-0.008154
748.383784	-0.008125
748.580528	-0.008188
748.777253	-0.008297
748.973960	-0.008205
749.170649	-0.008294
749.367320	-0.008463
749.563973	-0.008425
749.760607	-0.008568
749.957223	-0.008436
750.153821	-0.008503
750.350400	-0.008418
750.546962	-0.008432
750.743505	-0.008267
750.940030	-0.008101
751.136536	-0.008097
751.333025	-0.007966
751.529495	-0.007922
751.725947	-0.007794
751.922381	-0.007710
752.118796	-0.007799
752.315194	-0.007623
752.511573	-0.007729
752.707934	-0.007712
752.904276	-0.007576
753.100601	-0.007602
753.296907	-0.007496
753.493195	-0.007421
753.689465	-0.007266
753.885716	-0.006966
754.081949	-0.006848
754.278164	-0.006620
754.474361	-0.006769
754.670540	-0.006780
754.866700	-0.006652
755.062843	-0.006706
755.258967	-0.006835
755.455072	-0.007020
755.651160	-0.007106
755.847229	-0.007328
756.043280	-0.007253
756.239313	-0.007027
756.435328	-0.007222
756.631324	-0.007389
756.827302	-0.007419
757.023262	-0.007489
757.219204	-0.007376
757.415127	-0.007467
757.611033	-0.007298
757.806920	-0.007472
758.002788	-0.007460
758.198639	-0.007363
758.394471	-0.007468
758.590286	-0.007348
758.786081	-0.007234
758.981859	-0.007241
759.177619	-0.007094
759.373360	-0.007152
759.569083	-0.007079
759.764788	-0.007145
759.960474	-0.007135
760.156143	-0.006976
760.351793	-0.006911
760.547425	-0.006893
760.743038	-0.006766
760.938634	-0.006989
761.134211	-0.006912
761.329770	-0.007117
761.525311	-0.007090
761.720833	-0.007070
761.916338	-0.007078
762.111824	-0.007014
762.307292	-0.007031
762.502741	-0.007202
762.698173	-0.006898
762.893586	-0.006916
763.088981	-0.006756
763.284358	-0.006778
763.479716	-0.006844
763.675057	-0.006728
763.870379	-0.006817
764.065683	-0.006843
764.260968	-0.006620
764.456236	-0.006908
764.651485	-0.007110
764.846716	-0.007217
765.041929	-0.007280
765.237123	-0.007208
765.432299	-0.007426
765.627457	-0.007412
765.822597	-0.007415
766.017719	-0.007466
766.212822	-0.007266
766.407907	-0.007154
766.602974	-0.007047
766.798023	-0.007046
766.993054	-0.006908
767.188066	-0.006754
767.383060	-0.006706
767.578036	-0.006571
767.772993	-0.006507
767.967933	-0.006478
768.162854	-0.006219
768.357757	-0.006306
768.552642	-0.006056
768.747508	-0.005946
768.942356	-0.005926
769.137186	-0.006004
769.331998	-0.006091
769.526792	-0.006286
769.721567	-0.006357
769.916324	-0.006666
770.111063	-0.006567
770.305784	-0.006663
770.500486	-0.006749
770.695171	-0.006642
770.889837	-0.006526
771.084484	-0.006448
771.279114	-0.006348
771.473725	-0.006244
771.668318	-0.006149
771.862893	-0.006221
772.057450	-0.006322
772.251988	-0.006416
772.446509	-0.006378
772.641011	-0.006457
772.835494	-0.006592
773.029960	-0.006398
773.224407	-0.006382
773.418836	-0.006222
773.613247	-0.006008
773.807640	-0.005950
774.002014	-0.005794
774.196370	-0.005683
774.390708	-0.005665
774.585028	-0.005417
774.779330	-0.005605
774.973613	-0.005561
775.167878	-0.005640
775.362125	-0.005678
775.556354	-0.005617
775.750564	-0.005618
775.944756	-0.005545
776.138930	-0.005506
776.333086	-0.005552
776.527223	-0.005459
776.721343	-0.005611
776.915444	-0.005654
777.109526	-0.005612
777.303591	-0.005569
777.497637	-0.005642
777.691666	-0.005727
777.885676	-0.005588
778.079667	-0.005553
778.273641	-0.005537
778.467596	-0.005574
778.661533	-0.005304
778.855452	-0.005183
779.049352	-0.005113
779.243235	-0.004972
779.437099	-0.004985
779.630945	-0.005249
779.824773	-0.005377
780.018582	-0.005434
780.212373	-0.005386
780.406146	-0.005683
780.599901	-0.006042
780.793638	-0.005980
780.987356	-0.006150
781.181056	-0.006309
781.374738	-0.006221
781.568402	-0.005984
781.762047	-0.005893
781.955674	-0.005997
782.149283	-0.005919
782.342874	-0.005705
782.536447	-0.005795
782.730001	-0.005712
782.923537	-0.005691
783.117055	-0.005689
783.310555	-0.005750
783.504036	-0.005655
783.697499	-0.005447
783.890944	-0.005187
784.084371	-0.005160
784.277780	-0.005234
784.471170	-0.005304
784.664542	-0.005246
784.857896	-0.005022
785.051231	-0.004967
785.244549	-0.005086
785.437848	-0.005190
785.631129	-0.005527
785.824392	-0.005543
786.017636	-0.005440
786.210863	-0.005459
786.404071	-0.005294
786.597260	-0.005281
786.790432	-0.005429
786.983585	-0.005535
787.176721	-0.005318
787.369838	-0.005154
787.562936	-0.005105
787.756017	-0.005116
787.949079	-0.004821
788.142123	-0.004950
788.335149	-0.004976
788.528156	-0.004884
788.721146	-0.004847
788.914117	-0.005041
789.107070	-0.005089
789.300005	-0.005212
789.492921	-0.005233
789.685819	-0.005299
789.878699	-0.005189
790.071561	-0.005301
790.264405	-0.005331
790.457230	-0.005210
790.650037	-0.004987
790.842826	-0.004932
791.035597	-0.005008
791.228349	-0.004862
791.421084	-0.005094
791.613800	-0.005144
791.806497	-0.005254
791.999177	-0.005294
792.191838	-0.005293
792.384481	-0.005561
792.577106	-0.005629
792.769713	-0.005552
792.962301	-0.005649
793.154871	-0.005572
793.347423	-0.005904
793.539957	-0.005936
793.732473	-0.006055
793.924970	-0.006086
794.117449	-0.006088
794.309910	-0.006068
794.502353	-0.006141
794.694777	-0.006214
794.887183	-0.006148
795.079571	-0.005818
795.271941	-0.005620
795.464293	-0.005335
795.656626	-0.005378
795.848941	-0.005291
796.041238	-0.005177
796.233516	-0.005099
796.425777	-0.005101
796.618019	-0.005138
796.810243	-0.005216
797.002449	-0.005457
797.194636	-0.005509
797.386805	-0.005450
797.578956	-0.005500
797.771089	-0.005616
797.963204	-0.005515
798.155300	-0.005449
798.347378	-0.005419
798.539438	-0.005251
798.731480	-0.005269
798.923503	-0.005474
799.115509	-0.005689
799.307496	-0.005622
799.499465	-0.005609
799.691415	-0.005553
799.883348	-0.005533
800.075262	-0.005682
800.267158	-0.005565
800.459035	-0.005141
800.650895	-0.004913
800.842736	-0.004541
801.034559	-0.004493
801.226364	-0.004361
801.418150	-0.004273
801.609919	-0.004186
801.801669	-0.004110
801.993401	-0.004290
802.185114	-0.004433
802.376810	-0.004523
802.568487	-0.004541
802.760146	-0.004548
802.951787	-0.004653
803.143409	-0.004731
803.335014	-0.004845
803.526600	-0.004730
803.718168	-0.004714
803.909717	-0.004819
804.101249	-0.004778
804.292762	-0.004781
804.484257	-0.004797
804.675734	-0.004807
804.867192	-0.004798
805.058632	-0.004829
805.250054	-0.004711
805.441458	-0.004745
805.632844	-0.004823
805.824211	-0.004911
806.015561	-0.005067
806.206891	-0.005077
806.398204	-0.005088
806.589499	-0.005310
806.780775	-0.005386
806.972033	-0.005505
807.163273	-0.005610
807.354495	-0.005442
807.545698	-0.005443
807.736883	-0.005556
807.928050	-0.005600
808.119199	-0.005560
808.310329	-0.005544
808.501441	-0.005528
808.692535	-0.005638
808.883611	-0.005599
809.074669	-0.005572
809.265708	-0.005620
809.456729	-0.005551
809.647732	-0.005646
809.838717	-0.005624
810.029683	-0.005359
810.220632	-0.005296
810.411562	-0.005243
810.602474	-0.005303
810.793367	-0.005308
810.984242	-0.005349
811.175100	-0.005336
811.365938	-0.005375
811.556759	-0.005472
811.747562	-0.005674
811.938346	-0.005775
812.129112	-0.005839
812.319860	-0.005834
812.510589	-0.005830
812.701300	-0.005700
812.891994	-0.005670
813.082668	-0.005607
813.273325	-0.005465
813.463964	-0.005463
813.654584	-0.005155
813.845186	-0.005224
814.035769	-0.005185
814.226335	-0.005318
814.416882	-0.005310
814.607411	-0.005390
814.797922	-0.005559
814.988415	-0.005677
815.178889	-0.005710
815.369345	-0.006071
815.559783	-0.006018
815.750203	-0.005894
815.940605	-0.005842
816.130988	-0.005838
816.321353	-0.005682
816.511700	-0.005602
816.702028	-0.005643
816.892339	-0.005607
817.082631	-0.005660
817.272905	-0.005745
817.463161	-0.006040
817.653398	-0.006093
817.843617	-0.006284
818.033819	-0.006374
818.224001	-0.006247
818.414166	-0.006398
818.604312	-0.006437
818.794440	-0.006324
818.984550	-0.006313
819.174642	-0.006023
819.364716	-0.006176
819.554771	-0.006092
819.744808	-0.006290
819.934827	-0.006391
820.124827	-0.006318
820.314810	-0.006319
820.504774	-0.006400
820.694720	-0.006454
820.884647	-0.006611
821.074557	-0.006633
821.264448	-0.006593
821.454321	-0.006772
821.644176	-0.006649
821.834012	-0.006694
822.023831	-0.006875
822.213631	-0.006940
822.403413	-0.006956
822.593176	-0.007161
822.782922	-0.007177
822.972649	-0.007264
823.162358	-0.007086
823.352049	-0.007193
823.541721	-0.006994
823.731376	-0.006889
823.921012	-0.006944
824.110629	-0.006769
824.300229	-0.006706
824.489811	-0.006574
824.679374	-0.006626
824.868919	-0.006421
825.058445	-0.006553
825.247954	-0.006712
825.437444	-0.006701
825.626916	-0.006805
825.816370	-0.006982
826.005806	-0.006934
826.195223	-0.006938
826.384622	-0.006997
826.574003	-0.007260
826.763366	-0.007136
826.952711	-0.007205
827.142037	-0.007165
827.331345	-0.007105
827.520635	-0.006996
827.709906	-0.007144
827.899160	-0.007427
828.088395	-0.007382
828.277612	-0.007063
828.466810	-0.007098
828.655991	-0.007035
828.845153	-0.007271
829.034297	-0.007270
829.223423	-0.007255
829.412531	-0.007157
829.601620	-0.007159
829.790691	-0.007174
829.979744	-0.007526
830.168779	-0.007539
830.357795	-0.007758
830.546793	-0.007650
830.735773	-0.007637
830.924735	-0.007830
831.113679	-0.007969
831.302604	-0.007717
831.491511	-0.007555
831.680400	-0.007536
831.869271	-0.007600
832.058123	-0.007310
832.246957	-0.007319
832.435773	-0.007193
832.624571	-0.007131
832.813351	-0.007124
833.002112	-0.007453
833.190855	-0.007391
833.379580	-0.007266
833.568287	-0.007239
833.756975	-0.007496
833.945645	-0.007472
834.134297	-0.007559
834.322931	-0.007706
834.511547	-0.007748
834.700144	-0.007638
834.888723	-0.007979
835.077284	-0.008034
835.265826	-0.007989
835.454351	-0.007990
835.642857	-0.008107
835.831345	-0.008063
836.019815	-0.008066
836.208266	-0.008191
836.396699	-0.008211
836.585114	-0.008252
836.773511	-0.008272
836.961890	-0.008493
837.150250	-0.008565
837.338592	-0.008534
837.526916	-0.008760
837.715222	-0.008595
837.903510	-0.008418
838.091779	-0.008319
838.280030	-0.008338
838.468263	-0.008345
838.656477	-0.008318
838.844674	-0.008388
839.032852	-0.008471
839.221012	-0.008548
839.409153	-0.008765
839.597277	-0.008832
839.785382	-0.008837
839.973469	-0.008810
840.161538	-0.008990
840.349589	-0.008935
840.537621	-0.008573
840.725635	-0.008710
840.913631	-0.008449
841.101609	-0.008471
841.289568	-0.008252
841.477509	-0.008376
841.665432	-0.008463
841.853337	-0.008111
842.041224	-0.007898
842.229092	-0.008192
842.416942	-0.008048
842.604774	-0.008151
842.792588	-0.008197
842.980383	-0.008197
843.168160	-0.008245
843.355919	-0.008189
843.543660	-0.008436
843.731382	-0.008811
843.919087	-0.008891
844.106773	-0.008843
844.294441	-0.008788
844.482090	-0.008529
844.669722	-0.008655
844.857335	-0.008348
845.044930	-0.008449
845.232507	-0.008437
845.420065	-0.008134
845.607605	-0.007843
845.795127	-0.007735
845.982631	-0.007872
846.170117	-0.007951
846.357584	-0.007796
846.545033	-0.007991
846.732464	-0.007857
846.919877	-0.007761
847.107272	-0.007854
847.294648	-0.007979
847.482006	-0.007900
847.669346	-0.007628
847.856667	-0.007808
848.043971	-0.008023
848.231256	-0.007935
848.418523	-0.007782
848.605771	-0.007831
848.793002	-0.007821
848.980214	-0.007723
849.167408	-0.007968
849.354584	-0.008226
849.541742	-0.007946
849.728881	-0.007939
849.916002	-0.008155
850.103105	-0.008445
850.290190	-0.008405
850.477256	-0.008421
850.664304	-0.008629
850.851334	-0.008420
851.038346	-0.008401
851.225340	-0.008706
851.412315	-0.008439
851.599272	-0.008094
851.786211	-0.007839
851.973132	-0.007807
852.160034	-0.007585
852.346918	-0.007458
852.533784	-0.007307
852.720632	-0.007108
852.907462	-0.006846
853.094273	-0.006917
853.281066	-0.007088
853.467841	-0.007229
853.654598	-0.007331
853.841336	-0.007463
854.028056	-0.007484
854.214758	-0.007535
854.401442	-0.007460
854.588107	-0.007494
854.774755	-0.007639
854.961384	-0.007572
855.147995	-0.007257
855.334587	-0.007342
855.521162	-0.007249
855.707718	-0.007352
855.894256	-0.007396
856.080775	-0.007413
856.267277	-0.007324
856.453760	-0.007407
856.640225	-0.007156
856.826672	-0.007177
857.013101	-0.006968
857.199511	-0.007113
857.385903	-0.006908
857.572277	-0.007042
857.758633	-0.006913
857.944970	-0.006803
858.131290	-0.006638
858.317591	-0.006905
858.503873	-0.007153
858.690138	-0.007360
858.876384	-0.007182
859.062612	-0.006981
859.248822	-0.006692
859.435014	-0.006787
859.621188	-0.006950
859.807343	-0.006715
859.993480	-0.006598
860.179599	-0.006222
860.365699	-0.006075
860.551781	-0.006183
860.737846	-0.006467
860.923891	-0.006665
861.109919	-0.006706
861.295929	-0.006584
861.481920	-0.006994
861.667893	-0.007023
861.853848	-0.007106
862.039784	-0.006756
862.225702	-0.006796
862.411603	-0.006701
862.597484	-0.006858
862.783348	-0.006688
862.969193	-0.006732
863.155021	-0.006390
863.340830	-0.006561
863.526620	-0.006625
863.712393	-0.006838
863.898147	-0.006812
864.083883	-0.006869
864.269601	-0.006838
864.455301	-0.006849
864.640982	-0.006843
864.826645	-0.006992
865.012290	-0.006703
865.197917	-0.006751
865.383526	-0.006938
865.569116	-0.006983
865.754688	-0.006709
865.940242	-0.006593
866.125777	-0.006679
866.311295	-0.006666
866.496794	-0.006574
866.682275	-0.006607
866.867737	-0.006619
867.053182	-0.006546
867.238608	-0.006512
867.424016	-0.006575
867.609406	-0.006529
867.794778	-0.006740
867.980131	-0.006933
868.165466	-0.006761
868.350783	-0.006769
868.536082	-0.006554
868.721362	-0.006246
868.906625	-0.006374
869.091869	-0.006371
869.277094	-0.006268
869.462302	-0.005943
869.647491	-0.005683
869.832662	-0.005922
870.017815	-0.006161
870.202950	-0.006501
870.388066	-0.006772
870.573165	-0.006303
870.758245	-0.006364
870.943306	-0.006325
871.128350	-0.006668
871.313375	-0.006802
871.498382	-0.006901
871.683371	-0.006656
871.868342	-0.006231
872.053294	-0.006070
872.238229	-0.006308
872.423144	-0.006150
872.608042	-0.006062
872.792922	-0.005828
872.977783	-0.005803
873.162626	-0.005421
873.347451	-0.005343
873.532258	-0.005404
873.717046	-0.005397
873.901816	-0.005235
874.086568	-0.005394
874.271302	-0.005745
874.456017	-0.005723
874.640715	-0.005541
874.825394	-0.005448
875.010055	-0.005432
875.194697	-0.005706
875.379322	-0.005880
875.563928	-0.005976
875.748516	-0.005756
875.933085	-0.005598
876.117637	-0.005514
876.302170	-0.005580
876.486685	-0.005838
876.671182	-0.006138
876.855661	-0.005970
877.040121	-0.005735
877.224563	-0.005914
877.408987	-0.005973
877.593393	-0.005920
877.777780	-0.005771
877.962150	-0.005683
878.146501	-0.005672
878.330833	-0.005405
878.515148	-0.005481
878.699444	-0.005720
878.883722	-0.005359
879.067982	-0.005400
879.252224	-0.005323
879.436447	-0.005605
879.620653	-0.005724
879.804840	-0.005635
879.989008	-0.005413
880.173159	-0.005294
880.357291	-0.005112
880.541405	-0.005090
880.725501	-0.004964
880.909579	-0.004950
881.093638	-0.005045
881.277680	-0.004727
881.461703	-0.004750
881.645707	-0.005069
881.829694	-0.005129
882.013662	-0.005273
882.197612	-0.005538
882.381544	-0.005576
882.565458	-0.005279
882.749353	-0.005104
882.933230	-0.005366
883.117089	-0.005201
883.300930	-0.004939
883.484753	-0.004906
883.668557	-0.004819
883.852343	-0.004752
884.036111	-0.004959
884.219861	-0.005121
884.403592	-0.004943
884.587305	-0.004792
884.771000	-0.004996
884.954677	-0.005164
885.138335	-0.004787
885.321976	-0.004825
885.505598	-0.004854
885.689201	-0.004477
885.872787	-0.004806
886.056354	-0.005124
886.239904	-0.005068
886.423434	-0.004841
886.606947	-0.004616
886.790442	-0.004943
886.973918	-0.004803
887.157376	-0.004676
887.340816	-0.004791
887.524237	-0.004423
887.707641	-0.004089
887.891026	-0.004290
888.074393	-0.004375
888.257741	-0.004513
888.441072	-0.004453
888.624384	-0.004112
888.807678	-0.003969
888.990954	-0.004289
889.174211	-0.004294
889.357451	-0.004185
889.540672	-0.004137
889.723875	-0.004257
889.907059	-0.004463
890.090226	-0.004637
890.273374	-0.005135
890.456504	-0.005194
890.639616	-0.005110
890.822709	-0.005501
891.005785	-0.005762
891.188842	-0.005705
891.371881	-0.005267
891.554901	-0.004856
891.737904	-0.004652
891.920888	-0.004418
892.103854	-0.004325
892.286802	-0.004149
892.469731	-0.004251
892.652643	-0.004238
892.835536	-0.004322
893.018410	-0.004737
893.201267	-0.004879
893.384106	-0.004712
893.566926	-0.004568
893.749728	-0.004648
893.932511	-0.004375
894.115277	-0.004036
894.298024	-0.003770
894.480753	-0.003583
894.663464	-0.003510
894.846157	-0.003775
895.028831	-0.003915
895.211487	-0.003962
895.394125	-0.003772
895.576745	-0.003977
895.759346	-0.003809
895.941930	-0.003787
896.124495	-0.004153
896.307041	-0.004172
896.489570	-0.004081
896.672080	-0.004335
896.854573	-0.004403
897.037046	-0.005001
897.219502	-0.005034
897.401940	-0.005271
897.584359	-0.005556
897.766760	-0.005104
897.949143	-0.004976
898.131507	-0.004830
898.313854	-0.004669
898.496182	-0.004865
898.678492	-0.004591
898.860783	-0.004823
899.043057	-0.004647
899.225312	-0.004476
899.407549	-0.004848
899.589768	-0.004822
899.771968	-0.004899
899.954151	-0.005010
900.136315	-0.005267
900.318461	-0.005126
900.500588	-0.004863
900.682698	-0.005027
900.864789	-0.005021
901.046862	-0.004667
901.228917	-0.004627
901.410953	-0.004656
901.592971	-0.004362
901.774972	-0.003679
901.956953	-0.003824
902.138917	-0.004027
902.320862	-0.003697
902.502790	-0.003766
902.684699	-0.003816
902.866589	-0.004051
903.048462	-0.003764
903.230316	-0.003944
903.412152	-0.004177
903.593970	-0.004196
903.775770	-0.003820
903.957551	-0.004172
904.139314	-0.004066
904.321059	-0.004160
904.502786	-0.004025
904.684494	-0.004386
904.866185	-0.004455
905.047857	-0.004506
905.229510	-0.004454
905.411146	-0.004962
905.592763	-0.004767
905.774363	-0.004964
905.955943	-0.005120
906.137506	-0.005365
906.319051	-0.005531
906.500577	-0.005714
906.682085	-0.005985
906.863575	-0.006153
907.045046	-0.005827
907.226500	-0.006114
907.407935	-0.006176
907.589352	-0.006174
907.770750	-0.005982
907.952131	-0.005619
908.133493	-0.005195
908.314837	-0.005234
908.496163	-0.005426
908.677470	-0.005771
908.858760	-0.005845
909.040031	-0.005953
909.221284	-0.005659
909.402518	-0.005995
909.583735	-0.005937
909.764933	-0.006131
909.946113	-0.005913
910.127275	-0.005823
910.308418	-0.005746
910.489544	-0.005904
910.670651	-0.005911
910.851740	-0.006146
911.032810	-0.005951
911.213863	-0.006254
911.394897	-0.006128
911.575913	-0.006430
911.756911	-0.006386
911.937890	-0.006294
912.118851	-0.006138
912.299794	-0.006199
912.480719	-0.006221
912.661626	-0.006200
912.842514	-0.006298
913.023384	-0.006380
913.204236	-0.006341
913.385070	-0.006263
913.565886	-0.006223
913.746683	-0.006379
913.927462	-0.006151
914.108223	-0.006392
914.288965	-0.006759
914.469690	-0.006577
914.650396	-0.006658
914.831084	-0.006381
915.011754	-0.006632
915.192405	-0.007297
915.373038	-0.007225
915.553653	-0.007497
915.734250	-0.007223
915.914829	-0.007046
916.095389	-0.007180
916.275931	-0.007258
916.456455	-0.007509
916.636961	-0.007252
916.817448	-0.006915
916.997917	-0.006721
917.178368	-0.006526
917.358801	-0.006703
917.539216	-0.006660
917.719612	-0.006638
917.899990	-0.007010
918.080350	-0.007116
918.260692	-0.007519
918.441015	-0.007304
918.621320	-0.007586
918.801607	-0.007940
918.981876	-0.008032
919.162127	-0.007902
919.342359	-0.008019
919.522573	-0.007810
919.702769	-0.008049
919.882947	-0.007999
920.063106	-0.008285
920.243247	-0.008397
920.423370	-0.008102
920.603475	-0.008336
920.783562	-0.008585
920.963630	-0.008550
921.143680	-0.008448
921.323712	-0.007928
921.503725	-0.007653
921.683721	-0.007635
921.863698	-0.007204
922.043657	-0.007161
922.223598	-0.007134
922.403520	-0.007501
922.583424	-0.007962
922.763311	-0.008106
922.943178	-0.008317
923.123028	-0.008405
923.302859	-0.008233
923.482673	-0.008470
923.662467	-0.008749
923.842244	-0.008482
924.022003	-0.008507
924.201743	-0.008098
924.381465	-0.007976
924.561169	-0.007688
924.740854	-0.007619
924.920522	-0.007982
925.100171	-0.008005
925.279802	-0.008211
925.459414	-0.008317
925.639009	-0.008063
925.818585	-0.008331
925.998143	-0.008896
926.177683	-0.009573
926.357205	-0.009909
926.536708	-0.010509
926.716193	-0.011087
926.895660	-0.011266
927.075109	-0.011716
927.254539	-0.011828
927.433951	-0.011645
927.613345	-0.011592
927.792721	-0.011492
927.972079	-0.011743
928.151418	-0.011326
928.330739	-0.011240
928.510042	-0.011064
928.689327	-0.011187
928.868593	-0.010963
929.047841	-0.011426
929.227071	-0.011860
929.406283	-0.012214
929.585476	-0.012102
929.764652	-0.012287
929.943809	-0.012574
930.122948	-0.012600
930.302068	-0.012538
930.481171	-0.013086
930.660255	-0.012940
930.839321	-0.012527
931.018369	-0.012570
931.197398	-0.012935
931.376409	-0.012980
931.555402	-0.012083
931.734377	-0.012391
931.913334	-0.012573
932.092272	-0.012976
932.271192	-0.013378
932.450094	-0.013342
932.628978	-0.013033
932.807844	-0.013232
932.986691	-0.013090
933.165520	-0.013532
933.344331	-0.013905
933.523123	-0.013786
933.701898	-0.013565
933.880654	-0.013510
934.059392	-0.013680
934.238111	-0.013950
934.416813	-0.013774
934.595496	-0.013881
934.774161	-0.014499
934.952808	-0.013936
935.131437	-0.014183
935.310047	-0.013950
935.488639	-0.014104
935.667213	-0.014496
935.845769	-0.014575
936.024306	-0.014477
936.202825	-0.014374
936.381326	-0.014240
936.559809	-0.015087
936.738274	-0.014960
936.916720	-0.015567
937.095148	-0.015348
937.273558	-0.015398
937.451950	-0.015294
937.630323	-0.015386
937.808678	-0.015900
937.987015	-0.016209
938.165334	-0.016544
938.343635	-0.016362
938.521917	-0.015880
938.700181	-0.016405
938.878427	-0.016376
939.056655	-0.016664
939.234864	-0.016636
939.413055	-0.016478
939.591228	-0.016514
939.769383	-0.015454
939.947519	-0.015638
940.125638	-0.016107
940.303738	-0.015586
940.481820	-0.015869
940.659883	-0.016252
940.837929	-0.016449
941.015956	-0.016956
941.193965	-0.017093
941.371955	-0.017455
941.549928	-0.018459
941.727882	-0.018730
941.905818	-0.018435
942.083736	-0.017919
942.261636	-0.017574
942.439517	-0.017089
942.617380	-0.017031
942.795225	-0.017126
942.973052	-0.017175
943.150860	-0.016504
943.328651	-0.016647
943.506423	-0.017271
943.684176	-0.017740
943.861912	-0.017867
944.039629	-0.018278
944.217328	-0.018318
944.395009	-0.017682
944.572672	-0.017513
944.750317	-0.017414
944.927943	-0.016284
945.105551	-0.016957
945.283141	-0.016800
945.460712	-0.016806
945.638265	-0.017776
945.815801	-0.016271
945.993317	-0.015659
946.170816	-0.015781
946.348297	-0.014583
946.525759	-0.015702
946.703203	-0.014478
946.880629	-0.014357
947.058036	-0.014108
947.235425	-0.012727
947.412797	-0.013505
947.590149	-0.014366
947.767484	-0.013946
947.944800	-0.015095
948.122099	-0.014805
948.299379	-0.015112
948.476640	-0.015258
948.653884	-0.015618
948.831109	-0.014510
949.008316	-0.014380
949.185505	-0.014257
949.362676	-0.014103
949.539828	-0.014230
949.716962	-0.012720
949.894078	-0.012844
950.071176	-0.012591
950.248256	-0.013182
950.425317	-0.015260
950.602360	-0.014515
950.779385	-0.013616
950.956391	-0.013917
951.133380	-0.013579
951.310350	-0.014555
951.487302	-0.013812
951.664235	-0.013938
951.841151	-0.013156
952.018048	-0.013248
952.194927	-0.013822
952.371788	-0.015146
952.548631	-0.014482
952.725455	-0.013643
952.902261	-0.013113
953.079049	-0.012474
953.255819	-0.011536
953.432570	-0.011025
953.609303	-0.009709
953.786018	-0.009727
953.962715	-0.009839
954.139394	-0.010581
954.316054	-0.012171
954.492696	-0.011355
954.669320	-0.012085
954.845926	-0.011099
955.022513	-0.009393
955.199083	-0.009126
955.375634	-0.007978
955.552166	-0.006550
955.728681	-0.006405
955.905177	-0.003929
956.081655	-0.003910
956.258115	-0.004731
956.434557	-0.004523
956.610980	-0.005333
956.787385	-0.005873
956.963772	-0.006279
957.140141	-0.005869
957.316492	-0.004221
957.492824	-0.005795
957.669138	-0.007230
957.845434	-0.006254
958.021712	-0.007814
958.197971	-0.008487
958.374212	-0.007433
958.550435	-0.007666
958.726640	-0.008027
958.902826	-0.008165
959.078995	-0.007266
959.255145	-0.006693
959.431277	-0.006114
959.607390	-0.005996
959.783486	-0.003843
959.959563	-0.002751
960.135622	-0.001362
960.311662	-0.000746
960.487685	-0.001371
960.663689	-0.001186
960.839675	-0.000151
961.015643	-0.000590
961.191593	0.000812
961.367524	0.000385
961.543437	-0.000673
961.719332	0.000241
961.895209	0.001917
962.071067	0.002646
962.246907	0.003272
962.422730	0.002569
962.598533	0.003929
962.774319	0.003237
962.950086	0.004254
963.125835	0.004354
963.301566	0.003031
963.477279	0.003550
963.652973	0.002541
963.828650	0.003659
964.004308	0.006738
964.179947	0.006528
964.355569	0.008732
964.531172	0.006982
964.706757	0.007946
964.882324	0.008690
965.057873	0.005749
965.233403	0.008590
965.408916	0.008369
965.584410	0.007574
965.759885	0.006997
965.935343	0.007538
966.110782	0.008025
966.286203	0.009009
966.461606	0.009534
966.636991	0.011976
966.812357	0.010816
966.987705	0.010122
967.163035	0.010657
967.338347	0.010799
967.513641	0.008840
967.688916	0.008026
967.864173	0.007046
968.039412	0.005238
968.214632	0.003986
968.389835	0.005440
968.565019	0.005793
968.740185	0.005009
968.915333	0.006004
969.090462	0.006401
969.265573	0.006647
969.440667	0.007139
969.615741	0.010000
969.790798	0.009486
969.965836	0.007379
970.140856	0.007837
970.315858	0.006715
970.490842	0.006682
970.665808	0.007340
970.840755	0.010191
971.015684	0.009976
971.190595	0.009094
971.365487	0.011238
971.540362	0.012723
971.715218	0.012314
971.890056	0.012866
972.064875	0.011793
972.239677	0.011055
972.414460	0.008547
972.589225	0.008016
972.763972	0.005969
972.938700	0.005252
973.113411	0.005360
973.288103	0.006158
973.462777	0.007078
973.637432	0.008622
973.812070	0.009012
973.986689	0.008212
974.161290	0.008989
974.335873	0.012290
974.510437	0.013244
974.684984	0.012999
974.859512	0.011885
975.034022	0.010252
975.208513	0.010380
975.382987	0.011061
975.557442	0.013321
975.731879	0.012742
975.906298	0.012469
976.080698	0.011550
976.255080	0.012123
976.429445	0.013150
976.603790	0.014255
976.778118	0.013326
976.952427	0.012150
977.126719	0.010619
977.300992	0.012586
977.475246	0.012436
977.649483	0.012536
977.823701	0.013296
977.997901	0.012907
978.172083	0.012861
978.346247	0.013121
978.520392	0.012865
978.694519	0.013033
978.868628	0.010165
979.042719	0.007888
979.216791	0.007624
979.390845	0.006756
979.564882	0.007741
979.738899	0.008455
979.912899	0.009423
980.086880	0.009536
980.260843	0.011404
980.434788	0.012737
980.608715	0.013659
980.782623	0.012834
980.956514	0.012907
981.130386	0.010942
981.304240	0.011275
981.478075	0.011107
981.651892	0.010936
981.825692	0.010635
981.999472	0.010381
982.173235	0.010403
982.346980	0.009221
982.520706	0.009814
982.694414	0.010116
982.868104	0.008247
983.041775	0.007818
983.215428	0.007685
983.389064	0.008219
983.562680	0.007842
983.736279	0.008446
983.909860	0.011392
984.083422	0.008905
984.256966	0.009937
984.430491	0.010286
984.603999	0.010841
984.777488	0.012147
984.950959	0.009836
985.124412	0.008953
985.297847	0.009569
985.471263	0.009404
985.644661	0.012670
985.818041	0.010782
985.991403	0.010678
986.164747	0.010420
986.338072	0.010389
986.511379	0.010976
986.684668	0.011449
986.857938	0.010055
987.031191	0.007593
987.204425	0.004794
987.377641	0.005613
987.550839	0.006202
987.724018	0.005338
987.897179	0.003667
988.070322	0.004024
988.243447	0.006167
988.416554	0.007138
988.589642	0.008774
988.762712	0.008676
988.935764	0.009683
989.108798	0.011491
989.281813	0.010017
989.454811	0.011461
989.627790	0.011392
989.800751	0.010333
989.973693	0.009611
990.146617	0.010715
990.319524	0.011219
990.492412	0.009550
990.665281	0.008076
990.838133	0.010332
991.010966	0.010437
991.183781	0.010018
991.356578	0.011090
991.529356	0.010709
991.702117	0.008542
991.874859	0.008658
992.047583	0.007738
992.220288	0.007245
992.392976	0.006089
992.565645	0.005873
992.738296	0.007169
992.910929	0.006413
993.083543	0.006798
993.256139	0.007815
993.428718	0.007243
993.601277	0.009670
993.773819	0.008835
993.946342	0.010825
994.118848	0.011920
994.291335	0.010569
994.463803	0.009611
994.636254	0.009596
994.808686	0.009540
994.981100	0.010445
995.153496	0.010298
995.325874	0.012281
995.498233	0.011951
995.670574	0.010188
995.842897	0.011362
996.015202	0.012294
996.187488	0.011988
996.359757	0.012127
996.532007	0.012494
996.704239	0.011939
996.876452	0.010792
997.048648	0.009830
997.220825	0.010421
997.392984	0.009814
997.565124	0.010275
997.737247	0.009869
997.909351	0.009922
998.081437	0.006837
998.253505	0.006692
998.425554	0.007001
998.597586	0.007156
998.769599	0.006473
998.941594	0.007426
999.113571	0.007471
999.285529	0.008176
999.457469	0.008016
999.629391	0.010183
999.801295	0.010894
999.973181	0.012445
1000.145048	0.012379
1000.316897	0.014745
1000.488728	0.014146
1000.660541	0.013190
1000.832335	0.013404
1001.004111	0.012209
1001.175869	0.012352
1001.347609	0.012180
1001.519331	0.011365
1001.691034	0.011704
1001.862719	0.010917
1002.034386	0.011890
1002.206035	0.011981
1002.377665	0.011149
1002.549277	0.012066
1002.720871	0.012491
1002.892447	0.012850
1003.064004	0.012244
1003.235544	0.012854
1003.407065	0.011380
1003.578568	0.010397
1003.750052	0.011332
1003.921519	0.011839
1004.092967	0.011353
1004.264397	0.009690
1004.435809	0.009413
1004.607202	0.009244
1004.778577	0.007161
1004.949934	0.008710
1005.121273	0.007752
1005.292594	0.007837
1005.463896	0.006940
1005.635180	0.008626
1005.806446	0.011240
1005.977694	0.010636
1006.148923	0.010055
1006.320135	0.009822
1006.491328	0.008498
1006.662503	0.009712
1006.833659	0.007905
1007.004798	0.008142
1007.175918	0.007229
1007.347020	0.006410
1007.518103	0.007541
1007.689169	0.007049
1007.860216	0.009335
1008.031245	0.009482
1008.202256	0.008525
1008.373248	0.007796
1008.544223	0.008301
1008.715179	0.009328
1008.886117	0.009072
1009.057036	0.009813
1009.227938	0.011084
1009.398821	0.008000
1009.569686	0.008342
1009.740533	0.010206
1009.911361	0.011902
1010.082172	0.011302
1010.252964	0.010172
1010.423738	0.011146
1010.594493	0.009713
1010.765231	0.007752
1010.935950	0.010482
1011.106651	0.010061
1011.277334	0.010277
1011.447998	0.009881
1011.618645	0.011107
1011.789273	0.009903
1011.959882	0.007446
1012.130474	0.007821
1012.301048	0.008714
1012.471603	0.007614
1012.642140	0.008292
1012.812658	0.006684
1012.983159	0.005651
1013.153641	0.004979
1013.324105	0.007283
1013.494551	0.008132
1013.664979	0.008760
1013.835388	0.008617
1014.005779	0.008166
1014.176152	0.008317
1014.346507	0.008011
1014.516843	0.008352
1014.687162	0.008546
1014.857462	0.007298
1015.027744	0.008318
1015.198007	0.007360
1015.368252	0.007594
1015.538480	0.009159
1015.708689	0.007745
1015.878879	0.007754
1016.049052	0.007189
1016.219206	0.007226
1016.389342	0.006367
1016.559460	0.004976
1016.729559	0.005288
1016.899641	0.005798
1017.069704	0.005310
1017.239749	0.004755
1017.409775	0.005756
1017.579784	0.007099
1017.749774	0.005885
1017.919746	0.006811
1018.089700	0.007208
1018.259635	0.006023
1018.429553	0.005182
1018.599452	0.004193
1018.769333	0.004390
1018.939195	0.002890
1019.109040	0.002481
1019.278866	0.003082
1019.448674	0.003323
1019.618464	0.003304
1019.788235	0.003124
1019.957989	0.004349
1020.127724	0.004291
1020.297441	0.005151
1020.467139	0.006447
1020.636820	0.007368
1020.806482	0.007182
1020.976126	0.007718
1021.145752	0.007005
1021.315359	0.008113
1021.484948	0.007673
1021.654519	0.007260
1021.824072	0.006963
1021.993607	0.005706
1022.163123	0.005366
1022.332621	0.007132
1022.502101	0.005325
1022.671563	0.006770
1022.841007	0.005144
1023.010432	0.005017
1023.179839	0.005922
1023.349228	0.006244
1023.518598	0.005584
1023.687951	0.005157
1023.857285	0.003968
1024.026601	0.005152
1024.195899	0.004961
1024.365178	0.006051
1024.534439	0.006700
1024.703682	0.006658
1024.872907	0.007264
1025.042114	0.007923
1025.211302	0.006158
1025.380472	0.006432
1025.549624	0.005830
1025.718758	0.005229
1025.887873	0.006785
1026.056970	0.005587
1026.226049	0.005308
1026.395110	0.004929
1026.564153	0.005580
1026.733177	0.006678
1026.902183	0.005800
1027.071171	0.006813
1027.240141	0.007053
1027.409092	0.005992
1027.578026	0.006262
1027.746940	0.007280
1027.915837	0.006560
1028.084716	0.006678
1028.253576	0.007871
1028.422418	0.009443
1028.591242	0.009028
1028.760048	0.009141
1028.928835	0.009751
1029.097604	0.009954
1029.266355	0.009876
1029.435088	0.009606
1029.603803	0.009261
1029.772499	0.009395
1029.941177	0.008834
1030.109837	0.008882
1030.278478	0.008449
1030.447102	0.007995
1030.615707	0.007600
1030.784294	0.007914
1030.952863	0.008809
1031.121413	0.008876
1031.289945	0.007249
1031.458460	0.007459
1031.626955	0.007153
1031.795433	0.007350
1031.963892	0.006452
1032.132334	0.007559
1032.300756	0.006565
1032.469161	0.006032
1032.637548	0.005671
1032.805916	0.006249
1032.974266	0.005889
1033.142598	0.005769
1033.310911	0.005725
1033.479207	0.004787
1033.647484	0.003213
1033.815743	0.003979
1033.983983	0.003787
1034.152206	0.003253
1034.320410	0.004324
1034.488596	0.002622
1034.656764	0.003456
1034.824914	0.004090
1034.993045	0.006091
1035.161158	0.006794
1035.329253	0.008135
1035.497330	0.010365
1035.665388	0.011256
1035.833428	0.010769
1036.001450	0.011084
1036.169454	0.010391
1036.337440	0.009927
1036.505407	0.008542
1036.673356	0.007420
1036.841287	0.004829
1037.009200	0.003224
1037.177094	0.004280
1037.344970	0.002840
1037.512828	0.003998
1037.680668	0.003307
1037.848489	0.003304
1038.016293	0.003378
1038.184078	0.004371
1038.351845	0.004403
1038.519593	0.004633
1038.687324	0.004384
1038.855036	0.005262
1039.022730	0.004223
1039.190406	0.004904
1039.358063	0.004250
1039.525702	0.004701
1039.693323	0.004840
1039.860926	0.005830
1040.028511	0.005433
1040.196077	0.004573
1040.363625	0.005081
1040.531155	0.006330
1040.698667	0.006736
1040.866161	0.007446
1041.033636	0.008113
1041.201093	0.007668
1041.368532	0.007137
1041.535952	0.006338
1041.703355	0.006112
1041.870739	0.005394
1042.038105	0.005226
1042.205452	0.005461
1042.372782	0.005907
1042.540093	0.005064
1042.707386	0.006522
1042.874661	0.005013
1043.041918	0.006613
1043.209156	0.006130
1043.376376	0.007271
1043.543578	0.007963
1043.710762	0.006736
1043.877927	0.005850
1044.045074	0.005836
1044.212203	0.004557
1044.379314	0.006087
1044.546407	0.006105
1044.713481	0.006535
1044.880537	0.004827
1045.047575	0.002479
1045.214595	0.002434
1045.381596	0.002356
1045.548579	0.003606
1045.715544	0.004600
1045.882491	0.003877
1046.049420	0.002663
1046.216330	0.002211
1046.383222	0.004698
1046.550096	0.005051
1046.716951	0.005500
1046.883789	0.005886
1047.050608	0.003828
1047.217409	0.003502
1047.384192	0.003391
1047.550956	0.004067
1047.717703	0.004651
1047.884431	0.004152
1048.051140	0.004704
1048.217832	0.004864
1048.384505	0.005612
1048.551161	0.008092
1048.717798	0.007528
1048.884416	0.008160
1049.051017	0.009919
1049.217599	0.009586
1049.384163	0.008105
1049.550709	0.009350
1049.717237	0.008554
1049.883746	0.007971
1050.050237	0.006255
1050.216710	0.006499
1050.383165	0.006672
1050.549601	0.004413
1050.716019	0.004287
1050.882420	0.004605
1051.048801	0.004438
1051.215165	0.003513
1051.381510	0.002401
1051.547837	0.001451
1051.714146	0.002308
1051.880437	0.003152
1052.046709	0.002286
1052.212964	0.003717
1052.379200	0.003231
1052.545417	0.002414
1052.711617	0.003157
1052.877798	0.003508
1053.043961	0.005505
1053.210106	0.005069
1053.376233	0.004885
1053.542341	0.005685
1053.708432	0.005770
1053.874504	0.006776
1054.040557	0.006397
1054.206593	0.006563
1054.372610	0.006085
1054.538609	0.004807
1054.704590	0.003653
1054.870553	0.002550
1055.036497	0.002132
1055.202424	0.000774
1055.368331	-0.000376
1055.534221	-0.001003
1055.700093	-0.000967
1055.865946	-0.001574
1056.031781	-0.000121
1056.197598	-0.000273
1056.363397	0.000588
1056.529177	-0.000787
1056.694939	0.000253
1056.860683	0.001576
1057.026409	0.002437
1057.192116	0.004632
1057.357806	0.004852
1057.523477	0.003036
1057.689130	0.004468
1057.854764	0.003450
1058.020381	0.005347
1058.185979	0.004758
1058.351559	0.004885
1058.517120	0.004084
1058.682664	0.001413
1058.848189	0.001416
1059.013696	0.001765
1059.179185	0.000856
1059.344656	0.000629
1059.510108	0.000221
1059.675542	0.000151
1059.840958	-0.000735
1060.006356	-0.001227
1060.171735	-0.000327
1060.337096	0.001188
1060.502439	0.000274
1060.667764	0.001657
1060.833071	0.002452
1060.998359	0.005223
1061.163629	0.004777
1061.328881	0.003888
1061.494115	0.005264
1061.659330	0.005817
1061.824527	0.005237
1061.989706	0.005915
1062.154867	0.004501
1062.320010	0.005047
1062.485134	0.003348
1062.650240	0.003629
1062.815328	0.006176
1062.980398	0.005483
1063.145449	0.007250
1063.310482	0.005862
1063.475497	0.006582
1063.640494	0.006936
1063.805473	0.004820
1063.970433	0.002146
1064.135375	0.001534
1064.300299	-0.001951
1064.465204	-0.001437
1064.630092	-0.002541
1064.794961	-0.001249
1064.959812	-0.002844
1065.124645	-0.004246
1065.289459	-0.004131
1065.454256	-0.001561
1065.619034	0.000628
1065.783793	0.001810
1065.948535	0.002337
1066.113258	0.001034
1066.277964	-0.000056
1066.442651	0.002108
1066.607319	0.004175
1066.771970	0.004468
1066.936602	0.002132
1067.101216	0.000186
1067.265812	0.001082
1067.430389	0.001299
1067.594949	0.001522
1067.759490	0.001817
1067.924013	0.000151
1068.088518	0.000328
1068.253004	0.000237
1068.417472	0.002095
1068.581922	0.002568
1068.746354	0.001174
1068.910768	0.001188
1069.075163	0.000339
1069.239540	0.002377
1069.403899	0.003028
1069.568240	0.000937
1069.732562	-0.000085
1069.896866	-0.000859
1070.061152	-0.002189
1070.225420	-0.000083
1070.389670	0.000196
1070.553901	0.000585
1070.718114	-0.002299
1070.882309	-0.002971
1071.046486	-0.003134
1071.210644	-0.000114
1071.374784	-0.000160
1071.538906	-0.000889
1071.703010	-0.002176
1071.867096	-0.004615
1072.031163	-0.004409
1072.195212	-0.002930
1072.359243	-0.002691
1072.523256	-0.001065
1072.687250	-0.002255
1072.851226	-0.003098
1073.015184	-0.002606
1073.179124	-0.002940
1073.343045	-0.001411
1073.506949	-0.002599
1073.670834	-0.001483
1073.834701	-0.001762
1073.998549	-0.002034
1074.162380	-0.003144
1074.326192	-0.003387
1074.489986	-0.003605
1074.653761	-0.001360
1074.817519	-0.002956
1074.981258	-0.003434
1075.144979	-0.003396
1075.308682	-0.001661
1075.472367	-0.003457
1075.636033	-0.003375
1075.799681	-0.002486
1075.963311	-0.001944
1076.126923	-0.003892
1076.290516	-0.002459
1076.454092	-0.001127
1076.617649	-0.002181
1076.781187	-0.002025
1076.944708	0.000412
1077.108210	0.002353
1077.271695	0.004371
1077.435160	0.004465
1077.598608	0.005320
1077.762038	0.005747
1077.925449	0.004287
1078.088842	0.006219
1078.252217	0.004857
1078.415573	0.004310
1078.578912	0.003413
1078.742232	0.003217
1078.905534	0.004879
1079.068817	0.003367
1079.232083	0.002491
1079.395330	0.002542
1079.558559	0.000073
1079.721770	0.000715
1079.884962	0.000524
1080.048136	-0.001206
1080.211293	-0.002145
1080.374430	-0.005835
1080.537550	-0.006079
1080.700651	-0.005669
1080.863735	-0.005744
1081.026800	-0.003711
1081.189846	-0.004709
1081.352875	-0.005624
1081.515885	-0.003043
1081.678877	-0.003664
1081.841851	-0.001621
1082.004807	-0.000603
1082.167744	-0.001090
1082.330663	0.002304
1082.493564	0.002825
1082.656447	0.003541
1082.819312	0.002810
1082.982158	0.002558
1083.144986	0.004279
1083.307796	0.005903
1083.470587	0.003001
1083.633361	0.003822
1083.796116	0.002223
1083.958853	0.001096
1084.121571	-0.000946
1084.284272	-0.000665
1084.446954	-0.001975
1084.609618	-0.002305
1084.772264	-0.005049
1084.934892	-0.002855
1085.097501	-0.005499
1085.260092	-0.006767
1085.422665	-0.007728
1085.585220	-0.004503
1085.747756	-0.002818
1085.910274	-0.002981
1086.072774	-0.002292
1086.235256	0.000046
1086.397720	-0.001006
1086.560165	0.001342
1086.722592	0.002061
1086.885001	-0.000613
1087.047392	-0.002396
1087.209764	-0.003672
1087.372119	-0.001457
1087.534455	-0.005633
1087.696772	-0.005852
1087.859072	-0.003942
1088.021353	-0.004057
1088.183616	-0.005237
1088.345861	-0.004192
1088.508088	-0.004984
1088.670296	-0.004680
1088.832486	-0.005757
1088.994658	-0.004143
1089.156812	-0.003931
1089.318948	-0.003953
1089.481065	-0.005009
1089.643164	-0.003964
1089.805245	-0.000909
1089.967308	0.001196
1090.129352	0.002593
1090.291378	0.002612
1090.453386	0.002472
1090.615376	0.000333
1090.777347	-0.000423
1090.939301	0.001108
1091.101236	0.001183
1091.263153	-0.001585
1091.425051	-0.001944
1091.586932	-0.003718
1091.748794	-0.002712
1091.910638	-0.002207
1092.072463	-0.003761
1092.234271	-0.003491
1092.396060	-0.002144
1092.557831	-0.001569
1092.719584	-0.000278
1092.881319	0.000549
1093.043035	0.001297
1093.204733	-0.002455
1093.366413	-0.003179
1093.528075	-0.000090
1093.689718	-0.000286
1093.851343	-0.002115
1094.012950	-0.002689
1094.174539	-0.002874
1094.336110	-0.002729
1094.497662	-0.000337
1094.659196	0.000892
1094.820712	0.000357
1094.982210	-0.002310
1095.143689	-0.002547
1095.305151	-0.003041
1095.466594	-0.004137
1095.628018	-0.002096
1095.789425	-0.002824
1095.950813	-0.003777
1096.112183	-0.002750
1096.273535	-0.001369
1096.434869	0.002093
1096.596184	0.007040
1096.757482	0.006826
1096.918761	0.009477
1097.080021	0.004632
1097.241264	0.005147
1097.402488	0.003909
1097.563694	0.003466
1097.724882	0.003454
1097.886052	0.003119
1098.047203	-0.002175
1098.208336	-0.002305
1098.369451	-0.002394
1098.530548	0.000796
1098.691627	0.000285
1098.852687	-0.003848
1099.013729	-0.004800
1099.174753	-0.004536
1099.335758	-0.004553
1099.496746	-0.003702
1099.657715	-0.002504
1099.818666	-0.004612
1099.979599	-0.005182
1100.140513	-0.006242
1100.301409	-0.005133
1100.462287	-0.002270
1100.623147	-0.000118
1100.783989	-0.000140
1100.944812	-0.002289
1101.105617	-0.004144
1101.266404	-0.002310
1101.427173	-0.002377
1101.587923	-0.005727
1101.748656	-0.005082
1101.909370	-0.005857
1102.070066	-0.007955
1102.230743	-0.008318
1102.391403	-0.006999
1102.552044	-0.006698
1102.712667	-0.008240
1102.873271	-0.007452
1103.033858	-0.005252
1103.194426	-0.002766
1103.354976	-0.002433
1103.515508	-0.000727
1103.676021	-0.000032
1103.836517	0.001440
1103.996994	0.002019
1104.157453	0.003939
1104.317893	0.005346
1104.478316	0.006955
1104.638720	0.008085
1104.799106	0.005815
1104.959474	0.003453
1105.119823	0.002430
1105.280155	-0.001187
1105.440468	-0.002501
1105.600763	-0.002468
1105.761039	-0.005923
1105.921298	-0.009980
1106.081538	-0.012775
1106.241760	-0.010197
1106.401964	-0.008643
1106.562149	-0.010725
1106.722316	-0.009048
1106.882465	-0.006163
1107.042596	-0.005678
1107.202709	-0.002678
1107.362803	0.000618
1107.522879	-0.000830
1107.682937	-0.007098
1107.842977	-0.005994
1108.002999	-0.005985
1108.163002	-0.006162
1108.322987	-0.010026
1108.482954	-0.013267
1108.642902	-0.015088
1108.802833	-0.014068
1108.962745	-0.010268
1109.122639	-0.004759
1109.282515	-0.005301
1109.442372	-0.005931
1109.602211	-0.006862
1109.762032	-0.005539
1109.921835	-0.002792
1110.081620	-0.004636
1110.241386	-0.004167
1110.401134	-0.007968
1110.560864	-0.009226
1110.720576	-0.011629
1110.880269	-0.010489
1111.039945	-0.010923
1111.199602	-0.010511
1111.359240	-0.010288
1111.518861	-0.008149
1111.678463	-0.008197
1111.838047	-0.006507
1111.997613	-0.006327
1112.157161	-0.007713
1112.316690	-0.006059
1112.476202	-0.004629
1112.635695	-0.004791
1112.795169	-0.006439
1112.954626	-0.008349
1113.114064	-0.011738
1113.273484	-0.016319
1113.432886	-0.018657
1113.592270	-0.016172
1113.751635	-0.019520
1113.910983	-0.016423
1114.070312	-0.017210
1114.229622	-0.019432
1114.388915	-0.015600
1114.548189	-0.016270
1114.707445	-0.011898
1114.866683	-0.006488
1115.025903	-0.005848
1115.185104	-0.004796
1115.344287	-0.005737
1115.503452	-0.003913
1115.662599	0.000659
1115.821727	-0.000865
1115.980838	-0.000275
1116.139930	0.002246
1116.299004	-0.004227
1116.458059	-0.003328
1116.617097	-0.003531
1116.776116	-0.004893
1116.935117	-0.001586
1117.094099	-0.001864
1117.253064	-0.002406
1117.412010	-0.001255
1117.570938	0.000237
1117.729848	0.003384
1117.888740	0.000627
1118.047613	0.002811
1118.206468	0.002231
1118.365305	0.000464
1118.524124	-0.001345
1118.682924	-0.001916
1118.841707	-0.002740
1119.000471	-0.006271
1119.159216	-0.008299
1119.317944	-0.007675
1119.476653	-0.008103
1119.635344	-0.009249
1119.794017	-0.011807
1119.952672	-0.012487
1120.111308	-0.013640
1120.269927	-0.013752
1120.428527	-0.012841
1120.587108	-0.015156
1120.745672	-0.016122
1120.904217	-0.016984
1121.062744	-0.015269
1121.221253	-0.017037
1121.379744	-0.017261
1121.538216	-0.014411
1121.696671	-0.012276
1121.855107	-0.014355
1122.013524	-0.012167
1122.171924	-0.013492
1122.330305	-0.012318
1122.488668	-0.013477
1122.647013	-0.012353
1122.805340	-0.011287
1122.963648	-0.013405
1123.121938	-0.010824
1123.280210	-0.011660
1123.438464	-0.010114
1123.596700	-0.010143
1123.754917	-0.008384
1123.913116	-0.007249
1124.071297	-0.008021
1124.229459	-0.006454
1124.387604	-0.006465
1124.545730	-0.010259
1124.703838	-0.008795
1124.861928	-0.011303
1125.019999	-0.006806
1125.178052	-0.006584
1125.336088	-0.007847
1125.494104	-0.006175
1125.652103	-0.009144
1125.810083	-0.010167
1125.968045	-0.008586
1126.125989	-0.008978
1126.283915	-0.007621
1126.441823	-0.008989
1126.599712	-0.009555
1126.757583	-0.008911
1126.915436	-0.008708
1127.073270	-0.010112
1127.231087	-0.008620
1127.388885	-0.008790
1127.546665	-0.009896
1127.704426	-0.007649
1127.862170	-0.009972
1128.019895	-0.011781
1128.177602	-0.013635
1128.335291	-0.013101
1128.492961	-0.010012
1128.650614	-0.012008
1128.808248	-0.015326
1128.965864	-0.014738
1129.123461	-0.017389
1129.281041	-0.018680
1129.438602	-0.016248
1129.596145	-0.015225
1129.753670	-0.018059
1129.911176	-0.016379
1130.068665	-0.012990
1130.226135	-0.011126
1130.383587	-0.014578
1130.541020	-0.014745
1130.698436	-0.012007
1130.855833	-0.010471
1131.013212	-0.007096
1131.170573	-0.006448
1131.327915	-0.013789
1131.485239	-0.014398
1131.642545	-0.010188
1131.799833	-0.010166
1131.957103	-0.010500
1132.114354	-0.015020
1132.271588	-0.019423
1132.428803	-0.023715
1132.585999	-0.023999
1132.743178	-0.018292
1132.900338	-0.020516
1133.057480	-0.025728
1133.214604	-0.021628
1133.371710	-0.017555
1133.528797	-0.017300
1133.685866	-0.015165
1133.842917	-0.011840
1133.999950	-0.011645
1134.156964	-0.011946
1134.313960	-0.008391
1134.470938	-0.006002
1134.627898	-0.006274
1134.784840	-0.008442
1134.941763	-0.003044
1135.098668	-0.009751
1135.255555	-0.013983
1135.412424	-0.012311
1135.569274	-0.016515
1135.726107	-0.017077
1135.882921	-0.019231
1136.039716	-0.022145
1136.196494	-0.021994
1136.353253	-0.024078
1136.509995	-0.017924
1136.666717	-0.017549
1136.823422	-0.020680
1136.980109	-0.018752
1137.136777	-0.019624
1137.293427	-0.016480
1137.450059	-0.012867
1137.606672	-0.015432
1137.763267	-0.009822
1137.919844	-0.009557
1138.076403	-0.006820
1138.232944	-0.003772
1138.389466	-0.000010
1138.545971	-0.005240
1138.702457	-0.006693
1138.858924	-0.006779
1139.015374	-0.004234
1139.171805	-0.013510
1139.328218	-0.015578
1139.484613	-0.014133
1139.640990	-0.012129
1139.797348	-0.016143
1139.953688	-0.007514
1140.110010	-0.010967
1140.266314	-0.011393
1140.422600	-0.010645
1140.578867	-0.006484
1140.735116	-0.006993
1140.891347	-0.006496
1141.047559	-0.008762
1141.203754	-0.007714
1141.359930	-0.011887
1141.516088	-0.013128
1141.672228	-0.013774
1141.828349	-0.012636
1141.984452	-0.006251
1142.140537	-0.004386
1142.296604	-0.010170
1142.452653	-0.012049
1142.608683	-0.009192
1142.764695	-0.014607
1142.920689	-0.008616
1143.076665	-0.007323
1143.232622	-0.010909
1143.388562	-0.019219
1143.544483	-0.021514
1143.700385	-0.018336
1143.856270	-0.015409
1144.012136	-0.018864
1144.167985	-0.011831
1144.323814	-0.012842
1144.479626	-0.013893
1144.635420	-0.009692
1144.791195	-0.011928
1144.946952	-0.010386
1145.102691	-0.009875
1145.258411	-0.008187
1145.414113	-0.008485
1145.569798	-0.008098
1145.725463	-0.007978
1145.881111	-0.011147
1146.036741	-0.012165
1146.192352	-0.010415
1146.347945	-0.009799
1146.503519	-0.011369
1146.659076	-0.016996
1146.814614	-0.014063
1146.970134	-0.018718
1147.125636	-0.022693
1147.281120	-0.012846
1147.436585	-0.017443
1147.592032	-0.012548
1147.747461	-0.010612
1147.902872	-0.008755
1148.058265	-0.006941
1148.213639	-0.007374
1148.368995	-0.007314
1148.524333	-0.004495
1148.679653	-0.014518
1148.834954	-0.011007
1148.990237	-0.011544
1149.145502	-0.013334
1149.300749	-0.014965
1149.455977	-0.014875
1149.611188	-0.022522
1149.766380	-0.017220
1149.921553	-0.015998
1150.076709	-0.011883
1150.231846	-0.017404
1150.386966	-0.013458
1150.542066	-0.014605
1150.697149	-0.014940
1150.852214	-0.011455
1151.007260	-0.004593
1151.162288	-0.013114
1151.317298	-0.014754
1151.472289	-0.015948
1151.627263	-0.008784
1151.782218	-0.015771
1151.937155	-0.015392
1152.092073	-0.012473
1152.246974	-0.015801
1152.401856	-0.015245
1152.556720	-0.018052
1152.711566	-0.018493
1152.866393	-0.017004
1153.021203	-0.022715
1153.175994	-0.018577
1153.330767	-0.020450
1153.485521	-0.022703
1153.640258	-0.018990
1153.794976	-0.020214
1153.949676	-0.009765
1154.104358	-0.006925
1154.259021	-0.010355
1154.413667	-0.003527
1154.568294	-0.010810
1154.722903	-0.008079
1154.877493	-0.010553
1155.032066	-0.013391
1155.186620	-0.014210
1155.341156	-0.013493
1155.495674	-0.014120
1155.650173	-0.009313
1155.804654	-0.012266
1155.959118	-0.012345
1156.113562	-0.014870
1156.267989	-0.005009
1156.422397	-0.004451
1156.576788	0.003814
1156.731160	0.004657
1156.885513	0.000305
1157.039849	-0.005277
1157.194166	-0.002707
1157.348465	0.002679
1157.502746	0.003155
1157.657009	0.001611
1157.811253	-0.002657
1157.965479	-0.007607
1158.119687	-0.008734
1158.273877	-0.006992
1158.428048	-0.006291
1158.582201	-0.006840
1158.736337	-0.013880
1158.890453	-0.012500
1159.044552	-0.024711
1159.198632	-0.022215
1159.352694	-0.025970
1159.506738	-0.031957
1159.660764	-0.029341
1159.814771	-0.029698
1159.968761	-0.036751
1160.122732	-0.029103
1160.276685	-0.030098
1160.430619	-0.024173
1160.584535	-0.025588
1160.738434	-0.024100
1160.892313	-0.016326
1161.046175	-0.019055
1161.200019	-0.016729
1161.353844	-0.015416
1161.507651	-0.021079
1161.661440	-0.018288
1161.815210	-0.013889
1161.968962	-0.010395
1162.122697	-0.009040
1162.276412	-0.016438
1162.430110	-0.016050
1162.583789	-0.017633
1162.737451	-0.008830
1162.891094	-0.006943
1163.044718	-0.010460
1163.198325	-0.018283
1163.351913	-0.020734
1163.505483	-0.026024
1163.659035	-0.017715
1163.812569	-0.013298
1163.966084	-0.008838
1164.119581	-0.020358
1164.273060	-0.023311
1164.426521	-0.017405
1164.579964	-0.015841
1164.733388	-0.013535
1164.886794	-0.007497
1165.040182	-0.018376
1165.193551	-0.022919
1165.346903	-0.021787
1165.500236	-0.011341
1165.653551	-0.005983
1165.806848	-0.007899
1165.960126	-0.003544
1166.113386	-0.006751
1166.266628	-0.010342
1166.419852	-0.002802
1166.573058	-0.000524
1166.726245	-0.008719
1166.879414	-0.016537
1167.032565	-0.015555
1167.185698	-0.018683
1167.338812	-0.016917
1167.491909	-0.017184
1167.644987	-0.010385
1167.798046	-0.008159
1167.951088	-0.013079
1168.104111	0.001890
1168.257117	0.004734
1168.410103	0.004022
1168.563072	0.007089
1168.716023	-0.003620
1168.868955	-0.004721
1169.021869	-0.015300
1169.174765	-0.017985
1169.327642	-0.019967
1169.480501	-0.026173
1169.633343	-0.023785
1169.786165	-0.029269
1169.938970	-0.027826
1170.091757	-0.018432
1170.244525	-0.011540
1170.397275	-0.007607
1170.550007	-0.015010
1170.702720	-0.019084
1170.855415	-0.020444
1171.008092	-0.028297
1171.160751	-0.029549
1171.313392	-0.040647
1171.466014	0.003818
1171.618619	-0.068079
1171.771205	-0.068079
1171.923772	-0.068079
