sample name	sample
index	986
start time	 04-14-2021  03:56:45 PM
880	-0.022983
Peak Time (s)	100.535
Peak Height 	-0.02298
calc peak height	100,103
Baseline Time (s)	9.536
Baseline Value 	-0.005293
subtract baseline	10,4
Abs	-0.005854
Peak Time (s)	102.536
Peak Height 	-0.005854
calc peak height	100,103
Baseline Time (s)	11.537
Baseline Value 	0.002476
subtract baseline	10,3
PK_550	-0.000359
Peak Time (s)	102.536
Peak Height 	-3.5864E-4
calc peak height	100,103
Baseline Time (s)	9.536
Baseline Value 	4.629E-4
subtract baseline	10,2
PK_880	-0.002780
Peak Time (s)	102.536
Peak Height 	-0.00278
calc peak height	100,103
Baseline Time (s)	11.036
Baseline Value 	0.001801
subtract baseline	10,1


Time (s)	A880-A510	A880-A775	A880-A975	A880	I510	I775	I975	I880	
0.037500	-0.001163	-0.000020	-0.001376	0.002605	6314.691876	42136.618430	3956.382715	22168.822658
0.538000	-0.001445	-0.000614	0.000780	0.004190	6300.450186	41940.860451	3957.679204	22098.947223
1.035500	-0.001514	-0.000601	-0.004311	0.003712	6303.562870	41984.939216	3947.245921	22120.008115
1.536000	-0.000834	-0.000498	-0.005970	0.001865	6322.872088	42160.289267	3947.669139	22201.536484
2.036500	-0.000067	-0.000293	-0.000728	0.001449	6331.943628	42216.260232	3960.486529	22219.936593
2.537000	-0.001097	0.000156	-0.003317	0.001293	6325.237913	42270.822684	3954.954660	22226.841540
3.036500	0.002250	-0.000091	0.003056	-0.000392	6364.040198	42400.994140	3973.397390	22301.607243
3.537500	-0.002111	-0.000158	-0.006979	0.001774	6313.792939	42199.012818	3945.604124	22205.526437
4.035000	0.000340	0.000493	0.001132	0.001563	6334.198234	42276.946727	3964.476974	22214.902447
4.535000	0.000323	-0.000555	0.002200	0.000737	6340.423798	42256.845906	3968.821436	22251.495022
5.036000	-0.002083	-0.000549	-0.000417	0.000997	6319.950418	42233.897279	3962.227426	22239.952574
5.535500	-0.000646	0.000077	0.003507	0.000323	6336.148534	42351.407944	3972.785354	22269.830547
6.035500	-0.001278	-0.000039	0.001895	0.000424	6330.514933	42331.809219	3968.838564	22265.346578
6.536500	-0.000036	-0.000173	-0.001895	0.000441	6339.939002	42318.096681	3960.125367	22264.609661
7.036500	0.000296	0.000749	0.000572	0.001202	6336.639852	42332.738614	3964.021222	22230.882993
7.537000	-0.001319	-0.000263	-0.003728	0.000503	6329.599938	42304.429737	3955.815315	22261.871333
8.037000	-0.001560	0.000375	-0.003050	0.000269	6329.543810	42383.343524	3957.884995	22272.228427
8.537500	0.000182	0.000357	0.001036	0.000589	6340.474590	42352.675446	3966.486543	22258.019240
9.035000	0.000223	-0.000420	0.001941	-0.000153	6346.517342	42349.542525	3970.273452	22290.989293
9.535500	0.000129	0.000000	0.000292	0.000000	6344.604840	42373.713170	3966.132973	22284.182285
10.038500	-0.001229	0.001054	-0.000528	0.001051	6326.077362	42374.017438	3961.851237	22237.553464
10.535000	-0.000885	0.001114	-0.003397	0.000666	6331.682949	42414.394755	3956.195859	22254.638595
11.036000	0.000000	-0.000279	-0.001914	-0.000128	6344.600640	42360.088707	3961.378202	22289.874504
11.536500	-0.001129	-0.000838	0.000000	-0.000172	6336.248240	42313.482464	3965.857914	22291.835069
12.036500	0.001140	0.000565	-0.004895	0.000313	6349.992683	42396.604008	3953.600178	22270.292044
12.537000	-0.001532	-0.001542	-0.002241	-0.000710	6337.284335	42298.409662	3961.961456	22315.739483
13.037500	0.000563	0.000605	0.004225	0.000112	6347.085836	42418.367202	3974.932944	22279.189595
13.536500	-0.000017	-0.000167	-0.003458	-0.000115	6344.372571	42369.036714	3957.830668	22289.294128
14.035000	-0.002510	0.000297	-0.006483	0.001438	6313.311651	42270.506477	3947.476879	22220.415595
14.535500	-0.004539	-0.000355	-0.001029	0.003544	6281.870039	42021.982341	3955.036787	22127.381447
15.035500	-0.000424	-0.000090	-0.001075	-0.000170	6341.654908	42380.927248	3963.390114	22291.725576
15.535500	-0.001019	0.000366	0.001366	-0.000304	6338.104862	42434.490340	3969.296657	22297.696158
16.036000	0.001050	0.000854	0.001649	0.000230	6349.936506	42430.269344	3968.720684	22273.965669
16.536500	-0.001786	-0.000164	-0.004507	0.005010	6291.631766	41907.799697	3943.891027	22062.932832
17.036500	0.001386	0.001079	0.001351	-0.002229	6371.596529	42674.583086	3973.699870	22383.441049
17.536500	-0.001982	0.000168	-0.000360	0.000581	6323.913321	42336.306505	3963.309863	22258.387847
18.037500	-0.000540	0.000179	0.005821	0.001078	6331.162529	42292.304956	3976.391502	22236.340822
18.535000	-0.002255	-0.000518	-0.001635	0.002264	6308.955752	42122.450854	3956.568676	22183.882434
19.035500	-0.000864	0.000104	-0.002573	0.000636	6332.063196	42325.530579	3958.134509	22255.934021
19.538500	-0.000706	0.000554	-0.000790	0.001252	6328.554406	42310.498830	3960.795482	22228.654469
20.035500	-0.000410	0.000221	-0.004022	0.000816	6334.177137	42319.833101	3954.438213	22247.982627
20.536000	0.000527	0.000286	0.000614	0.002324	6329.787146	42189.485003	3961.551459	22181.219275
21.036000	-0.000609	0.000833	0.002225	0.001224	6329.506951	42338.265473	3967.758090	22229.871174
21.537000	0.000569	0.000467	-0.000173	0.000858	6341.387707	42338.323536	3963.104227	22246.109055
22.036500	0.000535	0.000858	0.003562	0.001475	6336.372157	42317.835516	3970.255877	22218.764500
22.537000	-0.001134	0.001108	0.001130	0.002935	6312.386922	42208.489949	3961.333653	22154.242036
23.037500	-0.000265	-0.000076	0.003762	0.000606	6336.902062	42311.968317	3972.722317	22257.272157
23.535000	-0.000910	0.000026	0.000803	0.000947	6329.328142	42290.410331	3965.134161	22242.181816
24.038000	-0.002123	0.000090	0.000402	0.000858	6320.712592	42304.201129	3964.419049	22246.106558
24.535000	-0.002367	0.000263	0.004567	0.002063	6309.630820	42210.972932	3971.218092	22192.767169
25.036000	-0.000494	-0.000163	-0.000501	0.000689	6334.505802	42296.591577	3962.740207	22253.617871
25.536000	-0.000990	-0.000403	-0.000575	0.000225	6334.258167	42316.851262	3963.630005	22274.169531
26.036000	-0.000663	-0.000674	-0.000136	0.000407	6335.378849	42275.970713	3964.221005	22266.127082
26.537000	-0.000632	0.000251	0.002202	0.001189	6329.604632	42288.810308	3967.787922	22231.444870
27.037000	0.000910	0.000434	0.001290	-0.000967	6358.112567	42500.839632	3970.648213	22327.177341
27.540000	-0.000257	0.000802	0.000491	-0.000591	6346.188282	42500.093948	3967.944722	22310.441020
28.034500	0.000068	-0.000014	-0.006024	0.000005	6344.096872	42371.988688	3951.741624	22283.953041
28.535500	0.000173	-0.000002	0.002154	-0.000024	6345.131880	42375.771693	3970.466694	22285.262811
29.035500	-0.004317	-0.000610	-0.002640	0.004279	6277.993600	41933.295485	3949.732657	22095.057529
29.540500	-0.000896	0.000369	0.002506	0.000318	6334.262910	42378.296278	3970.489382	22270.047579
30.036000	0.003980	0.001060	-0.000851	0.000288	6372.192099	42443.677100	3962.854937	22271.376060
30.536500	-0.000766	-0.000033	-0.004185	0.001819	6323.741182	42206.230375	3951.798654	22203.532182
31.036500	-0.002170	-0.000541	-0.007910	0.003788	6297.998885	41983.530978	3939.015295	22116.670370
31.537000	0.001335	0.000633	0.000401	0.000354	6351.184317	42398.967074	3965.570151	22268.453934
32.037500	-0.000498	0.000569	0.001987	0.000070	6339.233499	42418.888268	3969.864952	22281.054261
32.534500	0.000815	0.000295	0.004307	-0.000043	6350.240714	42404.408917	3975.481564	22286.110366
33.035000	-0.001853	0.000343	-0.005378	0.004029	6298.572221	42041.147817	3944.137683	22106.044897
33.538000	0.002538	0.000340	0.007023	-0.001355	6373.763930	42527.609112	3984.849470	22344.485521
34.035500	-0.000971	0.000491	0.001693	0.001563	6324.132794	42276.703415	3965.760312	22214.882597
34.536000	-0.001473	0.000478	0.002008	0.001534	6320.514168	42278.170485	3966.550114	22216.172753
35.036000	-0.002063	-0.000158	-0.000066	0.002804	6306.305434	42106.327094	3958.909197	22160.045162
35.536500	-0.000545	-0.000123	-0.002109	0.001056	6331.286495	42267.036604	3958.236087	22237.315193
36.036500	0.000033	0.000421	0.001947	0.001643	6331.225723	42263.200260	3966.160015	22211.349596
36.537000	-0.001173	-0.000015	-0.000862	0.000679	6329.370584	42310.918932	3961.937719	22254.060838
37.037000	0.000022	0.000387	0.002600	0.003550	6316.520038	42088.180460	3963.289275	22127.134278
37.538000	-0.002305	0.000095	0.000529	0.001520	6314.253623	42244.822363	3963.195064	22216.791241
38.035000	-0.001267	0.000591	0.002381	0.001820	6319.903282	42262.531646	3966.749587	22203.527187
38.535000	-0.002089	0.000228	-0.000924	0.001906	6312.958282	42222.025074	3958.999879	22199.712182
39.035500	-0.002839	-0.000326	-0.002717	0.003300	6296.612138	42046.548625	3951.769132	22138.135576
39.536000	0.001735	0.001001	-0.000094	0.002091	6340.867535	42275.080888	3960.467457	22191.508625
40.036000	-0.000074	-0.000332	-0.000560	0.000786	6336.992134	42272.559086	3962.383177	22249.305633
40.536000	-0.000280	-0.000066	0.000622	0.002597	6321.502090	42133.151230	3960.945741	22169.153123
41.036500	-0.000961	0.000726	0.003736	0.001697	6323.187314	42285.839272	3970.147310	22208.963752
41.537000	-0.000272	0.000724	-0.001380	0.001650	6328.824522	42289.832245	3958.543680	22211.009233
42.037000	-0.000738	-0.000315	-0.003117	0.000764	6332.054797	42276.103118	3956.609162	22250.269418
42.535000	-0.001373	0.000936	0.000508	0.004186	6301.030983	42080.376944	3957.068529	22099.129480
43.038000	-0.003165	-0.000027	0.000436	0.003336	6293.864978	42070.196792	3958.838276	22136.562659
43.535500	-0.004155	0.000161	0.004984	0.000845	6305.290139	42311.799639	3974.993726	22246.689973
44.036000	0.000722	0.000672	0.006294	-0.000297	6351.475382	42461.604371	3980.682687	22297.369725
44.536000	-0.002716	-0.000635	-0.001684	0.004135	6291.206211	41943.901177	3952.217293	22101.372866
45.036000	-0.003758	-0.000468	-0.004350	0.005367	6273.998581	41848.571079	3943.442556	22047.237842
45.537000	0.001951	-0.000109	0.002037	-0.000538	6362.854395	42412.579031	3971.381658	22308.085315
46.037000	0.001306	0.000887	0.000115	0.000448	6350.233649	42413.554899	3964.701166	22264.299504
46.537000	-0.002846	-0.000506	-0.005317	0.003715	6293.408593	41993.162230	3944.977284	22119.859097
47.037000	-0.003489	-0.001292	-0.001618	0.004812	6280.223157	41824.631863	3950.836128	22071.620508
47.535500	0.000149	0.000712	0.001725	0.002176	6328.022425	42241.345202	3964.429859	22187.778176
48.035500	-0.001075	0.000501	-0.003020	0.000925	6328.230780	42335.333475	3956.464153	22243.132937
48.535500	-0.002710	0.000242	-0.002398	0.005663	6279.679120	41885.618764	3947.160644	22034.277093
49.036000	-0.005707	-0.000862	-0.003624	0.004591	6265.151899	41882.734685	3946.814957	22081.326984
49.536000	0.002163	0.000623	0.002827	-0.000544	6364.548809	42479.626528	3973.217834	22308.361996
50.035500	0.001239	0.000581	0.003848	-0.000986	6360.815654	42515.944825	3976.602542	22328.047359
50.536500	-0.000370	-0.001746	-0.001389	0.009365	6269.391095	41379.848254	3941.121641	21872.642452
51.037000	0.009251	-0.000358	-0.009008	0.195277	5177.080450	28104.422506	3592.011657	15298.143875
51.534500	0.010948	-0.009522	-0.009871	0.123209	5580.954970	32012.655777	3702.791715	17519.226355
52.034000	-0.001245	-0.020847	-0.014869	-0.103225	7229.788929	50591.486940	4190.007171	27460.050002
52.537500	0.004841	-0.059441	-0.007829	-0.250380	9021.435351	64098.892503	4709.940305	37327.863089
53.035500	0.017169	-0.019542	0.006743	-0.173877	8193.651086	59162.682054	4478.731664	31782.446530
53.535500	0.009375	-0.013009	-0.000116	-0.102598	7328.360125	51387.882084	4230.338637	27424.791148
54.036000	0.005260	-0.005661	0.001129	-0.078882	7059.404771	49599.246163	4166.795556	26126.405966
54.536000	0.003246	-0.008315	-0.010242	-0.121503	7457.716887	54088.387556	4256.069057	28511.778967
55.036500	0.003110	-0.005674	-0.007061	-0.087954	7124.698337	50580.841569	4169.226622	26614.711744
55.537000	0.008549	-0.004284	-0.001402	-0.093535	7230.815340	51350.316757	4200.666522	26920.243931
56.037000	0.004588	-0.003463	-0.007144	-0.090119	7159.471067	51062.377914	4174.988914	26732.739798
56.534000	0.002308	-0.003705	-0.003523	-0.087068	7108.674287	50699.561306	4176.570533	26566.563462
57.038000	0.000343	-0.002495	-0.010844	-0.077238	6998.466412	49762.734722	4129.861433	26039.012056
57.535500	0.002379	-0.004845	-0.005955	-0.077688	7021.446036	49558.661240	4144.203567	26062.865091
58.035500	0.001305	-0.001684	-0.002174	-0.020774	6518.233157	44141.715593	4009.011888	23229.358446
58.536000	-0.001883	-0.002314	-0.010746	-0.006776	6381.547540	42780.100110	3956.406763	22587.542291
59.036500	-0.001576	-0.001401	-0.005199	0.007080	6277.543242	41612.828950	3937.718134	21972.255680
59.536500	0.003411	-0.001889	-0.005833	0.011758	6279.877396	41156.615376	3925.957480	21768.915811
60.037000	-0.003510	-0.002107	0.000514	0.020800	6161.340097	40352.195064	3920.042364	21382.028521
60.537000	-0.000716	-0.001610	-0.010393	0.025219	6149.522880	40016.747611	3887.111235	21195.907556
61.037500	-0.003925	-0.000970	-0.004087	0.031321	6082.619883	39554.384340	3887.541665	20941.927581
61.535000	-0.000552	-0.000941	-0.002885	0.027535	6133.937181	39876.737224	3898.138290	21099.092787
62.038000	-0.000311	-0.000666	-0.002902	0.027559	6135.498636	39897.987682	3898.049260	21098.082856
62.535500	0.000788	-0.000057	-0.001278	0.022730	6178.659241	40362.603513	3911.939240	21300.526625
63.035500	-0.000740	0.001365	-0.003856	0.021942	6173.233502	40552.993425	3908.065333	21333.744152
63.535500	-0.000236	-0.000104	-0.001340	0.035306	6080.516417	39293.064903	3884.929080	20777.989934
64.036000	-0.004461	-0.002743	-0.011096	0.003642	6281.727595	41799.544146	3932.255620	22123.095261
64.536500	-0.004462	-0.001528	-0.014704	0.030959	6081.380472	39537.965466	3866.134673	20956.898677
65.036500	-0.002037	-0.001187	-0.008638	0.002672	6307.501662	42025.600971	3939.878273	22165.838329
65.537000	-0.001357	-0.001434	-0.003392	0.014166	6226.054892	40985.471123	3926.028780	21665.096104
66.037500	-0.001426	-0.002244	-0.005744	0.022536	6163.883051	40191.582601	3902.720854	21308.681813
66.540500	-0.001934	-0.002274	-0.001498	0.014187	6221.610503	40910.330947	3930.160463	21664.208153
67.035000	-0.004263	-0.002308	-0.007936	-0.001071	6319.093873	42261.777923	3949.855581	22331.816042
67.535500	0.000705	-0.001901	-0.007484	-0.016197	6476.482866	43690.420468	3985.630097	23017.196020
68.035500	-0.001949	-0.001290	-0.008771	-0.026182	6535.748798	44694.715421	4006.171874	23482.920841
68.536000	-0.006377	-0.002866	-0.007623	-0.028245	6516.514681	44741.393845	4013.860490	23580.475871
69.036500	-0.005353	-0.003711	-0.014527	-0.027862	6521.724457	44623.760169	3996.497047	23562.360866
69.537000	-0.005365	-0.002728	-0.014918	-0.028262	6524.867427	44756.325947	3996.516206	23581.286063
70.043000	-0.009247	-0.003364	-0.010702	-0.027678	6488.758643	44639.200063	4005.133763	23553.602771
70.537500	-0.008429	-0.003513	-0.015158	-0.027173	6491.283316	44576.665562	3993.382129	23529.725128
71.037500	-0.011853	-0.004702	-0.014814	-0.026258	6456.525804	44375.837154	3992.036357	23486.496979
71.535000	-0.007967	-0.004187	-0.016412	-0.027281	6495.874251	44522.547674	3990.685248	23534.852461
72.035000	-0.005348	-0.003771	-0.010418	-0.027130	6515.824988	44547.957238	4004.508886	23527.722181
72.535500	-0.007767	-0.004242	-0.011781	-0.027055	6495.666884	44495.775046	4001.088631	23524.170621
73.036000	-0.007324	-0.003336	-0.013752	-0.021310	6453.186682	44036.218216	3982.933595	23254.340048
73.536000	-0.006799	-0.003668	-0.011461	-0.025527	6491.155250	44404.776009	3998.226308	23452.061522
74.036500	-0.004501	-0.003323	-0.009250	-0.024644	6502.556201	44353.451452	4001.372331	23410.473066
74.537000	-0.008135	-0.003728	-0.010150	-0.019171	6429.785505	43798.024141	3986.354005	23154.828309
75.037000	-0.006328	-0.003287	-0.005882	-0.021894	6465.792804	44096.059582	4002.841251	23281.614605
75.537500	-0.005339	-0.003914	-0.001017	-0.024119	6491.569342	44247.483675	4019.838643	23385.824037
76.037500	-0.006053	-0.003767	-0.006268	-0.024406	6488.130859	44288.670451	4007.906832	23399.290863
76.535500	-0.010655	-0.002924	-0.010428	-0.018779	6406.836564	43836.639567	3984.786054	23136.620654
77.035500	-0.008362	-0.003628	-0.010464	-0.021317	6444.994613	44009.370367	3990.648583	23254.686789
77.535500	-0.005732	-0.002919	-0.012224	-0.024529	6491.712231	44380.982436	3994.064259	23405.088421
78.036000	-0.005524	-0.003038	-0.006616	-0.024466	6492.878320	44363.714075	4007.221552	23402.140822
78.536000	-0.007039	-0.003283	-0.013141	-0.019706	6442.712189	43890.086350	3980.621768	23179.674336
79.037000	-0.003896	-0.002373	-0.008821	-0.024689	6507.810542	44448.201229	4002.498042	23412.584001
79.537000	-0.004962	-0.002990	-0.007058	-0.024969	6501.466052	44416.155583	4007.368127	23425.795623
80.034500	-0.006781	-0.002892	-0.004637	-0.025141	6488.196128	44441.948536	4013.579200	23433.892398
80.534500	-0.007519	-0.002155	-0.010765	-0.021928	6456.560934	44206.457446	3991.375864	23283.217538
81.037500	-0.005367	-0.002523	-0.009623	-0.024379	6493.440193	44404.427593	3999.857433	23398.019686
81.538500	-0.004722	-0.002354	-0.002745	-0.025496	6507.664689	44527.199429	4018.990245	23450.595869
82.036000	-0.003973	-0.001882	-0.007425	-0.025490	6513.673053	44571.650102	4007.733886	23450.294312
82.538000	-0.005509	-0.001473	-0.007182	-0.025796	6503.724611	44640.132277	4009.047348	23464.733974
83.036000	-0.005723	-0.000863	-0.005945	-0.023529	6483.732717	44481.650170	4006.584953	23358.120711
83.536500	-0.003314	-0.001305	-0.003610	-0.025675	6520.515679	44644.590122	4017.334917	23459.006926
84.036500	-0.002751	-0.000134	-0.008563	-0.025250	6521.638584	44716.205181	4004.449309	23439.016601
84.537000	-0.003996	-0.001132	-0.010622	-0.025984	6517.491980	44690.898871	4001.297640	23473.594436
85.037000	-0.006335	-0.001541	-0.009743	-0.025149	6491.839013	44571.670519	4001.401336	23434.231349
85.540000	-0.003445	-0.000189	-0.003049	-0.025244	6515.961356	44710.380719	4017.648070	23438.727196
86.034500	-0.004758	-0.001195	-0.003475	-0.025982	6511.300953	44684.607524	4018.400002	23473.490206
86.534500	-0.004663	-0.001061	-0.001935	-0.026028	6512.445747	44701.891578	4022.235436	23475.673789
87.035500	-0.004027	-0.000370	-0.007391	-0.024487	6505.120054	44620.403180	4005.421215	23403.112909
87.536000	-0.002955	-0.000120	-0.001370	-0.025936	6525.553019	44783.484308	4023.381444	23471.330627
88.036500	-0.003136	-0.000827	-0.008041	-0.027057	6533.202732	44823.293628	4010.008066	23524.251596
88.537000	-0.003748	-0.000438	-0.008804	-0.026785	6526.010393	44834.554805	4007.534103	23511.389121
89.036500	-0.006357	-0.000664	-0.007623	-0.026925	6505.991620	44826.247762	4010.693880	23518.010169
89.537500	-0.004888	0.000362	-0.008815	-0.026848	6517.267221	44917.749683	4007.657922	23514.390596
90.037500	-0.006019	-0.000797	-0.008654	-0.028357	6520.330693	44951.504778	4011.654063	23585.796712
90.535000	-0.004925	-0.000548	-0.012415	-0.028389	6529.477828	44978.563566	4002.750482	23587.293703
91.035500	-0.004565	0.000114	-0.008930	-0.028120	6530.217819	45016.523653	4010.423847	23574.552422
91.535500	-0.005795	-0.000981	-0.006372	-0.029188	6528.903554	45013.917055	4019.146288	23625.227026
92.036000	-0.005522	-0.001070	-0.007865	-0.029586	6534.366795	45043.814657	4016.505902	23644.153253
92.536000	-0.006127	-0.000500	-0.010343	-0.029519	6528.895500	45092.576983	4010.391692	23640.971439
93.036500	-0.006934	-0.000574	-0.008396	-0.030035	6526.530960	45135.366567	4016.309287	23665.534170
93.536500	-0.008247	-0.001633	-0.004224	-0.030615	6520.574870	45088.970805	4027.817570	23693.150862
94.037000	-0.008414	-0.001993	-0.012877	-0.031209	6524.039638	45111.580245	4008.371983	23721.467383
94.537000	-0.006858	-0.001095	-0.006228	-0.030428	6530.344650	45123.010136	4022.496001	23684.241580
95.035000	-0.006465	-0.000949	-0.006157	-0.030094	6530.827618	45104.702900	4021.856699	23668.315812
95.535000	-0.005559	-0.001259	-0.011748	-0.030512	6541.621932	45115.263859	4009.406187	23688.249282
96.035500	-0.008461	-0.001470	-0.005614	-0.030948	6521.537742	45136.988746	4025.246004	23709.002119
96.535500	-0.010174	-0.001695	-0.010460	-0.025541	6464.203235	44594.533452	4000.630245	23452.714357
97.036000	-0.007798	-0.001816	-0.008347	-0.030160	6520.522200	45027.221704	4016.727323	23671.461316
97.536000	-0.006219	-0.001304	-0.008899	-0.029962	6531.748789	45057.586046	4014.919860	23662.029298
98.036500	-0.007910	-0.001771	-0.015202	-0.030302	6520.772059	45045.374196	4000.676223	23678.247505
98.537000	-0.011590	-0.001146	-0.010385	-0.024322	6443.216402	44530.324091	3997.917889	23395.337188
99.037000	-0.006479	-0.001870	-0.011520	-0.029061	6522.311874	44915.851599	4006.483977	23619.214032
99.540000	-0.005915	-0.001703	-0.007907	-0.029983	6534.399305	45020.979246	4017.360015	23663.022619
100.035000	-0.006804	-0.001170	-0.008506	-0.029232	6521.061049	44999.915960	4014.109935	23627.326809
100.535000	-0.007045	-0.000869	-0.012877	-0.022983	6468.767094	44429.014202	3988.895291	23332.560902
101.035500	-0.006468	-0.001699	-0.009768	-0.028111	6514.699859	44840.855894	4008.400386	23574.147658
101.535500	-0.005608	-0.001415	-0.007403	-0.028556	6525.287448	44911.072273	4015.137666	23595.250901
102.036000	-0.008075	-0.000516	-0.006570	-0.027598	6497.556164	44905.355661	4014.836838	23549.836373
102.536000	-0.002780	-0.000359	-0.005854	-0.027199	6537.259907	44882.035382	4015.599735	23530.956116
103.036500	-0.003027	-0.000084	-0.003628	-0.026229	6527.347781	44815.034743	4018.626226	23485.125573
103.534000	-0.007406	-0.001040	-0.011665	-0.027148	6499.324789	44811.593251	4001.586160	23528.567141
104.037000	-0.004259	0.000252	-0.008174	-0.025727	6513.270423	44799.053402	4006.510193	23461.447126
104.537500	-0.006339	-0.000630	-0.002897	-0.026239	6500.601207	44763.613304	4020.419040	23485.625273
105.035000	-0.005115	0.000157	-0.005560	-0.025061	6500.965001	44725.959005	4011.169238	23430.091592
105.535500	-0.001720	0.000467	-0.006821	-0.025109	6528.878800	44760.380078	4008.268821	23432.386685
106.035500	-0.003653	0.000739	-0.005095	-0.024778	6510.502661	44754.734236	4011.606054	23416.783317
106.535500	-0.001603	0.001555	-0.007362	-0.023787	6519.083328	44737.960409	4003.825706	23370.264111
107.035500	-0.004504	0.000337	-0.001336	-0.024590	6502.099271	44698.013760	4020.203558	23407.931882
107.536000	-0.003715	0.000759	-0.003296	-0.024618	6508.703798	44741.200759	4015.544513	23409.252664
108.036500	-0.000571	0.001761	0.001095	-0.023403	6524.343450	44720.789479	4023.217499	23352.237268
108.537000	-0.003514	0.001572	-0.005794	-0.023356	6500.133803	44698.106962	4006.533260	23350.021140
109.037500	-0.003108	0.001430	-0.004321	-0.023262	6502.649187	44675.523743	4009.829404	23345.617396
109.564500	-0.004307	0.001608	-0.000387	-0.023086	6491.565241	44675.673378	4018.864172	23337.367004
110.035000	-0.002178	0.002787	-0.007878	-0.022158	6501.244999	44699.752524	3998.730069	23293.932441
110.535500	-0.003214	0.001563	-0.005565	-0.022914	6498.987378	44654.886748	4006.024610	23329.319171
111.035500	-0.003851	0.001807	-0.004147	-0.022183	6487.963612	44608.292150	4007.664153	23295.122040
111.536000	-0.003379	0.001960	-0.003217	-0.022341	6493.034846	44638.020946	4010.266221	23302.490018
112.036500	-0.002079	0.002311	-0.007051	-0.022125	6501.780093	44651.026564	4000.612739	23292.415538
