sample name	sample
index	19
start time	 02-11-2021  12:00:36 PM


Wavelength (nm)	Absorbance
494.344910	-0.039451
494.563924	-0.039451
494.782919	-0.039451
495.001897	-0.075949
495.220856	-0.158163
495.439797	-0.120431
495.658719	-0.096328
495.877624	-0.091212
496.096510	-0.128336
496.315378	-0.118919
496.534227	-0.122099
496.753059	-0.136026
496.971872	-0.093234
497.190667	0.010058
497.409444	0.029472
497.628203	0.036073
497.846943	0.036679
498.065665	0.043827
498.284369	0.048190
498.503055	0.052842
498.721723	0.055114
498.940372	0.055910
499.159003	0.058363
499.377616	0.059329
499.596210	0.060100
499.814787	0.063452
500.033345	0.064816
500.251885	0.064436
500.470406	0.061427
500.688910	0.062109
500.907395	0.062268
501.125862	0.059728
501.344311	0.057002
501.562742	0.057513
501.781154	0.055228
501.999548	0.054473
502.217924	0.053983
502.436282	0.056558
502.654621	0.055243
502.872942	0.056288
503.091245	0.058606
503.309530	0.060555
503.527797	0.059185
503.746045	0.059821
503.964275	0.058674
504.182487	0.058603
504.400681	0.057621
504.618856	0.056774
504.837013	0.054548
505.055152	0.055838
505.273273	0.055389
505.491376	0.055463
505.709460	0.058262
505.927526	0.058791
506.145574	0.058681
506.363604	0.058182
506.581615	0.059134
506.799608	0.059372
507.017583	0.058500
507.235540	0.058236
507.453478	0.058414
507.671399	0.057118
507.889301	0.057115
508.107185	0.058467
508.325050	0.058897
508.542898	0.059594
508.760727	0.060044
508.978538	0.058915
509.196330	0.061096
509.414105	0.062478
509.631861	0.062089
509.849599	0.062434
510.067319	0.061818
510.285021	0.060894
510.502704	0.059677
510.720369	0.059295
510.938016	0.058848
511.155645	0.055932
511.373255	0.054190
511.590848	0.052767
511.808422	0.052661
512.025977	0.051675
512.243515	0.052557
512.461034	0.052712
512.678536	0.052085
512.896018	0.053085
513.113483	0.055082
513.330930	0.056140
513.548358	0.057825
513.765768	0.058369
513.983160	0.058644
514.200533	0.060109
514.417889	0.061304
514.635226	0.062851
514.852545	0.061953
515.069845	0.060095
515.287128	0.060027
515.504392	0.059387
515.721638	0.058822
515.938866	0.060107
516.156075	0.059044
516.373267	0.057844
516.590440	0.056645
516.807594	0.056879
517.024731	0.057975
517.241850	0.059147
517.458950	0.060781
517.676032	0.061302
517.893095	0.060577
518.110141	0.060321
518.327168	0.060466
518.544177	0.062069
518.761168	0.062596
518.978141	0.061838
519.195095	0.060420
519.412031	0.059087
519.628949	0.058708
519.845849	0.058346
520.062731	0.058705
520.279594	0.059233
520.496439	0.058612
520.713266	0.058088
520.930074	0.060048
521.146865	0.059941
521.363637	0.059900
521.580391	0.059498
521.797127	0.059508
522.013844	0.059142
522.230543	0.059679
522.447224	0.059952
522.663887	0.060484
522.880532	0.060120
523.097158	0.060149
523.313766	0.060180
523.530356	0.060636
523.746928	0.060605
523.963481	0.060870
524.180017	0.060131
524.396534	0.059147
524.613032	0.059103
524.829513	0.057967
525.045975	0.057879
525.262420	0.057128
525.478845	0.057229
525.695253	0.057782
525.911643	0.057294
526.128014	0.057747
526.344367	0.058812
526.560702	0.059167
526.777018	0.060309
526.993316	0.060867
527.209597	0.062498
527.425858	0.062551
527.642102	0.063078
527.858328	0.063519
528.074535	0.062644
528.290724	0.062389
528.506894	0.062047
528.723047	0.062048
528.939181	0.061958
529.155297	0.060542
529.371395	0.060740
529.587475	0.060199
529.803536	0.060272
530.019579	0.060960
530.235604	0.061397
530.451611	0.062035
530.667600	0.061431
530.883570	0.061495
531.099522	0.062027
531.315456	0.060638
531.531372	0.059967
531.747269	0.060111
531.963148	0.060161
532.179009	0.059981
532.394852	0.059340
532.610676	0.059784
532.826482	0.059168
533.042271	0.059415
533.258040	0.060482
533.473792	0.060146
533.689525	0.060189
533.905240	0.060264
534.120937	0.060435
534.336616	0.061268
534.552277	0.061615
534.767919	0.062631
534.983543	0.063487
535.199149	0.063662
535.414736	0.064862
535.630306	0.064883
535.845857	0.064802
536.061390	0.063378
536.276904	0.063168
536.492401	0.063281
536.707879	0.062644
536.923339	0.062733
537.138781	0.063602
537.354204	0.064213
537.569610	0.064180
537.784997	0.065285
538.000366	0.067236
538.215716	0.065936
538.431049	0.065789
538.646363	0.066209
538.861659	0.065337
539.076937	0.065279
539.292196	0.065257
539.507438	0.065316
539.722661	0.064455
539.937866	0.063823
540.153052	0.064798
540.368221	0.064513
540.583371	0.063902
540.798503	0.064932
541.013617	0.064473
541.228712	0.063626
541.443789	0.064082
541.658848	0.064381
541.873889	0.063915
542.088912	0.064358
542.303916	0.063958
542.518902	0.064851
542.733870	0.064471
542.948820	0.064770
543.163752	0.066142
543.378665	0.065830
543.593560	0.065664
543.808437	0.066123
544.023295	0.065848
544.238136	0.066091
544.452958	0.066351
544.667762	0.065693
544.882548	0.065635
545.097315	0.065391
545.312064	0.066104
545.526795	0.066722
545.741508	0.067022
545.956203	0.067168
546.170879	0.067738
546.385537	0.067268
546.600177	0.067984
546.814799	0.067680
547.029402	0.066933
547.243988	0.066769
547.458555	0.066244
547.673103	0.065988
547.887634	0.065260
548.102146	0.064851
548.316640	0.065262
548.531116	0.064545
548.745574	0.064897
548.960013	0.064916
549.174435	0.065009
549.388838	0.064953
549.603222	0.064781
549.817589	0.065266
550.031937	0.065364
550.246267	0.064723
550.460579	0.065436
550.674873	0.065595
550.889148	0.065077
551.103405	0.064473
551.317644	0.064603
551.531865	0.064802
551.746068	0.065166
551.960252	0.065195
552.174418	0.065359
552.388566	0.065344
552.602696	0.065572
552.816807	0.065934
553.030900	0.066182
553.244975	0.066219
553.459032	0.065993
553.673070	0.065677
553.887091	0.065876
554.101093	0.066649
554.315077	0.066333
554.529042	0.065654
554.742990	0.066078
554.956919	0.065441
555.170830	0.065964
555.384722	0.065839
555.598597	0.065315
555.812453	0.064949
556.026291	0.064758
556.240111	0.064708
556.453913	0.064136
556.667696	0.064229
556.881461	0.065256
557.095208	0.065218
557.308937	0.065426
557.522647	0.066085
557.736339	0.066865
557.950013	0.066943
558.163669	0.066861
558.377307	0.067934
558.590926	0.067662
558.804527	0.067264
559.018110	0.066840
559.231675	0.066437
559.445221	0.065882
559.658749	0.065412
559.872259	0.065454
560.085751	0.065469
560.299225	0.065476
560.512680	0.065142
560.726117	0.065172
560.939536	0.065279
561.152937	0.065702
561.366319	0.066100
561.579683	0.065849
561.793029	0.065205
562.006357	0.065220
562.219667	0.065059
562.432958	0.065691
562.646231	0.065549
562.859486	0.065541
563.072723	0.065695
563.285941	0.066088
563.499141	0.066684
563.712323	0.066944
563.925487	0.067764
564.138632	0.067714
564.351760	0.067461
564.564869	0.067793
564.777960	0.067832
564.991032	0.067945
565.204087	0.068010
565.417123	0.067871
565.630141	0.067918
565.843140	0.067747
566.056122	0.068279
566.269085	0.068263
566.482030	0.068064
566.694957	0.068170
566.907866	0.067799
567.120756	0.067363
567.333628	0.067538
567.546482	0.067888
567.759318	0.067855
567.972135	0.067646
568.184935	0.067976
568.397716	0.067862
568.610478	0.067731
568.823223	0.068163
569.035949	0.068206
569.248657	0.067816
569.461347	0.067748
569.674019	0.067916
569.886672	0.067859
570.099308	0.067279
570.311925	0.067546
570.524523	0.067402
570.737104	0.067240
570.949666	0.067689
571.162210	0.067486
571.374736	0.067200
571.587244	0.066965
571.799733	0.067098
572.012205	0.067254
572.224658	0.067058
572.437092	0.066927
572.649509	0.067589
572.861907	0.066878
573.074287	0.066951
573.286649	0.066897
573.498993	0.066784
573.711318	0.066040
573.923625	0.066179
574.135914	0.066525
574.348185	0.066862
574.560438	0.066527
574.772672	0.066534
574.984888	0.066772
575.197086	0.066920
575.409266	0.066427
575.621427	0.066955
575.833570	0.067151
576.045695	0.067436
576.257802	0.067365
576.469890	0.067068
576.681961	0.067384
576.894013	0.067389
577.106046	0.067271
577.318062	0.067749
577.530059	0.068002
577.742039	0.067780
577.954000	0.067030
578.165942	0.067057
578.377867	0.066929
578.589773	0.066404
578.801661	0.066238
579.013531	0.066400
579.225382	0.066113
579.437216	0.065734
579.649031	0.065719
579.860828	0.065680
580.072606	0.065778
580.284367	0.066212
580.496109	0.066249
580.707833	0.066124
580.919539	0.065901
581.131227	0.065799
581.342896	0.065192
581.554547	0.065131
581.766180	0.065354
581.977795	0.064827
582.189391	0.064441
582.400969	0.065099
582.612529	0.065147
582.824071	0.065120
583.035595	0.065673
583.247100	0.066315
583.458587	0.066315
583.670056	0.066463
583.881506	0.067034
584.092939	0.067331
584.304353	0.067176
584.515749	0.067989
584.727127	0.067958
584.938486	0.067592
585.149828	0.068106
585.361151	0.068245
585.572456	0.067987
585.783742	0.068480
585.995011	0.068163
586.206261	0.068084
586.417493	0.068053
586.628706	0.068926
586.839902	0.069426
587.051079	0.069357
587.262238	0.069491
587.473379	0.069408
587.684502	0.068823
587.895606	0.069210
588.106692	0.070159
588.317760	0.069811
588.528810	0.069338
588.739841	0.068757
588.950855	0.068364
589.161850	0.068671
589.372827	0.069331
589.583785	0.069744
589.794726	0.070100
590.005648	0.069526
590.216552	0.069590
590.427437	0.070134
590.638305	0.070405
590.849154	0.070889
591.059985	0.070754
591.270798	0.070630
591.481592	0.070971
591.692369	0.070659
591.903127	0.070710
592.113867	0.070306
592.324588	0.070079
592.535292	0.070381
592.745977	0.069717
592.956644	0.069504
593.167293	0.069856
593.377923	0.069144
593.588536	0.068448
593.799130	0.068187
594.009706	0.068445
594.220263	0.067971
594.430803	0.068115
594.641324	0.068707
594.851827	0.068669
595.062312	0.068112
595.272778	0.068172
595.483227	0.068601
595.693657	0.068996
595.904069	0.068927
596.114462	0.069328
596.324838	0.068852
596.535195	0.068726
596.745534	0.069514
596.955855	0.069502
597.166157	0.069552
597.376441	0.069832
597.586707	0.069628
597.796955	0.069706
598.007185	0.069444
598.217396	0.069821
598.427589	0.069672
598.637764	0.068983
598.847921	0.069626
599.058060	0.069721
599.268180	0.069618
599.478282	0.069554
599.688366	0.069843
599.898431	0.070135
600.108479	0.070445
600.318508	0.070585
600.528519	0.070816
600.738511	0.070384
600.948486	0.070350
601.158442	0.070212
601.368380	0.070785
601.578300	0.070877
601.788202	0.070694
601.998085	0.070303
602.207950	0.070390
602.417797	0.070029
602.627626	0.070018
602.837436	0.070222
603.047228	0.070684
603.257002	0.070088
603.466758	0.069836
603.676496	0.069713
603.886215	0.069631
604.095916	0.069304
604.305599	0.069808
604.515264	0.069853
604.724910	0.069399
604.934538	0.068939
605.144148	0.069518
605.353740	0.069458
605.563314	0.069441
605.772869	0.069513
605.982406	0.069744
606.191925	0.069709
606.401425	0.069508
606.610908	0.069805
606.820372	0.070213
607.029818	0.069567
607.239246	0.069998
607.448655	0.070299
607.658047	0.070373
607.867420	0.070263
608.076775	0.070159
608.286111	0.070449
608.495430	0.070718
608.704730	0.070157
608.914012	0.070128
609.123275	0.069755
609.332521	0.069588
609.541748	0.069572
609.750957	0.069624
609.960148	0.069321
610.169321	0.069232
610.378475	0.068974
610.587611	0.069556
610.796729	0.069654
611.005829	0.069594
611.214910	0.069227
611.423974	0.069228
611.633019	0.068870
611.842045	0.069400
612.051054	0.069245
612.260044	0.068962
612.469017	0.068799
612.677970	0.068660
612.886906	0.068819
613.095824	0.069055
613.304723	0.069035
613.513604	0.069415
613.722467	0.069564
613.931311	0.069604
614.140138	0.069697
614.348946	0.069778
614.557736	0.070290
614.766507	0.070020
614.975261	0.070221
615.183996	0.069826
615.392713	0.069902
615.601412	0.069524
615.810092	0.069988
616.018754	0.070467
616.227399	0.070362
616.436024	0.070296
616.644632	0.070421
616.853222	0.070289
617.061793	0.070463
617.270346	0.070545
617.478880	0.070679
617.687397	0.070051
617.895895	0.069834
618.104375	0.069809
618.312837	0.069617
618.521281	0.069959
618.729706	0.069957
618.938113	0.070009
619.146502	0.069649
619.354873	0.069470
619.563226	0.069655
619.771560	0.069547
619.979876	0.069572
620.188174	0.069590
620.396453	0.069101
620.604715	0.069090
620.812958	0.069112
621.021183	0.069267
621.229390	0.069395
621.437578	0.069271
621.645748	0.069283
621.853900	0.069476
622.062034	0.069342
622.270150	0.069706
622.478247	0.069797
622.686326	0.069493
622.894387	0.069487
623.102430	0.069287
623.310454	0.069523
623.518461	0.069757
623.726449	0.069805
623.934418	0.070400
624.142370	0.070085
624.350303	0.070047
624.558218	0.071041
624.766115	0.071462
624.973994	0.071832
625.181855	0.072212
625.389697	0.072275
625.597521	0.071847
625.805327	0.071398
626.013114	0.071207
626.220883	0.071361
626.428634	0.070822
626.636367	0.070266
626.844082	0.069957
627.051778	0.069154
627.259457	0.068658
627.467117	0.069028
627.674758	0.069438
627.882382	0.069871
628.089987	0.069892
628.297574	0.069754
628.505143	0.070242
628.712694	0.070377
628.920226	0.071026
629.127740	0.071145
629.335236	0.070929
629.542714	0.070571
629.750174	0.070472
629.957615	0.070703
630.165038	0.070753
630.372443	0.070373
630.579829	0.070534
630.787198	0.070434
630.994548	0.070682
631.201880	0.071049
631.409194	0.071062
631.616489	0.071260
631.823766	0.071050
632.031025	0.071457
632.238266	0.071588
632.445489	0.071462
632.652693	0.071402
632.859879	0.071381
633.067047	0.071311
633.274197	0.071519
633.481329	0.071889
633.688442	0.072026
633.895537	0.072035
634.102614	0.071848
634.309672	0.072194
634.516713	0.071902
634.723735	0.071945
634.930739	0.071746
635.137724	0.071549
635.344692	0.071188
635.551641	0.071125
635.758572	0.071170
635.965485	0.071300
636.172379	0.070880
636.379256	0.071508
636.586114	0.071420
636.792954	0.071443
636.999775	0.071269
637.206579	0.071322
637.413364	0.071287
637.620131	0.070925
637.826880	0.071713
638.033610	0.071814
638.240323	0.071559
638.447017	0.071470
638.653692	0.071723
638.860350	0.071717
639.066990	0.071920
639.273611	0.071773
639.480214	0.071809
639.686798	0.071359
639.893365	0.071675
640.099913	0.071898
640.306443	0.072040
640.512955	0.071714
640.719449	0.072136
640.925924	0.072067
641.132381	0.072224
641.338820	0.072358
641.545241	0.072369
641.751644	0.071989
641.958028	0.071972
642.164394	0.072001
642.370742	0.072042
642.577071	0.071990
642.783383	0.071778
642.989676	0.071666
643.195951	0.071751
643.402207	0.071636
643.608446	0.071928
643.814666	0.071955
644.020868	0.072072
644.227052	0.072053
644.433218	0.072011
644.639365	0.072074
644.845494	0.072089
645.051605	0.071795
645.257698	0.071443
645.463772	0.071304
645.669828	0.071177
645.875866	0.071043
646.081886	0.071083
646.287888	0.071245
646.493871	0.071178
646.699836	0.071115
646.905783	0.071197
647.111712	0.071746
647.317622	0.071620
647.523514	0.071517
647.729388	0.071413
647.935244	0.071689
648.141082	0.071552
648.346901	0.071611
648.552702	0.071937
648.758485	0.071821
648.964250	0.071688
649.169996	0.071631
649.375724	0.071775
649.581434	0.071908
649.787126	0.071915
649.992800	0.071912
650.198455	0.071744
650.404092	0.071509
650.609711	0.071633
650.815311	0.071969
651.020894	0.072221
651.226458	0.072496
651.432004	0.072360
651.637532	0.072401
651.843041	0.072370
652.048532	0.072710
652.254006	0.073049
652.459460	0.073306
652.664897	0.073021
652.870315	0.073181
653.075716	0.073024
653.281097	0.073472
653.486461	0.073777
653.691807	0.073942
653.897134	0.074092
654.102443	0.073943
654.307734	0.074059
654.513006	0.074366
654.718261	0.074335
654.923497	0.074323
655.128715	0.074150
655.333915	0.073885
655.539096	0.074161
655.744259	0.074076
655.949404	0.074348
656.154531	0.073989
656.359640	0.073753
656.564730	0.073926
656.769802	0.073975
656.974856	0.074492
657.179892	0.074547
657.384909	0.074389
657.589908	0.074364
657.794889	0.074420
657.999852	0.074642
658.204797	0.074789
658.409723	0.074929
658.614631	0.075114
658.819521	0.074975
659.024393	0.074877
659.229246	0.075112
659.434081	0.075141
659.638898	0.075134
659.843697	0.075536
660.048478	0.075834
660.253240	0.075967
660.457984	0.075690
660.662710	0.075724
660.867417	0.075906
661.072107	0.075837
661.276778	0.076108
661.481431	0.076218
661.686066	0.075977
661.890682	0.075749
662.095281	0.075741
662.299861	0.075790
662.504422	0.075629
662.708966	0.075482
662.913491	0.075222
663.117999	0.075046
663.322488	0.074710
663.526958	0.074587
663.731411	0.074493
663.935845	0.074175
664.140261	0.074233
664.344659	0.073911
664.549038	0.073998
664.753400	0.074255
664.957743	0.074515
665.162068	0.074860
665.366375	0.074967
665.570663	0.074985
665.774933	0.075363
665.979185	0.075452
666.183419	0.075889
666.387635	0.075859
666.591832	0.076012
666.796011	0.075903
667.000172	0.076119
667.204315	0.076092
667.408439	0.076300
667.612545	0.075873
667.816634	0.075986
668.020703	0.075963
668.224755	0.076644
668.428788	0.076769
668.632803	0.076619
668.836800	0.076440
669.040779	0.076649
669.244739	0.076733
669.448681	0.077157
669.652605	0.077387
669.856511	0.077709
670.060399	0.077258
670.264268	0.077013
670.468119	0.077033
670.671952	0.076996
670.875767	0.077191
671.079563	0.077178
671.283341	0.077158
671.487101	0.076951
671.690843	0.076713
671.894567	0.076752
672.098272	0.076972
672.301959	0.077360
672.505628	0.077679
672.709278	0.077373
672.912911	0.077359
673.116525	0.077183
673.320121	0.077498
673.523699	0.077612
673.727258	0.077811
673.930799	0.077642
674.134322	0.077761
674.337827	0.077276
674.541314	0.077673
674.744782	0.077834
674.948232	0.077909
675.151664	0.077137
675.355078	0.077061
675.558474	0.076966
675.761851	0.077118
675.965210	0.076634
676.168551	0.077016
676.371873	0.076847
676.575178	0.076690
676.778464	0.076444
676.981732	0.076844
677.184981	0.076665
677.388213	0.076850
677.591426	0.077019
677.794621	0.077273
677.997798	0.077018
678.200956	0.077165
678.404097	0.077245
678.607219	0.077845
678.810323	0.078211
679.013408	0.078481
679.216476	0.078346
679.419525	0.078251
679.622556	0.078498
679.825569	0.078591
680.028563	0.078847
680.231540	0.078904
680.434498	0.078679
680.637438	0.078763
680.840359	0.078762
681.043263	0.079087
681.246148	0.078962
681.449015	0.078788
681.651864	0.078840
681.854694	0.078298
682.057506	0.078462
682.260301	0.078337
682.463076	0.078104
682.665834	0.078164
682.868573	0.078079
683.071295	0.078361
683.273998	0.078595
683.476682	0.078860
683.679349	0.079236
683.881997	0.079236
684.084627	0.079615
684.287239	0.079894
684.489833	0.080127
684.692408	0.080065
684.894965	0.079885
685.097504	0.079847
685.300025	0.079777
685.502527	0.079718
685.705012	0.079560
685.907478	0.079483
686.109925	0.079181
686.312355	0.078996
686.514766	0.078914
686.717159	0.078670
686.919534	0.078408
687.121891	0.078518
687.324230	0.078434
687.526550	0.078218
687.728852	0.078164
687.931136	0.078448
688.133401	0.078279
688.335649	0.078095
688.537878	0.078526
688.740089	0.078672
688.942281	0.078566
689.144456	0.078687
689.346612	0.078798
689.548750	0.078963
689.750870	0.078932
689.952971	0.079470
690.155055	0.079558
690.357120	0.079586
690.559167	0.079663
690.761195	0.079713
690.963206	0.079475
691.165198	0.079636
691.367172	0.079250
691.569128	0.079013
691.771065	0.078524
691.972984	0.078670
692.174885	0.078438
692.376768	0.078467
692.578633	0.078644
692.780479	0.078842
692.982308	0.078805
693.184118	0.078788
693.385909	0.079228
693.587683	0.079312
693.789438	0.079043
693.991175	0.079212
694.192894	0.079170
694.394595	0.079011
694.596277	0.078879
694.797941	0.078813
694.999587	0.079142
695.201215	0.078841
695.402824	0.078793
695.604416	0.079046
695.805989	0.079058
696.007543	0.079031
696.209080	0.078863
696.410598	0.079199
696.612099	0.079297
696.813580	0.079254
697.015044	0.079317
697.216490	0.079593
697.417917	0.079787
697.619326	0.079815
697.820717	0.079839
698.022089	0.080144
698.223444	0.080101
698.424780	0.080154
698.626098	0.080207
698.827397	0.080171
699.028679	0.080358
699.229942	0.080141
699.431187	0.080208
699.632414	0.080404
699.833622	0.080623
700.034813	0.080881
700.235985	0.081242
700.437139	0.081119
700.638274	0.081386
700.839392	0.081379
701.040491	0.081659
701.241572	0.081782
701.442635	0.081904
701.643679	0.081208
701.844706	0.081002
702.045714	0.080958
702.246704	0.081132
702.447675	0.080963
702.648629	0.080465
702.849564	0.080300
703.050481	0.080084
703.251380	0.079869
703.452260	0.080376
703.653122	0.080416
703.853966	0.080139
704.054792	0.080401
704.255600	0.080794
704.456389	0.081272
704.657160	0.081494
704.857913	0.081471
705.058648	0.081490
705.259365	0.081407
705.460063	0.081370
705.660743	0.081640
705.861405	0.081689
706.062048	0.081258
706.262674	0.081296
706.463281	0.081161
706.663870	0.081329
706.864441	0.081191
707.064993	0.081435
707.265527	0.081060
707.466043	0.080996
707.666541	0.080811
707.867021	0.080865
708.067482	0.080818
708.267925	0.080641
708.468350	0.080325
708.668757	0.080616
708.869145	0.080317
709.069516	0.080377
709.269868	0.080275
709.470201	0.080116
709.670517	0.079894
709.870814	0.079751
710.071093	0.080015
710.271354	0.080394
710.471597	0.080427
710.671821	0.080341
710.872028	0.080523
711.072216	0.080796
711.272385	0.081022
711.472537	0.081187
711.672670	0.080895
711.872785	0.080908
712.072882	0.081037
712.272961	0.080955
712.473021	0.080935
712.673063	0.080897
712.873087	0.080514
713.073093	0.080164
713.273081	0.080216
713.473050	0.080106
713.673001	0.079860
713.872934	0.079513
714.072849	0.079427
714.272745	0.079512
714.472623	0.079432
714.672483	0.079685
714.872325	0.079466
715.072148	0.079360
715.271954	0.079755
715.471741	0.079730
715.671509	0.079797
715.871260	0.079464
716.070992	0.079604
716.270707	0.079672
716.470403	0.079332
716.670080	0.079519
716.869740	0.079422
717.069381	0.079177
717.269004	0.079010
717.468609	0.079015
717.668195	0.078979
717.867764	0.078731
718.067314	0.078699
718.266846	0.078459
718.466360	0.078680
718.665855	0.078724
718.865332	0.078865
719.064791	0.078826
719.264232	0.078661
719.463655	0.078943
719.663059	0.078906
719.862445	0.078655
720.061813	0.078659
720.261163	0.078110
720.460494	0.077872
720.659807	0.077511
720.859102	0.077349
721.058379	0.077106
721.257638	0.076877
721.456878	0.076790
721.656100	0.076735
721.855304	0.076757
722.054490	0.077205
722.253657	0.077151
722.452806	0.076856
722.651937	0.076916
722.851050	0.076954
723.050145	0.076796
723.249221	0.076510
723.448279	0.076461
723.647319	0.076514
723.846340	0.075995
724.045344	0.075756
724.244329	0.075924
724.443296	0.076096
724.642245	0.075948
724.841175	0.075862
725.040088	0.075925
725.238982	0.075934
725.437857	0.075326
725.636715	0.075189
725.835554	0.075395
726.034376	0.075219
726.233179	0.074925
726.431963	0.074766
726.630730	0.074465
726.829478	0.074259
727.028208	0.074243
727.226920	0.074669
727.425614	0.074576
727.624289	0.074245
727.822946	0.074227
728.021585	0.074097
728.220206	0.074114
728.418808	0.074170
728.617392	0.074005
728.815958	0.074214
729.014506	0.074209
729.213036	0.074141
729.411547	0.074279
729.610040	0.074364
729.808515	0.074510
730.006972	0.074140
730.205410	0.073993
730.403831	0.074009
730.602233	0.073683
730.800616	0.073358
730.998982	0.073701
731.197329	0.073856
731.395658	0.073745
731.593969	0.073572
731.792262	0.073921
731.990536	0.073928
732.188793	0.073935
732.387031	0.073750
732.585250	0.073557
732.783452	0.073349
732.981635	0.073257
733.179800	0.073360
733.377947	0.073162
733.576076	0.072765
733.774186	0.072900
733.972278	0.072830
734.170352	0.072871
734.368408	0.072764
734.566446	0.072556
734.764465	0.072501
734.962466	0.072339
735.160449	0.072450
735.358413	0.072670
735.556360	0.072670
735.754288	0.072769
735.952198	0.072458
736.150090	0.072800
736.347963	0.072785
736.545818	0.072779
736.743655	0.072661
736.941474	0.072286
737.139275	0.072199
737.337057	0.071542
737.534821	0.071438
737.732567	0.071472
737.930295	0.071172
738.128005	0.071322
738.325696	0.070938
738.523369	0.070829
738.721024	0.070985
738.918660	0.071268
739.116279	0.071664
739.313879	0.071631
739.511461	0.071883
739.709024	0.072084
739.906570	0.071628
740.104097	0.071672
740.301606	0.071931
740.499097	0.071996
740.696569	0.071685
740.894024	0.071785
741.091460	0.072061
741.288878	0.071784
741.486277	0.071905
741.683659	0.072133
741.881022	0.072391
742.078367	0.072519
742.275694	0.072640
742.473002	0.072661
742.670293	0.072602
742.867565	0.072452
743.064819	0.072581
743.262054	0.072588
743.459272	0.072390
743.656471	0.072095
743.853652	0.071838
744.050815	0.071711
744.247959	0.071743
744.445085	0.071867
744.642194	0.071725
744.839283	0.071608
745.036355	0.071360
745.233408	0.071468
745.430444	0.071493
745.627461	0.071281
745.824459	0.070903
746.021440	0.070611
746.218402	0.070420
746.415346	0.070710
746.612272	0.070419
746.809180	0.069877
747.006069	0.069767
747.202940	0.069799
747.399793	0.069616
747.596628	0.069668
747.793444	0.069499
747.990243	0.069013
748.187023	0.068317
748.383784	0.068349
748.580528	0.068904
748.777253	0.068642
748.973960	0.068213
749.170649	0.068364
749.367320	0.068176
749.563973	0.068244
749.760607	0.068524
749.957223	0.068390
750.153821	0.068237
750.350400	0.067974
750.546962	0.068090
750.743505	0.068041
750.940030	0.067964
751.136536	0.068035
751.333025	0.068023
751.529495	0.067906
751.725947	0.068018
751.922381	0.068241
752.118796	0.067829
752.315194	0.067758
752.511573	0.067729
752.707934	0.067274
752.904276	0.066871
753.100601	0.066663
753.296907	0.066711
753.493195	0.066653
753.689465	0.066592
753.885716	0.066807
754.081949	0.066789
754.278164	0.067098
754.474361	0.067533
754.670540	0.067730
754.866700	0.067900
755.062843	0.067772
755.258967	0.067663
755.455072	0.067538
755.651160	0.067473
755.847229	0.067509
756.043280	0.067237
756.239313	0.067159
756.435328	0.067320
756.631324	0.067326
756.827302	0.067439
757.023262	0.067302
757.219204	0.067336
757.415127	0.067550
757.611033	0.067505
757.806920	0.067304
758.002788	0.067045
758.198639	0.066971
758.394471	0.066494
758.590286	0.066556
758.786081	0.066577
758.981859	0.066182
759.177619	0.066265
759.373360	0.066601
759.569083	0.066909
759.764788	0.067110
759.960474	0.067204
760.156143	0.067801
760.351793	0.067619
760.547425	0.068065
760.743038	0.068552
760.938634	0.068072
761.134211	0.067560
761.329770	0.067587
761.525311	0.067464
761.720833	0.067502
761.916338	0.066808
762.111824	0.066821
762.307292	0.066541
762.502741	0.066489
762.698173	0.066750
762.893586	0.066899
763.088981	0.066566
763.284358	0.066424
763.479716	0.066491
763.675057	0.067079
763.870379	0.067057
764.065683	0.067354
764.260968	0.067488
764.456236	0.067624
764.651485	0.067671
764.846716	0.067771
765.041929	0.068321
765.237123	0.068149
765.432299	0.068015
765.627457	0.068142
765.822597	0.067724
766.017719	0.067138
766.212822	0.066977
766.407907	0.066889
766.602974	0.066862
766.798023	0.066820
766.993054	0.067275
767.188066	0.067270
767.383060	0.067206
767.578036	0.067497
767.772993	0.068273
767.967933	0.068232
768.162854	0.068398
768.357757	0.068519
768.552642	0.068094
768.747508	0.067473
768.942356	0.067337
769.137186	0.067313
769.331998	0.067162
769.526792	0.066363
769.721567	0.066250
769.916324	0.065860
770.111063	0.065658
770.305784	0.065586
770.500486	0.065543
770.695171	0.065780
770.889837	0.065563
771.084484	0.065391
771.279114	0.065815
771.473725	0.065988
771.668318	0.066113
771.862893	0.066114
772.057450	0.066355
772.251988	0.066301
772.446509	0.066007
772.641011	0.066099
772.835494	0.066133
773.029960	0.065894
773.224407	0.065490
773.418836	0.065355
773.613247	0.065610
773.807640	0.065262
774.002014	0.065145
774.196370	0.065219
774.390708	0.065278
774.585028	0.065402
774.779330	0.065521
774.973613	0.065818
775.167878	0.065989
775.362125	0.065781
775.556354	0.065808
775.750564	0.065956
775.944756	0.065957
776.138930	0.065827
776.333086	0.065705
776.527223	0.065534
776.721343	0.065384
776.915444	0.065276
777.109526	0.065256
777.303591	0.065390
777.497637	0.065306
777.691666	0.065439
777.885676	0.065182
778.079667	0.064783
778.273641	0.064816
778.467596	0.064918
778.661533	0.064876
778.855452	0.064747
779.049352	0.064816
779.243235	0.065046
779.437099	0.064915
779.630945	0.064930
779.824773	0.065327
780.018582	0.065360
780.212373	0.065016
780.406146	0.065088
780.599901	0.065524
780.793638	0.065799
780.987356	0.065493
781.181056	0.065597
781.374738	0.065874
781.568402	0.066017
781.762047	0.066041
781.955674	0.066537
782.149283	0.066250
782.342874	0.065937
782.536447	0.065455
782.730001	0.065874
782.923537	0.065736
783.117055	0.065632
783.310555	0.065144
783.504036	0.064917
783.697499	0.064351
783.890944	0.064807
784.084371	0.064704
784.277780	0.064933
784.471170	0.064762
784.664542	0.064545
784.857896	0.064404
785.051231	0.064493
785.244549	0.064617
785.437848	0.064838
785.631129	0.064534
785.824392	0.064612
786.017636	0.064358
786.210863	0.063907
786.404071	0.063792
786.597260	0.063720
786.790432	0.063921
786.983585	0.063987
787.176721	0.063965
787.369838	0.064263
787.562936	0.064408
787.756017	0.064070
787.949079	0.064290
788.142123	0.064692
788.335149	0.064596
788.528156	0.064645
788.721146	0.064523
788.914117	0.064686
789.107070	0.064315
789.300005	0.063898
789.492921	0.064004
789.685819	0.064121
789.878699	0.064127
790.071561	0.064552
790.264405	0.064259
790.457230	0.064358
790.650037	0.064339
790.842826	0.064634
791.035597	0.065066
791.228349	0.065562
791.421084	0.065563
791.613800	0.065506
791.806497	0.065382
791.999177	0.065530
792.191838	0.065355
792.384481	0.065323
792.577106	0.065503
792.769713	0.065276
792.962301	0.065217
793.154871	0.065328
793.347423	0.065293
793.539957	0.065503
793.732473	0.065495
793.924970	0.066121
794.117449	0.066430
794.309910	0.065905
794.502353	0.066162
794.694777	0.066201
794.887183	0.066011
795.079571	0.066182
795.271941	0.066019
795.464293	0.066242
795.656626	0.065842
795.848941	0.065607
796.041238	0.066075
796.233516	0.066213
796.425777	0.066325
796.618019	0.066715
796.810243	0.066772
797.002449	0.066772
797.194636	0.067078
797.386805	0.067245
797.578956	0.067486
797.771089	0.067678
797.963204	0.067153
798.155300	0.067074
798.347378	0.067004
798.539438	0.066704
798.731480	0.066689
798.923503	0.066630
799.115509	0.066508
799.307496	0.066413
799.499465	0.066148
799.691415	0.066557
799.883348	0.066554
800.075262	0.066640
800.267158	0.066939
800.459035	0.067174
800.650895	0.067164
800.842736	0.067277
801.034559	0.067512
801.226364	0.067947
801.418150	0.067927
801.609919	0.067943
801.801669	0.067569
801.993401	0.067953
802.185114	0.068067
802.376810	0.067965
802.568487	0.068190
802.760146	0.068160
802.951787	0.067699
803.143409	0.067820
803.335014	0.067853
803.526600	0.068583
803.718168	0.068045
803.909717	0.068100
804.101249	0.068343
804.292762	0.068571
804.484257	0.068784
804.675734	0.069312
804.867192	0.069333
805.058632	0.069778
805.250054	0.069709
805.441458	0.069881
805.632844	0.070148
805.824211	0.070178
806.015561	0.069767
806.206891	0.069687
806.398204	0.069616
806.589499	0.069687
806.780775	0.069399
806.972033	0.068919
807.163273	0.069075
807.354495	0.068739
807.545698	0.068581
807.736883	0.068818
807.928050	0.068566
808.119199	0.068252
808.310329	0.068317
808.501441	0.068588
808.692535	0.069026
808.883611	0.068995
809.074669	0.069086
809.265708	0.069234
809.456729	0.069470
809.647732	0.069913
809.838717	0.069996
810.029683	0.070047
810.220632	0.069766
810.411562	0.069650
810.602474	0.069996
810.793367	0.070204
810.984242	0.070103
811.175100	0.069735
811.365938	0.070178
811.556759	0.070465
811.747562	0.070786
811.938346	0.071124
812.129112	0.071084
812.319860	0.070833
812.510589	0.071267
812.701300	0.071464
812.891994	0.071940
813.082668	0.071431
813.273325	0.071622
813.463964	0.071396
813.654584	0.071488
813.845186	0.071837
814.035769	0.071646
814.226335	0.071486
814.416882	0.071450
814.607411	0.071482
814.797922	0.071330
814.988415	0.071482
815.178889	0.071738
815.369345	0.071889
815.559783	0.072268
815.750203	0.072344
815.940605	0.072506
816.130988	0.072704
816.321353	0.072646
816.511700	0.072864
816.702028	0.072902
816.892339	0.072843
817.082631	0.072648
817.272905	0.071991
817.463161	0.072485
817.653398	0.072174
817.843617	0.072033
818.033819	0.071957
818.224001	0.071937
818.414166	0.071561
818.604312	0.071278
818.794440	0.070962
818.984550	0.071365
819.174642	0.071446
819.364716	0.071416
819.554771	0.071495
819.744808	0.071210
819.934827	0.071570
820.124827	0.071372
820.314810	0.071478
820.504774	0.071739
820.694720	0.071794
820.884647	0.071620
821.074557	0.071907
821.264448	0.071878
821.454321	0.072256
821.644176	0.072033
821.834012	0.072353
822.023831	0.072310
822.213631	0.072393
822.403413	0.072459
822.593176	0.072464
822.782922	0.072394
822.972649	0.072642
823.162358	0.072404
823.352049	0.072437
823.541721	0.072495
823.731376	0.072876
823.921012	0.072566
824.110629	0.072318
824.300229	0.072362
824.489811	0.071872
824.679374	0.071593
824.868919	0.071537
825.058445	0.071098
825.247954	0.071057
825.437444	0.070820
825.626916	0.071227
825.816370	0.071422
826.005806	0.071805
826.195223	0.072065
826.384622	0.072136
826.574003	0.072260
826.763366	0.072688
826.952711	0.072570
827.142037	0.072728
827.331345	0.072831
827.520635	0.073103
827.709906	0.072990
827.899160	0.072926
828.088395	0.073176
828.277612	0.073610
828.466810	0.073609
828.655991	0.073475
828.845153	0.073584
829.034297	0.073662
829.223423	0.073627
829.412531	0.073236
829.601620	0.073578
829.790691	0.073487
829.979744	0.073441
830.168779	0.073413
830.357795	0.073843
830.546793	0.073780
830.735773	0.073701
830.924735	0.073319
831.113679	0.073768
831.302604	0.073850
831.491511	0.073883
831.680400	0.073651
831.869271	0.073693
832.058123	0.073780
832.246957	0.073809
832.435773	0.073859
832.624571	0.074067
832.813351	0.073970
833.002112	0.073840
833.190855	0.073894
833.379580	0.074105
833.568287	0.074196
833.756975	0.074446
833.945645	0.074718
834.134297	0.074784
834.322931	0.074692
834.511547	0.074327
834.700144	0.073997
834.888723	0.074587
835.077284	0.074854
835.265826	0.075113
835.454351	0.074930
835.642857	0.075038
835.831345	0.074960
836.019815	0.075724
836.208266	0.076357
836.396699	0.076852
836.585114	0.076375
836.773511	0.076065
836.961890	0.075823
837.150250	0.075871
837.338592	0.075807
837.526916	0.076108
837.715222	0.075930
837.903510	0.076159
838.091779	0.076581
838.280030	0.076865
838.468263	0.077040
838.656477	0.077254
838.844674	0.077067
839.032852	0.077362
839.221012	0.077702
839.409153	0.077326
839.597277	0.077515
839.785382	0.077477
839.973469	0.077245
840.161538	0.077629
840.349589	0.077713
840.537621	0.078404
840.725635	0.078313
840.913631	0.078098
841.101609	0.078639
841.289568	0.078425
841.477509	0.078640
841.665432	0.079245
841.853337	0.078949
842.041224	0.078852
842.229092	0.078797
842.416942	0.078991
842.604774	0.079374
842.792588	0.079376
842.980383	0.079833
843.168160	0.079987
843.355919	0.079999
843.543660	0.080195
843.731382	0.080875
843.919087	0.080746
844.106773	0.080631
844.294441	0.080206
844.482090	0.079876
844.669722	0.079508
844.857335	0.079457
845.044930	0.078941
845.232507	0.079034
845.420065	0.078995
845.607605	0.079170
845.795127	0.079449
845.982631	0.080460
846.170117	0.081062
846.357584	0.081307
846.545033	0.081505
846.732464	0.082300
846.919877	0.082921
847.107272	0.083377
847.294648	0.083478
847.482006	0.083884
847.669346	0.083930
847.856667	0.084106
848.043971	0.084391
848.231256	0.084577
848.418523	0.084492
848.605771	0.084543
848.793002	0.084112
848.980214	0.084298
849.167408	0.084244
849.354584	0.083266
849.541742	0.083489
849.728881	0.083503
849.916002	0.083191
850.103105	0.083363
850.290190	0.083962
850.477256	0.084331
850.664304	0.084391
850.851334	0.084203
851.038346	0.085294
851.225340	0.085428
851.412315	0.085398
851.599272	0.086032
851.786211	0.085828
851.973132	0.084952
852.160034	0.085080
852.346918	0.085605
852.533784	0.085721
852.720632	0.085110
852.907462	0.085675
853.094273	0.085895
853.281066	0.085920
853.467841	0.086438
853.654598	0.087148
853.841336	0.087286
854.028056	0.087326
854.214758	0.087874
854.401442	0.088705
854.588107	0.088058
854.774755	0.087934
854.961384	0.088321
855.147995	0.088529
855.334587	0.088665
855.521162	0.088749
855.707718	0.088535
855.894256	0.088058
856.080775	0.087596
856.267277	0.087654
856.453760	0.087938
856.640225	0.087258
856.826672	0.087039
857.013101	0.086759
857.199511	0.087273
857.385903	0.087804
857.572277	0.088428
857.758633	0.088142
857.944970	0.088043
858.131290	0.088327
858.317591	0.088513
858.503873	0.088556
858.690138	0.088585
858.876384	0.088334
859.062612	0.087999
859.248822	0.087698
859.435014	0.088473
859.621188	0.088503
859.807343	0.088973
859.993480	0.088983
860.179599	0.089193
860.365699	0.089819
860.551781	0.089689
860.737846	0.090102
860.923891	0.090110
861.109919	0.090147
861.295929	0.090854
861.481920	0.090421
861.667893	0.090569
861.853848	0.090427
862.039784	0.089849
862.225702	0.089677
862.411603	0.089381
862.597484	0.090015
862.783348	0.089143
862.969193	0.088837
863.155021	0.088973
863.340830	0.088919
863.526620	0.089052
863.712393	0.089207
863.898147	0.089631
864.083883	0.089873
864.269601	0.089535
864.455301	0.090640
864.640982	0.090642
864.826645	0.090480
865.012290	0.090958
865.197917	0.091590
865.383526	0.091598
865.569116	0.091493
865.754688	0.091618
865.940242	0.091890
866.125777	0.091727
866.311295	0.091801
866.496794	0.091887
866.682275	0.091444
866.867737	0.091268
867.053182	0.091695
867.238608	0.091662
867.424016	0.091649
867.609406	0.091476
867.794778	0.091486
867.980131	0.091697
868.165466	0.092109
868.350783	0.092664
868.536082	0.093393
868.721362	0.093201
868.906625	0.093633
869.091869	0.094344
869.277094	0.094842
869.462302	0.094754
869.647491	0.094933
869.832662	0.094911
870.017815	0.094708
870.202950	0.093737
870.388066	0.093944
870.573165	0.094221
870.758245	0.093566
870.943306	0.093191
871.128350	0.093625
871.313375	0.093665
871.498382	0.093591
871.683371	0.093852
871.868342	0.094053
872.053294	0.094234
872.238229	0.094207
872.423144	0.094529
872.608042	0.094915
872.792922	0.095172
872.977783	0.094854
873.162626	0.095077
873.347451	0.094909
873.532258	0.095291
873.717046	0.095382
873.901816	0.095142
874.086568	0.095230
874.271302	0.094794
874.456017	0.094571
874.640715	0.095310
874.825394	0.095701
875.010055	0.096506
875.194697	0.096657
875.379322	0.096686
875.563928	0.096549
875.748516	0.095999
875.933085	0.096347
876.117637	0.096225
876.302170	0.096403
876.486685	0.096247
876.671182	0.095713
876.855661	0.095512
877.040121	0.095589
877.224563	0.095905
877.408987	0.096645
877.593393	0.096636
877.777780	0.096711
877.962150	0.095986
878.146501	0.095981
878.330833	0.096327
878.515148	0.096146
878.699444	0.096076
878.883722	0.096604
879.067982	0.096519
879.252224	0.096159
879.436447	0.096385
879.620653	0.097001
879.804840	0.096562
879.989008	0.096873
880.173159	0.097516
880.357291	0.097541
880.541405	0.097134
880.725501	0.097476
880.909579	0.097598
881.093638	0.097585
881.277680	0.097318
881.461703	0.098159
881.645707	0.098221
881.829694	0.098231
882.013662	0.098017
882.197612	0.097726
882.381544	0.097162
882.565458	0.097534
882.749353	0.097839
882.933230	0.098057
883.117089	0.097874
883.300930	0.097025
883.484753	0.096814
883.668557	0.097208
883.852343	0.097664
884.036111	0.098246
884.219861	0.098063
884.403592	0.097516
884.587305	0.097273
884.771000	0.097069
884.954677	0.097256
885.138335	0.097605
885.321976	0.098114
885.505598	0.097813
885.689201	0.097908
885.872787	0.098106
886.056354	0.098652
886.239904	0.099359
886.423434	0.099767
886.606947	0.100102
886.790442	0.099498
886.973918	0.099257
887.157376	0.099486
887.340816	0.098901
887.524237	0.098808
887.707641	0.098641
887.891026	0.098462
888.074393	0.097794
888.257741	0.097866
888.441072	0.097498
888.624384	0.097436
888.807678	0.097611
888.990954	0.097570
889.174211	0.098179
889.357451	0.098172
889.540672	0.097579
889.723875	0.097778
889.907059	0.097508
890.090226	0.097796
890.273374	0.097445
890.456504	0.097109
890.639616	0.097297
890.822709	0.096448
891.005785	0.095666
891.188842	0.095777
891.371881	0.095752
891.554901	0.095943
891.737904	0.096227
891.920888	0.095948
892.103854	0.095419
892.286802	0.095853
892.469731	0.096065
892.652643	0.096962
892.835536	0.096344
893.018410	0.096413
893.201267	0.096490
893.384106	0.095791
893.566926	0.095782
893.749728	0.096327
893.932511	0.095827
894.115277	0.095973
894.298024	0.096135
894.480753	0.096875
894.663464	0.096247
894.846157	0.095916
895.028831	0.096706
895.211487	0.096584
895.394125	0.096603
895.576745	0.096875
895.759346	0.097173
895.941930	0.096745
896.124495	0.096512
896.307041	0.096953
896.489570	0.097550
896.672080	0.097775
896.854573	0.097858
897.037046	0.097428
897.219502	0.097240
897.401940	0.097073
897.584359	0.097095
897.766760	0.096993
897.949143	0.096275
898.131507	0.095458
898.313854	0.094390
898.496182	0.094276
898.678492	0.094360
898.860783	0.093650
899.043057	0.093507
899.225312	0.093343
899.407549	0.093076
899.589768	0.094115
899.771968	0.094108
899.954151	0.094865
900.136315	0.094855
900.318461	0.094305
900.500588	0.094799
900.682698	0.094183
900.864789	0.093557
901.046862	0.093601
901.228917	0.092978
901.410953	0.093151
901.592971	0.092784
901.774972	0.093181
901.956953	0.093012
902.138917	0.092972
902.320862	0.093076
902.502790	0.093545
902.684699	0.093556
902.866589	0.093705
903.048462	0.093259
903.230316	0.093428
903.412152	0.093031
903.593970	0.093554
903.775770	0.092595
903.957551	0.092843
904.139314	0.092975
904.321059	0.092541
904.502786	0.091890
904.684494	0.091810
904.866185	0.091293
905.047857	0.091323
905.229510	0.091462
905.411146	0.092212
905.592763	0.092249
905.774363	0.092005
905.955943	0.092777
906.137506	0.092605
906.319051	0.092549
906.500577	0.092745
906.682085	0.092315
906.863575	0.091923
907.045046	0.091823
907.226500	0.091126
907.407935	0.090902
907.589352	0.090784
907.770750	0.090892
907.952131	0.091191
908.133493	0.090760
908.314837	0.090590
908.496163	0.090742
908.677470	0.091269
908.858760	0.091205
909.040031	0.091551
909.221284	0.090870
909.402518	0.091160
909.583735	0.090896
909.764933	0.090980
909.946113	0.091547
910.127275	0.092042
910.308418	0.091774
910.489544	0.091988
910.670651	0.091966
910.851740	0.091981
911.032810	0.092586
911.213863	0.091821
911.394897	0.091909
911.575913	0.091369
911.756911	0.090450
911.937890	0.090217
912.118851	0.089913
912.299794	0.088936
912.480719	0.088403
912.661626	0.087628
912.842514	0.088449
913.023384	0.088322
913.204236	0.087887
913.385070	0.088318
913.565886	0.087926
913.746683	0.088725
913.927462	0.089131
914.108223	0.089043
914.288965	0.089312
914.469690	0.088273
914.650396	0.088116
914.831084	0.088864
915.011754	0.088613
915.192405	0.088079
915.373038	0.086672
915.553653	0.086602
915.734250	0.086682
915.914829	0.085776
916.095389	0.086682
916.275931	0.086462
916.456455	0.086325
916.636961	0.086332
916.817448	0.086204
916.997917	0.086621
917.178368	0.085762
917.358801	0.085208
917.539216	0.084944
917.719612	0.083811
917.899990	0.084076
918.080350	0.082966
918.260692	0.082047
918.441015	0.082143
918.621320	0.081630
918.801607	0.081768
918.981876	0.082684
919.162127	0.082834
919.342359	0.082686
919.522573	0.082024
919.702769	0.082333
919.882947	0.082311
920.063106	0.081529
920.243247	0.081196
920.423370	0.081319
920.603475	0.080981
920.783562	0.081499
920.963630	0.081288
921.143680	0.082206
921.323712	0.081798
921.503725	0.081675
921.683721	0.081105
921.863698	0.081482
922.043657	0.081341
922.223598	0.081082
922.403520	0.079504
922.583424	0.080247
922.763311	0.078062
922.943178	0.076881
923.123028	0.076020
923.302859	0.075979
923.482673	0.075005
923.662467	0.074869
923.842244	0.073716
924.022003	0.074149
924.201743	0.072286
924.381465	0.072469
924.561169	0.072824
924.740854	0.072265
924.920522	0.072616
925.100171	0.072631
925.279802	0.071684
925.459414	0.071661
925.639009	0.071386
925.818585	0.072243
925.998143	0.072579
926.177683	0.073142
926.357205	0.073661
926.536708	0.073174
926.716193	0.074221
926.895660	0.073621
927.075109	0.074155
927.254539	0.073578
927.433951	0.073770
927.613345	0.072881
927.792721	0.072250
927.972079	0.071682
928.151418	0.071335
928.330739	0.070791
928.510042	0.071404
928.689327	0.069469
928.868593	0.069541
929.047841	0.068400
929.227071	0.068920
929.406283	0.067812
929.585476	0.068559
929.764652	0.067876
929.943809	0.066899
930.122948	0.066418
930.302068	0.067689
930.481171	0.067329
930.660255	0.067934
930.839321	0.066683
931.018369	0.066981
931.197398	0.066135
931.376409	0.067016
931.555402	0.065924
931.734377	0.065438
931.913334	0.065604
932.092272	0.064862
932.271192	0.064183
932.450094	0.063451
932.628978	0.063459
932.807844	0.062112
932.986691	0.060129
933.165520	0.060671
933.344331	0.059974
933.523123	0.059023
933.701898	0.057883
933.880654	0.056944
934.059392	0.057243
934.238111	0.057422
934.416813	0.058359
934.595496	0.059204
934.774161	0.057866
934.952808	0.058648
935.131437	0.057823
935.310047	0.057698
935.488639	0.058061
935.667213	0.057573
935.845769	0.055325
936.024306	0.055426
936.202825	0.056082
936.381326	0.056902
936.559809	0.056576
936.738274	0.056300
936.916720	0.057033
937.095148	0.057743
937.273558	0.057735
937.451950	0.059705
937.630323	0.059605
937.808678	0.058921
937.987015	0.059477
938.165334	0.058480
938.343635	0.056972
938.521917	0.055955
938.700181	0.054466
938.878427	0.054231
939.056655	0.054258
939.234864	0.053394
939.413055	0.051753
939.591228	0.050154
939.769383	0.048888
939.947519	0.051165
940.125638	0.050650
940.303738	0.049384
940.481820	0.049467
940.659883	0.049140
940.837929	0.048513
941.015956	0.047029
941.193965	0.047014
941.371955	0.047279
941.549928	0.045272
941.727882	0.044843
941.905818	0.045035
942.083736	0.045194
942.261636	0.044667
942.439517	0.043921
942.617380	0.045250
942.795225	0.044326
942.973052	0.044948
943.150860	0.044968
943.328651	0.048012
943.506423	0.047517
943.684176	0.046566
943.861912	0.046398
944.039629	0.048369
944.217328	0.051036
944.395009	0.052022
944.572672	0.049909
944.750317	0.050270
944.927943	0.049883
945.105551	0.051470
945.283141	0.050360
945.460712	0.047688
945.638265	0.045000
945.815801	0.041232
945.993317	0.039870
946.170816	0.040264
946.348297	0.039353
946.525759	0.038348
946.703203	0.035926
946.880629	0.036374
947.058036	0.038095
947.235425	0.038835
947.412797	0.039742
947.590149	0.037141
947.767484	0.037215
947.944800	0.037761
948.122099	0.035433
948.299379	0.035744
948.476640	0.037096
948.653884	0.035512
948.831109	0.035338
949.008316	0.036499
949.185505	0.038723
949.362676	0.042998
949.539828	0.042363
949.716962	0.044594
949.894078	0.045474
950.071176	0.043137
950.248256	0.044544
950.425317	0.044294
950.602360	0.041899
950.779385	0.046119
950.956391	0.040452
951.133380	0.038686
951.310350	0.035179
951.487302	0.033458
951.664235	0.033989
951.841151	0.033407
952.018048	0.033626
952.194927	0.033521
952.371788	0.030963
952.548631	0.036901
952.725455	0.037615
952.902261	0.037447
953.079049	0.037450
953.255819	0.035549
953.432570	0.037208
953.609303	0.036255
953.786018	0.038705
953.962715	0.038498
954.139394	0.030950
954.316054	0.031442
954.492696	0.030230
954.669320	0.030662
954.845926	0.029455
955.022513	0.026237
955.199083	0.024601
955.375634	0.023726
955.552166	0.026181
955.728681	0.028898
955.905177	0.036140
956.081655	0.037860
956.258115	0.039484
956.434557	0.042496
956.610980	0.044241
956.787385	0.047189
956.963772	0.044858
957.140141	0.042150
957.316492	0.043474
957.492824	0.037496
957.669138	0.039737
957.845434	0.038844
958.021712	0.033921
958.197971	0.032084
958.374212	0.033284
958.550435	0.034937
958.726640	0.033420
958.902826	0.034054
959.078995	0.034380
959.255145	0.032975
959.431277	0.030474
959.607390	0.034552
959.783486	0.034149
959.959563	0.032260
960.135622	0.031119
960.311662	0.027272
960.487685	0.022991
960.663689	0.022349
960.839675	0.024687
961.015643	0.025458
961.191593	0.027569
961.367524	0.027312
961.543437	0.027663
961.719332	0.026519
961.895209	0.029468
962.071067	0.032871
962.246907	0.029158
962.422730	0.029400
962.598533	0.031807
962.774319	0.030329
962.950086	0.031191
963.125835	0.027517
963.301566	0.031859
963.477279	0.033161
963.652973	0.033124
963.828650	0.035161
964.004308	0.031837
964.179947	0.032382
964.355569	0.033023
964.531172	0.035761
964.706757	0.039130
964.882324	0.039456
965.057873	0.040167
965.233403	0.037147
965.408916	0.038719
965.584410	0.041990
965.759885	0.038871
965.935343	0.035439
966.110782	0.037158
966.286203	0.042411
966.461606	0.040475
966.636991	0.040983
966.812357	0.043187
966.987705	0.042492
967.163035	0.047561
967.338347	0.044691
967.513641	0.049255
967.688916	0.048418
967.864173	0.044016
968.039412	0.041743
968.214632	0.041412
968.389835	0.042913
968.565019	0.043787
968.740185	0.036748
968.915333	0.041993
969.090462	0.036994
969.265573	0.035656
969.440667	0.031778
969.615741	0.031385
969.790798	0.030777
969.965836	0.030829
970.140856	0.025099
970.315858	0.025745
970.490842	0.022599
970.665808	0.027289
970.840755	0.024287
971.015684	0.027076
971.190595	0.029692
971.365487	0.026275
971.540362	0.021287
971.715218	0.028556
971.890056	0.031786
972.064875	0.033279
972.239677	0.029165
972.414460	0.031310
972.589225	0.028468
972.763972	0.024726
972.938700	0.023038
973.113411	0.026889
973.288103	0.027968
973.462777	0.021701
973.637432	0.024132
973.812070	0.030473
973.986689	0.032302
974.161290	0.030167
974.335873	0.032338
974.510437	0.037715
974.684984	0.035217
974.859512	0.029524
975.034022	0.028806
975.208513	0.029691
975.382987	0.029107
975.557442	0.023062
975.731879	0.028496
975.906298	0.025212
976.080698	0.026426
976.255080	0.026109
976.429445	0.028139
976.603790	0.035102
976.778118	0.030274
976.952427	0.029328
977.126719	0.033990
977.300992	0.035386
977.475246	0.039930
977.649483	0.035629
977.823701	0.038710
977.997901	0.042272
978.172083	0.039933
978.346247	0.044167
978.520392	0.044310
978.694519	0.042657
978.868628	0.043292
979.042719	0.042363
979.216791	0.041430
979.390845	0.040789
979.564882	0.039284
979.738899	0.037671
979.912899	0.034878
980.086880	0.033842
980.260843	0.030421
980.434788	0.028980
980.608715	0.032106
980.782623	0.033224
980.956514	0.037371
981.130386	0.035509
981.304240	0.034503
981.478075	0.035020
981.651892	0.030294
981.825692	0.033808
981.999472	0.032280
982.173235	0.029216
982.346980	0.030675
982.520706	0.027650
982.694414	0.029618
982.868104	0.031158
983.041775	0.034388
983.215428	0.036083
983.389064	0.035334
983.562680	0.032120
983.736279	0.034729
983.909860	0.034602
984.083422	0.036168
984.256966	0.036435
984.430491	0.041106
984.603999	0.038302
984.777488	0.038680
984.950959	0.041623
985.124412	0.044141
985.297847	0.043942
985.471263	0.043285
985.644661	0.042837
985.818041	0.038905
985.991403	0.034506
986.164747	0.034616
986.338072	0.036695
986.511379	0.037338
986.684668	0.035828
986.857938	0.035503
987.031191	0.034449
987.204425	0.033817
987.377641	0.034748
987.550839	0.030948
987.724018	0.030061
987.897179	0.029729
988.070322	0.029982
988.243447	0.033226
988.416554	0.029636
988.589642	0.032473
988.762712	0.029854
988.935764	0.032055
989.108798	0.033237
989.281813	0.032377
989.454811	0.030607
989.627790	0.030953
989.800751	0.029855
989.973693	0.027874
990.146617	0.024081
990.319524	0.027478
990.492412	0.025970
990.665281	0.031546
990.838133	0.036530
991.010966	0.036731
991.183781	0.036874
991.356578	0.034618
991.529356	0.035699
991.702117	0.036660
991.874859	0.042695
992.047583	0.044294
992.220288	0.035450
992.392976	0.031110
992.565645	0.033330
992.738296	0.028761
992.910929	0.031663
993.083543	0.039033
993.256139	0.036180
993.428718	0.029943
993.601277	0.032606
993.773819	0.036128
993.946342	0.037617
994.118848	0.038617
994.291335	0.038335
994.463803	0.036800
994.636254	0.035006
994.808686	0.041336
994.981100	0.036892
995.153496	0.032249
995.325874	0.031558
995.498233	0.036743
995.670574	0.037091
995.842897	0.042125
996.015202	0.044129
996.187488	0.038481
996.359757	0.033611
996.532007	0.039410
996.704239	0.042747
996.876452	0.045483
997.048648	0.041364
997.220825	0.039861
997.392984	0.037541
997.565124	0.035737
997.737247	0.036849
997.909351	0.040922
998.081437	0.039764
998.253505	0.036542
998.425554	0.035161
998.597586	0.036598
998.769599	0.032233
998.941594	0.029252
999.113571	0.028785
999.285529	0.032545
999.457469	0.029635
999.629391	0.029118
999.801295	0.030357
999.973181	0.029422
1000.145048	0.025086
1000.316897	0.031122
1000.488728	0.035516
1000.660541	0.032470
1000.832335	0.029574
1001.004111	0.032091
1001.175869	0.029442
1001.347609	0.032123
1001.519331	0.033561
1001.691034	0.034099
1001.862719	0.029628
1002.034386	0.027907
1002.206035	0.032217
1002.377665	0.030459
1002.549277	0.029074
1002.720871	0.029600
1002.892447	0.026376
1003.064004	0.026783
1003.235544	0.027074
1003.407065	0.029189
1003.578568	0.028010
1003.750052	0.026135
1003.921519	0.029461
1004.092967	0.031789
1004.264397	0.029644
1004.435809	0.030842
1004.607202	0.027270
1004.778577	0.026212
1004.949934	0.029261
1005.121273	0.030407
1005.292594	0.032706
1005.463896	0.030813
1005.635180	0.029721
1005.806446	0.035237
1005.977694	0.034915
1006.148923	0.037213
1006.320135	0.036990
1006.491328	0.035552
1006.662503	0.036161
1006.833659	0.034165
1007.004798	0.033099
1007.175918	0.035154
1007.347020	0.032375
1007.518103	0.032432
1007.689169	0.032105
1007.860216	0.036244
1008.031245	0.031612
1008.202256	0.028743
1008.373248	0.031934
1008.544223	0.031246
1008.715179	0.030388
1008.886117	0.028502
1009.057036	0.029459
1009.227938	0.030695
1009.398821	0.028767
1009.569686	0.032984
1009.740533	0.036310
1009.911361	0.034301
1010.082172	0.039102
1010.252964	0.036721
1010.423738	0.040551
1010.594493	0.039346
1010.765231	0.041123
1010.935950	0.041006
1011.106651	0.039758
1011.277334	0.038010
1011.447998	0.039198
1011.618645	0.038319
1011.789273	0.042333
1011.959882	0.042243
1012.130474	0.044546
1012.301048	0.042241
1012.471603	0.043968
1012.642140	0.043983
1012.812658	0.041506
1012.983159	0.040003
1013.153641	0.038222
1013.324105	0.032818
1013.494551	0.032270
1013.664979	0.028913
1013.835388	0.031645
1014.005779	0.027920
1014.176152	0.027011
1014.346507	0.029151
1014.516843	0.030338
1014.687162	0.030952
1014.857462	0.034063
1015.027744	0.033708
1015.198007	0.030815
1015.368252	0.025967
1015.538480	0.030060
1015.708689	0.030694
1015.878879	0.030521
1016.049052	0.030322
1016.219206	0.027457
1016.389342	0.024947
1016.559460	0.025284
1016.729559	0.028934
1016.899641	0.030948
1017.069704	0.030044
1017.239749	0.032262
1017.409775	0.035245
1017.579784	0.032479
1017.749774	0.037243
1017.919746	0.039154
1018.089700	0.039285
1018.259635	0.038352
1018.429553	0.039896
1018.599452	0.037704
1018.769333	0.034643
1018.939195	0.031371
1019.109040	0.029866
1019.278866	0.028835
1019.448674	0.027564
1019.618464	0.024360
1019.788235	0.024675
1019.957989	0.025554
1020.127724	0.026344
1020.297441	0.027545
1020.467139	0.030059
1020.636820	0.033173
1020.806482	0.033963
1020.976126	0.036770
1021.145752	0.036719
1021.315359	0.039415
1021.484948	0.040875
1021.654519	0.040561
1021.824072	0.044208
1021.993607	0.041552
1022.163123	0.041515
1022.332621	0.039032
1022.502101	0.036418
1022.671563	0.037482
1022.841007	0.037101
1023.010432	0.032225
1023.179839	0.032873
1023.349228	0.030491
1023.518598	0.033786
1023.687951	0.032917
1023.857285	0.033747
1024.026601	0.035296
1024.195899	0.035798
1024.365178	0.033803
1024.534439	0.035489
1024.703682	0.033714
1024.872907	0.029902
1025.042114	0.029280
1025.211302	0.025990
1025.380472	0.026841
1025.549624	0.029823
1025.718758	0.031135
1025.887873	0.033703
1026.056970	0.034864
1026.226049	0.039076
1026.395110	0.040676
1026.564153	0.036668
1026.733177	0.040962
1026.902183	0.036895
1027.071171	0.032377
1027.240141	0.032842
1027.409092	0.032601
1027.578026	0.031876
1027.746940	0.029487
1027.915837	0.029109
1028.084716	0.034932
1028.253576	0.038192
1028.422418	0.043479
1028.591242	0.045799
1028.760048	0.046502
1028.928835	0.044808
1029.097604	0.044909
1029.266355	0.050803
1029.435088	0.050877
1029.603803	0.049168
1029.772499	0.046148
1029.941177	0.044024
1030.109837	0.043920
1030.278478	0.041979
1030.447102	0.039134
1030.615707	0.037263
1030.784294	0.033149
1030.952863	0.031251
1031.121413	0.028420
1031.289945	0.030673
1031.458460	0.031487
1031.626955	0.031465
1031.795433	0.032666
1031.963892	0.036381
1032.132334	0.038676
1032.300756	0.034282
1032.469161	0.036977
1032.637548	0.036132
1032.805916	0.033051
1032.974266	0.033125
1033.142598	0.034206
1033.310911	0.033487
1033.479207	0.032444
1033.647484	0.030477
1033.815743	0.032740
1033.983983	0.034560
1034.152206	0.037476
1034.320410	0.037088
1034.488596	0.040477
1034.656764	0.037778
1034.824914	0.038386
1034.993045	0.038364
1035.161158	0.039083
1035.329253	0.039070
1035.497330	0.036690
1035.665388	0.038939
1035.833428	0.038654
1036.001450	0.035200
1036.169454	0.036011
1036.337440	0.031092
1036.505407	0.032081
1036.673356	0.035852
1036.841287	0.036526
1037.009200	0.035033
1037.177094	0.034166
1037.344970	0.035950
1037.512828	0.035603
1037.680668	0.036441
1037.848489	0.039688
1038.016293	0.039794
1038.184078	0.038219
1038.351845	0.036369
1038.519593	0.041676
1038.687324	0.039364
1038.855036	0.041342
1039.022730	0.040387
1039.190406	0.039370
1039.358063	0.038978
1039.525702	0.036855
1039.693323	0.034435
1039.860926	0.037016
1040.028511	0.032875
1040.196077	0.035381
1040.363625	0.037446
1040.531155	0.036912
1040.698667	0.037750
1040.866161	0.040793
1041.033636	0.042581
1041.201093	0.044440
1041.368532	0.041746
1041.535952	0.042071
1041.703355	0.039139
1041.870739	0.035023
1042.038105	0.037180
1042.205452	0.034070
1042.372782	0.031242
1042.540093	0.030026
1042.707386	0.025034
1042.874661	0.025945
1043.041918	0.026904
1043.209156	0.025776
1043.376376	0.020111
1043.543578	0.020846
1043.710762	0.020014
1043.877927	0.021340
1044.045074	0.021947
1044.212203	0.026851
1044.379314	0.028881
1044.546407	0.028948
1044.713481	0.030054
1044.880537	0.033759
1045.047575	0.027714
1045.214595	0.029164
1045.381596	0.030206
1045.548579	0.031122
1045.715544	0.028937
1045.882491	0.028273
1046.049420	0.027525
1046.216330	0.030887
1046.383222	0.033585
1046.550096	0.034906
1046.716951	0.035520
1046.883789	0.037620
1047.050608	0.038272
1047.217409	0.041360
1047.384192	0.041769
1047.550956	0.040847
1047.717703	0.038166
1047.884431	0.038033
1048.051140	0.043375
1048.217832	0.047316
1048.384505	0.042759
1048.551161	0.040910
1048.717798	0.037408
1048.884416	0.032645
1049.051017	0.033594
1049.217599	0.035178
1049.384163	0.039048
1049.550709	0.037910
1049.717237	0.035564
1049.883746	0.034358
1050.050237	0.036480
1050.216710	0.034774
1050.383165	0.037904
1050.549601	0.041032
1050.716019	0.039051
1050.882420	0.034489
1051.048801	0.034265
1051.215165	0.032295
1051.381510	0.034054
1051.547837	0.027612
1051.714146	0.030966
1051.880437	0.029836
1052.046709	0.027050
1052.212964	0.029733
1052.379200	0.030342
1052.545417	0.033099
1052.711617	0.034816
1052.877798	0.036018
1053.043961	0.042562
1053.210106	0.040133
1053.376233	0.042227
1053.542341	0.042710
1053.708432	0.042696
1053.874504	0.042360
1054.040557	0.036761
1054.206593	0.035691
1054.372610	0.029833
1054.538609	0.025920
1054.704590	0.026934
1054.870553	0.025325
1055.036497	0.028926
1055.202424	0.023593
1055.368331	0.020840
1055.534221	0.020457
1055.700093	0.020544
1055.865946	0.029433
1056.031781	0.030932
1056.197598	0.032068
1056.363397	0.034641
1056.529177	0.028962
1056.694939	0.031942
1056.860683	0.034553
1057.026409	0.038517
1057.192116	0.034856
1057.357806	0.027279
1057.523477	0.023622
1057.689130	0.021385
1057.854764	0.022337
1058.020381	0.024514
1058.185979	0.026977
1058.351559	0.030567
1058.517120	0.033052
1058.682664	0.038191
1058.848189	0.044924
1059.013696	0.046316
1059.179185	0.050801
1059.344656	0.049914
1059.510108	0.047250
1059.675542	0.042749
1059.840958	0.036600
1060.006356	0.030401
1060.171735	0.027507
1060.337096	0.019975
1060.502439	0.024421
1060.667764	0.021311
1060.833071	0.016694
1060.998359	0.019004
1061.163629	0.018284
1061.328881	0.017579
1061.494115	0.018266
1061.659330	0.020559
1061.824527	0.029251
1061.989706	0.029653
1062.154867	0.030229
1062.320010	0.032482
1062.485134	0.034677
1062.650240	0.035363
1062.815328	0.039360
1062.980398	0.042072
1063.145449	0.045222
1063.310482	0.044373
1063.475497	0.041536
1063.640494	0.041434
1063.805473	0.036883
1063.970433	0.031622
1064.135375	0.033658
1064.300299	0.031488
1064.465204	0.028455
1064.630092	0.023895
1064.794961	0.022717
1064.959812	0.019313
1065.124645	0.016110
1065.289459	0.021291
1065.454256	0.020079
1065.619034	0.019936
1065.783793	0.017061
1065.948535	0.018428
1066.113258	0.021353
1066.277964	0.016193
1066.442651	0.017219
1066.607319	0.023720
1066.771970	0.024839
1066.936602	0.028887
1067.101216	0.028704
1067.265812	0.032640
1067.430389	0.035541
1067.594949	0.035232
1067.759490	0.035390
1067.924013	0.035183
1068.088518	0.034236
1068.253004	0.032596
1068.417472	0.030368
1068.581922	0.037172
1068.746354	0.035123
1068.910768	0.031754
1069.075163	0.027181
1069.239540	0.028610
1069.403899	0.033895
1069.568240	0.026068
1069.732562	0.027906
1069.896866	0.028946
1070.061152	0.023074
1070.225420	0.029826
1070.389670	0.029147
1070.553901	0.029513
1070.718114	0.027550
1070.882309	0.022029
1071.046486	0.032639
1071.210644	0.031345
1071.374784	0.029119
1071.538906	0.032569
1071.703010	0.028509
1071.867096	0.030611
1072.031163	0.030418
1072.195212	0.029883
1072.359243	0.035837
1072.523256	0.032315
1072.687250	0.032699
1072.851226	0.038626
1073.015184	0.034950
1073.179124	0.033087
1073.343045	0.036963
1073.506949	0.038529
1073.670834	0.044365
1073.834701	0.040173
1073.998549	0.040334
1074.162380	0.038709
1074.326192	0.039346
1074.489986	0.041098
1074.653761	0.039766
1074.817519	0.038428
1074.981258	0.040895
1075.144979	0.044431
1075.308682	0.046862
1075.472367	0.041324
1075.636033	0.039684
1075.799681	0.040084
1075.963311	0.030062
1076.126923	0.030899
1076.290516	0.025636
1076.454092	0.023873
1076.617649	0.015135
1076.781187	0.015719
1076.944708	0.021163
1077.108210	0.024930
1077.271695	0.027335
1077.435160	0.035149
1077.598608	0.037244
1077.762038	0.037656
1077.925449	0.034490
1078.088842	0.034091
1078.252217	0.025537
1078.415573	0.025316
1078.578912	0.023682
1078.742232	0.019463
1078.905534	0.018873
1079.068817	0.016686
1079.232083	0.016453
1079.395330	0.015765
1079.558559	0.020559
1079.721770	0.026473
1079.884962	0.024031
1080.048136	0.023218
1080.211293	0.019463
1080.374430	0.015034
1080.537550	0.016131
1080.700651	0.018714
1080.863735	0.019136
1081.026800	0.023032
1081.189846	0.022806
1081.352875	0.020797
1081.515885	0.023085
1081.678877	0.020785
1081.841851	0.026196
1082.004807	0.025563
1082.167744	0.026967
1082.330663	0.029360
1082.493564	0.027257
1082.656447	0.024722
1082.819312	0.030895
1082.982158	0.023541
1083.144986	0.027889
1083.307796	0.029238
1083.470587	0.032735
1083.633361	0.024766
1083.796116	0.024272
1083.958853	0.025669
1084.121571	0.031087
1084.284272	0.024817
1084.446954	0.033055
1084.609618	0.031431
1084.772264	0.036084
1084.934892	0.033601
1085.097501	0.045664
1085.260092	0.042012
1085.422665	0.040553
1085.585220	0.036556
1085.747756	0.040162
1085.910274	0.037996
1086.072774	0.039604
1086.235256	0.030304
1086.397720	0.022834
1086.560165	0.017415
1086.722592	0.022031
1086.885001	0.018794
1087.047392	0.019037
1087.209764	0.017399
1087.372119	0.021320
1087.534455	0.020419
1087.696772	0.017894
1087.859072	0.025539
1088.021353	0.025990
1088.183616	0.024409
1088.345861	0.023942
1088.508088	0.024956
1088.670296	0.024475
1088.832486	0.022330
1088.994658	0.023147
1089.156812	0.024382
1089.318948	0.025658
1089.481065	0.014955
1089.643164	0.015648
1089.805245	0.013832
1089.967308	0.015398
1090.129352	0.016517
1090.291378	0.014170
1090.453386	0.010436
1090.615376	0.024361
1090.777347	0.025144
1090.939301	0.026777
1091.101236	0.023686
1091.263153	0.026497
1091.425051	0.027519
1091.586932	0.029178
1091.748794	0.027614
1091.910638	0.035250
1092.072463	0.022798
1092.234271	0.018759
1092.396060	0.031144
1092.557831	0.034269
1092.719584	0.026548
1092.881319	0.019826
1093.043035	0.015968
1093.204733	0.017971
1093.366413	0.011795
1093.528075	0.014554
1093.689718	0.014397
1093.851343	0.008189
1094.012950	0.015490
1094.174539	0.011035
1094.336110	0.014389
1094.497662	0.017149
1094.659196	0.019597
1094.820712	0.034178
1094.982210	0.032928
1095.143689	0.033847
1095.305151	0.043242
1095.466594	0.036715
1095.628018	0.046004
1095.789425	0.042673
1095.950813	0.041769
1096.112183	0.042265
1096.273535	0.027223
1096.434869	0.023622
1096.596184	0.020103
1096.757482	0.016890
1096.918761	0.017682
1097.080021	0.020927
1097.241264	0.022673
1097.402488	0.024268
1097.563694	0.021210
1097.724882	0.038084
1097.886052	0.042893
1098.047203	0.045353
1098.208336	0.035150
1098.369451	0.036342
1098.530548	0.033058
1098.691627	0.039430
1098.852687	0.043073
1099.013729	0.044426
1099.174753	0.020252
1099.335758	0.017718
1099.496746	0.021079
1099.657715	0.021748
1099.818666	0.017454
1099.979599	0.020873
1100.140513	0.015001
1100.301409	0.009998
1100.462287	0.009414
1100.623147	0.015952
1100.783989	0.018709
1100.944812	0.021243
1101.105617	0.023473
1101.266404	0.022716
1101.427173	0.012521
1101.587923	0.012126
1101.748656	0.016364
1101.909370	0.021618
1102.070066	0.019760
1102.230743	0.015334
1102.391403	0.011340
1102.552044	0.011454
1102.712667	0.013208
1102.873271	0.026196
1103.033858	0.026383
1103.194426	0.030563
1103.354976	0.032469
1103.515508	0.035942
1103.676021	0.035141
1103.836517	0.033329
1103.996994	0.037270
1104.157453	0.036618
1104.317893	0.043413
1104.478316	0.052029
1104.638720	0.045851
1104.799106	0.038341
1104.959474	0.041688
1105.119823	0.050858
1105.280155	0.047541
1105.440468	0.050246
1105.600763	0.055940
1105.761039	0.046589
1105.921298	0.035366
1106.081538	0.040976
1106.241760	0.045824
1106.401964	0.038447
1106.562149	0.040622
1106.722316	0.041213
1106.882465	0.037392
1107.042596	0.028268
1107.202709	0.029231
1107.362803	0.042274
1107.522879	0.032711
1107.682937	0.025989
1107.842977	0.018463
1108.002999	0.000584
1108.163002	0.014340
1108.322987	0.007249
1108.482954	0.012441
1108.642902	0.008753
1108.802833	-0.003511
1108.962745	-0.000234
1109.122639	0.004013
1109.282515	0.009648
1109.442372	0.014780
1109.602211	0.007208
1109.762032	0.014060
1109.921835	0.012079
1110.081620	0.013885
1110.241386	0.019117
1110.401134	0.019753
1110.560864	0.017751
1110.720576	0.034110
1110.880269	0.037155
1111.039945	0.038441
1111.199602	0.033646
1111.359240	0.035898
1111.518861	0.039603
1111.678463	0.039618
1111.838047	0.036636
1111.997613	0.025117
1112.157161	0.014985
1112.316690	0.018743
1112.476202	0.010565
1112.635695	0.007685
1112.795169	0.005165
1112.954626	0.006097
1113.114064	0.010204
1113.273484	0.006871
1113.432886	0.008869
1113.592270	0.003057
1113.751635	-0.004198
1113.910983	-0.005418
1114.070312	-0.005599
1114.229622	-0.005078
1114.388915	-0.011943
1114.548189	-0.009682
1114.707445	-0.008909
1114.866683	-0.002466
1115.025903	0.005737
1115.185104	0.002944
1115.344287	0.011230
1115.503452	0.022068
1115.662599	0.016876
1115.821727	0.014459
1115.980838	-0.003821
1116.139930	0.005092
1116.299004	-0.001725
1116.458059	0.002834
1116.617097	0.001696
1116.776116	-0.000125
1116.935117	0.000861
1117.094099	-0.000507
1117.253064	0.003690
1117.412010	0.013430
1117.570938	0.013170
1117.729848	0.017624
1117.888740	0.001538
1118.047613	0.006790
1118.206468	-0.006639
1118.365305	-0.011165
1118.524124	-0.004278
1118.682924	0.000945
1118.841707	-0.000747
1119.000471	-0.005978
1119.159216	-0.007026
1119.317944	0.000966
1119.476653	0.003405
1119.635344	0.026255
1119.794017	0.017424
1119.952672	0.029117
1120.111308	0.036018
1120.269927	0.050042
1120.428527	0.051467
1120.587108	0.062155
1120.745672	0.050386
1120.904217	0.047713
1121.062744	0.037789
1121.221253	0.037630
1121.379744	0.026485
1121.538216	0.018789
1121.696671	0.005754
1121.855107	-0.006946
1122.013524	0.002127
1122.171924	0.019203
1122.330305	0.018644
1122.488668	0.010892
1122.647013	0.020339
1122.805340	0.019894
1122.963648	0.015091
1123.121938	0.024936
1123.280210	0.034434
1123.438464	0.024849
1123.596700	0.023604
1123.754917	0.025404
1123.913116	0.027970
1124.071297	0.038848
1124.229459	0.037139
1124.387604	0.036987
1124.545730	0.026516
1124.703838	0.040273
1124.861928	0.021463
1125.019999	0.011746
1125.178052	0.018098
1125.336088	0.014747
1125.494104	-0.015889
1125.652103	-0.018510
1125.810083	-0.020826
1125.968045	-0.017270
1126.125989	-0.030126
1126.283915	-0.010031
1126.441823	-0.004115
1126.599712	-0.005087
1126.757583	0.004672
1126.915436	0.026689
1127.073270	0.037599
1127.231087	0.036150
1127.388885	0.035414
1127.546665	0.034618
1127.704426	0.029246
1127.862170	0.023564
1128.019895	0.016978
1128.177602	0.018238
1128.335291	0.016166
1128.492961	0.010389
1128.650614	0.013702
1128.808248	0.022822
1128.965864	0.025741
1129.123461	0.018225
1129.281041	0.033914
1129.438602	0.046811
1129.596145	0.047597
1129.753670	0.056072
1129.911176	0.052771
1130.068665	0.061056
1130.226135	0.045669
1130.383587	0.046493
1130.541020	0.061036
1130.698436	0.054624
1130.855833	0.019192
1131.013212	0.007129
1131.170573	-0.008032
1131.327915	-0.007372
1131.485239	-0.003185
1131.642545	-0.006146
1131.799833	-0.005151
1131.957103	-0.009039
1132.114354	-0.014704
1132.271588	-0.001691
1132.428803	0.007427
1132.585999	0.009173
1132.743178	0.002427
1132.900338	-0.005570
1133.057480	-0.000847
1133.214604	-0.001161
1133.371710	-0.024755
1133.528797	-0.026605
1133.685866	-0.013440
1133.842917	-0.010492
1133.999950	-0.007342
1134.156964	0.005836
1134.313960	-0.006672
1134.470938	0.006160
1134.627898	0.002510
1134.784840	0.036930
1134.941763	0.044397
1135.098668	0.037763
1135.255555	0.044053
1135.412424	0.051130
1135.569274	0.025432
1135.726107	0.031806
1135.882921	0.027894
1136.039716	0.054637
1136.196494	0.043707
1136.353253	0.024558
1136.509995	0.028713
1136.666717	0.019742
1136.823422	0.000782
1136.980109	0.015563
1137.136777	0.002135
1137.293427	0.003028
1137.450059	-0.014880
1137.606672	-0.024060
1137.763267	0.000000
1137.919844	0.011636
1138.076403	0.018253
1138.232944	0.035086
1138.389466	0.024661
1138.545971	0.024119
1138.702457	0.009716
1138.858924	0.021849
1139.015374	-0.004562
1139.171805	-0.026613
1139.328218	-0.040278
1139.484613	-0.051705
1139.640990	-0.053941
1139.797348	-0.027597
1139.953688	-0.006796
1140.110010	-0.003064
1140.266314	-0.019432
1140.422600	0.002089
1140.578867	0.015501
1140.735116	0.030799
1140.891347	0.045892
1141.047559	0.053463
1141.203754	0.042701
1141.359930	0.035719
1141.516088	0.048952
1141.672228	0.043719
1141.828349	0.053975
1141.984452	0.062786
1142.140537	0.066043
1142.296604	0.054265
1142.452653	0.043208
1142.608683	0.018294
1142.764695	0.054997
1142.920689	0.028957
1143.076665	0.032628
1143.232622	0.042778
1143.388562	0.053602
1143.544483	0.022734
1143.700385	0.030810
1143.856270	0.022149
1144.012136	0.028558
1144.167985	-0.006031
1144.323814	0.007664
1144.479626	0.026234
1144.635420	0.009697
1144.791195	-0.019461
1144.946952	0.007709
1145.102691	0.007137
1145.258411	0.007522
1145.414113	0.023246
1145.569798	0.030114
1145.725463	0.032408
1145.881111	0.021307
1146.036741	0.032979
1146.192352	0.060687
1146.347945	0.055761
1146.503519	0.041244
1146.659076	0.057589
1146.814614	0.054763
1146.970134	0.043055
1147.125636	0.039607
1147.281120	0.026295
1147.436585	0.018303
1147.592032	-0.003807
1147.747461	-0.002328
1147.902872	-0.004289
1148.058265	0.016788
1148.213639	0.013261
1148.368995	0.027763
1148.524333	0.026282
1148.679653	0.049639
1148.834954	0.073066
1148.990237	0.082359
1149.145502	0.067966
1149.300749	0.082513
1149.455977	0.038878
1149.611188	0.064948
1149.766380	0.031633
1149.921553	0.045665
1150.076709	0.023888
1150.231846	-0.014849
1150.386966	-0.023903
1150.542066	-0.024984
1150.697149	-0.038817
1150.852214	-0.034642
1151.007260	-0.047476
1151.162288	-0.017134
1151.317298	-0.021914
1151.472289	-0.019484
1151.627263	0.000000
1151.782218	0.023142
1151.937155	0.017759
1152.092073	0.029067
1152.246974	0.031882
1152.401856	0.044930
1152.556720	0.016926
1152.711566	-0.008056
1152.866393	-0.020329
1153.021203	-0.022725
1153.175994	-0.027758
1153.330767	-0.031558
1153.485521	-0.023479
1153.640258	-0.041461
1153.794976	-0.056936
1153.949676	-0.041784
1154.104358	-0.038248
1154.259021	-0.045958
1154.413667	-0.041340
1154.568294	-0.059355
1154.722903	-0.065820
1154.877493	-0.075980
1155.032066	-0.046085
1155.186620	-0.051577
1155.341156	-0.051793
1155.495674	-0.031647
1155.650173	0.004950
1155.804654	-0.001740
1155.959118	0.020150
1156.113562	0.041832
1156.267989	0.039342
1156.422397	0.026565
1156.576788	0.011622
1156.731160	0.024020
1156.885513	-0.007731
1157.039849	-0.028635
1157.194166	-0.044892
1157.348465	-0.059422
1157.502746	-0.075962
1157.657009	-0.084942
1157.811253	-0.078352
1157.965479	-0.066338
1158.119687	-0.071496
1158.273877	-0.051232
1158.428048	-0.046233
1158.582201	-0.047913
1158.736337	-0.033281
1158.890453	-0.025672
1159.044552	-0.013367
1159.198632	-0.033883
1159.352694	-0.027631
1159.506738	-0.026591
1159.660764	-0.011352
1159.814771	-0.024343
1159.968761	-0.004639
1160.122732	-0.002437
1160.276685	0.005935
1160.430619	0.020609
1160.584535	0.034964
1160.738434	0.034388
1160.892313	0.033734
1161.046175	0.024419
1161.200019	0.034979
1161.353844	0.030355
1161.507651	0.016801
1161.661440	0.034188
1161.815210	0.007261
1161.968962	0.012828
1162.122697	0.014666
1162.276412	0.021695
1162.430110	0.023280
1162.583789	0.052893
1162.737451	0.040182
1162.891094	0.049768
1163.044718	0.040967
1163.198325	0.039920
1163.351913	0.037946
1163.505483	0.028708
1163.659035	0.021159
1163.812569	0.015904
1163.966084	-0.007360
1164.119581	0.026793
1164.273060	0.029099
1164.426521	0.014272
1164.579964	0.027614
1164.733388	0.035441
1164.886794	0.034336
1165.040182	0.011728
1165.193551	-0.000705
1165.346903	0.021832
1165.500236	0.004476
1165.653551	0.024241
1165.806848	0.032219
1165.960126	0.056585
1166.113386	0.047849
1166.266628	0.073406
1166.419852	0.073388
1166.573058	0.087914
1166.726245	0.073196
1166.879414	0.075808
1167.032565	0.037990
1167.185698	0.015928
1167.338812	-0.025733
1167.491909	-0.000204
1167.644987	0.002041
1167.798046	0.018567
1167.951088	0.013784
1168.104111	0.016811
1168.257117	-0.013761
1168.410103	-0.024594
1168.563072	-0.005074
1168.716023	0.019436
1168.868955	0.022242
1169.021869	-0.012988
1169.174765	-0.025746
1169.327642	-0.031882
1169.480501	-0.021545
1169.633343	0.012191
1169.786165	0.010771
1169.938970	0.009199
1170.091757	-0.006595
1170.244525	-0.022146
1170.397275	-0.007960
1170.550007	0.011717
1170.702720	0.036339
1170.855415	0.024929
1171.008092	0.001908
1171.160751	0.003258
1171.313392	-0.016658
1171.466014	0.121496
1171.618619	-0.123259
1171.771205	-0.123259
1171.923772	-0.123259
