sample name	sample
index	660
start time	 03-22-2021  10:22:57 AM
880	0.119808
Peak Time (s)	181.037
Peak Height 	0.1198
calc peak height	180,183
Baseline Time (s)	9.537
Baseline Value 	-0.002846
subtract baseline	10,4
Abs	0.063644
Peak Time (s)	181.537
Peak Height 	0.06364
calc peak height	180,183
Baseline Time (s)	9.537
Baseline Value 	0.003398
subtract baseline	10,3
PK_550	0.034218
Peak Time (s)	182.535
Peak Height 	0.03422
calc peak height	180,183
Baseline Time (s)	11.036
Baseline Value 	8.0395E-4
subtract baseline	10,2
PK_880	0.058687
Peak Time (s)	182.037
Peak Height 	0.05869
calc peak height	180,183
Baseline Time (s)	10.037
Baseline Value 	7.6959E-4
subtract baseline	10,1


Time (s)	A880-A510	A880-A775	A880-A975	A880	I510	I775	I975	I880	
0.034500	-0.003549	-0.001384	-0.004491	0.006271	7288.174748	45418.809478	3882.075020	23898.773521
0.537500	-0.003628	-0.001063	-0.007998	0.004343	7307.822316	45640.582647	3877.614846	23993.227566
1.035500	-0.004030	-0.001586	-0.008717	0.002702	7321.030183	45751.260774	3880.216466	24073.956962
1.535500	-0.001098	-0.001002	-0.009808	-0.000463	7386.588430	46124.417550	3886.089426	24230.493270
2.035500	-0.004130	-0.001013	-0.008555	0.005777	7287.259457	45503.949683	3872.014914	23922.942311
2.536000	0.000709	-0.000637	-0.001706	-0.000213	7403.483897	46135.987445	3908.584122	24218.113646
3.036500	-0.000278	-0.000429	-0.003171	-0.001193	7403.416208	46254.981037	3907.184556	24266.801701
3.536500	0.000327	-0.000222	-0.000507	0.000613	7390.383839	46094.955485	3909.662650	24177.176168
4.039000	-0.001171	-0.001346	-0.004205	0.000034	7380.420081	46040.448349	3900.670177	24205.837772
4.537000	0.000270	0.000207	-0.003427	0.001127	7384.199976	46086.482933	3899.768968	24151.742578
5.037500	-0.000122	-0.001026	-0.006956	-0.000124	7393.495386	46088.230559	3893.246102	24213.688967
5.534500	0.001195	-0.000138	-0.003549	0.000282	7403.391849	46136.441971	3901.845482	24193.573270
6.035000	-0.001172	-0.000402	-0.004343	0.000100	7379.707809	46128.218298	3900.086475	24202.599622
6.535000	0.000234	-0.000397	-0.002994	-0.000240	7398.617115	46162.678445	3904.943651	24219.424592
7.035500	0.001297	-0.000777	-0.004764	-0.000476	7412.747735	46148.260177	3900.531038	24231.151313
7.536000	0.000551	-0.000450	-0.000609	-0.000101	7400.551209	46143.491894	3911.432777	24212.536426
8.036000	-0.001481	0.000172	-0.000178	-0.000226	7379.887705	46218.248260	3913.044296	24218.736105
8.539500	-0.001144	0.000193	0.001335	0.000213	7378.788219	46176.399827	3916.166581	24196.987269
9.037000	-0.001699	-0.001372	-0.000500	-0.000666	7382.290241	46107.852007	3913.388088	24240.604693
9.537000	-0.000361	0.000155	0.000000	0.000000	7389.558817	46193.939516	3912.906120	24207.537359
10.037500	0.000000	-0.000205	-0.005394	-0.000062	7394.149455	46164.087177	3897.536479	24210.613224
10.535000	0.001022	-0.000378	-0.001383	-0.000149	7406.188368	46155.439666	3909.330115	24214.912676
11.035500	0.000889	0.000000	0.002629	0.000614	7396.456533	46116.945859	3918.763089	24177.092933
11.535500	0.001546	0.000371	0.004184	0.000459	7405.277177	46169.609055	3923.757819	24184.779889
12.036000	-0.000151	0.000088	-0.001406	-0.000098	7392.898828	46197.018291	3909.117714	24212.375798
12.536500	0.000225	0.000113	-0.002903	-0.000160	7397.659876	46205.795405	3904.974222	24215.479067
13.039500	-0.001233	-0.000624	-0.006526	-0.001518	7396.569926	46267.967153	3898.464215	24282.950726
13.537500	0.000831	-0.000254	0.000762	-0.000835	7411.583968	46236.590634	3917.547882	24248.997037
14.037000	-0.002455	-0.001015	-0.004692	0.002078	7344.580870	45869.939825	3893.423042	24104.753001
14.539000	-0.001563	-0.000413	-0.001683	0.001628	7358.991982	45974.557428	3903.339121	24126.937970
15.035000	0.001679	0.000507	0.004426	-0.000471	7416.856493	46276.417458	3927.189057	24230.916204
15.535000	0.001638	0.000260	-0.001792	-0.000617	7417.984833	46266.239302	3909.500669	24238.136759
16.035500	0.000519	0.000494	-0.000585	-0.000060	7399.755535	46233.890523	3911.383786	24210.511491
16.536000	0.002530	0.000273	-0.004458	-0.000157	7422.702501	46221.476689	3900.492342	24215.328904
17.036000	-0.000318	-0.001283	0.000325	0.002247	7365.733370	45826.427629	3907.343456	24096.370938
17.539000	-0.000231	-0.000281	0.001044	0.001279	7377.130071	46022.548380	3912.226848	24144.220587
18.036500	-0.002040	-0.000530	0.001263	0.001195	7358.522799	46006.046192	3913.103270	24148.332215
18.537000	-0.000919	0.000080	0.000307	0.001523	7367.065817	46034.194905	3909.384063	24132.132202
19.037000	-0.001058	-0.000407	-0.004561	0.003193	7347.600418	45819.538218	3890.616544	24049.763021
19.537500	0.001096	-0.000604	-0.003032	0.001391	7390.278253	45979.104116	3900.141095	24138.653983
20.035000	0.000206	0.000427	0.001003	0.002149	7372.453018	46006.420865	3909.586462	24101.249055
20.535000	-0.001200	-0.000673	-0.001823	0.001200	7367.518349	45991.297124	3904.166931	24148.106194
21.035500	-0.002092	-0.000545	-0.002193	0.003243	7335.980390	45800.879160	3897.236323	24047.310608
21.536000	0.000200	0.000046	-0.004618	0.001806	7376.090715	46002.604938	3894.411181	24118.174704
22.039000	0.000915	0.000524	0.002924	0.002326	7378.204804	45998.360413	3914.641389	24092.499139
22.536500	0.001921	-0.000048	-0.005723	0.002049	7392.091988	45968.975253	3890.566348	24106.175450
23.036500	-0.002382	-0.000769	0.001082	0.002784	7337.795904	45824.178711	3907.981553	24069.934160
23.537000	0.000695	-0.000331	-0.001406	0.001378	7386.067961	46007.582824	3904.856274	24139.283088
24.037500	0.000047	-0.000015	-0.001436	0.002089	7371.389699	45968.364336	3902.723625	24104.209798
24.535000	-0.000460	-0.000036	-0.004411	0.001704	7370.063378	46004.611697	3895.293318	24123.197295
25.035000	0.001160	0.000537	0.000555	0.003512	7368.039608	45881.573532	3904.358968	24034.076638
25.535500	-0.000001	0.000255	-0.002450	0.002181	7369.874440	45985.948776	3899.544242	24099.629334
26.035500	0.001126	0.000774	-0.000250	0.002825	7375.088564	45973.505205	3904.017188	24067.877636
26.539000	0.001523	-0.000179	-0.001640	0.002262	7385.462164	45934.706599	3901.639915	24095.640947
27.036500	0.001324	-0.000545	-0.000707	-0.000660	7415.041028	46189.960184	3912.772232	24240.315677
27.536500	0.001925	-0.000527	0.001406	-0.000721	7422.255848	46197.781353	3919.090512	24243.312340
28.037000	0.001020	0.000358	0.002540	0.000080	7403.683013	46206.299425	3920.062728	24203.592857
28.537500	0.001390	0.001031	-0.001204	0.000758	7400.337172	46205.749921	3907.229105	24169.985574
29.037000	0.000904	-0.000191	-0.001163	0.000092	7402.298144	46150.050175	3909.270830	24202.984834
29.535000	-0.000420	0.000285	0.001548	0.004309	7342.473748	45777.423639	3904.921479	23994.892409
30.035500	0.003380	-0.000096	0.001258	0.000351	7426.442029	46133.765444	3915.539517	24190.159928
30.535000	-0.001353	0.000038	-0.002365	0.003774	7338.201646	45805.992307	3895.226306	24021.178634
31.038500	0.000742	-0.000124	-0.000779	0.000920	7391.544098	46074.014185	3907.986890	24161.957987
31.536000	-0.000782	0.000123	-0.001657	0.003796	7344.083080	45812.259888	3897.186885	24020.086949
32.036500	0.002068	0.000550	0.000202	0.000794	7407.310582	46153.892066	3911.188445	24168.177487
32.536000	0.002186	0.000410	-0.000784	0.000456	7412.274649	46173.739083	3909.313435	24184.926592
33.037000	-0.000804	-0.000378	-0.004641	0.005202	7328.784790	45623.369309	3884.678293	23951.076422
33.534500	-0.000366	0.000138	0.001696	0.004758	7338.236281	45718.439341	3904.056780	23972.876607
34.037500	-0.001723	-0.000172	0.001165	0.003263	7339.718288	45835.904064	3906.836459	24046.324896
34.535000	0.000251	-0.000204	0.000590	0.002950	7364.302353	45863.806590	3906.081532	24061.746542
35.035500	0.000208	0.000455	0.001923	0.003582	7357.025031	45866.456603	3908.102446	24030.627500
35.539000	-0.000896	-0.000485	0.000484	0.003483	7346.223899	45782.956723	3904.237696	24035.476617
36.035500	0.000333	0.000070	0.001349	0.003139	7363.142292	45872.243601	3907.724225	24052.427562
36.536500	-0.000081	0.000839	0.001674	0.003624	7353.474144	45900.459459	3907.263292	24028.562467
37.036500	-0.000747	-0.000306	0.001433	0.003927	7343.064574	45756.753556	3905.693775	24013.658056
37.537000	-0.000859	0.000282	-0.003336	0.004656	7334.045852	45742.701209	3889.937116	23977.866409
38.037000	-0.000113	-0.000131	-0.000599	0.003126	7358.480258	45853.597270	3902.148565	24053.061692
38.534500	0.000613	0.000339	-0.001222	0.003643	7360.730023	45848.890217	3898.874368	24027.630630
39.038000	0.000966	0.000470	0.003852	0.004155	7359.020639	45811.106773	3912.028046	24002.488364
39.535500	-0.001739	0.000175	0.000663	0.003762	7334.206281	45820.892567	3903.950399	24021.799558
40.038500	0.000695	0.000001	0.001366	0.003223	7366.143904	45857.144707	3907.531517	24048.315422
40.536000	0.001006	-0.000043	0.004958	0.003318	7368.462001	45843.191952	3917.671030	24043.598299
41.035500	0.000106	-0.000140	0.002409	0.004231	7348.956334	45743.113859	3907.632561	23998.743991
41.536000	0.000946	0.000121	0.000306	0.003715	7363.547441	45820.123665	3903.056694	24024.099853
42.036500	-0.001318	0.000037	-0.000183	0.003154	7345.220957	45867.475299	3903.263759	24051.667969
42.537000	0.000200	-0.000072	0.001464	0.003423	7358.652496	45829.999859	3907.236852	24038.453277
43.037000	-0.001439	-0.000105	0.001569	0.005117	7322.917240	45658.816933	3902.657507	23955.261813
43.534500	0.000245	0.000237	-0.005211	0.005155	7340.531847	45688.917290	3883.197942	23953.409146
44.035000	-0.000073	-0.000415	0.000811	0.000590	7386.288867	46077.925401	3913.545646	24178.286954
44.538000	0.005338	0.000754	0.005645	0.001563	7434.595016	46097.546025	3924.803074	24130.168537
45.035500	-0.001406	-0.000110	0.000405	0.006421	7309.352644	45529.544661	3895.576795	23891.440707
45.536000	0.000195	0.000333	-0.006412	0.007434	7315.615659	45473.324635	3873.380000	23841.987070
46.035500	0.003547	0.000225	-0.002108	0.001389	7416.929271	46062.000165	3902.803273	24138.750393
46.536500	0.001190	-0.000058	0.002153	0.000643	7399.415062	46108.262661	3917.294995	24175.679597
47.037000	-0.002062	-0.000047	0.004314	0.006260	7304.086839	45551.586049	3907.272449	23899.304084
47.537000	0.000869	0.000522	0.004307	0.006488	7332.942116	45585.321001	3906.595966	23888.189772
48.035000	0.001956	0.000997	0.005970	0.001584	7397.510168	46119.691546	3925.692405	24129.132293
48.535000	0.003675	0.001269	0.003432	0.001779	7414.077810	46127.337042	3917.708676	24119.494006
49.038000	-0.001031	0.000142	-0.000406	0.006954	7307.674041	45501.830424	3891.737143	23865.408090
49.535500	0.000144	0.000300	0.000549	0.007028	7319.421395	45510.157809	3894.255431	23861.830752
50.036000	0.002270	0.000170	0.004207	0.005670	7356.756447	45631.342786	3908.672033	23928.192855
50.536000	-0.051507	-0.023775	0.059597	0.465118	4117.185951	16808.350279	3148.398267	10050.289909
51.039000	-0.034010	-0.013199	-0.010642	0.029595	6751.845508	42098.916653	3801.441832	22788.725981
51.536500	-0.042848	-0.108119	-0.026595	-0.268061	10594.317451	65535.000000	4849.675628	42596.207080
52.036500	-0.032394	-0.180771	-0.017429	-0.340713	12262.591463	65535.000000	5305.014728	49866.574174
52.537000	-0.049119	-0.146827	-0.018608	-0.306769	11207.771754	65535.000000	5098.996614	46318.232031
53.034500	-0.047746	-0.123218	-0.019628	-0.283161	10782.333904	65535.000000	4964.160244	44008.793421
53.537500	-0.037490	-0.100374	-0.021986	-0.260316	10550.953926	65535.000000	4833.874333	41890.511642
54.035500	-0.017387	-0.109916	-0.021303	-0.269858	11106.714424	65535.000000	4885.826110	42761.769984
54.535500	-0.009368	-0.115034	-0.019699	-0.274976	11365.401910	65535.000000	4920.646158	43237.009729
55.036000	-0.001234	-0.104892	-0.016840	-0.264834	11325.348603	65535.000000	4882.943200	42300.663081
55.536000	-0.018668	-0.048248	-0.015527	-0.195365	9758.185234	63706.795784	4559.104734	36442.434159
56.036500	-0.007290	-0.035674	-0.013062	-0.176008	9629.406106	62761.420529	4486.399313	34970.196843
56.539500	-0.013136	-0.019769	-0.010491	-0.129639	8842.575173	58692.899242	4310.543632	31699.225860
57.037000	-0.015891	-0.015137	-0.012564	-0.099985	8399.703452	55558.260658	4193.785128	29783.219211
57.540000	-0.018354	-0.012713	-0.012628	-0.076190	8064.359197	53020.355878	4111.438017	28337.657462
58.040500	-0.012502	-0.009464	-0.007754	-0.059266	7928.917389	51460.716085	4071.535260	27356.657079
58.535000	-0.013723	-0.007929	-0.006009	-0.038152	7665.995796	49311.606169	4009.673946	26185.188054
59.035000	-0.015248	-0.005885	-0.010732	-0.015693	7398.303816	47171.400920	3927.377789	25000.025396
59.535500	-0.016280	-0.006217	-0.009014	-0.002948	7251.084910	45852.379317	3895.433972	24354.208092
60.036000	-0.012922	-0.005801	-0.004158	0.003217	7221.675567	45284.993997	3891.696123	24048.611205
60.536000	-0.009920	-0.003283	0.001908	0.013860	7142.531132	44495.833255	3878.712155	23531.047622
61.036500	-0.009814	-0.001890	-0.004391	0.025557	7025.100533	43515.932502	3828.969731	22976.678947
61.537000	-0.006639	-0.001877	-0.003328	0.018417	7129.446736	44193.700671	3851.390425	23313.308426
62.037000	-0.005316	-0.000915	-0.004591	0.014454	7183.882647	44666.840966	3858.860926	23502.510550
62.540500	-0.002910	-0.000749	0.000061	0.011727	7237.391605	44947.361163	3879.521787	23633.770618
63.040500	-0.005356	-0.001116	-0.000047	0.015508	7172.563665	44545.750343	3868.588272	23452.038297
63.537500	-0.000629	-0.001382	0.001214	0.009871	7280.966055	45066.366510	3888.044979	23723.508953
64.035500	-0.000035	-0.000557	-0.001357	0.011724	7267.667919	44966.301930	3875.530069	23633.893890
64.536000	0.000022	-0.000849	0.003852	0.011867	7266.758655	44923.941952	3889.871756	23626.981031
65.036000	-0.004454	-0.001835	-0.003670	0.017937	7156.821489	44243.554221	3851.772244	23336.141547
65.536500	-0.001633	-0.000704	-0.002532	0.017685	7188.582231	44376.037912	3855.612877	23348.130001
66.037000	0.002336	-0.000541	0.000257	0.015576	7252.059690	44594.547862	3869.247560	23448.762066
66.537500	0.000455	0.000260	0.001797	0.018482	7201.989362	44392.126077	3865.430750	23310.221341
67.040000	-0.000957	0.000520	0.001569	0.024924	7121.009749	43802.882220	3846.953542	23006.285807
67.535500	-0.000194	0.000403	-0.001179	0.025277	7125.197066	43758.385934	3838.461766	22989.765647
68.035000	0.004253	0.001644	0.003612	0.021556	7209.524942	44230.185485	3861.920932	23164.609474
68.535500	0.004731	0.001707	0.002798	0.022554	7204.101079	44140.814854	3856.888624	23117.563012
69.035500	-0.000186	0.001106	0.001003	0.028667	7090.742576	43505.168332	3835.169150	22831.768711
69.536000	0.001193	0.002742	-0.003049	0.031061	7080.455144	43434.032280	3817.756492	22720.929448
70.036500	0.005485	0.003605	0.004189	0.026463	7171.387941	43949.483535	3849.932247	22934.375569
70.536000	0.007221	0.003435	0.004706	0.027043	7183.352395	43878.249027	3849.757424	22907.325140
71.037000	0.002215	0.002894	0.001135	0.032421	7077.040773	43320.900174	3825.353376	22658.233845
71.537500	0.005472	0.003821	0.003050	0.032616	7108.118442	43389.440743	3830.004537	22649.266173
72.037000	0.009955	0.004313	0.006828	0.027782	7204.067778	43891.406769	3853.572649	22872.909656
72.535000	0.010040	0.005002	0.008442	0.028382	7198.705775	43899.809778	3856.379079	22844.997090
73.035000	0.007522	0.004522	0.004627	0.033589	7119.107128	43363.969618	3831.643253	22604.567535
73.535500	0.007386	0.004838	0.005255	0.032241	7131.512355	43520.068885	3837.017099	22666.552189
74.036000	0.011518	0.007161	0.006630	0.029547	7201.968907	43994.316700	3848.160399	22790.989668
74.536000	0.011826	0.004857	0.006694	0.028537	7215.692500	43871.425938	3851.118516	22837.801715
75.036000	0.008310	0.005518	0.006021	0.034439	7118.482408	43377.699478	3833.120436	22565.605782
75.536500	0.010427	0.006604	0.004531	0.034587	7138.629297	43465.629278	3828.679129	22558.830539
76.040000	0.014041	0.006638	0.009904	0.029907	7224.522433	43910.450003	3856.202741	22774.288213
76.537500	0.014793	0.007534	0.009958	0.031017	7220.782163	43890.145237	3853.283389	22722.971591
77.034500	0.011159	0.006675	0.004878	0.036309	7128.483766	43310.976684	3824.962314	22480.118111
77.537000	0.012314	0.006944	0.011953	0.034206	7161.955472	43533.338816	3849.989723	22576.281038
78.035500	0.016503	0.007815	0.013024	0.031507	7233.549554	43870.329622	3860.423695	22700.382095
78.536000	0.014585	0.007209	0.008909	0.031771	7210.743058	43787.936843	3848.311192	22688.176128
79.036000	0.014562	0.007291	0.011166	0.031731	7210.920632	43799.446734	3854.649439	22690.033485
79.536000	0.014312	0.008711	0.014063	0.037276	7150.914561	43410.987101	3847.345430	22436.039313
80.036500	0.014755	0.008079	0.012779	0.032815	7201.648197	43771.458880	3856.113333	22640.144617
80.538000	0.014253	0.008381	0.014348	0.033282	7191.568477	43755.855673	3859.168897	22618.652788
81.037000	0.018125	0.008602	0.016014	0.034237	7221.957640	43686.580224	3861.146536	22574.859125
81.537000	0.014179	0.008833	0.016404	0.037467	7147.583888	43404.555310	3853.272493	22427.353500
82.037500	0.018529	0.008500	0.018763	0.035052	7217.667800	43600.133406	3866.535874	22537.547803
82.536500	0.016215	0.008509	0.014054	0.035056	7193.530092	43600.565813	3853.441171	22537.346024
83.035500	0.012995	0.008722	0.011077	0.041581	7093.455644	43010.471333	3827.466935	22241.071121
83.536000	0.015547	0.007994	0.017620	0.038937	7146.540381	43188.781727	3852.571427	22360.614305
84.036000	0.019687	0.009227	0.015746	0.036909	7210.366071	43493.859035	3852.996384	22452.751719
84.536000	0.019206	0.010394	0.021235	0.037695	7197.175991	43529.563759	3866.056454	22416.967023
85.039500	0.017343	0.009372	0.015799	0.037726	7177.544036	43430.784863	3850.886888	22415.569596
85.536500	0.018089	0.008984	0.016530	0.037510	7187.506510	43414.616552	3853.500300	22425.404697
86.037000	0.018035	0.009632	0.019379	0.038860	7172.978053	43348.902402	3857.650626	22364.098272
86.537500	0.018385	0.009172	0.018891	0.038912	7176.043452	43300.951222	3856.153079	22361.713933
87.035000	0.015241	0.010214	0.016873	0.045786	7073.608071	42759.477214	3831.773837	22052.478098
87.535000	0.020392	0.009318	0.016186	0.039591	7189.815762	43251.207425	3846.818379	22330.982722
88.035500	0.019875	0.010506	0.017945	0.040541	7174.614856	43273.421830	3849.043207	22288.009654
88.541500	0.019435	0.010557	0.021279	0.041201	7163.252839	43216.607384	3856.426933	22258.199213
89.036500	0.016693	0.010999	0.013664	0.048039	7065.520994	42624.296782	3817.046580	21952.186458
89.539500	0.019184	0.010754	0.019972	0.045454	7117.039484	42840.035465	3841.123634	22067.340517
90.037000	0.020192	0.010812	0.024603	0.042677	7155.846364	43102.898328	3861.560596	22191.765845
90.539500	0.019988	0.011185	0.021052	0.043752	7142.694081	43037.616255	3848.757631	22143.485173
91.037500	0.017881	0.011435	0.017170	0.049047	7067.342783	42571.771832	3823.758917	21907.495366
91.534500	0.020351	0.011175	0.015734	0.046311	7120.211654	42799.814247	3827.270388	22029.104430
92.034500	0.021129	0.011432	0.019445	0.045342	7138.088868	42913.025052	3839.987628	22072.321208
92.535500	0.021935	0.012431	0.025751	0.046597	7133.478664	42889.432640	3853.872651	22016.342452
93.035500	0.018899	0.012112	0.021777	0.052681	7041.012080	42301.289053	3826.385480	21747.201389
93.536000	0.022334	0.013342	0.026006	0.050318	7099.580563	42630.204630	3844.328339	21851.285143
94.039500	0.023015	0.012596	0.023688	0.048257	7127.537544	42751.288825	3843.623366	21942.517101
94.537000	0.023667	0.012470	0.026978	0.048490	7131.834005	42718.251528	3852.031982	21932.207657
95.037000	0.019524	0.012479	0.021353	0.054935	7024.699830	42129.574240	3819.173495	21648.449724
95.537000	0.023980	0.013210	0.024097	0.052199	7097.194134	42445.552114	3833.978301	21768.397704
96.038000	0.023525	0.014691	0.024181	0.051673	7097.909667	42629.735657	3835.640687	21791.555997
96.535000	0.022162	0.013235	0.026677	0.051539	7085.437788	42508.320515	3842.820274	21797.450385
97.035000	0.018232	0.013534	0.021728	0.058041	6980.955514	41943.829363	3811.864753	21513.181594
97.535500	0.022182	0.013350	0.028557	0.054243	7058.311906	42271.657670	3840.563291	21678.694771
98.035500	0.021952	0.013453	0.026841	0.052888	7069.667697	42404.782692	3839.580333	21738.126697
98.539000	0.025464	0.013348	0.027121	0.053191	7102.195554	42367.536227	3839.517607	21724.832712
99.036500	0.024186	0.014064	0.026283	0.054488	7076.070934	42314.486548	3833.698577	21667.980112
99.539500	0.023139	0.014408	0.029773	0.056209	7048.163607	42189.078176	3838.517056	21592.845655
100.037000	0.023001	0.015104	0.029465	0.056037	7048.507046	42268.033382	3838.145376	21600.347101
100.536500	0.024845	0.014182	0.027359	0.055967	7067.789880	42190.620595	3832.606381	21603.420469
101.034000	0.023788	0.014589	0.031144	0.056488	7051.880358	42180.144872	3841.499824	21580.683696
101.535500	0.023276	0.014304	0.030802	0.057776	7033.814701	42037.456109	3837.049944	21524.692125
102.035500	0.026035	0.015739	0.030702	0.058741	7051.821612	42080.067622	3834.149527	21482.848648
102.591000	0.025340	0.014727	0.030973	0.058462	7047.645115	42013.685205	3835.647744	21494.952705
103.035500	0.026510	0.015711	0.033145	0.059565	7048.324630	42002.904354	3838.561536	21447.213962
103.538500	0.024912	0.015353	0.028043	0.060450	7023.434578	41890.633692	3822.333427	21408.985940
104.036500	0.023130	0.015619	0.031612	0.059882	7011.320812	41965.848612	3833.520518	21433.479994
104.536500	0.027115	0.015811	0.033860	0.060902	7040.963413	41891.029478	3836.863914	21389.455759
105.034500	0.027798	0.016300	0.034267	0.061552	7041.297315	41876.589054	3836.201098	21361.464082
105.537500	0.027221	0.015809	0.035058	0.063100	7020.018873	41693.050889	3834.139680	21294.956714
106.034500	0.026704	0.016664	0.033124	0.063006	7015.811595	41778.402307	3829.150803	21299.021209
106.535500	0.026159	0.016611	0.033916	0.062805	7012.372965	41791.710435	3831.841005	21307.632272
107.036000	0.024464	0.015415	0.031383	0.068701	6937.373899	41158.595987	3809.189130	21056.324331
107.538000	0.026512	0.015938	0.035092	0.064190	7002.109594	41606.925349	3831.275326	21248.301214
108.036000	0.026991	0.017227	0.034244	0.065216	6996.671008	41630.468469	3826.201774	21204.453974
108.538500	0.027081	0.017044	0.038137	0.065977	6990.013417	41546.035386	3834.693258	21172.018754
109.037000	0.023935	0.016233	0.026699	0.070128	6918.252729	41104.686145	3793.035557	20995.980905
109.534500	0.026833	0.016805	0.036420	0.066966	6977.757848	41436.284475	3827.351913	21129.910960
110.037000	0.028826	0.017778	0.032601	0.067071	6996.467989	41513.793540	3816.793743	21125.449698
110.537500	0.028144	0.017379	0.030809	0.067782	6982.650223	41414.715356	3810.105075	21095.251700
111.035500	0.025481	0.017472	0.031549	0.071675	6918.255546	41077.525037	3801.738976	20930.838778
111.535000	0.028146	0.016634	0.035757	0.068665	6973.942231	41269.912991	3820.986002	21057.837293
112.038000	0.030683	0.017387	0.038776	0.068613	6999.602609	41341.423277	3829.272745	21060.044278
112.536000	0.029393	0.017596	0.037539	0.069235	6980.640535	41304.740598	3824.248029	21033.729474
113.036000	0.025672	0.016925	0.031031	0.074245	6895.119791	40803.098157	3793.602733	20823.109490
113.536000	0.028316	0.017288	0.036466	0.070458	6957.941847	41168.816110	3818.073484	20982.057395
114.037000	0.029518	0.018450	0.035214	0.071720	6957.357543	41160.065840	3811.351748	20928.958469
114.537000	0.031408	0.018672	0.036290	0.071885	6974.366501	41165.056544	3813.782280	20922.019559
115.037000	0.030808	0.018074	0.039916	0.072362	6963.728960	41069.980196	3822.227941	20901.971783
115.535000	0.030810	0.018382	0.037533	0.073490	6952.651338	40997.605737	3812.813903	20854.673906
116.035000	0.030553	0.018808	0.036852	0.073365	6951.350710	41046.271163	3811.332657	20859.912718
116.538000	0.030423	0.018995	0.037521	0.073782	6945.983025	41025.927486	3812.004201	20842.473896
117.036000	0.029738	0.018973	0.038262	0.074335	6933.850385	40975.243107	3812.506310	20819.349415
117.536000	0.031476	0.019306	0.033900	0.075283	6941.584191	40921.047509	3798.416168	20779.736623
118.036500	0.030968	0.018084	0.037152	0.074813	6941.217630	40854.925306	3808.274838	20799.368720
118.537000	0.029645	0.019745	0.039208	0.076087	6915.833741	40888.953907	3810.356310	20746.249608
119.037000	0.031111	0.018593	0.036436	0.075878	6932.187099	40806.130131	3803.547954	20754.968806
119.537000	0.030858	0.019401	0.035070	0.076869	6920.029507	40790.058025	3797.320667	20713.721919
120.034500	0.029509	0.019323	0.041344	0.077077	6904.870747	40764.972523	3813.413768	20705.085590
120.535000	0.032961	0.019993	0.042528	0.078182	6927.743154	40726.859963	3813.624430	20659.259378
121.038000	0.030028	0.019409	0.041461	0.081811	6864.101017	40359.850631	3801.144086	20509.568008
121.536000	0.029830	0.019769	0.036208	0.078566	6893.535361	40673.682512	3795.850094	20643.357798
122.036000	0.031286	0.018873	0.039246	0.078691	6906.459228	40584.568597	3803.539605	20638.208208
122.536500	0.030092	0.019334	0.039889	0.079034	6891.538419	40594.812854	3804.332334	20623.995408
123.036500	0.034539	0.020123	0.043042	0.080351	6921.975607	40548.757964	3809.208892	20569.631293
123.536500	0.032418	0.020358	0.043195	0.080549	6899.403158	40552.029569	3809.090254	20561.483535
124.037000	0.032987	0.020488	0.039474	0.081293	6897.706472	40498.619737	3797.270402	20530.877818
124.537000	0.033011	0.020287	0.040128	0.081539	6895.553449	40459.689422	3798.345471	20520.758063
125.040500	0.030885	0.020740	0.041007	0.087277	6819.973538	40003.077170	3785.604717	20286.464322
125.538000	0.032013	0.021194	0.041401	0.083065	6871.145822	40405.928336	3797.677008	20458.149116
126.035500	0.032017	0.020366	0.039571	0.082810	6873.649200	40356.221967	3793.534584	20468.588538
126.535500	0.033615	0.020722	0.040094	0.083371	6883.660884	40338.453102	3793.432782	20445.596378
127.036000	0.030659	0.021523	0.038863	0.090072	6791.296674	39830.580343	3772.798739	20173.432333
127.536500	0.033886	0.021447	0.039732	0.085342	6867.256092	40230.611958	3787.327815	20365.129228
128.036500	0.035095	0.020895	0.040933	0.085240	6879.901444	40191.767905	3790.735969	20369.294579
128.536500	0.033312	0.021864	0.040750	0.085862	6856.728386	40221.670872	3788.626473	20343.939680
129.037000	0.031571	0.021341	0.043696	0.091100	6790.201240	39727.271898	3782.650799	20132.044608
129.537500	0.033944	0.021532	0.046021	0.086922	6852.612662	40101.657211	3799.689815	20300.848939
130.038000	0.033284	0.020732	0.045629	0.086214	6853.083426	40093.727314	3800.525905	20329.633692
130.535500	0.033487	0.021013	0.045903	0.086575	6851.569847	40086.850538	3800.294190	20314.964543
131.036000	0.030921	0.021496	0.049070	0.093657	6759.997556	39523.099320	3790.001475	20029.541530
131.536000	0.034790	0.023059	0.050094	0.089045	6840.375226	40050.365723	3804.849557	20214.888399
132.036000	0.034828	0.021817	0.044052	0.088179	6849.044680	40018.129133	3791.205767	20249.921591
132.536500	0.035348	0.023051	0.044707	0.089872	6837.806184	39978.648454	3788.491379	20181.521677
133.037000	0.033673	0.021971	0.046521	0.092080	6800.828059	39697.469420	3787.458536	20092.683865
133.537000	0.033673	0.022630	0.042337	0.089732	6823.148129	39954.586593	3782.676723	20187.169468
134.037500	0.033705	0.022820	0.046375	0.090234	6818.671773	39927.760021	3791.907280	20166.922161
134.537500	0.036117	0.023069	0.047568	0.091086	6833.548757	39876.177686	3792.801587	20132.624954
135.035500	0.029553	0.021909	0.041855	0.096249	6722.992207	39338.799009	3764.617482	19926.234728
135.534500	0.035865	0.023090	0.046961	0.091792	6824.407650	39817.561084	3789.363670	20104.272185
136.036000	0.035629	0.023234	0.047927	0.091964	6820.520193	39815.136476	3791.442818	20097.358333
136.536500	0.037841	0.022443	0.045366	0.091520	6845.901710	39785.562368	3785.907197	20115.192478
137.036000	0.035669	0.023649	0.048088	0.098908	6755.279938	39261.407187	3773.803713	19820.918840
137.536500	0.038089	0.023688	0.048494	0.093127	6832.893996	39754.642169	3789.879980	20050.750447
138.036500	0.038194	0.024290	0.045768	0.093508	6830.252768	39773.472596	3781.778285	20035.513799
138.537000	0.038510	0.024036	0.044805	0.094238	6826.303649	39689.630857	3777.389118	20006.359140
139.040500	0.034212	0.023247	0.043588	0.099626	6734.939368	39167.319835	3760.420128	19792.599615
139.535000	0.039632	0.023607	0.044142	0.094092	6838.424383	39665.560994	3776.049422	20012.182903
140.034500	0.037839	0.023816	0.049461	0.094483	6817.576733	39649.984356	3788.861114	19996.551413
140.536000	0.038213	0.024499	0.048656	0.095482	6811.631167	39623.094832	3784.155334	19956.745900
141.036000	0.032308	0.023279	0.048011	0.100965	6704.797841	39057.696239	3768.308820	19739.864662
141.536000	0.039008	0.024222	0.048096	0.095792	6816.247448	39573.306174	3781.893996	19944.429867
142.036000	0.038712	0.023976	0.045778	0.095691	6814.395570	39560.970948	3776.146508	19948.448911
142.536500	0.039305	0.024949	0.049353	0.096971	6807.862982	39534.950888	3782.094966	19897.598359
143.037000	0.034665	0.023212	0.042389	0.102500	6712.417563	38923.900002	3750.086392	19679.658224
143.540000	0.039541	0.023953	0.046401	0.097013	6809.706264	39446.981774	3774.338287	19895.917698
144.037500	0.039345	0.024062	0.049651	0.097431	6803.874485	39420.881569	3781.673178	19879.351422
144.535500	0.040692	0.025003	0.047058	0.097983	6811.422466	39453.750445	3773.532183	19857.481391
145.035500	0.035809	0.023887	0.050440	0.104383	6705.568514	38823.297289	3765.776107	19606.076376
145.536000	0.038704	0.025367	0.049597	0.098522	6787.479674	39439.018039	3778.704766	19836.179944
146.036000	0.039908	0.025042	0.048381	0.099255	6791.926978	39349.597218	3773.662388	19807.212659
146.539000	0.040017	0.025039	0.045329	0.099413	6791.460809	39335.965889	3765.413361	19800.990181
147.036500	0.034553	0.024046	0.045897	0.105665	6682.129589	38729.929181	3750.951849	19556.123284
147.537000	0.038891	0.024864	0.046944	0.099896	6776.271070	39280.517749	3768.316033	19781.935336
148.040000	0.039036	0.025006	0.048400	0.099955	6777.086309	39287.560897	3771.907445	19779.619942
148.535000	0.040572	0.024443	0.048736	0.100000	6791.169102	39236.369513	3772.659893	19777.868075
149.035000	0.037588	0.025240	0.047864	0.105460	6712.078077	38846.182488	3756.455900	19564.114050
149.535500	0.038882	0.025371	0.054549	0.101480	6761.294281	39190.012863	3783.883649	19719.658092
150.035500	0.040085	0.025551	0.051222	0.101474	6772.661239	39205.553721	3775.269931	19719.883784
150.536000	0.042704	0.026068	0.056364	0.102091	6791.557847	39197.197552	3787.022167	19695.696044
151.036500	0.037480	0.025310	0.045513	0.108145	6686.246301	38629.261007	3743.735957	19459.984783
151.536000	0.041975	0.026537	0.053385	0.103357	6772.715588	39130.247358	3775.991050	19646.103318
152.037000	0.043228	0.026871	0.053031	0.104036	6778.132484	39101.300116	3773.325945	19619.587454
152.539500	0.041990	0.025408	0.051055	0.103488	6771.626577	39024.704754	3769.648516	19640.981668
153.037000	0.039307	0.026854	0.051258	0.110825	6678.396286	38535.423377	3751.459139	19356.699068
153.535000	0.043081	0.026781	0.047464	0.104695	6770.539047	39038.672634	3757.384394	19593.906115
154.035000	0.044896	0.027541	0.055994	0.105817	6777.068671	39008.402061	3776.378739	19550.245469
154.535500	0.043845	0.028157	0.056029	0.106123	6764.295499	39034.284168	3775.677450	19538.337539
155.036000	0.040496	0.027213	0.056065	0.110629	6691.156019	38581.198168	3764.183660	19364.219165
155.536000	0.044685	0.026921	0.054790	0.106537	6768.300004	38896.547583	3771.414425	19522.265944
156.036000	0.045042	0.027501	0.054618	0.106678	6770.325603	38933.062464	3770.607426	19516.784110
156.537000	0.044099	0.028388	0.058224	0.107662	6752.246704	38925.058976	3777.375811	19478.685310
157.039500	0.040548	0.027613	0.053626	0.112890	6670.825429	38427.832961	3752.228267	19277.549600
157.537000	0.045804	0.028448	0.054267	0.108698	6758.505421	38843.706005	3764.523787	19438.608555
158.037000	0.043519	0.027431	0.053829	0.107775	6745.755422	38835.907048	3765.767465	19474.296727
158.535000	0.045107	0.028450	0.047825	0.108456	6754.247648	38864.061052	3748.773670	19447.968175
159.035500	0.042731	0.027372	0.050327	0.115225	6669.424848	38216.551573	3738.060818	19188.480498
159.535500	0.045447	0.029219	0.051083	0.109214	6750.322838	38864.871703	3755.095702	19418.694521
160.036000	0.047205	0.029371	0.052182	0.109657	6762.664773	38840.693716	3756.763872	19401.631494
160.536000	0.047939	0.028932	0.058593	0.109467	6771.348308	38820.040698	3773.663817	19408.956731
161.036500	0.044877	0.028519	0.053851	0.113383	6706.204598	38461.815145	3751.549821	19258.713382
161.539500	0.047718	0.029379	0.048871	0.110133	6763.012361	38801.772867	3747.183049	19383.308212
162.037000	0.049132	0.030061	0.052765	0.110884	6769.247164	38796.051769	3755.128168	19354.439712
162.537500	0.048220	0.030247	0.056422	0.111213	6757.583410	38784.215069	3763.605295	19341.810184
163.037500	0.047103	0.030066	0.051368	0.115382	6708.294378	38424.568845	3740.270774	19182.506335
163.535000	0.049320	0.030856	0.056845	0.111527	6764.954805	38808.661143	3763.881559	19329.726160
164.035500	0.050187	0.031022	0.056896	0.111773	6770.806001	38802.073052	3763.385148	19320.318293
164.535500	0.051465	0.030703	0.061207	0.112143	6779.350995	38744.836673	3773.503936	19306.123669
165.036000	0.046389	0.030462	0.059593	0.118267	6675.086760	38220.455098	3753.719496	19073.176306
165.535500	0.049385	0.030828	0.056868	0.112069	6760.478202	38761.359954	3762.557269	19308.964090
166.039500	0.051073	0.030457	0.055002	0.111734	6779.512116	38758.319173	3758.651431	19321.797901
166.536500	0.051460	0.030745	0.052593	0.112099	6779.722547	38752.010247	3751.614889	19307.822050
167.036000	0.046627	0.030317	0.054157	0.118382	6676.219745	38199.246718	3739.745668	19068.848213
167.537000	0.053550	0.031981	0.057218	0.112722	6793.577813	38802.837395	3761.782202	19283.960682
168.035000	0.052039	0.030664	0.057288	0.112253	6783.741331	38732.484051	3763.158701	19301.925584
168.535500	0.052898	0.031742	0.055508	0.112868	6786.036799	38770.858766	3757.053579	19278.369806
169.034500	0.049144	0.030401	0.051020	0.118142	6701.635403	38225.658865	3732.520326	19077.893643
169.536000	0.052791	0.031256	0.056105	0.112847	6785.224919	38732.321031	3758.626109	19279.177019
170.036000	0.052986	0.031268	0.054239	0.112387	6791.418812	38771.489257	3755.053030	19296.780173
170.539000	0.054601	0.031901	0.058428	0.113273	6798.316627	38750.498994	3763.466070	19262.903310
171.036500	0.050390	0.032089	0.057954	0.118882	6706.330787	38303.350506	3748.023632	19049.989105
171.537000	0.052343	0.031768	0.056151	0.113561	6774.273980	38715.546179	3756.928642	19251.919097
172.037500	0.056315	0.032588	0.054165	0.113475	6812.662668	38790.757822	3752.109853	19255.175898
172.535000	0.051856	0.031761	0.055006	0.112765	6777.178110	38780.986017	3756.041771	19282.312656
173.035000	0.050589	0.032283	0.054338	0.119722	6700.390409	38250.437479	3736.848108	19018.318357
173.535000	0.054031	0.032130	0.057096	0.113585	6789.970551	38743.621247	3759.270369	19250.988673
174.036000	0.054996	0.032976	0.058480	0.114129	6793.948228	38768.596573	3761.412399	19230.213428
174.536000	0.054808	0.032485	0.054328	0.114005	6793.348410	38738.177097	3751.183701	19234.966648
175.039000	0.053630	0.032222	0.060369	0.116318	6760.446926	38525.051366	3760.646352	19146.958855
175.536500	0.054660	0.032257	0.059736	0.113938	6792.580998	38724.867450	3765.112378	19237.529157
176.036500	0.054087	0.032268	0.055673	0.113882	6787.694057	38730.358035	3754.898106	19239.639313
176.537000	0.055088	0.032810	0.058291	0.114181	6794.334257	38750.512617	3760.797368	19228.239506
177.037500	0.051222	0.032683	0.053197	0.118851	6714.333425	38354.631923	3736.177322	19051.159815
177.537500	0.057336	0.034134	0.056727	0.115340	6804.647925	38764.250460	3753.876383	19184.114714
178.035000	0.056229	0.033983	0.059703	0.115355	6794.022390	38750.516499	3761.404067	19183.548177
178.535500	0.056826	0.033891	0.061185	0.115656	6796.817525	38717.813078	3764.420780	19172.084030
179.035500	0.050628	0.032313	0.054094	0.120005	6698.141584	38229.773750	3735.535989	19007.683595
179.539000	0.057117	0.033034	0.060557	0.115189	6804.004874	38685.509379	3764.009577	19189.849979
180.035500	0.055831	0.033204	0.060471	0.115654	6787.435503	38661.126788	3762.603557	19172.196769
180.536500	0.055976	0.033407	0.054939	0.115623	6789.091871	38680.521001	3748.638731	19173.362485
181.037000	0.054875	0.033051	0.058365	0.119808	6739.426495	38306.290230	3746.728193	19015.106106
181.537000	0.056497	0.033672	0.063644	0.115794	6792.404560	38688.318951	3770.377072	19166.866725
182.037500	0.058687	0.034184	0.052489	0.116561	6805.886496	38667.178650	3740.127573	19137.759808
182.535000	0.057606	0.034218	0.061914	0.116200	6799.059681	38699.873630	3764.895398	19151.452777
183.040500	0.054792	0.033492	0.055380	0.120514	6732.063994	38284.532145	3737.473364	18988.532821
183.536000	0.055489	0.032731	0.055630	0.115480	6785.838523	38636.356175	3750.745680	19178.795530
184.039000	0.058384	0.034605	0.060490	0.117007	6798.776126	38665.088358	3759.198398	19120.838429
184.535500	0.057571	0.034954	0.058416	0.117207	6789.191627	38677.398572	3753.422576	19113.255857
185.036500	0.058202	0.035494	0.057243	0.121512	6754.611936	38366.881126	3739.633279	18951.082526
185.536500	0.057900	0.034076	0.059182	0.116636	6797.707421	38652.026820	3756.815186	19134.899439
