sample name	sample
index	476
start time	 03-11-2021  12:46:03 PM
880	0.070501
Peak Time (s)	91.539
Peak Height 	0.0705
calc peak height	90,93
Baseline Time (s)	11.537
Baseline Value 	-0.003303
subtract baseline	10,4
Abs	0.027656
Peak Time (s)	91.539
Peak Height 	0.02766
calc peak height	90,93
Baseline Time (s)	9.038
Baseline Value 	0.002328
subtract baseline	10,3
PK_550	0.019186
Peak Time (s)	90.535
Peak Height 	0.01919
calc peak height	90,93
Baseline Time (s)	9.038
Baseline Value 	7.1919E-4
subtract baseline	10,2
PK_880	0.028827
Peak Time (s)	90.535
Peak Height 	0.02883
calc peak height	90,93
Baseline Time (s)	9.536
Baseline Value 	0.002719
subtract baseline	10,1


Time (s)	A880-A510	A880-A775	A880-A975	A880	I510	I775	I975	I880	
0.036000	-0.004303	-0.000781	-0.004409	0.005817	7013.036323	45239.688837	3950.897736	24043.227042
0.536500	-0.004727	-0.001129	-0.007512	0.004835	7018.375943	45301.463738	3945.452126	24091.198725
1.037000	-0.002302	-0.000514	-0.005723	0.004060	7049.091449	45437.396043	3952.039078	24129.121524
1.536500	-0.001753	0.000015	0.001125	0.001253	7081.546428	45765.151731	3977.202924	24267.035154
2.037500	-0.004183	0.000518	-0.004734	0.005686	7015.445281	45379.316458	3950.400362	24049.657134
2.537500	-0.001129	-0.000606	0.000835	0.000754	7092.461249	45753.120883	3977.753265	24291.638975
3.038000	-0.001504	-0.000299	0.003290	-0.002023	7115.908969	46058.303495	3991.630112	24429.102780
3.535000	-0.000573	0.000322	0.000213	0.000728	7098.134476	45847.343001	3976.184214	24292.937404
4.038500	-0.002763	-0.001003	-0.002989	0.004717	7038.331622	45325.351464	3957.406246	24096.970025
4.536000	0.000333	-0.000091	-0.003713	0.000445	7109.734296	45834.481928	3966.632000	24306.889852
5.036000	-0.000149	0.000185	0.000865	0.000622	7103.301562	45844.289860	3978.181837	24298.176185
5.540000	-0.000825	-0.000280	0.001090	0.000457	7098.321734	45814.710113	3979.211668	24306.321269
6.039500	-0.000268	0.000182	0.002036	0.000389	7104.414933	45867.031192	3981.888874	24309.660549
6.559500	-0.001226	-0.000756	-0.004479	-0.000529	7104.021987	45865.094361	3967.175284	24355.065392
7.040500	0.001274	-0.000237	0.000786	0.000192	7121.417073	45845.016281	3979.105287	24319.368438
7.538000	0.000191	-0.000398	-0.000279	-0.000550	7118.083237	45902.575038	3978.256665	24356.099566
8.035500	-0.001653	-0.000356	0.001481	0.000026	7094.449001	45849.755378	3981.381274	24327.597115
8.538000	0.000392	-0.000002	0.004288	0.000197	7112.739861	45867.843105	3988.376193	24319.150718
9.038000	0.000233	0.000000	0.000000	0.000206	7111.097722	45867.084842	3976.996686	24318.690781
9.536000	0.000000	0.000905	-0.000082	0.000327	7107.640168	45944.779669	3976.463627	24312.745496
10.036500	-0.000553	-0.000711	-0.005571	-0.000659	7111.867308	45882.244784	3964.664948	24361.460863
10.550500	-0.001764	0.000221	-0.002499	-0.000166	7095.235682	45925.767325	3971.406755	24337.070108
11.036500	0.001601	0.000386	0.003671	-0.000104	7127.534234	45936.004881	3987.533734	24334.013887
11.537500	-0.001501	-0.000114	0.001103	0.000000	7096.178642	45876.175105	3980.451662	24328.880474
12.038000	-0.000042	-0.000485	0.001114	-0.000754	7117.796619	45914.080095	3982.473109	24366.162016
13.077000	-0.001976	-0.000290	-0.000243	-0.000127	7092.791643	45871.359214	3977.235545	24335.158692
13.703000	-0.003925	-0.000713	-0.000023	0.004807	7026.322848	45344.915655	3964.878330	24092.574492
13.809500	-0.002316	-0.000322	-0.002581	0.003656	7052.852766	45495.709841	3961.215997	24148.912743
14.035500	0.000624	-0.000339	0.000260	0.000252	7114.463772	45829.009617	3977.560936	24316.408955
14.536000	-0.001897	-0.000465	-0.000058	0.002080	7072.135353	45636.465198	3971.917953	24226.314798
15.036000	-0.002352	-0.000339	-0.005595	0.002257	7066.015869	45631.493318	3957.027285	24217.613404
15.537000	-0.001726	0.000180	0.001800	0.000474	7089.379792	45858.400343	3981.042128	24305.465052
16.039500	-0.001295	-0.000762	0.003453	0.000025	7097.946773	45809.611523	3986.609837	24327.622472
16.537000	0.000069	-0.000099	0.001197	0.000099	7110.538814	45867.838180	3980.437081	24323.971829
17.038000	0.001715	0.000354	-0.003565	0.000550	7122.231175	45868.071092	3966.742822	24301.686295
17.535000	-0.002116	-0.000425	0.005864	0.000182	7088.421120	45827.516858	3992.615548	24319.886459
18.038000	0.000072	-0.000127	0.005716	-0.002976	7140.732763	46170.235299	4000.682988	24476.487588
18.536000	-0.001836	-0.000110	0.000245	0.001311	7080.183298	45747.199172	3974.735192	24264.182850
19.036000	-0.002518	-0.000464	-0.001557	0.000779	7078.722439	45764.714105	3971.399767	24290.412044
19.536000	-0.001366	-0.000142	0.000121	0.001259	7085.247665	45749.053312	3974.543466	24266.724333
20.036500	-0.001720	-0.000059	0.000069	0.001307	7081.343508	45752.565465	3974.280198	24264.367153
20.536500	-0.002348	-0.000004	0.001347	0.001288	7075.437518	45759.865621	3977.696322	24265.306842
21.037000	-0.001199	-0.000292	-0.006113	0.001257	7086.893262	45734.571762	3958.276505	24266.854401
21.534500	-0.000092	0.000347	-0.001891	0.001804	7092.335801	45743.566993	3967.840578	24239.897226
22.034500	-0.002650	-0.000415	-0.004079	0.000750	7077.722609	45772.318695	3964.880137	24291.830978
22.535000	-0.000425	-0.000810	0.001202	0.001076	7096.183386	45701.315707	3977.871387	24275.741481
23.035500	-0.000819	0.000013	0.000391	0.001408	7089.115259	45749.707882	3974.863074	24259.402677
23.536000	-0.002953	-0.000454	-0.000546	0.000896	7073.367798	45754.175614	3973.745177	24284.639391
24.036000	-0.001484	-0.001141	-0.002103	0.000633	7090.186978	45712.318795	3970.349417	24297.606609
24.536000	-0.002726	-0.000908	-0.001102	0.000895	7075.575219	45709.436877	3972.287085	24284.678855
25.039500	-0.002146	0.000812	0.001609	0.002259	7067.988650	45744.534126	3975.828146	24217.500994
25.537000	-0.001900	-0.000258	-0.001450	0.001755	7075.250655	45688.862523	3969.123401	24242.314384
26.037500	0.000057	-0.000004	-0.000777	0.001941	7092.457692	45695.548575	3970.397650	24233.167374
26.535000	-0.002008	-0.000187	0.000336	0.001510	7076.581076	45719.935250	3974.449995	24254.360656
27.040500	-0.001371	0.000376	-0.000469	0.001876	7079.202540	45739.280829	3971.373171	24236.323556
27.535500	-0.002366	-0.000426	-0.002869	0.001284	7075.294875	45718.601390	3966.643499	24265.494246
28.036000	-0.000850	0.000159	0.000335	0.003326	7070.205805	45575.364552	3969.681936	24165.098046
28.535500	0.000037	-0.000187	-0.002931	0.000406	7107.222963	45828.862857	3968.777714	24308.816186
29.036500	0.000836	-0.000513	0.004446	0.000123	7117.810305	45824.628788	3988.991533	24322.801002
29.536500	-0.000761	-0.000098	0.002952	0.000408	7099.420973	45837.406528	3984.265390	24308.723717
30.037500	-0.000943	-0.000353	-0.001794	0.005703	7046.347600	45292.463856	3957.946603	24048.790216
30.537000	-0.000157	-0.000268	-0.000063	0.000704	7102.427181	45791.469541	3975.519435	24294.121679
31.038000	-0.001464	-0.000357	-0.004666	0.000382	7092.819411	45814.387442	3964.309432	24310.000309
31.537500	-0.002234	0.000238	0.000776	0.003496	7055.180546	45566.347788	3970.390885	24156.739903
32.035500	-0.001961	0.000491	-0.002700	0.003454	7058.222180	45595.387791	3961.432374	24158.816369
32.535500	-0.000228	0.000222	-0.001071	0.000581	7102.931098	45852.012114	3973.194681	24300.197454
33.036000	-0.001341	-0.000198	-0.003059	0.000557	7092.316038	45812.871757	3968.048332	24301.379957
33.536000	-0.000674	0.000666	-0.000973	0.001397	7090.630123	45815.196096	3971.308861	24259.930140
34.036000	-0.001667	-0.000242	-0.002369	0.004286	7053.035380	45441.824572	3960.129722	24118.054709
34.536000	-0.001190	0.000229	-0.000069	-0.001530	7114.149484	46061.869261	3981.396078	24404.636343
35.037000	-0.002189	0.000129	0.002568	0.002269	7067.479990	45676.350818	3978.329014	24217.021663
35.537500	-0.000005	0.000453	0.000668	0.003301	7078.638790	45606.641040	3970.619139	24166.322955
36.035000	-0.002883	-0.000006	-0.001276	0.002764	7055.985064	45614.260058	3966.939593	24192.674099
36.535000	-0.001172	0.000633	-0.004022	0.003353	7066.828935	45619.216063	3958.262303	24163.772513
37.035000	-0.002683	0.000293	0.002449	0.003285	7052.891947	45592.520467	3975.339637	24167.106408
37.535500	-0.000710	-0.000531	0.001873	0.002854	7076.126074	45553.895062	3974.956768	24188.245510
38.035500	-0.000921	-0.000016	-0.002204	0.002835	7074.272960	45606.381284	3964.332946	24189.198221
38.536500	-0.002424	-0.000113	0.003803	0.002863	7059.460405	45594.074000	3980.022126	24187.825700
39.036500	-0.001435	0.000208	-0.001422	0.003048	7067.226772	45607.417101	3965.816962	24178.714250
39.536500	-0.000884	-0.000117	-0.004296	0.002548	7077.413658	45624.650764	3959.642418	24203.318071
40.037000	-0.002421	-0.000001	-0.002560	0.002612	7061.909829	45629.686365	3963.986209	24200.131147
40.534500	-0.003076	-0.000507	0.004000	0.002529	7056.389966	45588.213136	3981.424860	24204.236099
41.034500	-0.001642	0.000235	0.001364	0.002719	7068.415934	45642.477729	3973.974482	24194.915798
41.535000	-0.002301	-0.000324	-0.004188	0.002962	7059.693761	45563.640865	3958.846763	24182.961094
42.035500	-0.001435	-0.000041	-0.001422	0.003006	7067.639233	45587.068060	3965.927406	24180.786476
42.535500	-0.000783	0.000078	0.002821	0.003122	7072.826232	45587.359126	3976.746122	24175.105927
43.036000	-0.000975	-0.000695	0.001489	0.002296	7078.974175	45592.632364	3975.416875	24215.704370
43.536500	-0.003367	-0.000748	-0.003552	0.001948	7059.188857	45621.556827	3963.132630	24232.782314
44.037000	-0.002957	0.000091	0.000319	0.002823	7054.693231	45617.987893	3970.956856	24189.760518
44.542000	-0.001511	0.000083	-0.003648	0.002265	7074.071621	45672.086517	3962.056511	24217.186140
45.037000	-0.000185	0.000461	0.004306	-0.001981	7128.424179	46129.667569	3994.232248	24427.017141
45.537500	0.001147	0.001057	-0.001096	0.002503	7097.591131	45744.684677	3968.092123	24205.500868
46.035000	-0.001315	0.000262	-0.003017	0.003587	7063.173846	45559.744975	3960.262561	24152.289471
46.535000	0.000187	0.000421	0.003103	0.001456	7098.443032	45785.181269	3981.889545	24257.016352
47.035500	0.000627	0.000685	0.001298	0.001452	7102.780847	45811.671529	3977.134482	24257.238012
47.536000	-0.001400	-0.000908	0.001249	0.000877	7088.624041	45711.249415	3978.521362	24285.556915
48.036000	-0.002097	-0.000549	0.000668	0.003291	7058.486960	45509.282833	3970.646492	24166.830476
48.536500	-0.002596	0.000467	0.000518	0.003907	7047.738250	45548.554496	3968.641122	24136.628293
49.037000	-0.002105	0.000040	-0.000410	0.001608	7074.687794	45732.616145	3972.231932	24249.544801
49.537000	-0.001666	-0.001482	-0.000094	0.000120	7093.408854	45729.371566	3976.976924	24322.972399
50.037500	-0.003398	-0.000245	0.003406	0.002233	7056.135859	45643.072790	3980.635436	24218.774942
50.535000	0.000451	0.000468	0.003498	-0.000993	7124.966526	46032.230388	3989.440607	24378.020097
51.035000	0.000986	0.000110	0.003040	-0.001175	7132.010096	46014.875399	3988.704976	24387.064199
51.535500	-0.001128	0.000315	0.000601	0.001985	7080.504157	45722.598538	3973.898293	24230.971492
52.036000	-0.002345	0.000230	0.002675	0.001273	7075.603036	45784.403083	3981.239346	24266.021319
52.536000	-0.026286	-0.010981	0.008621	0.308461	4829.456417	23514.119633	3406.700538	13412.578253
53.036500	-0.034155	-0.005191	-0.030510	0.097481	6000.706351	36841.817789	3685.322407	20012.640787
53.536000	-0.036892	-0.042504	-0.042511	-0.187276	8867.608904	62885.313765	4430.447487	35903.209335
54.036500	-0.044522	-0.167891	-0.030457	-0.331443	11085.003510	65535.000000	5122.126704	48911.816970
54.539500	-0.046512	-0.136155	-0.023051	-0.299707	10470.852845	65535.000000	4997.401066	45666.677208
55.037000	-0.049181	-0.125841	-0.024915	-0.289393	10246.841396	65535.000000	4937.540165	44662.046327
55.535000	-0.036557	-0.113031	-0.021594	-0.276582	10243.668138	65535.000000	4892.050850	43447.002808
56.035000	-0.034066	-0.100032	-0.024711	-0.263584	10067.308127	65535.000000	4817.034275	42250.251976
56.535500	-0.019398	-0.109390	-0.018553	-0.272942	10476.969265	65535.000000	4889.209924	43108.240850
57.036000	-0.013821	-0.079038	-0.016286	-0.242590	10054.877603	65535.000000	4760.426535	40391.397109
57.536000	-0.007693	-0.055371	-0.013043	-0.212956	9676.093140	64680.536769	4646.773636	37915.886095
58.036500	-0.000494	-0.045613	-0.011129	-0.200348	9591.792588	64276.690509	4602.649477	36912.827375
58.536500	-0.004166	-0.013542	-0.012457	-0.132143	8565.784134	59378.784864	4340.797038	31963.822944
59.037000	-0.003079	-0.006377	-0.014665	-0.099160	8162.119106	56120.443090	4223.417789	29835.383084
59.537500	-0.005324	-0.007405	-0.011778	-0.093975	8072.263018	55364.757858	4216.077339	29515.241726
60.034500	-0.007736	-0.006982	-0.013271	-0.081935	7901.835332	53980.586824	4173.633743	28786.413474
60.535000	-0.005710	-0.003814	-0.007858	-0.062188	7700.463181	52068.343662	4130.100205	27634.002151
61.035500	-0.007543	-0.001152	-0.005071	-0.035196	7389.952849	49390.802564	4059.768306	26141.138225
61.535500	-0.008530	0.001390	-0.005295	-0.008392	7109.474457	46866.143069	3985.732054	24747.739203
62.035500	-0.005771	0.002640	-0.003614	0.002371	7031.978782	45914.163445	3961.873185	24212.012003
62.549000	0.000052	0.004665	0.009563	0.009341	7020.988959	45427.435620	3978.127510	23872.079882
63.052000	0.007927	0.010367	0.002438	0.020610	6988.637688	44886.033574	3930.624787	23333.855511
63.536500	0.013196	0.012457	0.000243	0.011443	7128.004158	45987.874913	3948.393271	23770.604387
64.037000	0.014990	0.011583	0.007175	0.014146	7119.088650	45634.728687	3959.310329	23640.879482
64.538000	0.018487	0.012934	0.004605	0.013333	7161.523939	45848.094911	3954.764139	23679.826105
65.034500	0.018751	0.013444	0.001618	0.015334	7144.370362	45700.960351	3941.948625	23584.120106
65.535000	0.020120	0.014790	0.004680	0.019490	7116.999413	45425.077205	3939.157894	23386.747243
66.035500	0.022767	0.015464	0.008564	0.021783	7120.468183	45266.903046	3943.220240	23278.663272
66.536000	0.022137	0.014956	0.009561	0.023747	7095.122240	45026.600075	3940.750632	23186.534854
67.035500	0.021147	0.015098	0.011802	0.025638	7067.159132	44857.384027	3941.642529	23098.225292
67.536500	0.019291	0.014689	0.010900	0.028704	7019.804737	44523.203380	3931.556207	22955.847573
68.036500	0.022205	0.015390	0.007723	0.031188	7023.914087	44352.644849	3917.324672	22841.213850
68.537000	0.020809	0.014504	0.015280	0.031477	7007.814294	44240.771840	3935.630345	22827.945465
69.037500	0.021999	0.014970	0.013805	0.033879	6996.268428	44057.010303	3925.826897	22717.790053
69.535000	0.022360	0.016486	0.010505	0.038233	6958.453867	43789.022849	3906.732110	22519.700758
70.035000	0.023314	0.016446	0.016158	0.040156	6949.337019	43604.791954	3915.997232	22432.867610
70.535000	0.025414	0.016695	0.018252	0.041884	6952.835237	43466.498559	3916.909338	22355.154880
71.036000	0.023305	0.016295	0.012485	0.043492	6918.004650	43279.520825	3898.655202	22283.110572
71.536000	0.025353	0.017811	0.011322	0.047205	6902.498597	43075.857301	3886.754652	22117.770900
72.036000	0.024725	0.018501	0.018361	0.048611	6883.623383	43009.646162	3900.511277	22055.486760
72.536000	0.026170	0.018780	0.018127	0.049640	6887.482381	42940.533276	3897.413040	22010.077226
73.039000	0.026434	0.018423	0.016595	0.050172	6884.999606	42858.761356	3892.364878	21986.656840
73.536500	0.024854	0.019481	0.017950	0.053155	6842.984091	42682.070579	3888.399755	21855.708647
74.037000	0.027535	0.020106	0.012570	0.053518	6864.273254	42706.073919	3874.530810	21839.845872
74.534500	0.027837	0.020262	0.024187	0.054112	6861.588794	42666.032182	3901.313318	21813.918534
75.035000	0.029453	0.021097	0.015275	0.055649	6862.318508	42601.819837	3875.910098	21746.962576
75.535500	0.027425	0.020801	0.016471	0.057632	6825.566426	42394.091435	3874.019389	21660.903647
76.035500	0.028389	0.021306	0.013063	0.057771	6833.092124	42427.374902	3865.549612	21654.884330
76.536000	0.030458	0.021846	0.016739	0.058724	6843.312559	42389.903142	3872.048429	21613.704945
77.036000	0.030892	0.021929	0.016728	0.059870	6836.791829	42293.415992	3869.282194	21564.287465
77.537000	0.031325	0.021742	0.020653	0.060862	6831.690159	42186.712693	3876.307839	21521.623691
78.037000	0.030279	0.021687	0.015595	0.062262	6809.403637	42055.357471	3860.903185	21461.545940
78.537000	0.028271	0.020665	0.020008	0.061467	6798.402499	42034.872985	3873.306670	21495.615980
79.034500	0.029787	0.020854	0.019591	0.062530	6802.504735	41956.232375	3869.764919	21450.056612
79.535000	0.029863	0.021448	0.021959	0.063428	6795.066292	41928.892371	3873.282329	21411.664046
80.035500	0.028414	0.021407	0.020818	0.065103	6766.901498	41775.169466	3866.557133	21340.271647
80.535500	0.030513	0.021848	0.020938	0.065348	6783.587918	41792.646294	3866.260213	21329.825666
81.035500	0.031221	0.021316	0.023595	0.065560	6788.063632	41726.105966	3872.093426	21320.815345
81.536000	0.029512	0.021084	0.021757	0.065981	6768.876453	41667.837286	3866.702968	21302.933915
82.036000	0.032089	0.020956	0.023593	0.066538	6787.076600	41606.854688	3869.752078	21279.317646
82.537000	0.029178	0.020964	0.017418	0.066812	6758.414806	41583.099055	3854.467851	21267.683905
83.037000	0.028813	0.020897	0.022357	0.067302	6750.763709	41533.586065	3864.987237	21246.931910
83.537500	0.029846	0.021222	0.022398	0.068301	6751.059469	41473.631228	3862.712903	21204.681561
84.035000	0.028195	0.020682	0.027040	0.068141	6737.747843	41439.978984	3874.165585	21211.452711
84.535000	0.026833	0.020085	0.018161	0.067559	6730.802349	41438.626081	3854.457334	21236.059809
85.035000	0.029390	0.019726	0.020997	0.067554	6753.668284	41407.197266	3861.162389	21236.252415
85.535500	0.025443	0.019981	0.022181	0.069342	6702.655886	41271.662247	3859.734266	21160.769652
86.036000	0.028377	0.019306	0.021606	0.068358	6737.440375	41298.979967	3860.702730	21202.292952
86.536500	0.027468	0.018871	0.023646	0.068150	6731.185956	41278.843329	3866.035642	21211.044067
87.039500	0.028288	0.019755	0.024644	0.068813	6732.587279	41298.426618	3866.833621	21183.070285
87.536500	0.027424	0.019131	0.020966	0.069677	6717.227278	41167.211857	3856.075015	21146.663970
88.037000	0.025092	0.019095	0.021849	0.068741	6704.865086	41246.425244	3860.370195	21186.095375
88.537000	0.027313	0.019279	0.021618	0.069021	6722.061352	41237.992975	3859.160480	21174.289421
89.035000	0.026476	0.018930	0.021931	0.068784	6716.738727	41228.137344	3860.462840	21184.294116
89.535000	0.025294	0.018762	0.022310	0.070821	6688.291169	41034.089380	3856.544968	21098.527992
90.035500	0.024734	0.018155	0.022942	0.068739	6701.721374	41163.805375	3862.964000	21186.179298
90.535500	0.028827	0.019186	0.027630	0.069872	6727.959090	41154.824775	3871.431815	21138.434031
91.036000	0.025836	0.017549	0.022910	0.068132	6716.845647	41163.820884	3864.329379	21211.804385
91.539000	0.024437	0.017465	0.027656	0.070501	6683.576812	40948.570125	3869.992193	21111.996169
92.036500	0.026761	0.017797	0.024868	0.069029	6717.100200	41106.820768	3866.853382	21173.968458
92.537000	0.023930	0.017073	0.024667	0.068355	6698.012134	41102.462753	3867.980075	21202.414749
93.037500	0.025792	0.016797	0.022057	0.068305	6714.917087	41082.501807	3861.894181	21204.495003
93.537500	0.023410	0.016346	0.024362	0.070359	6675.795574	40863.075993	3862.490363	21117.946870
94.035000	0.024710	0.016483	0.024953	0.068611	6702.638840	41028.102227	3868.050772	21191.577751
94.535000	0.026742	0.016102	0.027180	0.068108	6725.098835	41038.716525	3874.578595	21212.813622
95.035500	0.023460	0.016217	0.026660	0.068180	6695.413397	41042.636804	3873.160611	21209.807633
95.536000	0.025443	0.016335	0.026799	0.071353	6684.933469	40775.339022	3865.918055	21076.221822
96.038500	0.027389	0.016806	0.027295	0.069459	6718.856769	40982.059111	3871.618447	21155.840096
96.536500	0.024968	0.015102	0.022350	0.068334	6707.366092	40931.362977	3862.520711	21203.277008
97.037000	0.025909	0.015816	0.027254	0.068957	6710.191119	40939.350296	3872.722589	21177.006394
97.537000	0.023834	0.016392	0.028215	0.071942	6665.646089	40729.029778	3867.885778	21051.527097
