sample name	sample
index	559
start time	 03-16-2021  02:08:03 PM
880	0.018042
Peak Time (s)	182.794
Peak Height 	0.01804
calc peak height	180,183
Baseline Time (s)	8.537
Baseline Value 	-0.007216
subtract baseline	10,4
Abs	0.014691
Peak Time (s)	182.036
Peak Height 	0.01469
calc peak height	180,183
Baseline Time (s)	10.036
Baseline Value 	0.00193
subtract baseline	10,3
PK_550	0.005680
Peak Time (s)	180.042
Peak Height 	0.00568
calc peak height	180,183
Baseline Time (s)	9.037
Baseline Value 	5.5581E-4
subtract baseline	10,2
PK_880	0.007274
Peak Time (s)	180.538
Peak Height 	0.007274
calc peak height	180,183
Baseline Time (s)	10.036
Baseline Value 	0.002877
subtract baseline	10,1


Time (s)	A880-A510	A880-A775	A880-A975	A880	I510	I775	I975	I880	
0.035000	-0.002516	-0.000986	0.004137	0.000299	5529.909468	34097.756596	3543.319583	18437.459150
0.535500	-0.002093	-0.000735	0.005630	0.004531	5505.283554	33811.550970	3537.921087	18284.830974
1.036000	-0.002089	0.000184	-0.002120	0.007158	5488.454837	33689.566402	3517.776087	18190.852051
1.536500	-0.000246	-0.000502	-0.000927	-0.000530	5550.105271	34192.751297	3534.986707	18467.535924
2.036000	-0.000404	-0.000471	0.001132	-0.000191	5546.853651	34170.425820	3538.360227	18455.224015
2.536500	0.001138	0.000446	0.007860	0.001739	5544.322209	34097.227821	3547.844601	18385.375503
3.036500	-0.006067	-0.000415	0.000927	0.002288	5494.165763	33995.471371	3533.100353	18365.539855
3.537000	0.000991	0.000743	0.005470	0.001504	5544.897867	34135.625148	3543.572401	18393.855139
4.040000	0.000946	0.000367	0.005006	0.000860	5548.809238	34155.029103	3543.927935	18417.141485
4.535000	0.001644	0.001110	-0.001379	0.001956	5546.206450	34129.514161	3529.254091	18377.529845
5.035500	0.001377	0.000316	0.004911	0.001130	5549.861737	34131.815301	3543.207487	18407.391184
5.536000	-0.000393	-0.000018	0.004862	0.000348	5543.410821	34164.215716	3544.655440	18435.684991
6.035500	0.001373	0.000854	0.001618	0.000466	5554.185125	34218.854982	3538.026573	18431.431410
6.536000	0.000594	0.000313	0.005744	0.000645	5547.915884	34166.729480	3545.816389	18424.949695
7.036500	-0.001788	-0.000679	0.001099	0.000050	5536.258898	34137.977851	3537.823863	18446.498105
7.536000	0.000786	0.000275	0.001840	0.001167	5545.756537	34126.201466	3537.084412	18406.045616
8.037000	0.001630	-0.000168	0.003119	0.000287	5557.043453	34157.824026	3541.332856	18437.914751
8.536500	0.000257	-0.000519	-0.003040	0.000000	5549.925078	34153.108111	3529.827499	18448.307544
9.037500	-0.000128	0.000000	0.000481	0.000542	5543.874618	34151.511768	3535.645392	18428.681046
9.535000	0.000357	0.000520	-0.003192	-0.000009	5550.643626	34229.110152	3529.549893	18448.649321
10.035500	0.000000	0.000411	0.000000	0.000411	5545.562757	34190.684864	3534.959354	18433.408037
10.535500	-0.000353	-0.000110	-0.001422	-0.000216	5547.352776	34198.433595	3533.403883	18456.151217
11.035500	-0.002004	-0.001076	0.002971	-0.000953	5541.389373	34181.830058	3543.490740	18482.921445
11.536000	0.000350	0.000718	0.002202	0.000658	5546.237331	34195.121963	3538.796527	18424.479026
12.036000	0.001794	0.000882	0.002759	0.000388	5557.446082	34226.463911	3540.423521	18434.228998
12.536000	-0.000512	0.000848	0.002390	0.000519	5541.512548	34214.519197	3539.438463	18429.483088
13.037500	0.001914	0.000284	0.004016	-0.001851	5572.958261	34345.718485	3547.339480	18515.572911
13.537000	0.003288	0.001478	0.005256	0.000567	5566.089103	34256.829480	3545.003675	18427.768730
14.035000	-0.000723	0.000885	0.000499	-0.000226	5545.000390	34271.288562	3537.186059	18456.504213
14.535000	-0.001447	0.000620	0.005729	0.002419	5523.091941	34060.688862	3542.276446	18360.827604
15.035500	-0.000601	0.000951	0.001520	-0.000387	5546.849303	34287.800399	3539.510365	18462.362147
15.555500	-0.000234	0.000247	0.004176	0.000224	5545.256029	34192.337183	3543.543999	18440.180752
16.036500	0.002923	0.000404	0.003073	-0.001121	5574.806582	34301.411130	3544.024780	18489.030879
16.536000	0.003109	0.001266	0.005633	-0.000683	5573.136823	34332.223350	3548.232806	18473.087124
17.037000	-0.001022	-0.000130	0.007586	-0.001883	5553.877804	34317.962756	3554.525765	18516.743018
17.536500	0.002842	0.001200	0.002447	0.000275	5565.074253	34257.835908	3540.032682	18438.349653
18.037500	-0.000724	0.000448	0.004193	0.000464	5540.499033	34189.626873	3543.105082	18431.506915
18.534500	-0.000763	0.000721	0.002288	0.001302	5534.785192	34148.698552	3537.700492	18401.173816
19.035000	0.000821	0.000252	0.000779	0.001217	5545.660487	34120.913452	3534.906698	18404.244266
19.535000	-0.000570	0.001303	0.001576	0.001541	5534.480243	34173.421886	3535.832850	18392.506745
20.038500	0.001357	0.000639	0.004104	0.001131	5549.724134	34155.080665	3541.611288	18407.345519
20.536000	0.000693	0.001192	0.001897	0.001431	5543.429102	34173.395958	3536.677856	18396.508131
21.036000	0.001684	0.000683	0.005922	0.001220	5551.279858	34151.841946	3545.028549	18404.128487
21.536500	-0.003720	-0.000893	0.002715	0.000259	5522.363512	34107.377759	3540.591820	18438.914357
22.039000	0.000391	0.000292	0.004140	0.001238	5542.718806	34122.287412	3541.471702	18403.482053
22.537500	0.001001	0.000434	0.003690	0.001281	5546.418264	34129.400470	3540.497833	18401.903935
23.040000	-0.003283	0.000998	0.003728	0.001019	5520.273041	34189.222280	3541.090623	18411.406737
23.534500	-0.000902	0.000871	0.006095	0.001265	5534.121834	34162.237120	3545.282572	18402.511715
24.035000	-0.002360	-0.000464	0.005622	0.000398	5530.277956	34128.290587	3546.064026	18433.872573
24.535000	-0.000450	0.000675	0.000203	0.000782	5540.209203	34182.984327	3534.630881	18419.969730
25.035500	0.001928	-0.000040	0.001262	0.001283	5552.467292	34095.087632	3535.724283	18401.862363
25.536000	0.001352	0.001384	0.004124	0.002100	5543.364674	34138.907209	3539.739670	18372.337477
26.036000	0.002452	0.001338	0.002162	0.001885	5551.957149	34151.100620	3536.307313	18380.088803
26.536500	-0.001218	0.000120	0.004287	0.000865	5534.669428	34136.793828	3542.497935	18416.977550
27.036500	0.000339	-0.000038	-0.000670	0.000436	5547.618445	34156.423827	3533.601412	18432.516297
27.539500	-0.001015	0.000852	0.005716	0.001469	5532.062540	34146.115300	3544.128458	18395.141331
28.037500	0.001753	0.000511	0.002986	-0.002152	5573.883978	34384.231317	3545.893627	18526.555619
28.535000	-0.006385	0.000068	0.000034	0.004564	5477.585966	33866.716027	3526.932642	18283.658972
29.035500	-0.001867	0.000063	0.001999	-0.001653	5546.848513	34315.233037	3542.952035	18508.363490
29.535500	0.000016	-0.000002	0.003394	-0.001166	5555.980776	34275.153598	3544.748446	18490.649247
30.035500	0.000880	0.000597	0.001955	-0.001352	5562.872168	34332.241533	3542.269904	18497.418893
30.536000	-0.003300	0.000449	0.000460	0.005347	5492.293578	33837.880718	3526.240150	18255.571518
31.036500	-0.000640	-0.000819	0.007345	-0.001856	5556.207067	34265.922545	3553.988109	18515.764706
31.547500	0.001066	-0.000277	0.002769	-0.000817	5560.580258	34229.812110	3542.821382	18477.954472
32.037000	-0.001854	0.000487	-0.002921	0.002712	5518.562174	34029.897204	3524.795880	18350.247467
32.563000	-0.003186	0.000099	0.004576	0.005123	5494.460978	33828.902755	3534.693539	18263.624974
33.037500	0.000911	-0.000226	-0.001530	-0.001516	5564.150612	34284.263472	3535.737434	18503.376689
33.535000	0.001736	0.000269	0.004952	-0.000811	5564.947372	34269.103805	3547.133845	18477.760453
34.035500	0.002745	0.000680	0.007650	-0.000889	5572.100382	34304.557051	3552.663148	18480.580626
34.535000	-0.000977	0.000705	0.003724	0.004115	5515.162131	33944.670407	3534.998946	18299.790460
35.036000	-0.000245	0.000032	0.004851	0.001403	5537.498705	34091.522543	3542.548200	18397.505514
35.536000	-0.001046	-0.000314	0.005332	0.001653	5530.658302	34048.537310	3543.003728	18388.462978
36.039500	-0.001373	0.000368	0.004517	0.001304	5530.810085	34122.969943	3542.084323	18401.093201
36.540000	-0.003284	0.000446	0.002910	0.003123	5506.682011	33997.393644	3535.347335	18335.443644
37.040000	-0.003099	0.000331	0.000222	0.001627	5517.533885	34096.983117	3533.016505	18389.429680
37.537500	-0.001458	0.000478	0.000232	0.001681	5527.805606	34103.651207	3532.928681	18387.460753
38.037500	-0.000500	0.000251	0.005098	0.001471	5535.396177	34102.502157	3542.903423	18395.067300
38.535000	-0.001910	0.000272	0.002205	0.003004	5516.314732	33993.438391	3534.202017	18339.761870
39.035500	0.000380	-0.000279	0.004933	0.001329	5542.049865	34074.393269	3542.855792	18400.167260
39.536000	-0.000846	0.000196	0.006983	0.001776	5531.163503	34076.479222	3546.030665	18384.029905
40.036000	0.001628	0.000842	0.000523	0.002066	5545.389481	34102.164324	3532.746180	18373.566900
40.536500	-0.002925	-0.000295	0.000048	0.001615	5518.729125	34052.643388	3532.698773	18389.852882
41.036500	-0.000353	-0.000066	0.005469	0.001227	5537.934882	34097.187849	3544.117940	18403.858214
41.537000	0.000520	-0.000203	0.009462	0.001373	5542.676068	34076.718469	3551.764710	18398.577318
42.037000	-0.000316	0.000043	-0.000616	0.001530	5536.211466	34083.152567	3531.569223	18392.920445
42.538000	0.001229	0.000950	0.008972	0.002477	5540.099071	34080.310017	3548.588855	18358.724758
43.034500	0.000689	0.000596	0.002351	0.002233	5538.174513	34072.342876	3535.995813	18367.527793
43.535500	-0.001386	0.000573	0.005510	0.001987	5526.290990	34088.431572	3542.695532	18376.410451
44.036000	-0.002753	-0.000770	0.000730	0.001680	5519.427069	34013.762017	3533.905028	18387.509542
44.536000	-0.001115	0.000444	0.003346	0.001915	5528.509726	34084.317108	3538.572938	18379.003191
45.036500	0.002026	0.001145	0.007128	-0.002663	5579.064504	34467.837288	3555.171745	18545.192976
45.536500	0.002153	0.000014	0.001999	0.000367	5559.945360	34165.187831	3538.968958	18435.009923
46.038500	0.003704	0.000831	0.010219	-0.000929	5578.686875	34318.454965	3557.894103	18482.019143
46.540000	-0.002846	-0.000544	0.003409	0.004680	5499.488832	33814.614236	3533.278412	18279.517260
47.034500	0.001643	0.000508	0.001629	-0.000689	5563.527324	34277.495278	3540.319016	18473.297235
47.534500	-0.001906	0.000855	0.001543	0.003047	5516.063292	34032.328276	3532.823332	18338.206099
48.035500	0.003745	0.002265	0.009743	0.000831	5567.358752	34294.747599	3553.410105	18418.207935
48.536000	0.000615	0.000460	-0.000937	0.005042	5519.462248	33860.550418	3524.127641	18266.514878
49.036000	0.000430	0.001080	0.010439	0.003374	5529.073476	34025.002357	3549.724035	18326.434469
49.536000	-0.002681	0.000079	0.002511	0.003267	5509.633425	33960.618990	3534.283542	18330.257051
50.036500	0.001631	0.000626	0.008399	-0.000455	5561.912261	34269.115799	3553.294188	18464.805716
50.537000	-0.002489	0.000502	-0.000694	0.004678	5501.792254	33889.613274	3525.300381	18279.558472
51.037500	0.001207	0.001420	0.005622	-0.000966	5562.483175	34363.989814	3548.773009	18483.363779
51.537000	0.000768	0.000469	0.007925	0.001052	5546.389212	34148.499570	3549.340788	18410.192774
52.037500	0.003651	0.001507	0.008327	-0.000603	5576.183101	34343.907925	3553.445652	18470.180462
52.535000	0.012666	-0.000741	0.018600	0.086862	5102.502197	28443.908490	3411.973942	15593.303058
53.035000	-0.002023	-0.009465	0.011843	0.045672	5253.046489	30439.765114	3471.985188	16876.137396
53.535500	-0.003609	-0.011653	0.001217	-0.116841	6393.708640	42812.394196	3801.624333	23310.241527
54.036000	0.003626	-0.024422	0.010998	-0.278306	8142.358690	59177.825424	4341.511479	32592.133230
54.536000	-0.011521	-0.012319	-0.002334	-0.150598	6619.582985	45985.847298	3882.074796	24976.280020
55.036000	-0.012604	-0.009423	-0.004618	-0.196759	7047.200538	51158.410190	4009.370192	27474.538880
55.536500	-0.008596	-0.007124	-0.008147	-0.229147	7426.352599	55184.959740	4100.387293	29392.888022
56.040000	-0.002366	-0.005964	-0.008328	-0.239834	7613.690180	56635.612032	4135.053399	30057.922303
56.541500	-0.002832	-0.004655	-0.005473	-0.225066	7444.661395	54990.717573	4095.809774	29143.232620
57.035000	-0.000134	-0.002216	-0.007202	-0.207303	7283.244971	53178.886344	4033.876782	28083.449956
57.535000	0.000931	-0.000084	-0.005878	-0.179942	7014.544219	50331.672237	3955.362713	26533.500909
58.035500	-0.002076	-0.001683	-0.008918	-0.155904	6754.653489	47603.042845	3878.554683	25250.091190
58.536000	-0.002273	-0.001131	-0.003173	-0.125000	6475.133225	44574.142589	3811.359184	23701.131852
59.035000	0.004978	-0.001811	-0.003030	-0.107677	6388.816116	42875.057402	3767.660050	22879.900603
59.536000	0.002409	-0.001711	-0.001737	-0.088025	6205.320240	41107.895495	3722.833552	21987.042686
60.039000	-0.001655	-0.002141	-0.003242	-0.046269	5855.328454	37555.341531	3624.402962	20218.888013
60.539500	-0.000566	-0.002181	-0.001099	-0.051448	5901.048960	37969.873482	3640.380508	20429.051732
61.037000	-0.000889	-0.000466	0.000422	-0.026285	5719.170668	36117.689143	3589.744156	19430.956228
61.534500	-0.000425	-0.000992	-0.002647	-0.013206	5633.019176	35088.057284	3556.710467	18934.589709
62.035000	0.001990	0.000108	0.002255	-0.000373	5563.732073	34225.558870	3540.929692	18461.830231
62.535500	-0.002185	-0.000155	-0.000259	0.009014	5475.987257	33533.468345	3517.783971	18124.769127
63.036000	0.002575	0.000588	-0.005384	0.011768	5488.796892	33391.169654	3502.806374	18027.257746
63.536000	0.000953	0.001436	0.004275	0.007231	5507.508268	33773.709316	3529.990083	18188.232541
64.055000	0.000572	0.001630	0.002533	0.006116	5512.243278	33867.416502	3528.770695	18228.054902
64.536500	-0.001110	0.001901	-0.004044	0.008729	5484.669755	33699.953940	3511.097403	18134.911200
65.041500	0.000860	0.000856	0.004568	0.004639	5523.657421	33917.821112	3535.625183	18280.963117
65.536500	-0.001000	0.001964	-0.000228	0.005448	5506.419701	33939.356557	3524.712927	18251.963226
66.040000	-0.000576	0.001411	0.006030	0.005670	5507.721466	33883.710772	3536.470723	18244.019112
66.538000	-0.003612	0.001173	0.001637	0.009653	5462.862643	33582.403541	3520.199941	18102.104783
67.035000	0.001240	0.001787	0.003167	0.006198	5516.027274	33872.787957	3529.845229	18225.134555
67.535500	0.001476	0.002101	0.010944	0.007576	5508.661857	33796.615993	3542.389144	18175.941927
68.035500	-0.000755	0.001794	0.009444	0.007679	5493.659030	33767.273534	3539.230418	18172.265384
68.536000	-0.002411	0.001930	0.004723	0.011356	5459.683802	33515.239753	3522.863686	18041.823779
69.036000	-0.000440	0.001505	0.001275	0.008250	5492.020942	33705.916776	3522.204932	18151.953919
69.536500	-0.000484	0.001901	-0.001197	0.008723	5488.706129	33700.413098	3516.544064	18135.124053
70.040000	-0.001448	0.002571	0.005325	0.009761	5475.928411	33674.158589	3527.116795	18098.283164
70.537000	-0.000885	0.002185	-0.001711	0.012710	5460.775383	33437.466117	3507.969110	17994.077039
71.037500	0.000963	0.002201	0.002757	0.009922	5490.298316	33636.365568	3521.838055	18092.567030
71.535000	-0.000199	0.001841	0.003972	0.009159	5487.740885	33665.065030	3525.659977	18119.642031
72.035500	-0.000770	0.003058	0.006271	0.010914	5472.903774	33626.723238	3526.714234	18057.447144
72.535500	-0.000514	0.002223	0.000995	0.012697	5463.207217	33441.042614	3513.138526	17994.522656
73.035500	-0.000347	0.002370	0.005049	0.010031	5481.230284	33640.643584	3526.057202	18088.718458
73.536000	0.001970	0.002292	0.000765	0.011491	5486.696984	33531.350642	3515.001073	18037.042102
74.036500	0.001554	0.002837	0.003395	0.010914	5487.733326	33611.032763	3521.156975	18057.458997
74.536500	0.001684	0.002781	0.003432	0.012698	5477.172368	33480.473268	3517.798930	17994.480573
75.037000	0.001562	0.002071	0.002976	0.011092	5486.641547	33544.001617	3520.006097	18051.146938
75.537000	0.000770	0.003087	0.004961	0.012344	5473.601125	33527.218049	3521.417006	18006.943096
76.035000	0.002065	0.002608	0.005407	0.012056	5483.692900	33513.679024	3522.832891	18017.097473
76.534500	0.002901	0.002863	-0.001205	0.014449	5473.773264	33362.505202	3505.632702	17932.938704
77.035500	0.002318	0.003661	0.009153	0.013127	5478.478974	33512.457628	3528.011774	17979.384427
77.535500	0.001859	0.002478	0.007055	0.012836	5477.405131	33449.237612	3524.510888	17989.625498
78.036000	0.002555	0.003212	0.006787	0.013215	5479.429593	33474.365814	3523.259413	17976.280378
78.536000	0.001422	0.002643	0.008662	0.015197	5459.636617	33294.359376	3523.054672	17906.735531
79.036500	0.002583	0.003493	0.003786	0.013180	5479.824268	33496.743679	3517.551293	17977.502675
79.539500	0.003593	0.003275	0.006803	0.014357	5478.762678	33398.055806	3521.087931	17936.151076
80.037000	0.001846	0.004003	0.009624	0.014194	5468.686368	33461.078432	3526.857056	17941.897768
80.537500	0.001915	0.002668	0.002956	0.014046	5470.062887	33377.256578	3514.306997	17947.089777
81.038000	0.002628	0.003573	0.004293	0.014442	5472.080926	33413.124304	3516.105216	17933.183291
81.535000	0.000946	0.003513	0.000027	0.014908	5458.451308	33376.017934	3507.096596	17916.846290
82.035500	0.001729	0.004005	0.006843	0.014267	5467.475218	33456.058926	3521.339097	17939.314866
82.536000	0.004456	0.003733	0.004821	0.016509	5470.555539	33278.709294	3513.165500	17860.846690
83.036000	0.004230	0.004479	0.003037	0.015425	5476.023128	33407.753104	3511.831071	17898.751769
83.536500	0.002375	0.003560	0.008114	0.015483	5463.864943	33338.783572	3521.446390	17896.717417
84.037000	0.006718	0.003671	0.005819	0.015439	5491.819257	33349.713015	3517.119950	17898.258538
84.537000	0.002912	0.004392	0.008002	0.017363	5455.358289	33264.977878	3517.615069	17831.055587
85.037000	0.003321	0.003740	0.008816	0.015445	5470.104440	33354.147147	3522.871656	17898.028119
85.537000	0.004964	0.004520	0.002781	0.016114	5476.305101	33361.992046	3510.033231	17874.642148
86.035000	0.003054	0.003077	0.009519	0.015231	5469.770389	33322.445027	3524.643727	17905.522889
86.535000	0.003464	0.003680	0.002533	0.016607	5463.633513	33268.063026	3508.625540	17857.411214
87.035500	0.004556	0.003701	0.004862	0.015869	5475.269401	33321.524439	3514.464468	17883.211395
87.536000	0.002604	0.004234	0.004225	0.016772	5457.150482	33295.483285	3511.527988	17851.677484
88.036000	0.002444	0.004560	0.010545	0.016922	5455.186694	33307.851526	3523.358513	17846.434219
88.536500	0.000640	0.004246	0.011248	0.017369	5440.991646	33254.292151	3523.851601	17830.840122
89.039500	0.005538	0.004714	0.008692	0.017079	5473.817929	33307.645623	3519.486551	17840.971036
89.537500	0.002063	0.004857	0.006804	0.017223	5450.883662	33307.594169	3515.589956	17835.953165
90.037500	0.005422	0.004689	0.010186	0.017486	5470.490468	33277.246692	3521.578471	17826.770242
90.535000	0.002810	0.005197	0.006487	0.018582	5447.018637	33235.870510	3512.389004	17788.639677
91.035000	0.005561	0.004079	0.008790	0.016728	5476.196403	33287.656624	3520.349976	17853.209158
91.535000	0.006341	0.004700	0.007496	0.017097	5478.814804	33305.332819	3517.154360	17840.321234
92.035500	0.002605	0.004460	0.011515	0.016950	5456.029997	33298.858419	3525.179798	17845.461200
92.536000	0.004045	0.004542	0.005379	0.018151	5457.540315	33220.182378	3511.099658	17803.645608
93.036000	0.002833	0.004595	0.013811	0.017421	5454.492357	33275.177292	3528.719225	17829.039886
93.539500	0.006311	0.005902	0.011218	0.018580	5469.186332	33285.579460	3521.458560	17788.705101
94.037000	0.003078	0.003573	0.006150	0.016432	5462.303389	33272.924438	3515.852242	17863.553467
94.560000	0.004105	0.004798	0.002310	0.018108	5458.195273	33241.171085	3505.362532	17805.136886
95.034000	0.005697	0.004324	0.009495	0.017317	5473.313815	33263.410850	3520.571845	17832.657772
95.537500	0.006341	0.005595	0.004013	0.018413	5470.437897	33275.779201	3508.007273	17794.529162
96.035500	0.004369	0.004479	0.008756	0.017821	5461.682423	33238.949835	3518.184054	17815.127352
96.535000	0.005008	0.005096	0.011237	0.018390	5462.118453	33242.299041	3521.859916	17795.303679
97.036000	0.003746	0.004636	0.009671	0.018032	5456.398288	33235.089559	3519.535162	17807.754142
97.536500	0.005394	0.005652	0.012819	0.019019	5460.581899	33237.148669	3523.700585	17773.465054
98.036500	0.007069	0.005604	0.009614	0.019126	5470.532910	33226.304389	3517.326051	17769.760864
98.536500	0.004516	0.004640	0.013058	0.018020	5461.353165	33236.312346	3526.096793	17808.201562
99.037000	0.005119	0.005237	0.008743	0.017930	5465.749183	33284.559519	3517.950928	17811.331570
99.537500	0.001952	0.005198	0.008741	0.018279	5443.522939	33257.250992	3517.276079	17799.174606
100.036500	0.004922	0.005404	0.009818	0.018162	5463.026629	33279.999117	3519.569573	17803.262832
100.534500	0.004152	0.006085	0.008374	0.019393	5450.372186	33241.314384	3514.443812	17760.510561
101.035500	0.003914	0.005852	0.009390	0.018710	5453.174535	33272.971405	3517.694115	17784.202006
101.535500	0.007494	0.005346	0.006892	0.019094	5473.435607	33210.368532	3512.183523	17770.854023
102.035500	0.005586	0.005013	0.011733	0.017754	5469.827060	33281.184403	3524.047253	17817.454149
102.536500	0.007541	0.006277	0.009963	0.019186	5473.157487	33269.357902	3517.880300	17767.683947
103.039500	0.005498	0.005892	0.013852	0.018703	5463.245855	33276.239861	3526.311294	17784.440873
103.536000	0.005983	0.004660	0.011498	0.018338	5468.638095	33215.339204	3522.465635	17797.125300
104.037000	0.003311	0.005790	0.006233	0.018481	5450.818344	33284.710124	3512.097265	17792.153935
104.537500	0.005042	0.006033	0.008178	0.018332	5462.710514	33312.332314	3516.097245	17797.346004
105.038000	0.006769	0.005932	0.010155	0.019032	5469.221659	33255.902740	3518.543495	17773.005062
105.535000	0.005027	0.005674	0.006418	0.018957	5458.656007	33243.079167	3511.543085	17775.640335
106.038500	0.004831	0.005274	0.011734	0.018696	5459.063825	33233.303444	3522.228670	17784.683804
106.536000	0.005004	0.005326	0.009080	0.018436	5461.804017	33255.189520	3517.624692	17793.717709
107.036000	0.005073	0.005800	0.011747	0.018617	5461.102368	33275.865279	3522.407108	17787.445747
107.536500	0.007647	0.006203	0.008277	0.019644	5470.912515	33231.958085	3513.777828	17751.782153
108.036500	0.006175	0.004725	0.008549	0.018008	5471.960221	33243.082152	3517.429798	17808.620585
108.537000	0.007618	0.005270	0.013742	0.018113	5480.476904	33273.964942	3527.240304	17804.945273
109.037000	0.005566	0.004824	0.009980	0.017739	5469.793562	33268.925899	3520.693632	17817.959385
109.537500	0.005111	0.004618	0.004781	0.018438	5462.469648	33205.377298	3509.417511	17793.647771
110.035500	0.008191	0.005039	0.008971	0.018448	5481.999673	33234.227804	3517.394182	17793.315710
110.535500	0.004927	0.005440	0.008284	0.018374	5461.709450	33267.597807	3516.218138	17795.877434
111.035500	0.002638	0.005046	0.003709	0.017603	5452.107658	33294.110552	3508.966270	17822.685896
111.536000	0.005721	0.005427	0.005048	0.018106	5468.447329	33285.545476	3510.554722	17805.192296
112.035500	0.005321	0.005249	0.011558	0.017735	5468.259874	33299.059123	3523.744239	17818.090478
112.539500	0.007026	0.005487	0.009966	0.018117	5476.680556	33289.001873	3519.938929	17804.806122
113.036500	0.007151	0.006541	0.010172	0.019001	5471.847471	33300.957757	3518.636432	17774.089736
113.537000	0.007596	0.006264	0.013037	0.018771	5476.146599	33297.682361	3524.602483	17782.089560
114.037500	0.007065	0.005739	0.010054	0.017685	5479.685480	33337.134201	3520.940890	17819.845170
114.537500	0.005598	0.005604	0.010397	0.017832	5469.410547	33317.317030	3521.317614	17814.736037
115.035000	0.003468	0.004892	0.014345	0.018156	5453.860670	33244.394826	3528.329884	17803.463862
115.535500	0.003708	0.004418	0.009282	0.017615	5458.802602	33249.127166	3519.590539	17822.290396
116.036000	0.006330	0.005951	0.010981	0.020673	5456.038446	33142.114013	3516.981104	17716.156732
116.543500	0.004753	0.006052	0.008426	0.018726	5458.382531	33285.870692	3515.816627	17783.643253
117.037000	0.005326	0.006151	0.009935	0.018772	5461.717602	33289.624216	3518.622901	17782.060536
117.536500	0.007470	0.004984	0.008912	0.017736	5481.941766	33280.428520	3518.647776	17818.082535
118.037000	0.003111	0.005314	0.011119	0.021241	5432.195656	33057.860631	3516.156754	17696.527200
118.534000	0.007037	0.005386	0.014503	0.017800	5478.770583	33304.153227	3529.326441	17815.828563
119.037500	0.005397	0.005095	0.007738	0.018067	5466.642241	33264.932687	3515.762231	17806.562106
119.538000	0.007377	0.006418	0.010738	0.018066	5479.244163	33358.155409	3521.523852	17806.583614
120.034500	0.007149	0.004445	0.007808	0.019878	5466.263229	33092.416140	3512.435360	17743.680389
120.536000	0.006343	0.005800	0.008631	0.017672	5475.164408	33342.312058	3518.228981	17820.284136
121.036000	0.006037	0.005226	0.008403	0.018234	5469.640050	33262.372818	3516.715220	17800.737022
121.536000	0.007701	0.005230	0.010651	0.017941	5482.109557	33283.308900	3521.598612	17810.952194
122.039000	0.005528	0.005787	0.011116	0.021685	5444.590261	33059.856257	3515.301298	17681.208639
122.537000	0.005462	0.005645	0.014870	0.018193	5466.256905	33294.771897	3529.277984	17802.186338
123.037000	0.004921	0.005360	0.013812	0.017599	5466.588732	33316.524159	3528.375259	17822.839488
123.537500	0.004647	0.006221	0.011468	0.018285	5460.502302	33328.845396	3522.510115	17798.965694
124.035000	0.005184	0.006212	0.008359	0.021993	5440.487729	33068.011943	3509.460563	17670.577574
124.541000	0.007117	0.005702	0.014588	0.017903	5478.624087	33319.204842	3529.291652	17812.252699
125.035000	0.003576	0.005707	0.011223	0.017599	5458.066811	33340.923358	3523.360165	17822.840176
125.536000	0.006477	0.004902	0.009028	0.017586	5476.561433	33285.127535	3519.157252	17823.281432
126.036000	0.006899	0.006079	0.010538	0.017879	5477.386208	33347.428867	3521.498376	17813.082773
126.539000	0.006024	0.005047	0.011939	0.017647	5473.291433	33291.120070	3524.652300	17821.170223
127.036500	0.004409	0.004883	0.005250	0.017860	5461.689192	33264.620216	3511.407854	17813.764912
127.536500	0.003952	0.005030	0.011073	0.017318	5462.228584	33313.065236	3523.613655	17832.643756
128.037500	0.005287	0.005437	0.011741	0.022380	5438.706505	32987.060122	3515.168459	17657.272941
128.537000	0.006413	0.007220	0.009638	0.018563	5469.936747	33379.661887	3518.451452	17789.293390
129.035000	0.007360	0.005190	0.010034	0.017853	5480.492171	33286.644593	3520.578076	17814.001076
129.535500	0.006801	0.005124	0.010524	0.017904	5476.604566	33278.435732	3521.423926	17812.212480
130.035500	0.007446	0.005585	0.003459	0.017630	5482.461889	33330.178560	3508.440940	17821.762689
130.536000	0.005138	0.006006	0.005412	0.018026	5465.260336	33331.993258	3511.401759	17807.992772
131.036500	0.006446	0.005067	0.008618	0.017962	5473.976333	33270.322472	3517.647914	17810.203729
131.536500	0.007964	0.004991	0.013303	0.017103	5489.145568	33325.422178	3528.349043	17840.122312
132.037000	0.003808	0.004748	0.003247	0.022173	5430.730301	32953.511078	3499.472961	17664.407315
132.537500	0.006684	0.006072	0.006712	0.018086	5474.700661	33332.352624	3513.764987	17805.898106
133.037000	0.004588	0.005377	0.007212	0.017673	5464.002644	33312.445767	3515.507605	17820.250446
133.535000	0.005125	0.005335	0.007928	0.017417	5469.037069	33327.567293	3517.369463	17829.171849
134.035000	0.002928	0.004458	0.008693	0.022605	5422.521333	32903.236125	3508.934338	17649.519782
134.535500	0.006438	0.005219	0.009397	0.017208	5478.727499	33334.151428	3520.594911	17836.481353
135.035500	0.007109	0.005578	0.013876	0.017615	5480.407633	33330.709973	3528.468507	17822.268645
135.536000	0.005841	0.005464	0.010135	0.017244	5474.693348	33348.904342	3521.946554	17835.219678
136.039000	0.003781	0.004894	0.002741	0.022656	5427.534858	32930.004067	3497.618092	17647.764937
136.537000	0.006553	0.005232	0.012083	0.016879	5481.553811	33358.175807	3526.415798	17847.924023
137.037000	0.006688	0.005760	0.008077	0.017944	5475.632356	33320.362480	3516.646916	17810.832382
137.537000	0.005719	0.005435	0.014232	0.017162	5474.441217	33352.618187	3530.041776	17838.077550
138.037000	0.006243	0.005746	0.012688	0.017867	5473.287332	33324.782660	3525.673955	17813.500535
138.535000	0.005986	0.005693	0.016200	0.017095	5476.563359	33375.527427	3534.012012	17840.402209
139.035000	0.008152	0.005951	0.013574	0.018208	5483.279599	33315.237632	3526.730759	17801.634268
139.535500	0.005582	0.005875	0.015481	0.017718	5470.025979	33344.413904	3531.390940	17818.682524
140.035000	0.001204	0.005707	0.008159	0.023471	5406.389375	32929.842292	3506.278701	17619.715474
140.536500	0.007312	0.004688	0.012043	0.016435	5489.248189	33351.232178	3527.201470	17863.449358
141.036500	0.006388	0.005476	0.014076	0.016946	5480.076202	33370.694360	3530.158692	17845.596745
141.536500	0.008261	0.006020	0.009984	0.016771	5493.174382	33421.549047	3522.567816	17851.718605
142.037000	0.003593	0.005026	0.011094	0.022383	5428.064962	32958.216611	3513.926744	17657.170910
142.534500	0.005930	0.005456	0.015576	0.016456	5480.280901	33403.857123	3534.041688	17862.692859
143.034000	0.004995	0.005130	0.013699	0.016426	5474.511822	33383.002322	3530.436298	17863.734128
143.535000	0.006782	0.006333	0.010340	0.017634	5478.207722	33382.661853	3521.590865	17821.639388
144.035500	0.003473	0.004843	0.004671	0.022951	5423.760349	32905.932776	3500.683348	17637.599883
144.535500	0.006896	0.004702	0.012606	0.016679	5485.025644	33334.920476	3527.819805	17854.899541
145.036000	0.007196	0.006452	0.015248	0.017675	5480.583528	33388.151963	3531.022031	17820.192240
145.539000	0.007048	0.006586	0.015225	0.017152	5482.972031	33434.516395	3531.997105	17838.411536
146.037000	0.003644	0.004518	0.001203	0.022157	5429.800088	32938.533767	3495.676516	17664.941788
146.536500	0.005314	0.006348	0.013709	0.016505	5476.041162	33463.475135	3530.302788	17860.979585
147.037000	0.006637	0.005571	0.017681	0.016800	5482.598898	33387.689142	3537.491930	17850.680131
147.537500	0.004522	0.005600	0.009872	0.016370	5471.864764	33420.180342	3523.124698	17865.711571
148.035000	0.003314	0.004945	0.007730	0.022796	5423.740339	32923.826373	3506.746175	17642.947646
148.535000	0.006824	0.006395	0.005502	0.017174	5481.408303	33419.515078	3513.195779	17837.649201
149.035500	0.006876	0.005343	0.019050	0.016855	5483.776944	33367.764029	3540.077610	17848.787037
149.535500	0.008595	0.006857	0.014653	0.017354	5491.577106	33439.431182	3530.487991	17831.366653
150.036500	0.006429	0.005504	0.016052	0.016363	5484.061141	33413.820274	3535.155230	17865.940212
150.536000	0.008203	0.006174	0.016028	0.017043	5491.058021	33413.138586	3533.777526	17842.208882
151.036500	0.006274	0.006673	0.011353	0.017121	5478.235539	33442.848687	3524.534489	17839.480720
151.537000	0.006927	0.005514	0.013997	0.016585	5485.825616	33398.906923	3530.707536	17858.198632
152.036500	0.004002	0.004839	0.010098	0.022258	5431.406258	32953.815639	3512.264135	17661.448136
152.538000	0.006183	0.005261	0.012341	0.016334	5482.677211	33398.792097	3527.976090	17866.973362
153.035000	0.003474	0.005551	0.006449	0.017322	5459.178205	33349.519690	3514.723002	17832.508272
153.535500	0.006057	0.005251	0.011059	0.016346	5481.790626	33397.182222	3525.465977	17866.529584
154.038000	0.005494	0.005570	0.008731	0.023066	5435.697283	32948.551374	3508.130265	17633.654236
154.536000	0.007808	0.005408	0.005012	0.016644	5491.085393	33387.237509	3513.271743	17856.135341
155.039000	0.005782	0.005876	0.007689	0.018137	5468.640912	33314.972952	3515.534958	17804.125304
155.536000	0.005472	0.005284	0.014857	0.016430	5477.531617	33393.592138	3532.688548	17863.620877
156.036500	0.000737	0.005601	0.014694	0.022861	5407.276899	32964.912551	3519.908271	17640.690275
156.537000	0.008270	0.006174	0.012271	0.017174	5490.653069	33403.901710	3526.211902	17837.665324
157.037500	0.004986	0.006031	0.006208	0.018275	5462.715406	33316.188140	3512.443778	17799.335203
157.537500	0.005998	0.005984	0.010079	0.016643	5479.529497	33427.986788	3522.999296	17856.187200
158.035000	0.002548	0.005181	0.009796	0.021734	5425.587918	33014.212899	3512.688179	17679.527946
158.535500	0.006849	0.006401	0.009298	0.016452	5486.176713	33470.976746	3521.859245	17862.828403
159.036000	0.006418	0.005227	0.013040	0.017440	5477.123750	33318.332888	3527.185392	17828.385089
159.535000	0.005790	0.005965	0.008785	0.017107	5475.240745	33393.851216	3519.610748	17839.976631
160.036000	0.004434	0.005207	0.009539	0.021858	5436.625569	33007.387612	3511.962860	17675.252614
160.536500	0.009052	0.006014	0.013227	0.016302	5501.255777	33454.171754	3529.759591	17868.065918
161.037000	0.004774	0.005878	0.011394	0.017948	5463.441068	33328.352894	3523.016820	17810.677377
161.539500	0.008614	0.004557	0.010682	0.015335	5504.665899	33419.617801	3526.695609	17901.905241
162.035000	0.001366	0.005237	0.007782	0.021900	5417.169360	33006.531680	3508.542139	17673.802037
162.535000	0.003380	0.005736	0.013090	0.015555	5469.778838	33487.380495	3530.945998	17894.180600
163.041000	0.009479	0.006112	0.013281	0.018206	5491.778050	33326.671095	3526.167422	17801.708025
163.538000	0.004965	0.005018	0.012768	0.016550	5473.535807	33366.323601	3528.384503	17859.418674
164.036000	0.006882	0.005010	0.009167	0.015658	5491.467024	33428.766952	3523.138452	17890.589271
164.539000	0.005009	0.005169	0.011992	0.015702	5479.216346	33436.871074	3528.525002	17889.039038
165.039500	0.003686	0.006152	0.011708	0.018028	5456.050502	33342.146969	3523.469180	17807.923705
165.536500	0.004412	0.004739	0.006797	0.015931	5473.956323	33390.318665	3518.051817	17881.031332
166.037000	0.004941	0.004789	0.011706	0.015129	5482.438420	33450.521521	3529.082332	17909.091175
166.537500	0.006334	0.004850	0.008230	0.015104	5491.509120	33456.635017	3522.399516	17909.989231
167.035000	0.005518	0.005442	0.007158	0.016822	5475.323306	33377.021597	3517.033554	17849.914489
167.538000	0.003729	0.005326	0.009565	0.016086	5468.625842	33420.839655	3523.081199	17875.632581
168.035500	0.004171	0.005705	0.011978	0.018551	5455.807807	33273.766418	3522.979844	17789.721410
168.535500	0.006523	0.005087	0.011406	0.015645	5489.252833	33435.172137	3527.499285	17891.059283
169.038500	0.003932	0.005600	0.010955	0.017358	5461.841913	33350.403327	3523.307199	17831.229817
169.536500	0.005590	0.006012	0.011758	0.016165	5479.968392	33463.808005	3527.172241	17872.869255
170.036500	0.006557	0.004668	0.007476	0.015570	5489.948603	33410.776728	3520.049372	17893.657316
170.537000	0.005803	0.005176	0.009553	0.015702	5484.287234	33437.444767	3523.800666	17889.065388
171.037000	0.007333	0.005634	0.011765	0.015545	5495.083722	33480.881175	3528.387808	17894.537927
171.537500	0.005709	0.005100	0.006562	0.014982	5488.290011	33482.933967	3519.423824	17914.257583
172.035000	0.001948	0.004936	0.010643	0.019855	5433.592483	33128.310380	3517.901180	17744.465943
172.535000	0.003713	0.004165	0.010506	0.014655	5477.627766	33439.924710	3527.671578	17925.698931
173.035500	0.005403	0.005402	0.011280	0.015283	5484.408829	33483.038283	3527.956776	17903.726144
173.535500	0.006355	0.006304	0.011937	0.015993	5485.952596	33496.606477	3527.852874	17878.858067
174.036500	0.002302	0.004534	0.010771	0.018028	5447.312172	33228.235341	3521.662388	17807.916457
174.539000	0.006987	0.005321	0.008823	0.015351	5494.107955	33472.469945	3523.066929	17901.324987
175.036500	0.006343	0.005146	0.011783	0.015155	5491.239695	33473.959684	3529.183016	17908.200428
175.539500	0.004289	0.005844	0.013825	0.015755	5474.295017	33480.921165	3531.991545	17887.211666
176.037000	0.003924	0.004703	0.010584	0.018165	5456.685796	33230.475708	3521.037288	17803.135291
176.537000	0.007314	0.005900	0.001115	0.015569	5494.805800	33498.050164	3507.904868	17893.707671
177.035000	0.005724	0.005502	0.012709	0.015087	5487.706398	33503.965923	3531.116105	17910.562809
177.536000	0.005974	0.005555	0.010969	0.014538	5492.823928	33546.670802	3528.798477	17929.803402
178.035500	0.004563	0.005064	0.009609	0.017599	5464.311694	33295.637644	3520.248621	17822.825229
178.538500	0.003662	0.006201	0.010785	0.015135	5474.247635	33550.115919	3527.281858	17908.876489
179.036500	0.005478	0.005467	0.016540	0.015082	5486.171278	33501.847469	3538.625302	17910.742721
179.537000	0.003393	0.005191	0.015896	0.014430	5477.021969	33528.499742	3538.641156	17933.592087
180.042000	0.001995	0.005680	0.013915	0.017917	5446.073848	33316.601210	3527.956999	17811.754504
180.538000	0.007274	0.005646	0.013048	0.015243	5496.644140	33503.159264	3531.474565	17905.124380
181.034500	0.002632	0.005450	0.014587	0.017536	5452.493933	33327.283679	3530.003768	17825.028151
181.537500	0.003757	0.004702	0.011147	0.014627	5478.088351	33479.942331	3528.973094	17926.703081
182.035500	0.003899	0.004584	0.014691	0.017439	5461.126034	33273.145521	3530.396104	17828.418511
182.794500	0.004210	0.005272	0.007922	0.018042	5459.273069	33279.125862	3516.161109	17807.406676
183.146000	0.001038	0.004083	0.012453	0.020337	5424.876931	33035.007201	3520.453586	17727.777663
183.607500	0.005155	0.005024	0.012783	0.014457	5488.097318	33514.744083	3532.490417	17932.646411
184.037000	0.004437	0.004652	0.012987	0.014306	5484.476370	33499.145839	3533.184202	17937.963494
184.696500	0.005285	0.005634	0.010694	0.014739	5487.128468	33538.034350	3527.875785	17922.780867
185.046000	0.005195	0.005447	0.008188	0.018147	5464.851185	33284.080878	3516.469907	17803.765572
185.537500	0.005747	0.004291	0.007554	0.014157	5493.812097	33484.112827	3522.923349	17943.191117
186.038000	0.005232	0.004674	0.011741	0.016301	5476.826706	33359.653076	3526.875837	17868.129180
186.535500	0.003888	0.004581	0.011885	0.013575	5485.637716	33545.878096	3532.458125	17963.619981
187.035000	0.003294	0.005216	0.011872	0.016950	5460.388762	33352.117994	3525.871173	17845.464873
187.539000	0.006789	0.004392	0.010321	0.014058	5501.132997	33498.259071	3528.472259	17946.646687
188.039000	0.004940	0.005243	0.008479	0.015812	5478.076444	33434.332647	3521.514540	17885.195965
