sample name	sample
index	172
start time	 02-18-2021  10:44:07 AM
880	-0.009871
Peak Time (s)	91.037
Peak Height 	-0.009871
calc peak height	90,93
Baseline Time (s)	9.537
Baseline Value 	-0.002907
subtract baseline	10,4
Abs	-0.013709
Peak Time (s)	92.035
Peak Height 	-0.01371
calc peak height	90,93
Baseline Time (s)	9.037
Baseline Value 	0.00202
subtract baseline	10,3
PK_550	0.000193
Peak Time (s)	90.537
Peak Height 	1.9312E-4
calc peak height	90,93
Baseline Time (s)	10.037
Baseline Value 	4.1253E-4
subtract baseline	10,2
PK_880	-0.010037
Peak Time (s)	90.537
Peak Height 	-0.01004
calc peak height	90,93
Baseline Time (s)	9.537
Baseline Value 	0.001976
subtract baseline	10,1


Time (s)	A880-A510	A880-A775	A880-A975	A880	I510	I775	I975	I880	
0.034000	-0.000369	0.000112	0.001591	0.001288	6679.179707	43706.675608	3833.363408	22958.498847
0.536500	-0.002870	0.000092	0.000798	0.004562	6627.566452	43397.606206	3823.161237	22806.812589
1.038000	-0.002156	-0.000858	-0.000284	0.002977	6648.028616	43456.995738	3824.416775	22880.083195
1.535000	-0.004054	-0.000754	-0.003982	0.006002	6604.347987	43184.498676	3807.738474	22740.441009
2.035500	-0.000687	-0.000316	0.000283	0.000147	6686.586973	43773.931847	3832.943495	23011.633631
2.536000	-0.000773	0.000137	-0.005161	-0.000191	6688.870878	43848.736645	3820.153458	23027.436786
3.039000	0.000293	0.000608	-0.000327	-0.001546	6710.764109	44021.656227	3835.676371	23090.758942
3.536500	-0.001814	0.000156	-0.001806	0.001246	6666.583121	43714.839369	3824.941124	22960.470059
4.036500	-0.000245	-0.000342	0.003443	0.000887	6683.907404	43701.785430	3839.058463	22977.170795
4.534000	-0.001655	-0.000196	-0.000463	0.000439	6675.249660	43757.787322	3830.331357	22998.047353
5.034500	0.000761	-0.000268	0.000917	0.000193	6699.253817	43774.149634	3834.426909	23009.525729
5.535000	-0.000635	-0.000110	0.002069	-0.000052	6688.857933	43812.150847	3837.957626	23020.926407
6.035000	-0.000857	-0.000185	-0.001116	-0.000006	6686.440970	43800.833054	3829.810022	23018.803107
6.535500	-0.000932	0.000297	0.004239	0.000321	6682.813995	43815.397568	3842.515316	23003.521726
7.038500	-0.001401	0.000854	0.002095	0.000816	6674.140934	43821.181253	3835.826337	22980.453733
7.536000	0.000409	-0.000103	0.001486	0.000453	6693.714142	43765.190183	3835.206418	22997.365786
8.036000	-0.001136	-0.000067	-0.002090	0.000306	6681.110787	43782.453179	3826.581493	23004.224228
8.536500	0.000911	-0.000078	0.000701	0.000370	6699.007911	43775.392673	3833.436515	23001.255480
9.036500	-0.001779	0.000269	0.000000	0.000272	6675.637220	43817.397607	3831.915541	23005.804996
9.537000	0.000000	0.000214	-0.000782	0.000000	6694.116475	43837.844867	3830.634372	23018.504583
10.037000	-0.001045	0.000000	0.003819	-0.000280	6687.207641	43844.105526	3842.975422	23031.560298
10.534500	0.000130	0.000708	-0.003423	0.000148	6693.954810	43870.560685	3823.641105	23011.599698
11.038000	0.000402	-0.000474	0.002639	-0.000588	6703.069879	43828.461944	3840.762403	23045.973975
11.535500	-0.001267	-0.000599	-0.002625	-0.000754	6689.489027	43832.374698	3827.899172	23053.727165
12.038500	0.000100	0.000296	-0.002215	-0.000510	6699.634954	43893.916083	3828.316159	23042.328503
12.539000	-0.001222	-0.000513	0.001632	-0.000800	6690.310047	43844.865071	3838.745018	23055.879916
13.036500	0.000592	0.000406	0.000932	-0.002438	6721.569738	44087.124740	3841.122808	23132.541028
13.537000	-0.002414	0.000241	-0.001918	0.001806	6656.190497	43670.119382	3823.261542	22934.443247
14.036500	0.001231	0.001342	0.003024	-0.000198	6707.046568	43963.414098	3840.748873	23027.737082
14.537000	-0.001873	0.000244	-0.000033	0.002378	6655.912377	43616.572660	3826.544759	22907.867794
15.040000	-0.000950	0.000422	0.001678	-0.000326	6688.488852	43888.388895	3837.661377	23033.741293
15.599500	-0.002916	0.000059	0.000576	0.003686	6634.948519	43476.545244	3824.796046	22847.298798
16.037500	-0.000075	0.000332	0.001908	-0.001628	6708.167201	44003.202268	3841.544596	23094.598288
16.535500	-0.000850	-0.000047	0.003177	-0.001168	6696.987501	43923.648889	3843.600454	23073.044195
17.038500	0.000472	0.000500	0.004737	-0.000937	6706.858667	43953.587929	3846.987728	23062.243354
17.536500	-0.002218	0.001171	-0.001699	0.003407	6643.647470	43606.998848	3819.813176	22860.185911
18.039500	0.001574	0.000485	0.003424	-0.003306	6738.439463	44177.384959	3849.688293	23173.330840
18.537000	-0.000728	0.000989	0.003910	0.001830	6671.075683	43738.245177	3837.851227	22933.290347
19.037000	0.000091	0.000909	0.001817	0.001881	6677.984170	43725.873457	3832.438840	22930.923574
19.537500	-0.002095	0.000281	-0.000163	0.000954	6666.677293	43754.203135	3829.790484	22974.056757
20.035000	-0.001906	-0.000004	0.001516	0.000800	6669.758009	43741.834436	3834.407526	22981.218084
20.535000	0.000112	0.000345	-0.001432	0.001271	6683.664858	43730.244216	3825.813569	22959.291260
21.034500	0.000018	0.000463	-0.001371	0.001354	6682.068520	43733.567861	3825.757074	22955.420546
21.535500	-0.002313	-0.000086	-0.003117	0.001625	6658.714973	43656.400601	3820.721306	22942.841671
22.036000	-0.001748	0.000066	-0.002602	0.001010	6669.285417	43728.556539	3823.538253	22971.424822
22.536000	-0.000184	-0.000537	-0.001987	0.000507	6687.876780	43719.110701	3826.336713	22994.858206
23.036500	-0.001066	-0.000381	0.001825	0.001117	6674.452059	43676.433875	3834.387162	22966.484564
23.537000	-0.002135	-0.000144	-0.000984	0.001174	6664.347339	43693.420069	3827.179774	22963.821643
24.037000	0.000565	0.001114	0.002696	0.001827	6682.737955	43750.412733	3834.792065	22933.463285
24.534500	0.000865	-0.000187	-0.001186	0.000826	6694.470684	43722.031529	3827.543192	22979.996658
25.037500	-0.000343	0.000019	0.000800	0.001164	6680.532757	43709.711537	3831.684876	22964.288737
25.535500	-0.001982	0.000639	0.001177	0.002081	6657.593302	43681.676131	3830.327605	22921.659822
26.035500	-0.001457	0.000637	0.001912	0.001634	6666.298429	43723.558017	3833.301800	22942.412329
26.535500	0.000118	0.000928	-0.002229	0.001833	6678.657410	43732.307665	3822.416828	22933.183564
27.036500	-0.001610	0.000087	-0.000447	0.001430	6666.755359	43691.026533	3827.882269	22951.908809
27.539500	-0.001795	-0.000131	0.003628	0.000880	6670.035339	43722.329334	3839.544873	22977.498045
28.036500	-0.000032	0.000267	-0.000936	0.001308	6682.033341	43719.469499	3826.963845	22957.591947
28.537000	0.000908	0.001083	0.003966	-0.000291	6704.956689	43947.636647	3843.378139	23032.078740
29.037000	0.000692	0.000861	0.004569	-0.000426	6704.229150	43939.393051	3845.257125	23038.396605
29.542500	0.001055	0.000362	-0.001765	0.001150	6693.254890	43743.278673	3825.282077	22964.919675
30.035000	0.001744	0.001089	-0.000682	-0.000027	6710.143242	43923.305051	3830.953687	23019.781778
30.535000	0.001402	-0.000209	0.006482	-0.000942	6715.345063	43886.989373	3851.465409	23062.508334
31.035500	-0.000366	-0.000153	0.005828	-0.000312	6693.633309	43832.672192	3848.179111	23033.072785
31.539000	-0.000448	0.000236	-0.000401	0.002420	6668.300855	43611.861725	3825.517768	22905.930271
32.036000	-0.001737	-0.000232	0.002560	0.002554	6655.554067	43555.385660	3832.617949	22899.724458
32.535500	-0.002513	0.000445	-0.000198	0.001942	6654.083820	43676.496955	3827.222602	22928.106793
33.037000	0.001349	0.000701	0.004882	0.001052	6696.801033	43784.515273	3842.294273	22969.501047
33.539500	-0.000722	0.000363	0.001299	-0.000597	6692.992531	43908.524434	3837.390226	23046.392036
34.040000	-0.000822	0.000809	0.006206	-0.000447	6690.726857	43936.482588	3849.490473	23039.357380
34.538000	0.000018	0.000655	0.003361	-0.000674	6700.374006	43943.389815	3842.815317	23049.989163
35.038000	-0.002197	0.000403	-0.001790	0.000911	6666.139630	43769.624937	3825.816048	22976.029413
35.536000	-0.002326	0.000485	-0.002063	0.002794	6648.149222	43600.154994	3820.435282	22888.590234
36.035500	-0.001045	0.000396	0.002623	0.001989	6666.808275	43667.449869	3834.198138	22925.912532
36.536000	-0.001845	0.000641	0.003078	0.002196	6657.786094	43671.057695	3834.824668	22916.302587
37.036000	0.000185	0.000558	-0.001074	0.002723	6671.263188	43613.659944	3823.078439	22891.886140
37.536500	-0.001385	0.000645	0.001979	0.002915	6655.469579	43603.742368	3830.244962	22882.959261
38.037000	-0.001172	0.000111	-0.006997	0.001711	6668.169675	43666.800645	3810.883602	22938.840827
38.537500	-0.002839	0.000064	0.004152	0.001945	6651.147723	43640.387785	3838.174829	22927.976487
39.035000	-0.002604	0.000359	-0.001267	0.002977	6644.040959	43571.116858	3821.963090	22880.112730
39.535000	-0.000678	0.000225	0.000639	0.002206	6668.156582	43630.971720	3828.660641	22915.834500
40.038000	-0.002312	-0.000581	0.004907	0.001296	6661.662632	43640.749146	3841.735962	22958.119111
40.535500	-0.001731	-0.000016	0.001540	0.002029	6660.307210	43624.943991	3831.369692	22924.077888
41.038500	-0.001650	0.000553	0.003198	0.002392	6657.778139	43644.321101	3834.633079	22907.209598
41.536500	-0.001524	0.001276	0.004368	0.002942	6653.990290	43660.568532	3836.198533	22881.706314
42.036500	-0.001312	-0.000394	0.003734	0.001835	6665.792338	43607.661183	3837.395699	22933.064746
42.537000	-0.000540	0.000580	0.002307	0.002567	6666.152477	43630.383160	3831.945131	22899.100738
43.037000	-0.002964	0.000309	-0.000532	0.003390	6637.150901	43527.687354	3822.766560	22860.973871
43.537500	-0.000836	0.000064	0.003462	0.001847	6669.956680	43649.594668	3836.676767	22932.519710
44.037000	-0.001691	0.000802	0.002602	0.003039	6651.627380	43606.922896	3831.500121	22877.222284
44.535000	-0.001721	0.000794	0.000440	0.002429	6656.814971	43663.550097	3827.601358	22905.510919
45.035000	0.001147	0.001100	0.004558	0.002916	6678.170391	43646.458049	3836.744829	22882.931047
45.536000	-0.001822	0.000166	0.003435	0.003173	6649.269806	43534.645228	3833.263035	22871.036955
46.039000	-0.000562	-0.000138	0.006383	-0.000915	6697.311275	43891.159007	3851.140533	23061.244947
46.537500	0.002403	0.000915	0.007102	-0.000070	6716.520688	43910.798858	3850.820012	23021.783044
47.052500	-0.003583	-0.000086	0.001719	0.004466	6622.097974	43389.924327	3825.703573	22811.229836
47.537000	-0.001733	0.000416	0.002957	0.005787	6626.790789	43313.467138	3825.494701	22750.329169
48.040000	0.001182	0.000846	0.000889	-0.000385	6708.289190	43934.072554	3835.815149	23036.467744
48.535000	-0.000764	0.000085	0.000206	-0.000922	6695.545515	43912.961660	3835.446687	23061.581729
49.037500	-0.002730	0.000299	0.005097	0.004050	6633.365473	43464.910016	3835.242704	22830.466732
49.535500	-0.002284	0.000788	-0.001101	0.003286	6644.136416	43582.433865	3821.605990	22865.803558
50.035500	0.000985	0.000209	0.002097	0.002445	6680.948282	43606.993923	3831.723349	22904.754121
50.536000	0.002269	0.000615	0.003380	-0.000194	6716.417276	43894.124239	3841.641975	23027.545110
51.036000	-0.001504	0.000145	0.002659	0.003560	6648.650817	43496.406269	3830.334146	22853.122438
51.536500	-0.001044	0.000352	0.003409	0.003334	6654.769362	43536.879351	3832.788279	22863.549166
52.037000	0.000139	0.000291	0.004188	-0.002187	6715.180632	44052.385098	3848.780542	23120.789370
52.537000	0.000556	0.000435	0.008347	0.000048	6698.706026	43854.250008	3853.709688	23016.266710
53.036500	0.000646	0.000277	0.004704	0.002261	6679.565340	43630.762831	3838.774987	22913.315938
53.534500	-0.017487	-0.013297	0.002431	0.113481	5673.006028	33431.849646	3585.753556	18359.636080
54.035000	-0.036813	-0.021769	-0.004432	-0.019631	6541.964876	43616.226203	3871.567580	23955.315987
54.535500	-0.029133	-0.024549	-0.012215	-0.145176	7895.497709	56951.753219	4224.477022	31060.521452
55.035500	-0.022683	-0.019883	-0.000433	-0.089785	7349.458571	50981.690134	4082.519039	27671.485380
55.536000	-0.027422	-0.016992	-0.009306	-0.095011	7354.588404	51890.723343	4071.279963	27973.075740
56.036000	-0.023980	-0.013797	-0.015238	-0.108181	7533.276195	53776.056088	4093.675628	28749.425522
56.536500	-0.014207	-0.017458	-0.014398	-0.155692	8204.610078	59192.492259	4253.266311	31754.206118
57.036500	-0.013829	-0.011241	-0.015734	-0.134684	7952.582753	57304.060486	4177.305543	30384.969990
57.537000	-0.010285	-0.009769	-0.018727	-0.133990	7986.691383	57401.763684	4165.142638	30340.857679
58.037000	-0.003408	-0.008705	-0.016393	-0.129751	8018.467589	57003.991204	4158.899651	30072.953652
58.535000	-0.001849	-0.007127	-0.009113	-0.116704	7881.505532	55591.228797	4140.163306	29264.589154
59.038000	-0.011003	-0.008841	-0.013254	-0.104748	7639.081925	53955.234701	4089.164587	28544.828826
59.535500	-0.009284	-0.007499	-0.012827	-0.088871	7482.961098	52271.246047	4041.960747	27619.112334
60.035500	-0.011936	-0.007105	-0.018038	-0.075596	7313.312682	50825.324978	3987.642525	26870.665641
60.539000	-0.012749	-0.008165	-0.012963	-0.075223	7300.940558	50667.149208	4001.242728	26850.009909
61.036500	-0.016008	-0.003579	-0.015909	-0.027504	6799.333255	46141.044598	3862.206508	24343.123023
61.536500	-0.023527	-0.009428	-0.016720	-0.028265	6737.139329	45636.166734	3862.075700	24380.951153
62.037000	-0.011841	-0.003964	-0.016700	-0.027755	6840.501070	46127.683076	3860.806943	24355.576434
62.534500	-0.013613	-0.003603	-0.020007	-0.025606	6803.940050	45949.566685	3846.796294	24248.963226
63.036500	-0.014051	-0.006483	-0.021062	-0.069411	7227.343902	50214.029571	3961.436282	26529.714752
63.535000	-0.019439	-0.004243	-0.023360	-0.031797	6807.323986	46504.695093	3854.061606	24557.514936
64.035500	-0.018414	-0.004009	-0.020273	-0.034006	6837.489871	46751.340718	3867.750237	24668.706409
64.538500	-0.017839	-0.000534	-0.017508	-0.029186	6797.947497	46615.485061	3862.420785	24426.877899
65.035500	-0.011474	-0.002165	-0.023051	-0.065222	7210.845234	50228.045535	3944.163296	26301.522356
65.536500	-0.015180	-0.002345	-0.018378	-0.062963	7150.295671	49962.437993	3950.885119	26179.393863
66.065000	-0.010921	-0.001137	-0.020103	-0.064338	7207.461299	50243.851093	3949.909597	26253.676739
66.536500	-0.013479	-0.002831	-0.021987	-0.065218	7190.357526	50155.016269	3947.112188	26301.349723
67.036500	-0.012176	-0.002296	-0.019090	-0.065071	7202.140700	50197.407888	3954.789081	26293.370207
67.537000	-0.012772	-0.002529	-0.019463	-0.061952	7164.399807	49832.861855	3945.047310	26124.937852
68.035000	-0.012141	-0.001944	-0.015289	-0.065233	7204.141100	50253.461782	3965.936047	26302.119940
68.535500	-0.011934	-0.002041	-0.020011	-0.064906	7202.911274	50207.082500	3951.749216	26284.396731
69.035500	-0.012671	-0.002520	-0.018815	-0.064692	7193.231171	50131.628222	3954.498237	26272.852687
69.535000	-0.014617	-0.003277	-0.024365	-0.062388	7150.167703	49799.130399	3932.704917	26148.414514
70.036000	-0.009903	-0.001967	-0.016823	-0.061365	7187.542331	49830.233632	3950.764984	26093.392715
70.536500	-0.012150	-0.002873	-0.016210	-0.060763	7158.664375	49667.132014	3950.795400	26061.040339
71.039000	-0.015257	-0.003519	-0.019690	-0.053444	7054.604246	48815.279978	3921.023446	25671.611811
71.537000	-0.013940	-0.003425	-0.016842	-0.054853	7081.571676	48974.870303	3932.670196	25746.076645
72.037000	-0.011250	-0.002895	-0.013307	-0.054787	7107.699260	49024.259183	3942.247198	25742.607656
72.535000	-0.012342	-0.003877	-0.012187	-0.053618	7085.182693	48795.795512	3942.110383	25680.800868
73.037500	-0.015321	-0.004147	-0.020381	-0.046435	6985.431870	48013.166189	3900.243878	25304.816695
73.535500	-0.014805	-0.004025	-0.015520	-0.046471	6990.787153	48029.549065	3913.417336	25306.665873
74.035500	-0.012934	-0.004549	-0.019826	-0.047584	7019.868820	48090.945337	3904.809159	25364.526892
74.536000	-0.012874	-0.003183	-0.014674	-0.044764	6992.967252	47939.552392	3911.090395	25218.225126
75.036500	-0.014423	-0.003090	-0.016547	-0.037083	6904.197458	47157.630063	3885.575663	24824.457766
75.536500	-0.013742	-0.003230	-0.017501	-0.037743	6916.977695	47210.780194	3884.800751	24858.014482
76.036500	-0.013687	-0.002925	-0.013155	-0.038593	6925.625360	47329.135110	3898.598173	24901.351009
76.537000	-0.012207	-0.003508	-0.012917	-0.037161	6926.084414	47122.926475	3895.413832	24828.458366
77.037000	-0.017767	-0.003885	-0.017347	-0.030434	6810.196939	46403.686744	3866.071618	24489.215847
77.535000	-0.011969	-0.002294	-0.017651	-0.034231	6900.406792	46948.055468	3875.174777	24680.035919
78.035000	-0.012366	-0.002372	-0.014889	-0.032582	6881.004389	46772.881711	3878.092167	24596.952322
78.535500	-0.012654	-0.002077	-0.014563	-0.031637	6869.354914	46707.103639	3876.471180	24549.499257
79.036000	-0.016243	-0.002155	-0.016252	-0.024546	6769.816498	45988.145105	3853.694368	24196.557866
79.536000	-0.012595	-0.002389	-0.018203	-0.028463	6840.078183	46356.074750	3858.756197	24390.827856
80.036500	-0.011177	-0.002575	-0.012893	-0.029618	6864.250823	46453.369346	3875.555838	24448.412798
80.536500	-0.011564	-0.002109	-0.015923	-0.028104	6846.376871	46348.154137	3863.720735	24372.952926
81.039500	-0.016540	-0.002317	-0.018509	-0.022079	6744.465664	45727.491352	3841.632128	24075.159163
81.537000	-0.015058	-0.002369	-0.013657	-0.024189	6777.452377	45931.403755	3859.455902	24178.958745
82.037500	-0.011878	-0.000856	-0.013225	-0.025098	6815.344064	46172.720607	3862.924030	24223.861965
82.535000	-0.011436	-0.001057	-0.020720	-0.024772	6816.427098	46120.162752	3842.857766	24207.764166
83.035000	-0.011883	-0.001889	-0.012433	-0.024351	6808.344468	45995.217952	3863.038828	24186.945546
83.535500	-0.014040	-0.001506	-0.015758	-0.021555	6762.569365	45755.840530	3847.300657	24049.425125
84.038500	-0.011246	-0.000909	-0.014871	-0.022164	6793.974563	45875.354292	3851.127915	24079.322712
84.536000	-0.012253	-0.001279	-0.016572	-0.021752	6780.846638	45797.793097	3845.727078	24059.098636
85.036500	-0.012801	-0.000062	-0.018803	-0.018293	6744.033093	45576.357100	3831.316949	23890.114844
85.536500	-0.012400	-0.000956	-0.015629	-0.017976	6744.800801	45457.335512	3838.530276	23874.706701
86.037000	-0.011361	-0.000609	-0.019792	-0.019547	6768.746064	45646.095571	3831.983449	23951.220239
86.537500	-0.011514	-0.000463	-0.017859	-0.018557	6758.238171	45562.951340	3834.361772	23902.972264
87.037000	-0.015497	-0.000674	-0.020970	-0.013488	6676.020876	45046.124330	3813.915945	23657.619682
87.537500	-0.013900	0.000175	-0.015110	-0.015322	6706.982682	45307.916732	3833.134414	23746.047826
88.035500	-0.011465	-0.000215	-0.018560	-0.017831	6752.038695	45515.913587	3830.767366	23867.669548
88.535500	-0.013297	-0.001067	-0.019192	-0.017749	6734.532934	45424.146729	3828.972967	23863.669880
89.038500	-0.014089	-0.000164	-0.015817	-0.014449	6697.367402	45189.460449	3829.159513	23703.903663
89.536000	-0.012738	-0.000725	-0.016955	-0.014291	6708.160481	45119.346627	3825.910861	23696.274165
90.036500	-0.011134	-0.000329	-0.021631	-0.016029	6738.569457	45327.763109	3818.579947	23780.232385
90.536500	-0.010037	0.000193	-0.015999	-0.015238	6741.372744	45301.527642	3830.685617	23742.011246
91.037000	-0.015924	-0.000239	-0.018344	-0.009871	6639.830124	44737.603699	3811.462415	23484.260122
91.535000	-0.016280	-0.000114	-0.021362	-0.012930	6663.976232	45046.336239	3811.564596	23630.779974
92.035000	-0.011128	-0.000204	-0.013709	-0.014177	6721.749831	45159.088984	3833.782960	23690.810226
92.535500	-0.011840	-0.000073	-0.017846	-0.013901	6712.771080	45144.828756	3822.709238	23677.490829
93.035500	-0.015144	-0.000319	-0.020661	-0.009093	6639.846527	44654.928423	3803.845098	23447.184666
93.539000	-0.012170	-0.000573	-0.014841	-0.013679	6707.771686	45074.607286	3829.679885	23666.825502
94.038500	-0.012660	0.000067	-0.010321	-0.012548	6693.107356	45026.791952	3838.226367	23612.444929
94.536000	-0.012121	0.000926	-0.013922	-0.011833	6691.512896	45040.792938	3827.350931	23578.111200
95.039500	-0.014179	-0.000672	-0.015839	-0.008325	6641.602800	44546.950883	3813.836228	23410.632013
95.537000	-0.013780	-0.000261	-0.021756	-0.009879	6659.036820	44736.331198	3803.085661	23484.641546
96.036500	-0.012225	0.001097	-0.018534	-0.010397	6677.642610	44917.916292	3812.293617	23509.401390
96.548500	-0.009774	0.000452	-0.015782	-0.011035	6705.520094	44917.185843	3820.707483	23539.882514
97.037500	-0.014662	0.000356	-0.017644	-0.006114	6617.670977	44433.440589	3803.939017	23305.750759
97.537500	-0.011082	0.000988	-0.019582	-0.009443	6679.350660	44814.964942	3807.355675	23463.878361
98.038000	-0.008649	-0.000080	-0.015386	-0.009838	6704.867161	44749.853470	3818.714215	23482.708415
98.536000	-0.010239	0.000426	-0.019015	-0.009199	6684.732377	44736.933858	3808.150572	23452.203377
99.036500	-0.013258	0.000444	-0.021470	-0.004881	6619.185346	44323.745196	3791.598500	23247.481784
99.536500	-0.010278	0.000774	-0.015679	-0.008641	6679.355601	44716.719162	3815.014683	23425.651722
