sample name	sample
index	276
start time	 02-25-2021  11:53:42 AM
880	-0.053541
Peak Time (s)	92.036
Peak Height 	-0.05354
calc peak height	90,93
Baseline Time (s)	11.037
Baseline Value 	-0.002585
subtract baseline	10,4
Abs	-0.013818
Peak Time (s)	90.535
Peak Height 	-0.01382
calc peak height	90,93
Baseline Time (s)	10.036
Baseline Value 	0.001094
subtract baseline	10,3
PK_550	-0.009265
Peak Time (s)	90.035
Peak Height 	-0.009265
calc peak height	90,93
Baseline Time (s)	10.036
Baseline Value 	-1.1012E-4
subtract baseline	10,2
PK_880	-0.011669
Peak Time (s)	90.035
Peak Height 	-0.01167
calc peak height	90,93
Baseline Time (s)	11.037
Baseline Value 	6.0612E-4
subtract baseline	10,1


Time (s)	A880-A510	A880-A775	A880-A975	A880	I510	I775	I975	I880	
0.035500	-0.001227	-0.000083	-0.002355	0.001337	6871.348940	45882.045728	3991.556333	24255.930533
0.536000	-0.003927	-0.000207	-0.004860	0.004157	6821.648780	45592.054497	3978.317447	24117.838824
1.036000	-0.001858	0.000299	-0.002326	0.003245	6848.414228	45731.566028	3986.865358	24162.411036
1.537000	-0.001054	-0.000020	-0.002556	0.000779	6877.981975	45943.583213	3992.449436	24283.398987
2.037000	0.000574	0.000491	0.001301	0.001450	6886.670896	45927.788586	4000.455336	24250.413115
2.537000	0.000851	0.000849	-0.001306	0.002433	6880.253825	45865.839038	3991.436646	24202.146672
3.037500	0.002039	0.000853	0.005502	-0.001303	6925.222088	46237.010442	4018.133430	24386.028528
3.535000	0.001082	0.000925	-0.002125	0.000441	6900.494936	46070.671094	3994.374331	24299.997210
4.035000	-0.000287	0.000017	0.004335	0.000150	6890.666410	46009.534248	4011.439270	24314.337124
4.535000	-0.000503	0.000485	-0.000825	0.000427	6886.181357	46028.485855	3997.676259	24300.710420
5.035500	-0.001246	0.000301	0.001522	0.000172	6881.741020	46035.478007	4004.242090	24313.256567
5.536000	-0.002409	-0.000209	-0.000547	0.004653	6830.806242	45543.191115	3987.789857	24093.646808
6.039500	0.000517	0.000915	0.001715	0.000369	6895.996346	46076.852486	4004.230970	24303.544646
6.536000	0.000786	0.000017	-0.001858	-0.000028	6902.070720	46027.216083	3996.223485	24323.121119
7.037000	0.002583	0.000985	0.007007	0.000357	6914.984064	46085.053052	4017.736050	24304.139732
7.538500	-0.000056	0.000306	-0.001919	0.000057	6893.621924	46047.494280	3995.858278	24318.950888
8.034500	0.001363	0.000834	0.000959	0.000060	6906.542037	46099.553846	4003.100300	24318.764453
8.534500	0.001187	-0.000231	0.006583	-0.000156	6906.906227	46015.296948	4017.966336	24329.429268
9.035000	0.001480	0.000602	0.000073	0.000290	6905.505398	46053.725843	4000.283061	24307.453113
9.536000	-0.003768	-0.000457	-0.003502	0.003605	6828.014862	45621.726750	3983.046293	24144.799726
10.036000	0.000149	0.000000	0.000000	-0.000228	6898.085435	46045.369912	4001.407188	24332.995447
10.536000	-0.000736	0.000060	-0.000731	-0.000829	6895.494208	46110.968466	4001.078405	24362.647965
11.036500	0.000000	0.000629	0.002602	0.000000	6894.647891	46085.179652	4007.416068	24321.738104
11.537000	-0.003508	-0.000321	-0.000938	0.004363	6823.547547	45560.625060	3987.538244	24107.762236
12.037000	-0.000912	0.000398	-0.001332	-0.000274	6888.839779	46089.394184	3998.164768	24335.236152
12.537000	0.000243	0.000870	0.001001	0.000328	6893.870548	46076.522766	4002.531471	24305.587721
13.035000	0.001588	0.000376	0.000125	-0.002000	6927.485637	46259.087426	4006.206887	24420.546439
13.535000	-0.004302	-0.000280	-0.007042	0.004929	6811.400133	45509.129261	3971.040704	24080.163859
14.035000	0.000191	0.000531	0.000322	0.000896	6888.229338	45986.551728	3999.383796	24277.642732
14.535500	-0.002256	0.000707	0.003973	0.002953	6847.447997	45800.501026	4003.407446	24176.678965
15.036000	0.000288	0.000170	-0.001154	0.000230	6895.173943	46016.763524	3997.344239	24310.411572
15.571000	-0.002925	-0.000245	-0.003259	0.004895	6824.008726	45515.850580	3980.450388	24081.820912
16.036500	-0.001472	0.000452	0.006300	-0.000068	6881.867802	46074.364578	4017.015533	24325.087854
16.536500	0.002048	-0.000208	0.002321	-0.000148	6914.710489	46016.744041	4007.076165	24329.027239
17.037000	-0.001297	0.000029	0.001392	-0.000093	6883.692999	46034.873151	4004.585522	24326.343627
17.537500	-0.003871	0.000333	-0.000345	0.002738	6834.863862	45784.872771	3993.080991	24187.227161
18.035000	-0.002076	-0.000663	-0.002961	-0.001169	6886.391590	46072.979815	3996.319969	24379.441017
18.535000	-0.001046	-0.000393	-0.006708	0.000436	6881.169265	45940.619446	3982.956351	24300.270072
19.035500	0.001154	0.000503	-0.001272	0.001371	6892.671108	45936.713284	3994.184170	24254.270983
19.535500	-0.000546	0.000339	-0.003786	0.002730	6864.898815	45786.168617	3984.513406	24187.587917
20.036500	0.000304	-0.000167	0.000328	0.001046	6887.893360	45902.593312	3999.021050	24270.240790
20.536000	-0.002183	0.000631	-0.002759	0.001182	6864.095680	45968.141806	3990.934985	24263.580607
21.036500	-0.001653	0.000190	0.001775	0.001298	6867.839260	45912.991122	4002.036128	24257.859814
21.536500	-0.002817	-0.000212	0.000490	0.002308	6848.213136	45773.484664	3996.255125	24208.302313
22.037500	-0.002011	0.000267	-0.002944	0.001237	6865.153565	45926.581363	3990.332125	24260.850520
22.534500	0.001013	0.000050	-0.000092	0.001504	6890.179489	45878.788112	3996.812902	24247.756121
23.035000	-0.000037	0.000985	0.001610	0.001590	6879.854061	45962.819147	4000.882685	24243.535931
23.535500	-0.002049	-0.000413	-0.001558	0.001043	6866.564522	45878.537018	3994.286575	24270.380909
24.036000	0.001857	0.000492	-0.003162	0.001657	6896.470420	45907.362274	3988.739989	24240.224743
24.536000	0.000101	0.000356	0.000544	0.001461	6882.264601	45913.235918	3998.518649	24249.832075
25.039000	-0.001952	-0.000394	-0.002010	0.001021	6867.636290	45882.581352	3993.208649	24271.458365
25.536500	-0.000939	0.000712	0.001753	0.001802	6869.744648	45914.713260	4000.708378	24233.115338
26.036500	0.000387	0.001375	-0.000771	0.002534	6875.129872	45907.924997	3992.525916	24197.223462
26.537000	-0.000331	0.000069	-0.000752	0.001132	6881.336562	45917.429613	3996.088254	24266.006158
27.037000	-0.001778	-0.000107	-0.002307	0.001258	6867.075504	45887.541678	3991.873841	24259.827871
27.535000	-0.001111	0.000224	-0.003321	0.001149	6874.100299	45931.044408	3989.611677	24265.180294
28.035500	-0.001368	0.000659	-0.000026	0.003109	6854.058205	45780.427396	3992.951768	24169.071968
28.535500	0.000003	0.000681	-0.002462	0.000554	6889.626905	46035.261721	3993.248688	24294.444232
29.041000	0.000781	0.000784	-0.003620	0.000423	6897.905193	46058.517840	3990.677364	24300.879417
29.538500	-0.001359	0.000233	0.003058	0.000190	6880.549337	46026.921830	4008.089780	24312.365163
30.036000	-0.001743	0.000653	-0.002717	0.004119	6841.575209	45680.284501	3983.718801	24119.685321
30.536500	0.000260	0.000278	0.001873	0.000312	6894.175892	46019.372118	4004.777180	24306.383416
31.037000	0.000360	0.000264	-0.000551	0.000038	6897.575391	46045.047095	3999.344049	24319.841428
31.537000	-0.001496	0.000549	-0.001299	0.004232	6842.783246	45659.031992	3986.965283	24114.183271
32.034500	-0.001280	0.000231	-0.002928	0.004657	6840.909282	45586.055260	3981.861452	24093.465178
32.535000	-0.001035	0.000952	0.000619	0.000725	6878.637724	46045.208357	4000.563301	24286.039163
33.035500	0.000723	0.000767	-0.002783	0.000458	6897.065496	46053.461547	3992.685574	24299.201392
33.535500	-0.001742	0.000857	0.002799	0.005779	6826.689925	45537.268142	3993.338854	24038.807174
34.036000	-0.004412	-0.000743	-0.003627	0.003137	6826.433890	45639.588872	3983.896189	24167.670722
34.538500	-0.001043	0.000015	0.001391	0.000212	6883.226683	46003.121317	4003.809852	24311.282742
35.036500	-0.000180	0.000022	-0.002059	0.000549	6888.008976	45970.554329	3994.270876	24294.712885
35.537000	-0.001519	0.000194	-0.001204	0.003623	6848.055473	45683.950170	3988.720451	24143.920352
36.037000	-0.001286	0.000937	-0.001254	0.003250	6853.513378	45793.861574	3989.524747	24162.137089
36.534500	-0.000208	0.000216	0.002278	0.001833	6876.095264	45862.686251	4001.956256	24231.606042
37.034500	0.000695	0.000437	0.000659	0.002158	6881.331374	45852.360017	3997.055134	24215.635937
37.535000	-0.001161	0.000347	0.001289	0.002187	6864.247957	45840.552028	3998.565609	24214.202353
38.035500	-0.001374	-0.000131	-0.003881	0.002869	6856.161375	45726.156999	3983.933009	24180.787018
38.536000	-0.003517	0.000217	-0.001185	0.001560	6848.647782	45889.695875	3993.928115	24245.001669
39.038500	-0.001084	0.000550	0.000523	0.002099	6865.746219	45869.306605	3996.861445	24218.538176
39.536500	-0.002369	0.000446	-0.002841	0.001724	6857.522528	45896.137242	3989.374781	24236.950437
40.036000	-0.001822	0.000212	0.002841	0.001752	6862.208179	45870.263960	4003.580702	24235.565467
40.536500	0.000227	-0.000155	-0.004603	0.001599	6882.158818	45849.049977	3985.294412	24243.062131
41.037500	-0.001599	0.000600	-0.001353	0.002260	6859.633455	45858.382546	3991.753104	24210.634372
41.537500	-0.000399	-0.000220	-0.000147	0.001458	6877.754598	45856.596797	3996.789096	24249.991143
42.035000	-0.002991	-0.000181	0.000497	0.001709	6852.035621	45835.603512	3997.776185	24237.664372
42.535500	-0.001838	0.000747	0.002659	0.001929	6860.464505	45905.594066	4002.672573	24226.867892
43.035500	-0.001862	-0.000175	0.001997	0.001429	6864.761360	45863.943315	4002.264451	24251.425445
43.535500	-0.001917	0.000062	0.000986	0.002019	6858.936894	45829.102672	3998.228787	24222.476665
44.035500	-0.000500	0.000512	0.006791	0.002349	6868.759196	45840.890574	4012.094048	24206.267717
44.536500	-0.002372	-0.000399	-0.004167	0.001512	6859.404348	45833.597431	3986.594585	24247.327504
45.036500	0.000230	0.000911	0.003185	-0.002213	6916.969938	46333.644554	4014.532774	24431.059556
45.537000	-0.000832	0.000628	-0.001653	0.000243	6884.860620	46060.911686	3996.056925	24309.741798
46.037500	-0.001495	0.000229	-0.000037	0.000108	6880.062269	46034.698705	4000.466680	24316.421143
46.537500	-0.000024	0.001019	0.002064	0.000569	6889.253427	46067.455044	4004.610843	24293.734421
47.035000	0.000900	0.000700	0.004045	0.000501	6898.282920	46042.422021	4009.807095	24297.038117
47.535000	-0.003461	-0.000060	-0.004883	0.005000	6818.275913	45523.764437	3976.180598	24076.744232
48.036000	-0.003133	0.000105	-0.004627	0.005107	6820.247409	45529.462006	3976.546047	24071.500791
48.552500	0.000329	0.000939	0.000029	0.000652	6891.706754	46051.200178	3999.261251	24289.632928
49.036000	-0.001444	-0.000159	-0.006102	0.002134	6862.175866	45795.863554	3980.248729	24216.830951
49.536500	-0.004272	-0.000443	-0.000301	0.004978	6811.231255	45488.391685	3987.592416	24077.778978
50.055500	-0.004859	-0.000427	-0.003804	0.004795	6807.622017	45507.839530	3979.347743	24086.695234
50.537000	0.000163	0.001007	0.000401	0.000701	6889.743262	46053.060415	4000.073362	24287.202565
51.034500	-0.001071	0.000037	-0.001314	-0.000092	6885.737966	46035.517632	3997.753050	24326.274322
51.535000	-0.003905	0.000599	-0.002425	0.005525	6809.624987	45536.870305	3980.954751	24051.154613
52.035500	-0.002744	0.001121	-0.003853	0.006734	6809.198345	45469.595298	3974.444814	23992.436567
52.535000	-0.001090	-0.000719	0.003493	0.001799	6868.400095	45773.612088	4005.111299	24233.239510
53.036500	-0.037884	-0.019751	0.001416	0.403611	4368.550561	19198.590461	3339.150934	11368.154009
53.536500	-0.022087	-0.016920	-0.020150	0.015639	6565.312346	42911.521636	3914.160453	23564.691032
54.036500	-0.035686	-0.124079	-0.022264	-0.286343	9986.000442	65535.000000	4917.774747	44302.412507
54.536500	-0.130941	-0.303933	-0.102566	-0.466197	11502.126362	65535.000000	5436.280515	65535.000000
55.036500	-0.040569	-0.167906	-0.004825	-0.330170	10647.374125	65535.000000	5222.697896	48696.782138
55.537000	-0.043785	-0.145191	-0.006678	-0.307454	10200.423143	65535.000000	5095.228572	46363.866898
56.035000	-0.037220	-0.111829	-0.009975	-0.274092	9765.747741	65535.000000	4917.950395	43151.318415
56.535000	-0.028694	-0.114384	-0.011411	-0.276647	9942.255532	65535.000000	4923.142516	43388.726255
57.035000	-0.008789	-0.108761	-0.008574	-0.271024	10176.481685	65535.000000	4910.241191	42868.141912
57.535500	-0.013011	-0.083253	-0.002395	-0.245425	9696.009144	65521.765463	4822.551632	40581.280891
58.038500	-0.009123	-0.070198	-0.002252	-0.228769	9500.172864	65005.106545	4751.017988	39164.185796
58.535500	-0.012966	-0.044859	-0.007967	-0.190001	8886.740351	63115.580416	4571.313858	36068.784421
59.036500	-0.010321	-0.025624	-0.010464	-0.148281	8374.736077	60079.819294	4410.027429	33032.324982
59.536500	-0.013750	-0.020968	-0.007161	-0.123317	8030.559221	57469.783277	4336.810880	31350.096014
60.037000	-0.014671	-0.015043	-0.012369	-0.096653	7717.052612	54927.377934	4235.504524	29656.949731
60.537000	-0.011850	-0.012846	-0.003814	-0.081222	7580.225934	53367.398715	4214.608574	28723.541052
61.037500	-0.009863	-0.011172	-0.009455	-0.064711	7427.493885	51673.995370	4149.494478	27760.888614
61.534500	-0.014442	-0.012502	-0.010394	-0.055888	7291.015438	50548.094038	4121.834790	27261.240005
62.035500	-0.017824	-0.010051	-0.017534	-0.039060	7093.006718	48998.145501	4056.508069	26336.026581
62.538500	-0.013574	-0.009667	-0.013067	-0.042804	7170.229115	49437.907388	4078.482840	26538.791551
63.036500	-0.010664	-0.005747	-0.016274	-0.044986	7220.169350	50095.699504	4075.716915	26657.764105
63.536000	-0.012798	-0.006528	-0.012941	-0.035779	7109.748871	49023.798102	4059.990156	26159.767669
64.066000	-0.013721	-0.004842	-0.014367	-0.046118	7201.221308	50317.364109	4083.935887	26719.707424
64.537000	-0.010181	-0.004607	-0.012333	-0.054732	7322.268853	51292.529665	4113.196731	27196.576009
65.037000	-0.009892	-0.005052	-0.012600	-0.054878	7326.658547	51259.170905	4112.859083	27204.714295
65.540000	-0.009327	-0.004283	-0.013174	-0.054483	7328.378900	51300.818525	4110.167607	27182.655897
66.035000	-0.009931	-0.005105	-0.017989	-0.054385	7321.281425	51198.557158	4096.611884	27177.156527
66.535500	-0.008631	-0.005189	-0.018613	-0.054375	7334.330691	51188.129355	4094.874894	27176.626506
67.035500	-0.010410	-0.004802	-0.013333	-0.054413	7316.727498	51235.221911	4109.532057	27178.710793
67.536000	-0.010217	-0.006168	-0.016587	-0.055872	7333.427159	51245.704921	4104.565575	27260.375157
68.036000	-0.012482	-0.006092	-0.014859	-0.056474	7316.624876	51321.131531	4111.018552	27294.155128
68.539000	-0.009830	-0.005799	-0.013535	-0.056570	7344.421330	51364.375878	4114.963398	27299.497781
69.037000	-0.013290	-0.006324	-0.015661	-0.057410	7317.907866	51399.495357	4111.386256	27346.695789
69.537000	-0.014491	-0.005447	-0.014719	-0.052227	7253.970809	50921.534465	4099.667293	27056.907052
70.037000	-0.009953	-0.005597	-0.015764	-0.056544	7342.915657	51384.137440	4108.699892	27298.077251
70.535000	-0.010309	-0.006191	-0.017660	-0.057228	7346.239462	51394.088177	4105.344618	27336.485222
71.035500	-0.010005	-0.005254	-0.011047	-0.057052	7347.545921	51479.089001	4123.269076	27326.609871
71.535500	-0.011646	-0.005396	-0.018571	-0.051562	7275.701782	50853.821027	4087.305896	27019.976344
72.038500	-0.011298	-0.005664	-0.016917	-0.051958	7283.143782	50867.891758	4092.900784	27041.960503
72.536000	-0.007558	-0.004574	-0.013871	-0.056006	7361.794231	51438.187578	4112.460808	27267.879642
73.036500	-0.007866	-0.004603	-0.009280	-0.056450	7363.181967	51484.527639	4126.538315	27292.766668
73.536500	-0.011309	-0.005693	-0.021096	-0.053051	7293.985331	50985.500531	4084.491272	27102.763975
74.036500	-0.010861	-0.004861	-0.016801	-0.052437	7292.326541	51009.580318	4094.530480	27068.612296
74.537000	-0.008099	-0.005691	-0.016041	-0.057244	7368.905441	51451.724516	4109.871134	27337.384362
75.037500	-0.007406	-0.005264	-0.016852	-0.056954	7373.026205	51467.063207	4106.823608	27321.095669
75.535000	-0.011315	-0.005873	-0.018755	-0.052593	7289.339602	50914.942108	4089.614865	27077.281864
76.035000	-0.011549	-0.005702	-0.019873	-0.053080	7291.866400	50987.636673	4087.893505	27104.364326
76.536000	-0.006984	-0.005321	-0.011327	-0.057579	7383.724420	51530.527670	4123.959624	27356.220550
77.036000	-0.005618	-0.004728	-0.011572	-0.058014	7402.212173	51645.690228	4124.494937	27380.749767
77.539000	-0.010176	-0.005237	-0.016130	-0.053324	7308.116099	51066.126183	4098.800425	27117.936314
78.036500	-0.009888	-0.006124	-0.014418	-0.055184	7329.794798	51174.026635	4108.659388	27221.812364
78.537000	-0.006274	-0.004756	-0.013791	-0.058118	7396.543690	51654.202625	4118.570130	27386.603486
79.036500	-0.007401	-0.005275	-0.015872	-0.058667	7390.597432	51657.530993	4114.295090	27417.511814
79.534500	-0.008832	-0.005727	-0.014949	-0.054139	7329.913181	51102.250827	4104.303581	27163.442288
80.034500	-0.009742	-0.004529	-0.018431	-0.054745	7326.830241	51302.657063	4096.388363	27197.302333
80.535500	-0.007903	-0.005866	-0.016051	-0.059114	7390.050431	51641.422668	4115.044457	27442.788717
81.035500	-0.005956	-0.005352	-0.015454	-0.058854	7407.376048	51669.917105	4115.982642	27428.090117
81.538500	-0.007351	-0.006005	-0.013087	-0.059190	7396.488649	51634.326420	4123.542103	27447.075628
82.036000	-0.010415	-0.006408	-0.013379	-0.056372	7336.481145	51274.483265	4114.848444	27288.395414
82.536000	-0.010275	-0.006737	-0.015791	-0.059839	7373.177741	51625.028258	4117.790931	27483.725263
83.036000	-0.007700	-0.006962	-0.018590	-0.059411	7395.168702	51551.823923	4108.812814	27459.511831
83.537000	-0.008125	-0.007006	-0.018457	-0.058999	7386.583539	51500.848716	4108.040605	27436.271479
84.036500	-0.009346	-0.007080	-0.017560	-0.059118	7375.304923	51505.915591	4110.858068	27442.982285
84.537500	-0.007123	-0.007344	-0.017555	-0.058499	7391.739706	51407.278256	4109.154439	27408.076184
85.035000	-0.010538	-0.007407	-0.011739	-0.058456	7356.404757	51395.480301	4125.266097	27405.639351
85.535000	-0.009350	-0.006843	-0.012602	-0.058035	7364.204969	51411.398982	4121.662515	27381.893434
86.035500	-0.011800	-0.007498	-0.017063	-0.055404	7312.707577	51046.114571	4101.960047	27234.146895
86.541000	-0.010634	-0.008306	-0.013809	-0.057819	7348.940919	51224.315943	4117.683793	27369.724708
87.036500	-0.008350	-0.007533	-0.013149	-0.057270	7366.613532	51249.339773	4117.994243	27338.853140
87.536500	-0.010692	-0.009094	-0.017840	-0.057814	7348.307947	51136.309512	4106.467249	27369.451304
88.036500	-0.011366	-0.008095	-0.014223	-0.056048	7323.591270	51051.321981	4111.599259	27270.232399
88.537500	-0.010366	-0.008033	-0.013637	-0.056425	7337.522033	51099.877396	4114.276086	27291.369936
89.037000	-0.011715	-0.009043	-0.017121	-0.056778	7327.430060	51027.136194	4105.590156	27311.176225
89.537500	-0.011847	-0.009401	-0.014734	-0.056429	7322.579731	50948.945312	4111.237494	27291.601829
90.035000	-0.011669	-0.009265	-0.016795	-0.054280	7302.709085	50726.963786	4099.600882	27171.265690
90.535500	-0.013263	-0.009630	-0.013818	-0.055795	7301.917709	50853.684648	4112.021874	27256.051882
91.038500	-0.012202	-0.009881	-0.013875	-0.055121	7305.807933	50751.670604	4109.990666	27218.289773
91.541500	-0.012607	-0.009317	-0.015170	-0.054375	7294.243934	50731.715114	4104.341452	27176.589747
92.036000	-0.013635	-0.010780	-0.019113	-0.053541	7275.602867	50479.675053	4091.223681	27130.060490
92.537000	-0.014767	-0.010290	-0.016805	-0.054248	7271.352851	50610.836987	4099.486084	27169.481699
93.037000	-0.014941	-0.010766	-0.011357	-0.053942	7266.571693	50525.146473	4113.712438	27152.449024
93.537000	-0.012162	-0.010113	-0.015545	-0.052496	7279.880354	50438.350287	4098.137075	27071.882180
94.034500	-0.014140	-0.010817	-0.014409	-0.051993	7255.136749	50306.523528	4099.876165	27043.918181
94.535000	-0.013574	-0.009990	-0.015921	-0.051670	7257.550253	50361.504654	4094.837849	27025.956251
95.035500	-0.013081	-0.010108	-0.011122	-0.050696	7252.775371	50242.405886	4105.361075	26971.959148
95.593000	-0.018133	-0.011277	-0.018909	-0.047033	7167.015738	49719.107992	4074.130270	26769.909587
96.035500	-0.014238	-0.011036	-0.011880	-0.048562	7220.188274	49910.236849	4097.398966	26854.081440
96.536000	-0.014184	-0.011193	-0.011983	-0.050130	7236.216277	50062.950983	4101.423149	26940.617842
97.036000	-0.015533	-0.011708	-0.015346	-0.049280	7214.506154	49915.177363	4089.877151	26893.681355
97.536500	-0.016503	-0.011403	-0.017780	-0.048289	7195.231669	49840.992291	4080.571456	26839.032372
98.037000	-0.014540	-0.011831	-0.015161	-0.047812	7209.821936	49743.375152	4086.383410	26812.777973
98.537000	-0.014204	-0.011098	-0.014635	-0.046137	7196.664317	49641.959959	4083.259851	26720.756636
99.034500	-0.013949	-0.011201	-0.015986	-0.045921	7197.050444	49607.702290	4079.017862	26708.957151
