sample name	sample
index	1328
start time	 05-03-2021  11:17:13 AM


Wavelength (nm)	Absorbance
494.344910	-0.012365
494.563924	-0.012365
494.782919	-0.012365
495.001897	-0.154677
495.220856	-0.103081
495.439797	-0.111294
495.658719	-0.122579
495.877624	-0.115695
496.096510	-0.100723
496.315378	-0.067731
496.534227	-0.032904
496.753059	-0.044307
496.971872	-0.004903
497.190667	0.019543
497.409444	0.030828
497.628203	0.037099
497.846943	0.039406
498.065665	0.037379
498.284369	0.035830
498.503055	0.035061
498.721723	0.036048
498.940372	0.035569
499.159003	0.035650
499.377616	0.035977
499.596210	0.034370
499.814787	0.033862
500.033345	0.034424
500.251885	0.035511
500.470406	0.035464
500.688910	0.035151
500.907395	0.035202
501.125862	0.035462
501.344311	0.034356
501.562742	0.035088
501.781154	0.035209
501.999548	0.035017
502.217924	0.034340
502.436282	0.034205
502.654621	0.034763
502.872942	0.035496
503.091245	0.036052
503.309530	0.037316
503.527797	0.037445
503.746045	0.037514
503.964275	0.038083
504.182487	0.038273
504.400681	0.038982
504.618856	0.039281
504.837013	0.039219
505.055152	0.038950
505.273273	0.038403
505.491376	0.037387
505.709460	0.037746
505.927526	0.037803
506.145574	0.037483
506.363604	0.037089
506.581615	0.035628
506.799608	0.034622
507.017583	0.035723
507.235540	0.035470
507.453478	0.035606
507.671399	0.035296
507.889301	0.034717
508.107185	0.034716
508.325050	0.035051
508.542898	0.035429
508.760727	0.036107
508.978538	0.035282
509.196330	0.036043
509.414105	0.037199
509.631861	0.036617
509.849599	0.037408
510.067319	0.037935
510.285021	0.037689
510.502704	0.038219
510.720369	0.038227
510.938016	0.039088
511.155645	0.038945
511.373255	0.039150
511.590848	0.040324
511.808422	0.040057
512.025977	0.040331
512.243515	0.040481
512.461034	0.040306
512.678536	0.040264
512.896018	0.040072
513.113483	0.040233
513.330930	0.038922
513.548358	0.038068
513.765768	0.037046
513.983160	0.036573
514.200533	0.037256
514.417889	0.037281
514.635226	0.036837
514.852545	0.035985
515.069845	0.035390
515.287128	0.035992
515.504392	0.035793
515.721638	0.036319
515.938866	0.036812
516.156075	0.036531
516.373267	0.037222
516.590440	0.038436
516.807594	0.038687
517.024731	0.039106
517.241850	0.038448
517.458950	0.038664
517.676032	0.039047
517.893095	0.038356
518.110141	0.038066
518.327168	0.037295
518.544177	0.037245
518.761168	0.037615
518.978141	0.037139
519.195095	0.037356
519.412031	0.037695
519.628949	0.037872
519.845849	0.038385
520.062731	0.038806
520.279594	0.038788
520.496439	0.038645
520.713266	0.038090
520.930074	0.038252
521.146865	0.039256
521.363637	0.039751
521.580391	0.039090
521.797127	0.039047
522.013844	0.038526
522.230543	0.039146
522.447224	0.038733
522.663887	0.039305
522.880532	0.039485
523.097158	0.039061
523.313766	0.039292
523.530356	0.039364
523.746928	0.039513
523.963481	0.039370
524.180017	0.038538
524.396534	0.038752
524.613032	0.038858
524.829513	0.038692
525.045975	0.039070
525.262420	0.037967
525.478845	0.039734
525.695253	0.040293
525.911643	0.040350
526.128014	0.041566
526.344367	0.041700
526.560702	0.041593
526.777018	0.042352
526.993316	0.042571
527.209597	0.043338
527.425858	0.042368
527.642102	0.042717
527.858328	0.043398
528.074535	0.043224
528.290724	0.043310
528.506894	0.043194
528.723047	0.043071
528.939181	0.042437
529.155297	0.042271
529.371395	0.042465
529.587475	0.042187
529.803536	0.042132
530.019579	0.042345
530.235604	0.043034
530.451611	0.043134
530.667600	0.043280
530.883570	0.044101
531.099522	0.044215
531.315456	0.044678
531.531372	0.044338
531.747269	0.044809
531.963148	0.044758
532.179009	0.044301
532.394852	0.044794
532.610676	0.045239
532.826482	0.044914
533.042271	0.045333
533.258040	0.044677
533.473792	0.045499
533.689525	0.046045
533.905240	0.046074
534.120937	0.046503
534.336616	0.046051
534.552277	0.045778
534.767919	0.046121
534.983543	0.046171
535.199149	0.047046
535.414736	0.046961
535.630306	0.046434
535.845857	0.046092
536.061390	0.046228
536.276904	0.046766
536.492401	0.047013
536.707879	0.047005
536.923339	0.046804
537.138781	0.046407
537.354204	0.046444
537.569610	0.046721
537.784997	0.047009
538.000366	0.046854
538.215716	0.046959
538.431049	0.047054
538.646363	0.047591
538.861659	0.047638
539.076937	0.048039
539.292196	0.048349
539.507438	0.048350
539.722661	0.048307
539.937866	0.048431
540.153052	0.048656
540.368221	0.048323
540.583371	0.048317
540.798503	0.048308
541.013617	0.047879
541.228712	0.047817
541.443789	0.047893
541.658848	0.048535
541.873889	0.049028
542.088912	0.048947
542.303916	0.049536
542.518902	0.049380
542.733870	0.049902
542.948820	0.050328
543.163752	0.050363
543.378665	0.050155
543.593560	0.050166
543.808437	0.049937
544.023295	0.050032
544.238136	0.049812
544.452958	0.050073
544.667762	0.049773
544.882548	0.049495
545.097315	0.049179
545.312064	0.049322
545.526795	0.049276
545.741508	0.049073
545.956203	0.049491
546.170879	0.049524
546.385537	0.049564
546.600177	0.049666
546.814799	0.050019
547.029402	0.050376
547.243988	0.050466
547.458555	0.050407
547.673103	0.050643
547.887634	0.050253
548.102146	0.050846
548.316640	0.050766
548.531116	0.050598
548.745574	0.050488
548.960013	0.050394
549.174435	0.050494
549.388838	0.050345
549.603222	0.050417
549.817589	0.050686
550.031937	0.050473
550.246267	0.051043
550.460579	0.051363
550.674873	0.052101
550.889148	0.052135
551.103405	0.052552
551.317644	0.052999
551.531865	0.053067
551.746068	0.053044
551.960252	0.052967
552.174418	0.052659
552.388566	0.052863
552.602696	0.052869
552.816807	0.052882
553.030900	0.053088
553.244975	0.053107
553.459032	0.053222
553.673070	0.053079
553.887091	0.053375
554.101093	0.053496
554.315077	0.053641
554.529042	0.053095
554.742990	0.053327
554.956919	0.053258
555.170830	0.053501
555.384722	0.053871
555.598597	0.054102
555.812453	0.054328
556.026291	0.054522
556.240111	0.054735
556.453913	0.055002
556.667696	0.055030
556.881461	0.055113
557.095208	0.055214
557.308937	0.055154
557.522647	0.055341
557.736339	0.054694
557.950013	0.054554
558.163669	0.054403
558.377307	0.054306
558.590926	0.054654
558.804527	0.054289
559.018110	0.054379
559.231675	0.054257
559.445221	0.054490
559.658749	0.054729
559.872259	0.054906
560.085751	0.055001
560.299225	0.055499
560.512680	0.055526
560.726117	0.055745
560.939536	0.055604
561.152937	0.055455
561.366319	0.055550
561.579683	0.055741
561.793029	0.055365
562.006357	0.055519
562.219667	0.055336
562.432958	0.055253
562.646231	0.055168
562.859486	0.055465
563.072723	0.055673
563.285941	0.055462
563.499141	0.055638
563.712323	0.056106
563.925487	0.056078
564.138632	0.055896
564.351760	0.055757
564.564869	0.056009
564.777960	0.055846
564.991032	0.055499
565.204087	0.055635
565.417123	0.055687
565.630141	0.055723
565.843140	0.055880
566.056122	0.056307
566.269085	0.056173
566.482030	0.056196
566.694957	0.056025
566.907866	0.056247
567.120756	0.056220
567.333628	0.056348
567.546482	0.056095
567.759318	0.055896
567.972135	0.055962
568.184935	0.056471
568.397716	0.056233
568.610478	0.056182
568.823223	0.056536
569.035949	0.056581
569.248657	0.056756
569.461347	0.056785
569.674019	0.056905
569.886672	0.056700
570.099308	0.056405
570.311925	0.056739
570.524523	0.057326
570.737104	0.057290
570.949666	0.057363
571.162210	0.057107
571.374736	0.057688
571.587244	0.057744
571.799733	0.057774
572.012205	0.058081
572.224658	0.058186
572.437092	0.058236
572.649509	0.058314
572.861907	0.058226
573.074287	0.058158
573.286649	0.057757
573.498993	0.057609
573.711318	0.057593
573.923625	0.057777
574.135914	0.057520
574.348185	0.057274
574.560438	0.057462
574.772672	0.057371
574.984888	0.057319
575.197086	0.057327
575.409266	0.057490
575.621427	0.057464
575.833570	0.057268
576.045695	0.057440
576.257802	0.057548
576.469890	0.057405
576.681961	0.057739
576.894013	0.058152
577.106046	0.058386
577.318062	0.058378
577.530059	0.058793
577.742039	0.059254
577.954000	0.059493
578.165942	0.059335
578.377867	0.059254
578.589773	0.059324
578.801661	0.059208
579.013531	0.059117
579.225382	0.059369
579.437216	0.059332
579.649031	0.059021
579.860828	0.059117
580.072606	0.059621
580.284367	0.059945
580.496109	0.060137
580.707833	0.060309
580.919539	0.060444
581.131227	0.060688
581.342896	0.060719
581.554547	0.061297
581.766180	0.061094
581.977795	0.060990
582.189391	0.060829
582.400969	0.060864
582.612529	0.061112
582.824071	0.061189
583.035595	0.060989
583.247100	0.060897
583.458587	0.060518
583.670056	0.060662
583.881506	0.060314
584.092939	0.060281
584.304353	0.059959
584.515749	0.059545
584.727127	0.059683
584.938486	0.059699
585.149828	0.059800
585.361151	0.059815
585.572456	0.060203
585.783742	0.060720
585.995011	0.061126
586.206261	0.061341
586.417493	0.061771
586.628706	0.061984
586.839902	0.061926
587.051079	0.062305
587.262238	0.062166
587.473379	0.062100
587.684502	0.062045
587.895606	0.062068
588.106692	0.061926
588.317760	0.062079
588.528810	0.062157
588.739841	0.062007
588.950855	0.061802
589.161850	0.061811
589.372827	0.061493
589.583785	0.061841
589.794726	0.061957
590.005648	0.062444
590.216552	0.062173
590.427437	0.061925
590.638305	0.062310
590.849154	0.062446
591.059985	0.062530
591.270798	0.062752
591.481592	0.062384
591.692369	0.062493
591.903127	0.062656
592.113867	0.063230
592.324588	0.063681
592.535292	0.064065
592.745977	0.063906
592.956644	0.064528
593.167293	0.064981
593.377923	0.065361
593.588536	0.065436
593.799130	0.065435
594.009706	0.065334
594.220263	0.065084
594.430803	0.065016
594.641324	0.065390
594.851827	0.065306
595.062312	0.065055
595.272778	0.065158
595.483227	0.064996
595.693657	0.065075
595.904069	0.065291
596.114462	0.065956
596.324838	0.065915
596.535195	0.065858
596.745534	0.065889
596.955855	0.066268
597.166157	0.066212
597.376441	0.066417
597.586707	0.066328
597.796955	0.066051
598.007185	0.065609
598.217396	0.065500
598.427589	0.065735
598.637764	0.065463
598.847921	0.065290
599.058060	0.065562
599.268180	0.065562
599.478282	0.065618
599.688366	0.065700
599.898431	0.065824
600.108479	0.066074
600.318508	0.066066
600.528519	0.066248
600.738511	0.066089
600.948486	0.065980
601.158442	0.066319
601.368380	0.066221
601.578300	0.066493
601.788202	0.066646
601.998085	0.066824
602.207950	0.066896
602.417797	0.066945
602.627626	0.067614
602.837436	0.067674
603.047228	0.067594
603.257002	0.068060
603.466758	0.068147
603.676496	0.068132
603.886215	0.068257
604.095916	0.068253
604.305599	0.068474
604.515264	0.068165
604.724910	0.068356
604.934538	0.068216
605.144148	0.068260
605.353740	0.068418
605.563314	0.068409
605.772869	0.068356
605.982406	0.068357
606.191925	0.068436
606.401425	0.068565
606.610908	0.068333
606.820372	0.068412
607.029818	0.068359
607.239246	0.067945
607.448655	0.067917
607.658047	0.067771
607.867420	0.067847
608.076775	0.068008
608.286111	0.067736
608.495430	0.067937
608.704730	0.068027
608.914012	0.068149
609.123275	0.068837
609.332521	0.068976
609.541748	0.069259
609.750957	0.069544
609.960148	0.069816
610.169321	0.070147
610.378475	0.070418
610.587611	0.070501
610.796729	0.070624
611.005829	0.070518
611.214910	0.070347
611.423974	0.070218
611.633019	0.070403
611.842045	0.070270
612.051054	0.070315
612.260044	0.070017
612.469017	0.070139
612.677970	0.069951
612.886906	0.069592
613.095824	0.069757
613.304723	0.070059
613.513604	0.069847
613.722467	0.069797
613.931311	0.069737
614.140138	0.069837
614.348946	0.069870
614.557736	0.069957
614.766507	0.070300
614.975261	0.070303
615.183996	0.069919
615.392713	0.069761
615.601412	0.069820
615.810092	0.070033
616.018754	0.070262
616.227399	0.070191
616.436024	0.070153
616.644632	0.069828
616.853222	0.069906
617.061793	0.070217
617.270346	0.070437
617.478880	0.070414
617.687397	0.070265
617.895895	0.070162
618.104375	0.070378
618.312837	0.070392
618.521281	0.070748
618.729706	0.070783
618.938113	0.071006
619.146502	0.071104
619.354873	0.071254
619.563226	0.071501
619.771560	0.071395
619.979876	0.071381
620.188174	0.071523
620.396453	0.071447
620.604715	0.071308
620.812958	0.071178
621.021183	0.071313
621.229390	0.071183
621.437578	0.071201
621.645748	0.071640
621.853900	0.071755
622.062034	0.071918
622.270150	0.072084
622.478247	0.072596
622.686326	0.072825
622.894387	0.072774
623.102430	0.073107
623.310454	0.073212
623.518461	0.073419
623.726449	0.073742
623.934418	0.073702
624.142370	0.073918
624.350303	0.074054
624.558218	0.073863
624.766115	0.074102
624.973994	0.073920
625.181855	0.073921
625.389697	0.073821
625.597521	0.073605
625.805327	0.073592
626.013114	0.073632
626.220883	0.073750
626.428634	0.074150
626.636367	0.074234
626.844082	0.074574
627.051778	0.074666
627.259457	0.074615
627.467117	0.074853
627.674758	0.075011
627.882382	0.075115
628.089987	0.075075
628.297574	0.075019
628.505143	0.074924
628.712694	0.074903
628.920226	0.074967
629.127740	0.075297
629.335236	0.075211
629.542714	0.075340
629.750174	0.075399
629.957615	0.075403
630.165038	0.075507
630.372443	0.075518
630.579829	0.075476
630.787198	0.075728
630.994548	0.075861
631.201880	0.075878
631.409194	0.076017
631.616489	0.076132
631.823766	0.076170
632.031025	0.076242
632.238266	0.076509
632.445489	0.076607
632.652693	0.076402
632.859879	0.076184
633.067047	0.076332
633.274197	0.076446
633.481329	0.076607
633.688442	0.076775
633.895537	0.076883
634.102614	0.077028
634.309672	0.077161
634.516713	0.077526
634.723735	0.077603
634.930739	0.077787
635.137724	0.077896
635.344692	0.077698
635.551641	0.077585
635.758572	0.077509
635.965485	0.077528
636.172379	0.077320
636.379256	0.077099
636.586114	0.077156
636.792954	0.076930
636.999775	0.076709
637.206579	0.076776
637.413364	0.076983
637.620131	0.077006
637.826880	0.076893
638.033610	0.077369
638.240323	0.077540
638.447017	0.077705
638.653692	0.077942
638.860350	0.078169
639.066990	0.078282
639.273611	0.078290
639.480214	0.078350
639.686798	0.078416
639.893365	0.078310
640.099913	0.078335
640.306443	0.078279
640.512955	0.078265
640.719449	0.078165
640.925924	0.078239
641.132381	0.078195
641.338820	0.078542
641.545241	0.078829
641.751644	0.078860
641.958028	0.078943
642.164394	0.078919
642.370742	0.079163
642.577071	0.079250
642.783383	0.079440
642.989676	0.079459
643.195951	0.079361
643.402207	0.079389
643.608446	0.079515
643.814666	0.079646
644.020868	0.079833
644.227052	0.079832
644.433218	0.080040
644.639365	0.079904
644.845494	0.079977
645.051605	0.080105
645.257698	0.080133
645.463772	0.080166
645.669828	0.080304
645.875866	0.080527
646.081886	0.080594
646.287888	0.080858
646.493871	0.080932
646.699836	0.081094
646.905783	0.081105
647.111712	0.081349
647.317622	0.081470
647.523514	0.081525
647.729388	0.081652
647.935244	0.081721
648.141082	0.081735
648.346901	0.081741
648.552702	0.081855
648.758485	0.081894
648.964250	0.081748
649.169996	0.081792
649.375724	0.081986
649.581434	0.081954
649.787126	0.081985
649.992800	0.082011
650.198455	0.082245
650.404092	0.082441
650.609711	0.082747
650.815311	0.082870
651.020894	0.083092
651.226458	0.082973
651.432004	0.083056
651.637532	0.083352
651.843041	0.083340
652.048532	0.083422
652.254006	0.083501
652.459460	0.083374
652.664897	0.083642
652.870315	0.083759
653.075716	0.083937
653.281097	0.084034
653.486461	0.084038
653.691807	0.084292
653.897134	0.084395
654.102443	0.084467
654.307734	0.084810
654.513006	0.084987
654.718261	0.085234
654.923497	0.085353
655.128715	0.085556
655.333915	0.085720
655.539096	0.086001
655.744259	0.086275
655.949404	0.086555
656.154531	0.086609
656.359640	0.086651
656.564730	0.086446
656.769802	0.086636
656.974856	0.086616
657.179892	0.086631
657.384909	0.086634
657.589908	0.086824
657.794889	0.086802
657.999852	0.086903
658.204797	0.086940
658.409723	0.087328
658.614631	0.087518
658.819521	0.087611
659.024393	0.087688
659.229246	0.087810
659.434081	0.087852
659.638898	0.088043
659.843697	0.088220
660.048478	0.088257
660.253240	0.088195
660.457984	0.088213
660.662710	0.088379
660.867417	0.088539
661.072107	0.088658
661.276778	0.088479
661.481431	0.088390
661.686066	0.088398
661.890682	0.088430
662.095281	0.088456
662.299861	0.088518
662.504422	0.088473
662.708966	0.088497
662.913491	0.088474
663.117999	0.088531
663.322488	0.088661
663.526958	0.088624
663.731411	0.088753
663.935845	0.088881
664.140261	0.088821
664.344659	0.088955
664.549038	0.089133
664.753400	0.089226
664.957743	0.089478
665.162068	0.089560
665.366375	0.089782
665.570663	0.089800
665.774933	0.089827
665.979185	0.090180
666.183419	0.090200
666.387635	0.090450
666.591832	0.090489
666.796011	0.090524
667.000172	0.090579
667.204315	0.090525
667.408439	0.090642
667.612545	0.090796
667.816634	0.090777
668.020703	0.091062
668.224755	0.091045
668.428788	0.091281
668.632803	0.091353
668.836800	0.091471
669.040779	0.091898
669.244739	0.091977
669.448681	0.092157
669.652605	0.092172
669.856511	0.092267
670.060399	0.092177
670.264268	0.092291
670.468119	0.092521
670.671952	0.092904
670.875767	0.092865
671.079563	0.093086
671.283341	0.093251
671.487101	0.093476
671.690843	0.093680
671.894567	0.094171
672.098272	0.094323
672.301959	0.094566
672.505628	0.094687
672.709278	0.094856
672.912911	0.095037
673.116525	0.095198
673.320121	0.095396
673.523699	0.095541
673.727258	0.095638
673.930799	0.095616
674.134322	0.095659
674.337827	0.095670
674.541314	0.095853
674.744782	0.095869
674.948232	0.095851
675.151664	0.095919
675.355078	0.096073
675.558474	0.096075
675.761851	0.096229
675.965210	0.096424
676.168551	0.096540
676.371873	0.096586
676.575178	0.096760
676.778464	0.096825
676.981732	0.096881
677.184981	0.096660
677.388213	0.096679
677.591426	0.096623
677.794621	0.096808
677.997798	0.096686
678.200956	0.096722
678.404097	0.096820
678.607219	0.097078
678.810323	0.097248
679.013408	0.097561
679.216476	0.097633
679.419525	0.097751
679.622556	0.097589
679.825569	0.097809
680.028563	0.097885
680.231540	0.097991
680.434498	0.098045
680.637438	0.098018
680.840359	0.098204
681.043263	0.098545
681.246148	0.098771
681.449015	0.098923
681.651864	0.099051
681.854694	0.099140
682.057506	0.099158
682.260301	0.099025
682.463076	0.099120
682.665834	0.099038
682.868573	0.099032
683.071295	0.099190
683.273998	0.099306
683.476682	0.099401
683.679349	0.099541
683.881997	0.099776
684.084627	0.099874
684.287239	0.099936
684.489833	0.100059
684.692408	0.100044
684.894965	0.100189
685.097504	0.100251
685.300025	0.100262
685.502527	0.100101
685.705012	0.099987
685.907478	0.100211
686.109925	0.100275
686.312355	0.100362
686.514766	0.100371
686.717159	0.100508
686.919534	0.100603
687.121891	0.100703
687.324230	0.100953
687.526550	0.101178
687.728852	0.101391
687.931136	0.101540
688.133401	0.101585
688.335649	0.101797
688.537878	0.101621
688.740089	0.101627
688.942281	0.101805
689.144456	0.101777
689.346612	0.101722
689.548750	0.101696
689.750870	0.101698
689.952971	0.101745
690.155055	0.101758
690.357120	0.101767
690.559167	0.101668
690.761195	0.101562
690.963206	0.101727
691.165198	0.101848
691.367172	0.101744
691.569128	0.102149
691.771065	0.102477
691.972984	0.102553
692.174885	0.102759
692.376768	0.102993
692.578633	0.103148
692.780479	0.103381
692.982308	0.103421
693.184118	0.103736
693.385909	0.103424
693.587683	0.103168
693.789438	0.103252
693.991175	0.103312
694.192894	0.103482
694.394595	0.103557
694.596277	0.103478
694.797941	0.103799
694.999587	0.103973
695.201215	0.104290
695.402824	0.104553
695.604416	0.104592
695.805989	0.104740
696.007543	0.104804
696.209080	0.104998
696.410598	0.105144
696.612099	0.105104
696.813580	0.104968
697.015044	0.104821
697.216490	0.104938
697.417917	0.105080
697.619326	0.104980
697.820717	0.104928
698.022089	0.104955
698.223444	0.105243
698.424780	0.105344
698.626098	0.105302
698.827397	0.105556
699.028679	0.105412
699.229942	0.105308
699.431187	0.105438
699.632414	0.105557
699.833622	0.105447
700.034813	0.105262
700.235985	0.105196
700.437139	0.105273
700.638274	0.105354
700.839392	0.105575
701.040491	0.105745
701.241572	0.105782
701.442635	0.105703
701.643679	0.105968
701.844706	0.106056
702.045714	0.106034
702.246704	0.106202
702.447675	0.106099
702.648629	0.105992
702.849564	0.106014
703.050481	0.106052
703.251380	0.106058
703.452260	0.105799
703.653122	0.105666
703.853966	0.105718
704.054792	0.105480
704.255600	0.105365
704.456389	0.105360
704.657160	0.105339
704.857913	0.105135
705.058648	0.105186
705.259365	0.104966
705.460063	0.104784
705.660743	0.104633
705.861405	0.104601
706.062048	0.104432
706.262674	0.104417
706.463281	0.104427
706.663870	0.104350
706.864441	0.104415
707.064993	0.104707
707.265527	0.104968
707.466043	0.105174
707.666541	0.105231
707.867021	0.105587
708.067482	0.105619
708.267925	0.105368
708.468350	0.105442
708.668757	0.105462
708.869145	0.105390
709.069516	0.105106
709.269868	0.104959
709.470201	0.104964
709.670517	0.104915
709.870814	0.104761
710.071093	0.104764
710.271354	0.104774
710.471597	0.104505
710.671821	0.104665
710.872028	0.104778
711.072216	0.104702
711.272385	0.104756
711.472537	0.104668
711.672670	0.104637
711.872785	0.104764
712.072882	0.104825
712.272961	0.105024
712.473021	0.104989
712.673063	0.104965
712.873087	0.105036
713.073093	0.105026
713.273081	0.105127
713.473050	0.105364
713.673001	0.105513
713.872934	0.105565
714.072849	0.105529
714.272745	0.105523
714.472623	0.105330
714.672483	0.105205
714.872325	0.105211
715.072148	0.105133
715.271954	0.105035
715.471741	0.105012
715.671509	0.104967
715.871260	0.104813
716.070992	0.104577
716.270707	0.104760
716.470403	0.104708
716.670080	0.104589
716.869740	0.104326
717.069381	0.104016
717.269004	0.103736
717.468609	0.103480
717.668195	0.103482
717.867764	0.103548
718.067314	0.103490
718.266846	0.103566
718.466360	0.103630
718.665855	0.103627
718.865332	0.103811
719.064791	0.103814
719.264232	0.103921
719.463655	0.103919
719.663059	0.103843
719.862445	0.103736
720.061813	0.103615
720.261163	0.103497
720.460494	0.103555
720.659807	0.103328
720.859102	0.103244
721.058379	0.103203
721.257638	0.102999
721.456878	0.102893
721.656100	0.102874
721.855304	0.102808
722.054490	0.102833
722.253657	0.102678
722.452806	0.102607
722.651937	0.102617
722.851050	0.102449
723.050145	0.102373
723.249221	0.102271
723.448279	0.102171
723.647319	0.102334
723.846340	0.101981
724.045344	0.101815
724.244329	0.101743
724.443296	0.101560
724.642245	0.101420
724.841175	0.101446
725.040088	0.101341
725.238982	0.101226
725.437857	0.100976
725.636715	0.100963
725.835554	0.101072
726.034376	0.100955
726.233179	0.100760
726.431963	0.100762
726.630730	0.100634
726.829478	0.100588
727.028208	0.100476
727.226920	0.100238
727.425614	0.100115
727.624289	0.100112
727.822946	0.100083
728.021585	0.100024
728.220206	0.100012
728.418808	0.099881
728.617392	0.099803
728.815958	0.099907
729.014506	0.100037
729.213036	0.100000
729.411547	0.099770
729.610040	0.099714
729.808515	0.099631
730.006972	0.099565
730.205410	0.099562
730.403831	0.099357
730.602233	0.099134
730.800616	0.098880
730.998982	0.098974
731.197329	0.098836
731.395658	0.098759
731.593969	0.098864
731.792262	0.098823
731.990536	0.098925
732.188793	0.099020
732.387031	0.099002
732.585250	0.098994
732.783452	0.098907
732.981635	0.098842
733.179800	0.098568
733.377947	0.098329
733.576076	0.098002
733.774186	0.097839
733.972278	0.097975
734.170352	0.097818
734.368408	0.097678
734.566446	0.097610
734.764465	0.097502
734.962466	0.097645
735.160449	0.097487
735.358413	0.097539
735.556360	0.097342
735.754288	0.097079
735.952198	0.097018
736.150090	0.097028
736.347963	0.096893
736.545818	0.096665
736.743655	0.096627
736.941474	0.096711
737.139275	0.096468
737.337057	0.096408
737.534821	0.096353
737.732567	0.096204
737.930295	0.096055
738.128005	0.095780
738.325696	0.095966
738.523369	0.095691
738.721024	0.095732
738.918660	0.095875
739.116279	0.095794
739.313879	0.095588
739.511461	0.095802
739.709024	0.095751
739.906570	0.096053
740.104097	0.095959
740.301606	0.095930
740.499097	0.095941
740.696569	0.095786
740.894024	0.095824
741.091460	0.095826
741.288878	0.095675
741.486277	0.095624
741.683659	0.095610
741.881022	0.095524
742.078367	0.095702
742.275694	0.095492
742.473002	0.095539
742.670293	0.095351
742.867565	0.095183
743.064819	0.095026
743.262054	0.094984
743.459272	0.094538
743.656471	0.094446
743.853652	0.094255
744.050815	0.094162
744.247959	0.094101
744.445085	0.093989
744.642194	0.094164
744.839283	0.094244
745.036355	0.094171
745.233408	0.094116
745.430444	0.094330
745.627461	0.094229
745.824459	0.094136
746.021440	0.093886
746.218402	0.093985
746.415346	0.093867
746.612272	0.093640
746.809180	0.093354
747.006069	0.093346
747.202940	0.092940
747.399793	0.092772
747.596628	0.092851
747.793444	0.092978
747.990243	0.093009
748.187023	0.093062
748.383784	0.093079
748.580528	0.093215
748.777253	0.093239
748.973960	0.093255
749.170649	0.093365
749.367320	0.093242
749.563973	0.093122
749.760607	0.092933
749.957223	0.092822
750.153821	0.092566
750.350400	0.092438
750.546962	0.092317
750.743505	0.092071
750.940030	0.092164
751.136536	0.091842
751.333025	0.091772
751.529495	0.091829
751.725947	0.091553
751.922381	0.091498
752.118796	0.091648
752.315194	0.091680
752.511573	0.091854
752.707934	0.091691
752.904276	0.091738
753.100601	0.091689
753.296907	0.091523
753.493195	0.091551
753.689465	0.091709
753.885716	0.091499
754.081949	0.091378
754.278164	0.091353
754.474361	0.091090
754.670540	0.090972
754.866700	0.090886
755.062843	0.090745
755.258967	0.090644
755.455072	0.090563
755.651160	0.090401
755.847229	0.090364
756.043280	0.090213
756.239313	0.090154
756.435328	0.090117
756.631324	0.089923
756.827302	0.089754
757.023262	0.089781
757.219204	0.089745
757.415127	0.089910
757.611033	0.090045
757.806920	0.089746
758.002788	0.089763
758.198639	0.089707
758.394471	0.089800
758.590286	0.089841
758.786081	0.089766
758.981859	0.089597
759.177619	0.089362
759.373360	0.088941
759.569083	0.089214
759.764788	0.089160
759.960474	0.089187
760.156143	0.089097
760.351793	0.088994
760.547425	0.088871
760.743038	0.088656
760.938634	0.088548
761.134211	0.088501
761.329770	0.088206
761.525311	0.088123
761.720833	0.087901
761.916338	0.087755
762.111824	0.087699
762.307292	0.087722
762.502741	0.087496
762.698173	0.087416
762.893586	0.087661
763.088981	0.087583
763.284358	0.087444
763.479716	0.087571
763.675057	0.087657
763.870379	0.087858
764.065683	0.087905
764.260968	0.088243
764.456236	0.088535
764.651485	0.088298
764.846716	0.088324
765.041929	0.088311
765.237123	0.088287
765.432299	0.088118
765.627457	0.087875
765.822597	0.087691
766.017719	0.087647
766.212822	0.087310
766.407907	0.087473
766.602974	0.087459
766.798023	0.087513
766.993054	0.087425
767.188066	0.087553
767.383060	0.087372
767.578036	0.087499
767.772993	0.087440
767.967933	0.087446
768.162854	0.087209
768.357757	0.087218
768.552642	0.087355
768.747508	0.087319
768.942356	0.087252
769.137186	0.087345
769.331998	0.087216
769.526792	0.087304
769.721567	0.087167
769.916324	0.087135
770.111063	0.087074
770.305784	0.086866
770.500486	0.086901
770.695171	0.086837
770.889837	0.086951
771.084484	0.086885
771.279114	0.086798
771.473725	0.086990
771.668318	0.087037
771.862893	0.087141
772.057450	0.087166
772.251988	0.087081
772.446509	0.087088
772.641011	0.086942
772.835494	0.086721
773.029960	0.086609
773.224407	0.086654
773.418836	0.086850
773.613247	0.086682
773.807640	0.086666
774.002014	0.086584
774.196370	0.086421
774.390708	0.086570
774.585028	0.086908
774.779330	0.087034
774.973613	0.086954
775.167878	0.086564
775.362125	0.086863
775.556354	0.086910
775.750564	0.087059
775.944756	0.087239
776.138930	0.087142
776.333086	0.087235
776.527223	0.087195
776.721343	0.087195
776.915444	0.087460
777.109526	0.087516
777.303591	0.087542
777.497637	0.087467
777.691666	0.087304
777.885676	0.087554
778.079667	0.087490
778.273641	0.087565
778.467596	0.087595
778.661533	0.087580
778.855452	0.087380
779.049352	0.087521
779.243235	0.087642
779.437099	0.088064
779.630945	0.087884
779.824773	0.087871
780.018582	0.087740
780.212373	0.087890
780.406146	0.087903
780.599901	0.087893
780.793638	0.087754
780.987356	0.087979
781.181056	0.087576
781.374738	0.087834
781.568402	0.087860
781.762047	0.088033
781.955674	0.088049
782.149283	0.087958
782.342874	0.088066
782.536447	0.088067
782.730001	0.088039
782.923537	0.088267
783.117055	0.088168
783.310555	0.088146
783.504036	0.087862
783.697499	0.087762
783.890944	0.087589
784.084371	0.087535
784.277780	0.087445
784.471170	0.087326
784.664542	0.087329
784.857896	0.087252
785.051231	0.087155
785.244549	0.087603
785.437848	0.087564
785.631129	0.087900
785.824392	0.087970
786.017636	0.088267
786.210863	0.088230
786.404071	0.088308
786.597260	0.088337
786.790432	0.088535
786.983585	0.088345
787.176721	0.088525
787.369838	0.088486
787.562936	0.088512
787.756017	0.088366
787.949079	0.088611
788.142123	0.088660
788.335149	0.088569
788.528156	0.088635
788.721146	0.088780
788.914117	0.088794
789.107070	0.088898
789.300005	0.089167
789.492921	0.089394
789.685819	0.089525
789.878699	0.089723
790.071561	0.090075
790.264405	0.089901
790.457230	0.089829
790.650037	0.090060
790.842826	0.090148
791.035597	0.090024
791.228349	0.090084
791.421084	0.089781
791.613800	0.089758
791.806497	0.089694
791.999177	0.089972
792.191838	0.090224
792.384481	0.090243
792.577106	0.090291
792.769713	0.090550
792.962301	0.090590
793.154871	0.090842
793.347423	0.090911
793.539957	0.090953
793.732473	0.090936
793.924970	0.091009
794.117449	0.091026
794.309910	0.091191
794.502353	0.091154
794.694777	0.091267
794.887183	0.091501
795.079571	0.091603
795.271941	0.091887
795.464293	0.092155
795.656626	0.092152
795.848941	0.092304
796.041238	0.092611
796.233516	0.092644
796.425777	0.092725
796.618019	0.092813
796.810243	0.092925
797.002449	0.093182
797.194636	0.093231
797.386805	0.093537
797.578956	0.093678
797.771089	0.093807
797.963204	0.094014
798.155300	0.094220
798.347378	0.094175
798.539438	0.094242
798.731480	0.093970
798.923503	0.094084
799.115509	0.094016
799.307496	0.094043
799.499465	0.093764
799.691415	0.093725
799.883348	0.093765
800.075262	0.093838
800.267158	0.093868
800.459035	0.094045
800.650895	0.094036
800.842736	0.094150
801.034559	0.094147
801.226364	0.094373
801.418150	0.094523
801.609919	0.094430
801.801669	0.094546
801.993401	0.094580
802.185114	0.094740
802.376810	0.095014
802.568487	0.095245
802.760146	0.095340
802.951787	0.095671
803.143409	0.095932
803.335014	0.096155
803.526600	0.096237
803.718168	0.096413
803.909717	0.096588
804.101249	0.096505
804.292762	0.096657
804.484257	0.096644
804.675734	0.096629
804.867192	0.096692
805.058632	0.096687
805.250054	0.096811
805.441458	0.096925
805.632844	0.096981
805.824211	0.097410
806.015561	0.097470
806.206891	0.097652
806.398204	0.097583
806.589499	0.097398
806.780775	0.097765
806.972033	0.098004
807.163273	0.098144
807.354495	0.098122
807.545698	0.097893
807.736883	0.097723
807.928050	0.098077
808.119199	0.098252
808.310329	0.098687
808.501441	0.098779
808.692535	0.098794
808.883611	0.098850
809.074669	0.099128
809.265708	0.099283
809.456729	0.099544
809.647732	0.099543
809.838717	0.099666
810.029683	0.099888
810.220632	0.100134
810.411562	0.100481
810.602474	0.100793
810.793367	0.100844
810.984242	0.101227
811.175100	0.101706
811.365938	0.101812
811.556759	0.102269
811.747562	0.102365
811.938346	0.102369
812.129112	0.102423
812.319860	0.102676
812.510589	0.102845
812.701300	0.103010
812.891994	0.102963
813.082668	0.103321
813.273325	0.103402
813.463964	0.103754
813.654584	0.103889
813.845186	0.104044
814.035769	0.104242
814.226335	0.104554
814.416882	0.104610
814.607411	0.104565
814.797922	0.104597
814.988415	0.104666
815.178889	0.104556
815.369345	0.104793
815.559783	0.105053
815.750203	0.105214
815.940605	0.105210
816.130988	0.105369
816.321353	0.105736
816.511700	0.105815
816.702028	0.106084
816.892339	0.106441
817.082631	0.106489
817.272905	0.106494
817.463161	0.106391
817.653398	0.106637
817.843617	0.106833
818.033819	0.106856
818.224001	0.107083
818.414166	0.107114
818.604312	0.107121
818.794440	0.107318
818.984550	0.107379
819.174642	0.107639
819.364716	0.107776
819.554771	0.107709
819.744808	0.107785
819.934827	0.108019
820.124827	0.108088
820.314810	0.108105
820.504774	0.108217
820.694720	0.108506
820.884647	0.108515
821.074557	0.108802
821.264448	0.108959
821.454321	0.109324
821.644176	0.109354
821.834012	0.109524
822.023831	0.109747
822.213631	0.109750
822.403413	0.109762
822.593176	0.110154
822.782922	0.110066
822.972649	0.110190
823.162358	0.110076
823.352049	0.110142
823.541721	0.110252
823.731376	0.110379
823.921012	0.110735
824.110629	0.111019
824.300229	0.110918
824.489811	0.111184
824.679374	0.111586
824.868919	0.111851
825.058445	0.112019
825.247954	0.112275
825.437444	0.112349
825.626916	0.112540
825.816370	0.112797
826.005806	0.113112
826.195223	0.113130
826.384622	0.113404
826.574003	0.113681
826.763366	0.113974
826.952711	0.113982
827.142037	0.114327
827.331345	0.114558
827.520635	0.114630
827.709906	0.114705
827.899160	0.114757
828.088395	0.114872
828.277612	0.115023
828.466810	0.115123
828.655991	0.115231
828.845153	0.115500
829.034297	0.115567
829.223423	0.115541
829.412531	0.115878
829.601620	0.116067
829.790691	0.115880
829.979744	0.115898
830.168779	0.115979
830.357795	0.116074
830.546793	0.115774
830.735773	0.115819
830.924735	0.116165
831.113679	0.116485
831.302604	0.116673
831.491511	0.117051
831.680400	0.117325
831.869271	0.117602
832.058123	0.117907
832.246957	0.118392
832.435773	0.118669
832.624571	0.118847
832.813351	0.118944
833.002112	0.119251
833.190855	0.119495
833.379580	0.119537
833.568287	0.119471
833.756975	0.119917
833.945645	0.120060
834.134297	0.120316
834.322931	0.120434
834.511547	0.120445
834.700144	0.120795
834.888723	0.121010
835.077284	0.121349
835.265826	0.121985
835.454351	0.122078
835.642857	0.122333
835.831345	0.122528
836.019815	0.122784
836.208266	0.123032
836.396699	0.123136
836.585114	0.123222
836.773511	0.123470
836.961890	0.123589
837.150250	0.123841
837.338592	0.124153
837.526916	0.124170
837.715222	0.124551
837.903510	0.124876
838.091779	0.124948
838.280030	0.125018
838.468263	0.125354
838.656477	0.125797
838.844674	0.126060
839.032852	0.126204
839.221012	0.126611
839.409153	0.126429
839.597277	0.126522
839.785382	0.127015
839.973469	0.127381
840.161538	0.127584
840.349589	0.127606
840.537621	0.127783
840.725635	0.127964
840.913631	0.128194
841.101609	0.128712
841.289568	0.128947
841.477509	0.129362
841.665432	0.129720
841.853337	0.129851
842.041224	0.130052
842.229092	0.130344
842.416942	0.130782
842.604774	0.130968
842.792588	0.131328
842.980383	0.131667
843.168160	0.131849
843.355919	0.131889
843.543660	0.132231
843.731382	0.132650
843.919087	0.132714
844.106773	0.132820
844.294441	0.133098
844.482090	0.132986
844.669722	0.132965
844.857335	0.133058
845.044930	0.133265
845.232507	0.133467
845.420065	0.133466
845.607605	0.133411
845.795127	0.133317
845.982631	0.133578
846.170117	0.133784
846.357584	0.134183
846.545033	0.134501
846.732464	0.134771
846.919877	0.134611
847.107272	0.134823
847.294648	0.135387
847.482006	0.135781
847.669346	0.135715
847.856667	0.136089
848.043971	0.136314
848.231256	0.136317
848.418523	0.136611
848.605771	0.137121
848.793002	0.137175
848.980214	0.137134
849.167408	0.137491
849.354584	0.137918
849.541742	0.138360
849.728881	0.138393
849.916002	0.138724
850.103105	0.138858
850.290190	0.139258
850.477256	0.139483
850.664304	0.139855
850.851334	0.139817
851.038346	0.139873
851.225340	0.139834
851.412315	0.140176
851.599272	0.140190
851.786211	0.140303
851.973132	0.140297
852.160034	0.140645
852.346918	0.140564
852.533784	0.140554
852.720632	0.140741
852.907462	0.140804
853.094273	0.140744
853.281066	0.140907
853.467841	0.141166
853.654598	0.141379
853.841336	0.141628
854.028056	0.142117
854.214758	0.142795
854.401442	0.142962
854.588107	0.143548
854.774755	0.144147
854.961384	0.144181
855.147995	0.144214
855.334587	0.144636
855.521162	0.144838
855.707718	0.144998
855.894256	0.144836
856.080775	0.145000
856.267277	0.144906
856.453760	0.144524
856.640225	0.145175
856.826672	0.145397
857.013101	0.144936
857.199511	0.145189
857.385903	0.145443
857.572277	0.145949
857.758633	0.146509
857.944970	0.146818
858.131290	0.147299
858.317591	0.147164
858.503873	0.147465
858.690138	0.148114
858.876384	0.148117
859.062612	0.148127
859.248822	0.148007
859.435014	0.148012
859.621188	0.147885
859.807343	0.148200
859.993480	0.148673
860.179599	0.148847
860.365699	0.148888
860.551781	0.149335
860.737846	0.149550
860.923891	0.149900
861.109919	0.150202
861.295929	0.150861
861.481920	0.150947
861.667893	0.150900
861.853848	0.151351
862.039784	0.151520
862.225702	0.151572
862.411603	0.151917
862.597484	0.151997
862.783348	0.151948
862.969193	0.151981
863.155021	0.152329
863.340830	0.152640
863.526620	0.152516
863.712393	0.152931
863.898147	0.153320
864.083883	0.153525
864.269601	0.153854
864.455301	0.153853
864.640982	0.153990
864.826645	0.154036
865.012290	0.153841
865.197917	0.154215
865.383526	0.154212
865.569116	0.153832
865.754688	0.153681
865.940242	0.153905
866.125777	0.154266
866.311295	0.154459
866.496794	0.154715
866.682275	0.154979
866.867737	0.155033
867.053182	0.155319
867.238608	0.155443
867.424016	0.155564
867.609406	0.155365
867.794778	0.155482
867.980131	0.155346
868.165466	0.155229
868.350783	0.155873
868.536082	0.156155
868.721362	0.156000
868.906625	0.156251
869.091869	0.156368
869.277094	0.156941
869.462302	0.157450
869.647491	0.157782
869.832662	0.158190
870.017815	0.158141
870.202950	0.158239
870.388066	0.158317
870.573165	0.158680
870.758245	0.158848
870.943306	0.158723
871.128350	0.158544
871.313375	0.158848
871.498382	0.158895
871.683371	0.158728
871.868342	0.158643
872.053294	0.158983
872.238229	0.158876
872.423144	0.159161
872.608042	0.159266
872.792922	0.159244
872.977783	0.159229
873.162626	0.159563
873.347451	0.159762
873.532258	0.160094
873.717046	0.160189
873.901816	0.160733
874.086568	0.160997
874.271302	0.161281
874.456017	0.161526
874.640715	0.161629
874.825394	0.161392
875.010055	0.161391
875.194697	0.161156
875.379322	0.161188
875.563928	0.161072
875.748516	0.161150
875.933085	0.161295
876.117637	0.161429
876.302170	0.161831
876.486685	0.162065
876.671182	0.162405
876.855661	0.162554
877.040121	0.162477
877.224563	0.162375
877.408987	0.162216
877.593393	0.162143
877.777780	0.162103
877.962150	0.161589
878.146501	0.161662
878.330833	0.161661
878.515148	0.161632
878.699444	0.161834
878.883722	0.161592
879.067982	0.161644
879.252224	0.161361
879.436447	0.161457
879.620653	0.161356
879.804840	0.161511
879.989008	0.161151
880.173159	0.161318
880.357291	0.161837
880.541405	0.162111
880.725501	0.162056
880.909579	0.162094
881.093638	0.161849
881.277680	0.162009
881.461703	0.161551
881.645707	0.162032
881.829694	0.162284
882.013662	0.161780
882.197612	0.162085
882.381544	0.162192
882.565458	0.162646
882.749353	0.162978
882.933230	0.162981
883.117089	0.163491
883.300930	0.163179
883.484753	0.163051
883.668557	0.163281
883.852343	0.163103
884.036111	0.163140
884.219861	0.162883
884.403592	0.162935
884.587305	0.163092
884.771000	0.162516
884.954677	0.162653
885.138335	0.162530
885.321976	0.162540
885.505598	0.162777
885.689201	0.162978
885.872787	0.162943
886.056354	0.163203
886.239904	0.163214
886.423434	0.163435
886.606947	0.163589
886.790442	0.163997
886.973918	0.164241
887.157376	0.164098
887.340816	0.164342
887.524237	0.164623
887.707641	0.164744
887.891026	0.164891
888.074393	0.165132
888.257741	0.165330
888.441072	0.164994
888.624384	0.164537
888.807678	0.164577
888.990954	0.164173
889.174211	0.163673
889.357451	0.163307
889.540672	0.163128
889.723875	0.163017
889.907059	0.162790
890.090226	0.162717
890.273374	0.162474
890.456504	0.162472
890.639616	0.162272
890.822709	0.162718
891.005785	0.162517
891.188842	0.162643
891.371881	0.162430
891.554901	0.162104
891.737904	0.162063
891.920888	0.162535
892.103854	0.162065
892.286802	0.161995
892.469731	0.161756
892.652643	0.161983
892.835536	0.161832
893.018410	0.162152
893.201267	0.162524
893.384106	0.162600
893.566926	0.162665
893.749728	0.162951
893.932511	0.163411
894.115277	0.163467
894.298024	0.163319
894.480753	0.163145
894.663464	0.162998
894.846157	0.162678
895.028831	0.162526
895.211487	0.162168
895.394125	0.161951
895.576745	0.161920
895.759346	0.162041
895.941930	0.161721
896.124495	0.161842
896.307041	0.161548
896.489570	0.161389
896.672080	0.161099
896.854573	0.160886
897.037046	0.160822
897.219502	0.160409
897.401940	0.160086
897.584359	0.160049
897.766760	0.159695
897.949143	0.159517
898.131507	0.159490
898.313854	0.159545
898.496182	0.159702
898.678492	0.159832
898.860783	0.159888
899.043057	0.159681
899.225312	0.160025
899.407549	0.160055
899.589768	0.160234
899.771968	0.160073
899.954151	0.159943
900.136315	0.159180
900.318461	0.158823
900.500588	0.158627
900.682698	0.158670
900.864789	0.158020
901.046862	0.157904
901.228917	0.157620
901.410953	0.157403
901.592971	0.157111
901.774972	0.156951
901.956953	0.156740
902.138917	0.156321
902.320862	0.156563
902.502790	0.156517
902.684699	0.156095
902.866589	0.155844
903.048462	0.155508
903.230316	0.156086
903.412152	0.156178
903.593970	0.155930
903.775770	0.156122
903.957551	0.155522
904.139314	0.155379
904.321059	0.155586
904.502786	0.155355
904.684494	0.155248
904.866185	0.154632
905.047857	0.154845
905.229510	0.154567
905.411146	0.154357
905.592763	0.154177
905.774363	0.153731
905.955943	0.153411
906.137506	0.153118
906.319051	0.153189
906.500577	0.152910
906.682085	0.152402
906.863575	0.152498
907.045046	0.152328
907.226500	0.152473
907.407935	0.152729
907.589352	0.152824
907.770750	0.152713
907.952131	0.152849
908.133493	0.152730
908.314837	0.152639
908.496163	0.152566
908.677470	0.152224
908.858760	0.151443
909.040031	0.151072
909.221284	0.150716
909.402518	0.150756
909.583735	0.150025
909.764933	0.149710
909.946113	0.149352
910.127275	0.148848
910.308418	0.148637
910.489544	0.148697
910.670651	0.148560
910.851740	0.147907
911.032810	0.147434
911.213863	0.146958
911.394897	0.146803
911.575913	0.146712
911.756911	0.146785
911.937890	0.146597
912.118851	0.146100
912.299794	0.145612
912.480719	0.146130
912.661626	0.146033
912.842514	0.145770
913.023384	0.145059
913.204236	0.144355
913.385070	0.143688
913.565886	0.143468
913.746683	0.143014
913.927462	0.142590
914.108223	0.140884
914.288965	0.140656
914.469690	0.141039
914.650396	0.140612
914.831084	0.140373
915.011754	0.139874
915.192405	0.139115
915.373038	0.138892
915.553653	0.138550
915.734250	0.138753
915.914829	0.138342
916.095389	0.137693
916.275931	0.137963
916.456455	0.137778
916.636961	0.137454
916.817448	0.137072
916.997917	0.136703
917.178368	0.136007
917.358801	0.135784
917.539216	0.134648
917.719612	0.133764
917.899990	0.133161
918.080350	0.132761
918.260692	0.132849
918.441015	0.132265
918.621320	0.131339
918.801607	0.131018
918.981876	0.130483
919.162127	0.130806
919.342359	0.130451
919.522573	0.130099
919.702769	0.129864
919.882947	0.129079
920.063106	0.129098
920.243247	0.128974
920.423370	0.129072
920.603475	0.128801
920.783562	0.128368
920.963630	0.128430
921.143680	0.127934
921.323712	0.127418
921.503725	0.127050
921.683721	0.126407
921.863698	0.126438
922.043657	0.125830
922.223598	0.125980
922.403520	0.125592
922.583424	0.125124
922.763311	0.125185
922.943178	0.124559
923.123028	0.124237
923.302859	0.123466
923.482673	0.122972
923.662467	0.122828
923.842244	0.121925
924.022003	0.121560
924.201743	0.121053
924.381465	0.120622
924.561169	0.120677
924.740854	0.120542
924.920522	0.120942
925.100171	0.120547
925.279802	0.120024
925.459414	0.119624
925.639009	0.119064
925.818585	0.118266
925.998143	0.117102
926.177683	0.115862
926.357205	0.115125
926.536708	0.113799
926.716193	0.112597
926.895660	0.111997
927.075109	0.111374
927.254539	0.111373
927.433951	0.110959
927.613345	0.110915
927.792721	0.110461
927.972079	0.109590
928.151418	0.109586
928.330739	0.109430
928.510042	0.108608
928.689327	0.108287
928.868593	0.107454
929.047841	0.106808
929.227071	0.106089
929.406283	0.106215
929.585476	0.105949
929.764652	0.104760
929.943809	0.104038
930.122948	0.103551
930.302068	0.102595
930.481171	0.101214
930.660255	0.101150
930.839321	0.100171
931.018369	0.099305
931.197398	0.099046
931.376409	0.099516
931.555402	0.099786
931.734377	0.099599
931.913334	0.099467
932.092272	0.099224
932.271192	0.098885
932.450094	0.098887
932.628978	0.098639
932.807844	0.097915
932.986691	0.097394
933.165520	0.096300
933.344331	0.095185
933.523123	0.094108
933.701898	0.093925
933.880654	0.093321
934.059392	0.092463
934.238111	0.092322
934.416813	0.092186
934.595496	0.091497
934.774161	0.090822
934.952808	0.090342
935.131437	0.090458
935.310047	0.089742
935.488639	0.088452
935.667213	0.087597
935.845769	0.086488
936.024306	0.085648
936.202825	0.084181
936.381326	0.083877
936.559809	0.082980
936.738274	0.081540
936.916720	0.081633
937.095148	0.081955
937.273558	0.081850
937.451950	0.080916
937.630323	0.080399
937.808678	0.080038
937.987015	0.079293
938.165334	0.079159
938.343635	0.078751
938.521917	0.077040
938.700181	0.075846
938.878427	0.074593
939.056655	0.073616
939.234864	0.072052
939.413055	0.071268
939.591228	0.070851
939.769383	0.070686
939.947519	0.070885
940.125638	0.070409
940.303738	0.069856
940.481820	0.069929
940.659883	0.069416
940.837929	0.069516
941.015956	0.070045
941.193965	0.070575
941.371955	0.069814
941.549928	0.068804
941.727882	0.068986
941.905818	0.068309
942.083736	0.067279
942.261636	0.068590
942.439517	0.068258
942.617380	0.067546
942.795225	0.065592
942.973052	0.065223
943.150860	0.065188
943.328651	0.064335
943.506423	0.063618
943.684176	0.063913
943.861912	0.062666
944.039629	0.062041
944.217328	0.060604
944.395009	0.059591
944.572672	0.059298
944.750317	0.059862
944.927943	0.059327
945.105551	0.059872
945.283141	0.057726
945.460712	0.056696
945.638265	0.054902
945.815801	0.055543
945.993317	0.055758
946.170816	0.055621
946.348297	0.053689
946.525759	0.052537
946.703203	0.051627
946.880629	0.051289
947.058036	0.049669
947.235425	0.050643
947.412797	0.049915
947.590149	0.049324
947.767484	0.047138
947.944800	0.046824
948.122099	0.047730
948.299379	0.047835
948.476640	0.048696
948.653884	0.049014
948.831109	0.049099
949.008316	0.047776
949.185505	0.047865
949.362676	0.048712
949.539828	0.048142
949.716962	0.046918
949.894078	0.045635
950.071176	0.044623
950.248256	0.044035
950.425317	0.041151
950.602360	0.041198
950.779385	0.038856
950.956391	0.037259
951.133380	0.037385
951.310350	0.038109
951.487302	0.036298
951.664235	0.035730
951.841151	0.034721
952.018048	0.036477
952.194927	0.036110
952.371788	0.035725
952.548631	0.036688
952.725455	0.035053
952.902261	0.034576
953.079049	0.034073
953.255819	0.034847
953.432570	0.034815
953.609303	0.033734
953.786018	0.034273
953.962715	0.034706
954.139394	0.035508
954.316054	0.035441
954.492696	0.033500
954.669320	0.034596
954.845926	0.033858
955.022513	0.035105
955.199083	0.034851
955.375634	0.034405
955.552166	0.036037
955.728681	0.034826
955.905177	0.035212
956.081655	0.034497
956.258115	0.033749
956.434557	0.032370
956.610980	0.031521
956.787385	0.032042
956.963772	0.029152
957.140141	0.028567
957.316492	0.028187
957.492824	0.026592
957.669138	0.026836
957.845434	0.026435
958.021712	0.028100
958.197971	0.026650
958.374212	0.025747
958.550435	0.028739
958.726640	0.028949
958.902826	0.027856
959.078995	0.029807
959.255145	0.029802
959.431277	0.029073
959.607390	0.028266
959.783486	0.029917
959.959563	0.028646
960.135622	0.026510
960.311662	0.023871
960.487685	0.024416
960.663689	0.024572
960.839675	0.023679
961.015643	0.025953
961.191593	0.025578
961.367524	0.025421
961.543437	0.027384
961.719332	0.028533
961.895209	0.029808
962.071067	0.028649
962.246907	0.026212
962.422730	0.029308
962.598533	0.027991
962.774319	0.028017
962.950086	0.027815
963.125835	0.028472
963.301566	0.028016
963.477279	0.028980
963.652973	0.030174
963.828650	0.030631
964.004308	0.029806
964.179947	0.030539
964.355569	0.031760
964.531172	0.031953
964.706757	0.030132
964.882324	0.029028
965.057873	0.029539
965.233403	0.028173
965.408916	0.029022
965.584410	0.029370
965.759885	0.030459
965.935343	0.028760
966.110782	0.028312
966.286203	0.027767
966.461606	0.029334
966.636991	0.026105
966.812357	0.026866
966.987705	0.027803
967.163035	0.026172
967.338347	0.024614
967.513641	0.024769
967.688916	0.022952
967.864173	0.023629
968.039412	0.024029
968.214632	0.024979
968.389835	0.025586
968.565019	0.023625
968.740185	0.023587
968.915333	0.023774
969.090462	0.025416
969.265573	0.026415
969.440667	0.025971
969.615741	0.023706
969.790798	0.022877
969.965836	0.021785
970.140856	0.023883
970.315858	0.022693
970.490842	0.023222
970.665808	0.020693
970.840755	0.021112
971.015684	0.022551
971.190595	0.026006
971.365487	0.027026
971.540362	0.026439
971.715218	0.023894
971.890056	0.025892
972.064875	0.026255
972.239677	0.028454
972.414460	0.029342
972.589225	0.029216
972.763972	0.027509
972.938700	0.031205
973.113411	0.033323
973.288103	0.034523
973.462777	0.034370
973.637432	0.031888
973.812070	0.031082
973.986689	0.032420
974.161290	0.032091
974.335873	0.032858
974.510437	0.032448
974.684984	0.031121
974.859512	0.031810
975.034022	0.031130
975.208513	0.032411
975.382987	0.033627
975.557442	0.032343
975.731879	0.033477
975.906298	0.032379
976.080698	0.028075
976.255080	0.028014
976.429445	0.027584
976.603790	0.027476
976.778118	0.027465
976.952427	0.027726
977.126719	0.028440
977.300992	0.025178
977.475246	0.023611
977.649483	0.025907
977.823701	0.025687
977.997901	0.026332
978.172083	0.026779
978.346247	0.027197
978.520392	0.026248
978.694519	0.025812
978.868628	0.028530
979.042719	0.031554
979.216791	0.029357
979.390845	0.029967
979.564882	0.028066
979.738899	0.027173
979.912899	0.028184
980.086880	0.029687
980.260843	0.029605
980.434788	0.028261
980.608715	0.027300
980.782623	0.028303
980.956514	0.028183
981.130386	0.028788
981.304240	0.030272
981.478075	0.028631
981.651892	0.028697
981.825692	0.027319
981.999472	0.029027
982.173235	0.029453
982.346980	0.030553
982.520706	0.032328
982.694414	0.031873
982.868104	0.032600
983.041775	0.034816
983.215428	0.030974
983.389064	0.031368
983.562680	0.029415
983.736279	0.028331
983.909860	0.028030
984.083422	0.028724
984.256966	0.029794
984.430491	0.028317
984.603999	0.025603
984.777488	0.027518
984.950959	0.027973
985.124412	0.028527
985.297847	0.028696
985.471263	0.029972
985.644661	0.028992
985.818041	0.029319
985.991403	0.027637
986.164747	0.029755
986.338072	0.030386
986.511379	0.028890
986.684668	0.028138
986.857938	0.027936
987.031191	0.026434
987.204425	0.025399
987.377641	0.024536
987.550839	0.026618
987.724018	0.025181
987.897179	0.023417
988.070322	0.023721
988.243447	0.024378
988.416554	0.024742
988.589642	0.024471
988.762712	0.023790
988.935764	0.024359
989.108798	0.023945
989.281813	0.022980
989.454811	0.023255
989.627790	0.024685
989.800751	0.024322
989.973693	0.023163
990.146617	0.023380
990.319524	0.023140
990.492412	0.022490
990.665281	0.023987
990.838133	0.024807
991.010966	0.024179
991.183781	0.024646
991.356578	0.025184
991.529356	0.025276
991.702117	0.026224
991.874859	0.026267
992.047583	0.026220
992.220288	0.023798
992.392976	0.024011
992.565645	0.025638
992.738296	0.024143
992.910929	0.024141
993.083543	0.025171
993.256139	0.024479
993.428718	0.025544
993.601277	0.025488
993.773819	0.026439
993.946342	0.026745
994.118848	0.025033
994.291335	0.026474
994.463803	0.025941
994.636254	0.025353
994.808686	0.026340
994.981100	0.025995
995.153496	0.026391
995.325874	0.024704
995.498233	0.025080
995.670574	0.026035
995.842897	0.026482
996.015202	0.026770
996.187488	0.027249
996.359757	0.026454
996.532007	0.027124
996.704239	0.028890
996.876452	0.029963
997.048648	0.028243
997.220825	0.028827
997.392984	0.026827
997.565124	0.027232
997.737247	0.026570
997.909351	0.026472
998.081437	0.024857
998.253505	0.022236
998.425554	0.022429
998.597586	0.023923
998.769599	0.024473
998.941594	0.025040
999.113571	0.024802
999.285529	0.025262
999.457469	0.024891
999.629391	0.027466
999.801295	0.028681
999.973181	0.027663
1000.145048	0.026939
1000.316897	0.026693
1000.488728	0.026191
1000.660541	0.026134
1000.832335	0.026305
1001.004111	0.026325
1001.175869	0.022857
1001.347609	0.022937
1001.519331	0.024911
1001.691034	0.025215
1001.862719	0.025634
1002.034386	0.026574
1002.206035	0.026348
1002.377665	0.026024
1002.549277	0.026545
1002.720871	0.028678
1002.892447	0.027785
1003.064004	0.025976
1003.235544	0.025786
1003.407065	0.024830
1003.578568	0.024904
1003.750052	0.024063
1003.921519	0.022701
1004.092967	0.023078
1004.264397	0.023139
1004.435809	0.024241
1004.607202	0.026409
1004.778577	0.025197
1004.949934	0.026669
1005.121273	0.026167
1005.292594	0.026175
1005.463896	0.028166
1005.635180	0.027399
1005.806446	0.026490
1005.977694	0.025926
1006.148923	0.025437
1006.320135	0.026434
1006.491328	0.024719
1006.662503	0.024302
1006.833659	0.024849
1007.004798	0.024397
1007.175918	0.024066
1007.347020	0.025389
1007.518103	0.025011
1007.689169	0.025684
1007.860216	0.026475
1008.031245	0.026683
1008.202256	0.026581
1008.373248	0.026903
1008.544223	0.025985
1008.715179	0.027709
1008.886117	0.027977
1009.057036	0.029103
1009.227938	0.026480
1009.398821	0.026645
1009.569686	0.025766
1009.740533	0.026615
1009.911361	0.027900
1010.082172	0.029651
1010.252964	0.027556
1010.423738	0.026032
1010.594493	0.024744
1010.765231	0.025170
1010.935950	0.023635
1011.106651	0.025387
1011.277334	0.025151
1011.447998	0.023838
1011.618645	0.021324
1011.789273	0.021828
1011.959882	0.022388
1012.130474	0.022220
1012.301048	0.022974
1012.471603	0.024914
1012.642140	0.023833
1012.812658	0.023676
1012.983159	0.022558
1013.153641	0.023927
1013.324105	0.024317
1013.494551	0.024662
1013.664979	0.025078
1013.835388	0.025700
1014.005779	0.024064
1014.176152	0.023197
1014.346507	0.023596
1014.516843	0.024404
1014.687162	0.024549
1014.857462	0.024754
1015.027744	0.024416
1015.198007	0.025381
1015.368252	0.023744
1015.538480	0.024282
1015.708689	0.024506
1015.878879	0.025075
1016.049052	0.025347
1016.219206	0.025744
1016.389342	0.024934
1016.559460	0.023219
1016.729559	0.023128
1016.899641	0.024119
1017.069704	0.024798
1017.239749	0.025597
1017.409775	0.025383
1017.579784	0.025104
1017.749774	0.023435
1017.919746	0.023247
1018.089700	0.024269
1018.259635	0.023515
1018.429553	0.022418
1018.599452	0.023403
1018.769333	0.023431
1018.939195	0.022919
1019.109040	0.024186
1019.278866	0.024320
1019.448674	0.023159
1019.618464	0.022361
1019.788235	0.024399
1019.957989	0.024466
1020.127724	0.023330
1020.297441	0.022437
1020.467139	0.021849
1020.636820	0.019487
1020.806482	0.021717
1020.976126	0.022341
1021.145752	0.023481
1021.315359	0.022412
1021.484948	0.021948
1021.654519	0.021801
1021.824072	0.022492
1021.993607	0.024813
1022.163123	0.026271
1022.332621	0.025641
1022.502101	0.025401
1022.671563	0.025361
1022.841007	0.023896
1023.010432	0.025263
1023.179839	0.025089
1023.349228	0.025491
1023.518598	0.023711
1023.687951	0.023794
1023.857285	0.022918
1024.026601	0.023831
1024.195899	0.023788
1024.365178	0.024689
1024.534439	0.024028
1024.703682	0.023427
1024.872907	0.022944
1025.042114	0.022362
1025.211302	0.021564
1025.380472	0.022502
1025.549624	0.022941
1025.718758	0.022506
1025.887873	0.022664
1026.056970	0.025459
1026.226049	0.026445
1026.395110	0.027066
1026.564153	0.026963
1026.733177	0.027339
1026.902183	0.027936
1027.071171	0.026798
1027.240141	0.026259
1027.409092	0.026260
1027.578026	0.023911
1027.746940	0.022817
1027.915837	0.023392
1028.084716	0.025019
1028.253576	0.024596
1028.422418	0.023456
1028.591242	0.024893
1028.760048	0.026749
1028.928835	0.025061
1029.097604	0.026161
1029.266355	0.026862
1029.435088	0.027054
1029.603803	0.025948
1029.772499	0.026106
1029.941177	0.025776
1030.109837	0.024108
1030.278478	0.023065
1030.447102	0.023964
1030.615707	0.024523
1030.784294	0.024776
1030.952863	0.023706
1031.121413	0.023168
1031.289945	0.024454
1031.458460	0.024101
1031.626955	0.025370
1031.795433	0.024456
1031.963892	0.024261
1032.132334	0.022088
1032.300756	0.021480
1032.469161	0.022125
1032.637548	0.022642
1032.805916	0.022393
1032.974266	0.022041
1033.142598	0.020772
1033.310911	0.021055
1033.479207	0.020720
1033.647484	0.021278
1033.815743	0.021038
1033.983983	0.019450
1034.152206	0.020817
1034.320410	0.019396
1034.488596	0.021234
1034.656764	0.020764
1034.824914	0.020386
1034.993045	0.021311
1035.161158	0.022334
1035.329253	0.022588
1035.497330	0.023938
1035.665388	0.023319
1035.833428	0.022918
1036.001450	0.022093
1036.169454	0.024004
1036.337440	0.024889
1036.505407	0.026091
1036.673356	0.025908
1036.841287	0.026245
1037.009200	0.024805
1037.177094	0.024037
1037.344970	0.025207
1037.512828	0.024488
1037.680668	0.024757
1037.848489	0.025682
1038.016293	0.024081
1038.184078	0.023129
1038.351845	0.021991
1038.519593	0.023066
1038.687324	0.022074
1038.855036	0.023069
1039.022730	0.024396
1039.190406	0.024406
1039.358063	0.022466
1039.525702	0.021869
1039.693323	0.021442
1039.860926	0.023685
1040.028511	0.022679
1040.196077	0.023533
1040.363625	0.022495
1040.531155	0.022156
1040.698667	0.022871
1040.866161	0.025299
1041.033636	0.026953
1041.201093	0.027350
1041.368532	0.026803
1041.535952	0.027536
1041.703355	0.026610
1041.870739	0.025830
1042.038105	0.024467
1042.205452	0.022562
1042.372782	0.022799
1042.540093	0.020808
1042.707386	0.020937
1042.874661	0.019524
1043.041918	0.020458
1043.209156	0.021384
1043.376376	0.022482
1043.543578	0.022464
1043.710762	0.024024
1043.877927	0.023672
1044.045074	0.025268
1044.212203	0.026734
1044.379314	0.027342
1044.546407	0.027025
1044.713481	0.028812
1044.880537	0.029204
1045.047575	0.030243
1045.214595	0.030695
1045.381596	0.029574
1045.548579	0.028798
1045.715544	0.027944
1045.882491	0.029065
1046.049420	0.026985
1046.216330	0.024571
1046.383222	0.025881
1046.550096	0.026676
1046.716951	0.025293
1046.883789	0.025345
1047.050608	0.024948
1047.217409	0.024913
1047.384192	0.023044
1047.550956	0.024551
1047.717703	0.025471
1047.884431	0.023480
1048.051140	0.023653
1048.217832	0.025120
1048.384505	0.023950
1048.551161	0.024799
1048.717798	0.025352
1048.884416	0.026778
1049.051017	0.026700
1049.217599	0.026455
1049.384163	0.027227
1049.550709	0.024785
1049.717237	0.022260
1049.883746	0.023574
1050.050237	0.023402
1050.216710	0.022489
1050.383165	0.020565
1050.549601	0.021232
1050.716019	0.021824
1050.882420	0.020893
1051.048801	0.022129
1051.215165	0.023681
1051.381510	0.023655
1051.547837	0.024003
1051.714146	0.022727
1051.880437	0.024844
1052.046709	0.023495
1052.212964	0.022221
1052.379200	0.022484
1052.545417	0.022433
1052.711617	0.021735
1052.877798	0.022839
1053.043961	0.023275
1053.210106	0.022733
1053.376233	0.022288
1053.542341	0.022387
1053.708432	0.024348
1053.874504	0.025075
1054.040557	0.026256
1054.206593	0.027678
1054.372610	0.025833
1054.538609	0.024159
1054.704590	0.027381
1054.870553	0.028222
1055.036497	0.029019
1055.202424	0.028980
1055.368331	0.028225
1055.534221	0.027579
1055.700093	0.026615
1055.865946	0.026852
1056.031781	0.026590
1056.197598	0.025245
1056.363397	0.024311
1056.529177	0.023673
1056.694939	0.022372
1056.860683	0.022958
1057.026409	0.021297
1057.192116	0.020287
1057.357806	0.019784
1057.523477	0.020226
1057.689130	0.019177
1057.854764	0.018015
1058.020381	0.018983
1058.185979	0.019304
1058.351559	0.019242
1058.517120	0.019877
1058.682664	0.018939
1058.848189	0.019816
1059.013696	0.021494
1059.179185	0.023993
1059.344656	0.024304
1059.510108	0.025163
1059.675542	0.025622
1059.840958	0.025206
1060.006356	0.027355
1060.171735	0.029750
1060.337096	0.029603
1060.502439	0.028874
1060.667764	0.025480
1060.833071	0.026107
1060.998359	0.024540
1061.163629	0.022565
1061.328881	0.022284
1061.494115	0.020530
1061.659330	0.019375
1061.824527	0.019196
1061.989706	0.017909
1062.154867	0.019172
1062.320010	0.019668
1062.485134	0.019870
1062.650240	0.021212
1062.815328	0.021340
1062.980398	0.021441
1063.145449	0.020610
1063.310482	0.021531
1063.475497	0.023059
1063.640494	0.023535
1063.805473	0.022533
1063.970433	0.023007
1064.135375	0.023276
1064.300299	0.023069
1064.465204	0.024179
1064.630092	0.026013
1064.794961	0.025065
1064.959812	0.025338
1065.124645	0.024652
1065.289459	0.025393
1065.454256	0.024185
1065.619034	0.025014
1065.783793	0.024638
1065.948535	0.024206
1066.113258	0.023828
1066.277964	0.024564
1066.442651	0.022869
1066.607319	0.025277
1066.771970	0.024137
1066.936602	0.025164
1067.101216	0.024211
1067.265812	0.025289
1067.430389	0.024440
1067.594949	0.024045
1067.759490	0.022504
1067.924013	0.023207
1068.088518	0.020997
1068.253004	0.021369
1068.417472	0.020625
1068.581922	0.020286
1068.746354	0.019253
1068.910768	0.019970
1069.075163	0.021253
1069.239540	0.022161
1069.403899	0.023326
1069.568240	0.024385
1069.732562	0.024592
1069.896866	0.025215
1070.061152	0.025212
1070.225420	0.025218
1070.389670	0.024634
1070.553901	0.023942
1070.718114	0.023872
1070.882309	0.021567
1071.046486	0.021244
1071.210644	0.021131
1071.374784	0.022836
1071.538906	0.024443
1071.703010	0.025050
1071.867096	0.024974
1072.031163	0.023888
1072.195212	0.024180
1072.359243	0.026047
1072.523256	0.025435
1072.687250	0.025170
1072.851226	0.024323
1073.015184	0.021365
1073.179124	0.020547
1073.343045	0.020339
1073.506949	0.021568
1073.670834	0.021046
1073.834701	0.021165
1073.998549	0.022468
1074.162380	0.022324
1074.326192	0.020564
1074.489986	0.021309
1074.653761	0.023125
1074.817519	0.021409
1074.981258	0.021595
1075.144979	0.019874
1075.308682	0.016932
1075.472367	0.017463
1075.636033	0.017672
1075.799681	0.019109
1075.963311	0.020464
1076.126923	0.018934
1076.290516	0.019441
1076.454092	0.016816
1076.617649	0.019612
1076.781187	0.020946
1076.944708	0.018617
1077.108210	0.019836
1077.271695	0.018740
1077.435160	0.018938
1077.598608	0.018329
1077.762038	0.019623
1077.925449	0.021318
1078.088842	0.019753
1078.252217	0.021200
1078.415573	0.021506
1078.578912	0.019570
1078.742232	0.020067
1078.905534	0.018434
1079.068817	0.016303
1079.232083	0.016343
1079.395330	0.015702
1079.558559	0.015885
1079.721770	0.014382
1079.884962	0.013566
1080.048136	0.015733
1080.211293	0.015669
1080.374430	0.014645
1080.537550	0.018136
1080.700651	0.019308
1080.863735	0.019195
1081.026800	0.019709
1081.189846	0.021999
1081.352875	0.022754
1081.515885	0.021836
1081.678877	0.022299
1081.841851	0.024070
1082.004807	0.022648
1082.167744	0.024808
1082.330663	0.024308
1082.493564	0.024985
1082.656447	0.025026
1082.819312	0.026037
1082.982158	0.025410
1083.144986	0.023089
1083.307796	0.023239
1083.470587	0.022967
1083.633361	0.021658
1083.796116	0.024590
1083.958853	0.023631
1084.121571	0.020383
1084.284272	0.019168
1084.446954	0.019427
1084.609618	0.021662
1084.772264	0.020484
1084.934892	0.021527
1085.097501	0.017692
1085.260092	0.015303
1085.422665	0.017294
1085.585220	0.019354
1085.747756	0.020863
1085.910274	0.020909
1086.072774	0.021484
1086.235256	0.024158
1086.397720	0.024127
1086.560165	0.026033
1086.722592	0.024609
1086.885001	0.022351
1087.047392	0.024798
1087.209764	0.022217
1087.372119	0.024231
1087.534455	0.024454
1087.696772	0.021815
1087.859072	0.023060
1088.021353	0.024489
1088.183616	0.027721
1088.345861	0.027475
1088.508088	0.024176
1088.670296	0.025940
1088.832486	0.024018
1088.994658	0.020889
1089.156812	0.019590
1089.318948	0.018005
1089.481065	0.015546
1089.643164	0.015737
1089.805245	0.015984
1089.967308	0.017504
1090.129352	0.018529
1090.291378	0.018167
1090.453386	0.018273
1090.615376	0.020307
1090.777347	0.019601
1090.939301	0.020866
1091.101236	0.018872
1091.263153	0.020871
1091.425051	0.018772
1091.586932	0.015576
1091.748794	0.013177
1091.910638	0.013373
1092.072463	0.014503
1092.234271	0.015095
1092.396060	0.014302
1092.557831	0.014348
1092.719584	0.013911
1092.881319	0.014471
1093.043035	0.017917
1093.204733	0.023651
1093.366413	0.024376
1093.528075	0.021319
1093.689718	0.021217
1093.851343	0.022295
1094.012950	0.022508
1094.174539	0.022775
1094.336110	0.025783
1094.497662	0.023830
1094.659196	0.021301
1094.820712	0.021529
1094.982210	0.024101
1095.143689	0.028019
1095.305151	0.028388
1095.466594	0.029280
1095.628018	0.025585
1095.789425	0.023353
1095.950813	0.022940
1096.112183	0.025892
1096.273535	0.024074
1096.434869	0.022109
1096.596184	0.020572
1096.757482	0.020041
1096.918761	0.018810
1097.080021	0.023746
1097.241264	0.022753
1097.402488	0.026825
1097.563694	0.023246
1097.724882	0.025488
1097.886052	0.029099
1098.047203	0.027900
1098.208336	0.028242
1098.369451	0.028141
1098.530548	0.025446
1098.691627	0.024858
1098.852687	0.021510
1099.013729	0.019886
1099.174753	0.018564
1099.335758	0.016596
1099.496746	0.016245
1099.657715	0.014156
1099.818666	0.016563
1099.979599	0.017936
1100.140513	0.016933
1100.301409	0.013235
1100.462287	0.014170
1100.623147	0.015034
1100.783989	0.015959
1100.944812	0.017254
1101.105617	0.016680
1101.266404	0.016492
1101.427173	0.016274
1101.587923	0.019665
1101.748656	0.025172
1101.909370	0.025992
1102.070066	0.027563
1102.230743	0.026735
1102.391403	0.024628
1102.552044	0.026474
1102.712667	0.025753
1102.873271	0.026845
1103.033858	0.025356
1103.194426	0.024601
1103.354976	0.026409
1103.515508	0.024262
1103.676021	0.024561
1103.836517	0.025380
1103.996994	0.025722
1104.157453	0.026166
1104.317893	0.023590
1104.478316	0.023852
1104.638720	0.023158
1104.799106	0.020822
1104.959474	0.021549
1105.119823	0.023934
1105.280155	0.024608
1105.440468	0.026534
1105.600763	0.025710
1105.761039	0.024898
1105.921298	0.025474
1106.081538	0.027933
1106.241760	0.029720
1106.401964	0.029413
1106.562149	0.024870
1106.722316	0.024615
1106.882465	0.019266
1107.042596	0.019352
1107.202709	0.020682
1107.362803	0.019549
1107.522879	0.014094
1107.682937	0.010124
1107.842977	0.013502
1108.002999	0.011773
1108.163002	0.012840
1108.322987	0.017113
1108.482954	0.018020
1108.642902	0.017460
1108.802833	0.018111
1108.962745	0.022250
1109.122639	0.024609
1109.282515	0.020079
1109.442372	0.025153
1109.602211	0.021138
1109.762032	0.022085
1109.921835	0.019613
1110.081620	0.018944
1110.241386	0.015229
1110.401134	0.014281
1110.560864	0.014643
1110.720576	0.019657
1110.880269	0.015944
1111.039945	0.020238
1111.199602	0.018332
1111.359240	0.020154
1111.518861	0.020652
1111.678463	0.027112
1111.838047	0.026388
1111.997613	0.025603
1112.157161	0.025252
1112.316690	0.028435
1112.476202	0.029037
1112.635695	0.030421
1112.795169	0.031976
1112.954626	0.028542
1113.114064	0.030903
1113.273484	0.031704
1113.432886	0.030472
1113.592270	0.027514
1113.751635	0.024269
1113.910983	0.018591
1114.070312	0.014806
1114.229622	0.013506
1114.388915	0.015072
1114.548189	0.010886
1114.707445	0.010127
1114.866683	0.010939
1115.025903	0.011482
1115.185104	0.014667
1115.344287	0.017547
1115.503452	0.021084
1115.662599	0.018420
1115.821727	0.019835
1115.980838	0.020875
1116.139930	0.023386
1116.299004	0.020196
1116.458059	0.017747
1116.617097	0.014572
1116.776116	0.013513
1116.935117	0.011970
1117.094099	0.013575
1117.253064	0.013579
1117.412010	0.013860
1117.570938	0.011872
1117.729848	0.016221
1117.888740	0.016596
1118.047613	0.019475
1118.206468	0.017928
1118.365305	0.016484
1118.524124	0.017725
1118.682924	0.021567
1118.841707	0.018419
1119.000471	0.016252
1119.159216	0.013558
1119.317944	0.017158
1119.476653	0.015987
1119.635344	0.013995
1119.794017	0.018630
1119.952672	0.019691
1120.111308	0.017897
1120.269927	0.020046
1120.428527	0.024817
1120.587108	0.029813
1120.745672	0.027642
1120.904217	0.028839
1121.062744	0.029488
1121.221253	0.028430
1121.379744	0.025077
1121.538216	0.021195
1121.696671	0.022962
1121.855107	0.018898
1122.013524	0.018886
1122.171924	0.018528
1122.330305	0.017123
1122.488668	0.024547
1122.647013	0.022553
1122.805340	0.025595
1122.963648	0.030036
1123.121938	0.029909
1123.280210	0.029118
1123.438464	0.030213
1123.596700	0.033202
1123.754917	0.032517
1123.913116	0.030103
1124.071297	0.029408
1124.229459	0.026518
1124.387604	0.029382
1124.545730	0.025974
1124.703838	0.029619
1124.861928	0.024784
1125.019999	0.027152
1125.178052	0.030966
1125.336088	0.030138
1125.494104	0.029853
1125.652103	0.032162
1125.810083	0.029772
1125.968045	0.029001
1126.125989	0.023723
1126.283915	0.023444
1126.441823	0.017584
1126.599712	0.016005
1126.757583	0.017050
1126.915436	0.021985
1127.073270	0.017704
1127.231087	0.018691
1127.388885	0.019648
1127.546665	0.024724
1127.704426	0.028405
1127.862170	0.031520
1128.019895	0.026932
1128.177602	0.028075
1128.335291	0.024625
1128.492961	0.025085
1128.650614	0.018939
1128.808248	0.021545
1128.965864	0.019557
1129.123461	0.018335
1129.281041	0.016127
1129.438602	0.021616
1129.596145	0.018347
1129.753670	0.016329
1129.911176	0.018841
1130.068665	0.023564
1130.226135	0.018695
1130.383587	0.021493
1130.541020	0.019007
1130.698436	0.015865
1130.855833	0.015928
1131.013212	0.019353
1131.170573	0.017278
1131.327915	0.021638
1131.485239	0.019890
1131.642545	0.020651
1131.799833	0.015693
1131.957103	0.019812
1132.114354	0.025725
1132.271588	0.024478
1132.428803	0.022893
1132.585999	0.026092
1132.743178	0.019050
1132.900338	0.014153
1133.057480	0.018123
1133.214604	0.017847
1133.371710	0.016489
1133.528797	0.014987
1133.685866	0.014862
1133.842917	0.013667
1133.999950	0.016466
1134.156964	0.019351
1134.313960	0.020729
1134.470938	0.019200
1134.627898	0.020929
1134.784840	0.019725
1134.941763	0.018097
1135.098668	0.021592
1135.255555	0.020003
1135.412424	0.017406
1135.569274	0.020626
1135.726107	0.023031
1135.882921	0.020567
1136.039716	0.023104
1136.196494	0.017586
1136.353253	0.021356
1136.509995	0.017663
1136.666717	0.025208
1136.823422	0.027448
1136.980109	0.021910
1137.136777	0.023813
1137.293427	0.029076
1137.450059	0.028306
1137.606672	0.037311
1137.763267	0.032547
1137.919844	0.032360
1138.076403	0.032662
1138.232944	0.030191
1138.389466	0.033064
1138.545971	0.036541
1138.702457	0.034158
1138.858924	0.035560
1139.015374	0.029207
1139.171805	0.031579
1139.328218	0.036137
1139.484613	0.027264
1139.640990	0.032395
1139.797348	0.032675
1139.953688	0.028716
1140.110010	0.031921
1140.266314	0.029990
1140.422600	0.037589
1140.578867	0.030558
1140.735116	0.024268
1140.891347	0.030014
1141.047559	0.026408
1141.203754	0.025424
1141.359930	0.021413
1141.516088	0.019389
1141.672228	0.019662
1141.828349	0.018820
1141.984452	0.023224
1142.140537	0.027273
1142.296604	0.021872
1142.452653	0.019746
1142.608683	0.018251
1142.764695	0.024701
1142.920689	0.022199
1143.076665	0.029638
1143.232622	0.020224
1143.388562	0.016614
1143.544483	0.013757
1143.700385	0.022134
1143.856270	0.022126
1144.012136	0.021078
1144.167985	0.015503
1144.323814	0.019347
1144.479626	0.011574
1144.635420	0.016527
1144.791195	0.020185
1144.946952	0.021833
1145.102691	0.018272
1145.258411	0.018009
1145.414113	0.025624
1145.569798	0.025673
1145.725463	0.020965
1145.881111	0.023828
1146.036741	0.024931
1146.192352	0.021921
1146.347945	0.019781
1146.503519	0.019233
1146.659076	0.021594
1146.814614	0.027566
1146.970134	0.029235
1147.125636	0.033692
1147.281120	0.040259
1147.436585	0.034686
1147.592032	0.043337
1147.747461	0.043333
1147.902872	0.045349
1148.058265	0.038540
1148.213639	0.030824
1148.368995	0.036932
1148.524333	0.030467
1148.679653	0.023829
1148.834954	0.033604
1148.990237	0.031264
1149.145502	0.036620
1149.300749	0.030906
1149.455977	0.037985
1149.611188	0.035704
1149.766380	0.029153
1149.921553	0.041709
1150.076709	0.042391
1150.231846	0.035398
1150.386966	0.031210
1150.542066	0.036438
1150.697149	0.033395
1150.852214	0.032631
1151.007260	0.036042
1151.162288	0.039195
1151.317298	0.028205
1151.472289	0.031123
1151.627263	0.038989
1151.782218	0.035368
1151.937155	0.023196
1152.092073	0.029526
1152.246974	0.031605
1152.401856	0.027976
1152.556720	0.025795
1152.711566	0.022842
1152.866393	0.009623
1153.021203	0.003922
1153.175994	0.008287
1153.330767	0.014330
1153.485521	0.019055
1153.640258	0.018784
1153.794976	0.022622
1153.949676	0.029385
1154.104358	0.027421
1154.259021	0.030372
1154.413667	0.028248
1154.568294	0.027469
1154.722903	0.022942
1154.877493	0.014538
1155.032066	0.007848
1155.186620	0.008474
1155.341156	0.006570
1155.495674	0.007170
1155.650173	0.015070
1155.804654	0.022532
1155.959118	0.023899
1156.113562	0.020449
1156.267989	0.020241
1156.422397	0.020341
1156.576788	0.016616
1156.731160	0.011394
1156.885513	0.012429
1157.039849	0.016188
1157.194166	0.017743
1157.348465	0.018677
1157.502746	0.018092
1157.657009	0.017835
1157.811253	0.021851
1157.965479	0.022457
1158.119687	0.025599
1158.273877	0.026220
1158.428048	0.014576
1158.582201	0.004399
1158.736337	0.011286
1158.890453	0.022431
1159.044552	0.035130
1159.198632	0.040153
1159.352694	0.043146
1159.506738	0.037652
1159.660764	0.047491
1159.814771	0.059123
1159.968761	0.068702
1160.122732	0.056260
1160.276685	0.045805
1160.430619	0.032410
1160.584535	0.026910
1160.738434	0.029948
1160.892313	0.033431
1161.046175	0.033489
1161.200019	0.027450
1161.353844	0.025484
1161.507651	0.033966
1161.661440	0.028248
1161.815210	0.032030
1161.968962	0.038602
1162.122697	0.023611
1162.276412	0.024419
1162.430110	0.017961
1162.583789	0.019585
1162.737451	0.016426
1162.891094	0.014282
1163.044718	0.015499
1163.198325	0.012288
1163.351913	0.010217
1163.505483	0.011873
1163.659035	0.013718
1163.812569	0.010422
1163.966084	0.002179
1164.119581	0.001586
1164.273060	0.006935
1164.426521	0.010787
1164.579964	0.012477
1164.733388	0.011154
1164.886794	0.012359
1165.040182	0.011907
1165.193551	0.029928
1165.346903	0.036171
1165.500236	0.039864
1165.653551	0.008877
1165.806848	0.012093
1165.960126	0.011788
1166.113386	0.019627
1166.266628	0.023363
1166.419852	0.016911
1166.573058	-0.000451
1166.726245	0.000129
1166.879414	-0.000768
1167.032565	0.022357
1167.185698	0.029269
1167.338812	0.027051
1167.491909	0.025628
1167.644987	0.029278
1167.798046	0.030132
1167.951088	0.038254
1168.104111	0.040635
1168.257117	0.042058
1168.410103	0.051396
1168.563072	0.051793
1168.716023	0.071059
1168.868955	0.073308
1169.021869	0.074436
1169.174765	0.073159
1169.327642	0.063172
1169.480501	0.053407
1169.633343	0.046839
1169.786165	0.043033
1169.938970	0.032346
1170.091757	0.016094
1170.244525	-0.000000
1170.397275	0.001608
1170.550007	0.006795
1170.702720	0.017114
1170.855415	0.025988
1171.008092	0.023001
1171.160751	0.010500
1171.313392	0.006566
1171.466014	0.036240
1171.618619	-0.045770
1171.771205	-0.045770
1171.923772	-0.045770
