sample name	sample
index	578
start time	 03-16-2021  03:29:52 PM
880	0.211837
Peak Time (s)	182.536
Peak Height 	0.2118
calc peak height	180,183
Baseline Time (s)	9.536
Baseline Value 	-0.004061
subtract baseline	10,4
Abs	0.158680
Peak Time (s)	182.536
Peak Height 	0.1587
calc peak height	180,183
Baseline Time (s)	10.537
Baseline Value 	8.7972E-4
subtract baseline	10,3
PK_550	0.085210
Peak Time (s)	182.036
Peak Height 	0.08521
calc peak height	180,183
Baseline Time (s)	9.038
Baseline Value 	1.7641E-4
subtract baseline	10,2
PK_880	0.145058
Peak Time (s)	181.536
Peak Height 	0.1451
calc peak height	180,183
Baseline Time (s)	10.537
Baseline Value 	7.6935E-4
subtract baseline	10,1


Time (s)	A880-A510	A880-A775	A880-A975	A880	I510	I775	I975	I880	
0.035500	-0.002038	-0.000006	-0.001246	0.008439	5530.255969	33432.961251	3609.309877	18155.245585
0.536500	-0.003226	-0.000232	-0.000914	0.005231	5542.842575	33643.587959	3615.865122	18268.915767
1.036500	-0.001820	-0.000105	0.001115	0.004252	5557.776575	33722.031473	3621.475795	18303.751511
1.537500	0.001501	-0.000116	0.001244	0.001342	5597.187672	33928.815319	3627.186549	18407.835053
2.036500	0.000157	0.000585	-0.003125	0.005937	5559.614521	33651.457889	3610.459637	18243.821541
2.537500	-0.002937	-0.000185	0.001862	0.000834	5572.268766	33960.252191	3629.311073	18426.082264
3.034500	0.000754	-0.000219	0.003854	-0.001253	5608.991499	34107.634109	3637.059129	18501.249692
3.537500	0.000087	0.000057	0.001870	0.000662	5592.522921	33989.897692	3629.652473	18432.270900
4.038500	0.001311	0.000365	-0.003119	0.000935	5598.572986	33992.369578	3619.759840	18422.430560
4.536000	0.001708	0.000411	-0.004532	0.000719	5602.484703	34011.158422	3617.528110	18430.207219
5.036000	0.002796	-0.000113	-0.001020	0.000089	5613.476354	34018.852075	3625.282913	18452.879561
5.536000	0.000426	-0.000361	0.001239	0.000135	5598.032062	33997.731641	3629.455703	18451.225097
6.039500	-0.001127	0.000223	0.003104	0.000153	5588.043551	34038.321398	3632.955607	18450.577792
6.537000	-0.002253	0.000380	0.000038	0.000788	5576.881095	34004.064169	3625.959328	18427.745932
7.037000	0.002097	0.000773	0.001428	0.000876	5603.965820	34025.864900	3628.411584	18424.566439
7.537000	0.003062	0.000306	0.001451	-0.000287	5617.585457	34075.856347	3630.653627	18466.391838
8.035500	0.001100	0.000921	0.002140	0.000725	5598.565921	34047.389011	3630.043467	18429.998460
8.535500	-0.000265	0.000258	0.006720	0.000055	5594.145594	34047.871259	3640.036473	18454.101436
9.038000	0.000817	0.000000	-0.003455	0.000101	5600.743055	34026.078183	3620.693515	18452.450609
9.536000	0.001464	-0.000068	-0.004581	0.000000	5605.516801	34028.428779	3618.778088	18456.068135
10.039000	0.002716	0.000875	-0.000106	0.000465	5610.551818	34062.748447	3626.294876	18439.341140
10.536500	0.000000	0.000435	0.000000	-0.000124	5596.969978	34073.449427	3627.605343	18460.546659
11.039500	-0.000153	-0.000173	0.000154	-0.000045	5595.490343	34024.075525	3627.746134	18457.682172
11.537000	-0.001061	-0.000329	0.001638	-0.000589	5593.173532	34051.963531	3631.580984	18477.292518
12.040000	-0.001071	0.000949	0.003404	0.001063	5582.621665	34025.139559	3631.797361	18417.864386
12.535000	-0.000117	0.000360	0.001176	0.000046	5595.136233	34055.841018	3629.503712	18454.408164
13.035500	0.002089	0.000715	-0.003998	0.000402	5606.940011	34055.745034	3619.114307	18441.593852
13.538000	-0.002099	-0.000191	-0.000022	0.000985	5576.607174	33948.952287	3625.473005	18420.641429
14.035500	-0.000627	0.000093	0.002444	0.002798	5574.453806	33839.759266	3626.703221	18355.687669
14.536000	0.000505	-0.000093	0.003381	0.002135	5585.817354	33873.766828	3629.724307	18379.400828
15.039000	0.001290	-0.000091	-0.003517	-0.001103	5611.459353	34105.985543	3622.830966	18495.816197
15.536000	-0.000933	0.000330	0.003664	0.000789	5585.234779	34000.329469	3632.810598	18427.693560
16.037000	-0.001336	-0.000055	0.001868	-0.000588	5591.413949	34071.572711	3632.014719	18477.230310
16.539500	-0.001160	-0.000248	0.002882	-0.000601	5592.623319	34058.636693	3633.965160	18477.725587
17.037000	0.003042	0.000610	0.005511	-0.003629	5638.989643	34339.075353	3644.789660	18587.242715
17.537500	-0.000726	-0.000008	-0.000984	0.001399	5582.680115	33932.443379	3622.889269	18405.799105
18.035500	-0.001565	0.000316	-0.000825	0.000850	5580.842516	33995.011590	3624.218809	18425.511481
18.538000	-0.000992	-0.000281	0.000085	0.001130	5582.700126	33932.183038	3625.402376	18415.448190
19.035500	-0.002202	-0.000223	0.005631	0.001483	5572.805243	33911.039844	3635.229339	18402.767942
19.536000	-0.000928	0.000752	-0.000056	0.001712	5579.418960	33964.449255	3624.043676	18394.572473
20.039500	0.000371	-0.000607	0.006886	0.000572	5594.898529	33948.772384	3639.365911	18435.505231
20.536500	-0.003790	-0.000511	0.005753	0.000692	5567.783417	33947.077108	3636.972044	18431.192810
21.039500	0.000162	-0.000896	-0.004130	0.000627	5593.217802	33924.106142	3618.448478	18433.503575
21.537500	-0.001506	-0.000721	0.002112	0.000399	5584.072297	33953.001382	3630.606133	18441.700214
22.037500	0.000482	0.000567	0.000689	0.001529	5589.520468	33964.358525	3625.789239	18401.135375
22.535000	-0.000081	0.000184	0.003153	0.001393	5586.811255	33946.629229	3630.697349	18406.020771
23.043000	-0.000275	0.000091	0.007095	0.001313	5586.084308	33945.722521	3638.348164	18408.890520
23.535500	-0.001324	-0.000515	-0.000216	0.000791	5582.738022	33939.686040	3625.474210	18427.613426
24.039000	-0.000976	-0.000044	0.001880	0.000970	5583.807666	33960.549391	3629.088602	18421.178759
24.536500	0.000637	-0.000079	0.003884	0.001372	5591.499425	33929.318478	3632.122460	18406.764753
25.036000	-0.001028	0.000547	0.007917	0.001772	5578.406087	33945.448209	3639.040898	18392.412894
25.537000	-0.000010	0.000380	0.001294	0.001544	5586.297950	33949.805912	3626.899544	18400.587666
26.037000	-0.001791	-0.000676	-0.004074	0.000774	5579.889674	33929.352390	3618.279129	18428.216364
26.537500	-0.000142	0.000518	0.000274	0.001948	5582.896030	33930.757460	3624.218585	18386.090248
27.037500	0.001644	-0.001068	0.006123	-0.001532	5616.477769	34066.572284	3641.933121	18511.299449
27.535000	0.000526	0.000485	0.003192	-0.001436	5608.700978	34171.567527	3636.146178	18507.860330
28.035500	-0.002539	0.000460	0.008583	-0.000181	5581.198207	34079.315930	3644.065236	18462.583088
28.536000	0.000406	0.001124	0.005456	0.000217	5597.380365	34098.449710	3637.310139	18448.251324
29.035500	0.002750	0.000427	0.006492	0.000208	5612.413430	34049.014193	3639.307763	18448.572616
29.539000	0.000300	0.000474	0.003688	0.003741	5574.353556	33799.701068	3627.272205	18321.996944
30.036000	0.001584	0.000823	0.002511	0.000559	5602.715144	34052.258058	3631.061214	18435.974487
30.539500	-0.002362	0.000138	0.004979	0.002451	5565.696404	33867.686163	3632.151913	18368.089969
31.042500	0.001586	0.000585	0.000221	0.002819	5588.332986	33873.315836	3622.485056	18354.919828
31.537500	-0.001029	-0.000202	0.003656	0.003289	5568.812744	33783.666022	3628.063281	18338.123736
32.034500	-0.000202	0.000814	-0.004673	0.000462	5591.952748	34058.553159	3617.742834	18439.436435
32.535500	-0.000295	0.000173	0.005665	-0.000079	5594.800947	34051.368617	3638.274317	18458.920049
33.038500	0.001356	-0.000043	0.000758	-0.000416	5607.485530	34060.066903	3629.587336	18471.051236
33.535500	-0.001037	-0.000569	0.000362	0.004230	5562.834420	33690.677018	3620.107937	18304.532314
34.038500	-0.003264	-0.000170	0.003978	0.002269	5561.162240	33858.673464	3630.599145	18374.599721
34.536500	0.000057	0.001072	0.000896	0.002984	5577.599197	33896.345488	3623.442692	18349.034673
35.036500	0.002243	0.001135	-0.000810	0.002948	5591.689401	33903.403449	3620.314847	18350.314694
35.537000	-0.001689	-0.000912	-0.001140	0.002881	5567.230685	33762.166832	3619.822430	18352.712093
36.040000	0.000598	0.000650	0.009272	0.002323	5585.215658	33913.433013	3640.580807	18372.689901
36.535000	-0.000505	-0.000122	-0.000316	0.001972	5580.446507	33883.311178	3623.066726	18385.228678
37.038000	0.000349	0.000562	0.006883	0.002530	5582.327537	33892.348724	3635.620625	18365.273639
37.535500	0.000066	0.000676	0.005582	0.002705	5579.421529	33888.005450	3632.814281	18359.005441
38.035500	-0.001364	-0.000371	0.001822	0.001629	5577.177644	33890.017628	3627.733741	18397.525493
38.536000	0.000895	0.000713	0.001048	0.002587	5585.423519	33899.098901	3624.474640	18363.236460
39.038500	-0.002144	-0.000441	-0.000327	0.001903	5570.528008	33865.479800	3623.177101	18387.728108
39.536500	-0.000901	-0.000002	0.000929	0.002084	5577.235403	33883.957801	3625.195604	18381.243117
40.037000	0.002030	0.001654	0.007350	0.003496	5586.859082	33901.329801	3634.670804	18330.737618
40.538000	-0.001474	-0.000109	0.001933	0.001809	5575.350619	33895.878510	3627.603536	18391.083633
41.037000	0.001381	0.001740	0.004082	0.003598	5582.095564	33900.213124	3628.284392	18327.100363
41.535000	-0.001687	-0.000346	0.002887	0.001796	5574.085515	33879.909035	3629.431207	18391.544045
42.037500	0.001182	-0.000794	0.002824	0.001448	5594.479990	33872.757195	3629.969534	18404.022125
42.535500	0.000583	0.000671	0.006037	0.002341	5585.004437	33913.649903	3634.371318	18372.031224
43.038000	0.000495	0.001069	0.009345	0.002628	5582.627050	33921.588552	3640.136847	18361.762030
43.536000	-0.001409	0.000857	0.003675	0.004547	5558.509155	33769.530215	3625.729576	18293.263928
44.039000	0.001089	0.001230	0.000082	0.000599	5599.300525	34078.634224	3626.396231	18434.520748
44.536500	0.000817	0.000862	0.010216	0.000074	5600.910105	34089.892178	3646.720563	18453.391863
45.037000	0.001989	0.000054	0.012247	-0.000270	5610.599448	34056.554860	3651.318309	18465.793987
45.537500	-0.003262	-0.000614	0.003148	0.006083	5537.300873	33556.244558	3621.856116	18238.645388
46.035000	0.000122	0.000125	0.008078	-0.000054	5597.300422	34046.192792	3642.851768	18458.026385
46.538500	0.001799	0.000466	0.003381	-0.000032	5607.862269	34069.020550	3633.832252	18457.207952
47.035000	-0.002111	0.000011	-0.000553	0.002416	5567.501888	33861.144655	3621.791805	18369.360367
47.535500	-0.002783	0.001006	0.004223	0.006209	5539.500241	33661.993304	3623.634126	18234.159463
48.038000	0.001379	0.000054	0.008862	-0.000236	5606.483428	34054.071529	3644.707911	18464.559234
48.536500	0.002577	0.000541	0.000697	0.000319	5610.593618	34049.205430	3628.083559	18444.582870
49.039500	0.002151	0.000326	0.006147	-0.000534	5613.329957	34095.099442	3640.066976	18475.312882
49.536500	-0.001874	0.001131	0.001677	0.006730	5541.927678	33633.926641	3617.897982	18215.695824
50.040000	0.003097	0.001097	0.001457	-0.000271	5617.706656	34131.599619	3630.635139	18465.808392
50.537500	0.004893	0.001520	0.011165	0.008168	5575.401213	33559.723605	3633.041778	18164.812545
51.037500	0.015594	-0.005219	0.023325	0.322553	4194.545258	17513.898897	3219.572333	10261.708652
51.535000	-0.009530	-0.015619	0.000366	-0.026617	5707.164710	34832.866834	3679.869963	19444.131541
52.035000	-0.011333	-0.014768	-0.004549	-0.149123	6628.854481	45336.758724	3950.876254	24860.661157
52.535500	-0.006321	-0.091101	-0.002820	-0.394377	9589.248546	65533.646420	4826.001272	41586.069184
53.041500	0.004089	-0.099116	0.000024	-0.402402	9882.305046	65535.000000	4877.131917	42308.945597
53.536500	0.000418	-0.030770	0.001867	-0.305360	8422.737475	61527.257915	4469.911776	34402.184805
54.036000	-0.009710	-0.017715	-0.010953	-0.259439	7745.643110	57251.189025	4259.713298	31233.606255
54.537000	-0.007657	-0.015050	-0.008583	-0.253704	7704.158291	56868.082043	4248.515156	30860.931553
55.036500	-0.000945	-0.010659	-0.005700	-0.254340	7787.317261	57496.882056	4260.229453	30902.028367
55.534500	-0.002537	-0.006036	-0.008611	-0.239542	7603.723606	56231.515757	4202.216209	29961.341048
56.038000	0.004840	-0.001811	0.000174	-0.213164	7399.394360	53577.214902	4146.883924	28362.143634
56.535500	0.006394	-0.000213	0.000744	-0.186422	7141.945593	50724.050154	4068.601638	26836.989809
57.035000	0.005416	0.000911	0.005452	-0.159046	6869.444887	47916.227242	4004.511451	25369.975725
57.536000	0.004402	-0.000453	0.002880	-0.134648	6639.883337	45321.027269	3932.488901	24138.241941
58.036000	0.005750	0.001484	0.005213	-0.113109	6466.840659	43447.101032	3883.860242	23106.940609
58.536500	0.005952	0.001034	0.010182	-0.093774	6310.101781	41639.288503	3848.864769	22223.667249
59.039500	0.008061	0.002166	0.009929	-0.080063	6218.385366	40532.199031	3815.942419	21620.776629
59.537000	0.008846	0.002183	0.007741	-0.044779	5959.667642	37593.651901	3732.653457	20153.976360
60.039500	0.014711	0.002919	0.015739	-0.040186	5968.840766	37286.510724	3739.927187	19971.644987
60.537500	0.016282	0.005977	0.017523	-0.044195	6009.427487	37851.316106	3752.436760	20130.685385
61.035000	0.019767	0.006931	0.018766	-0.039493	6000.528728	37550.623785	3744.947927	19944.305786
61.535500	0.017475	0.014858	0.015236	-0.037416	5968.792098	38021.101322	3732.932647	19862.597925
62.038000	0.022602	0.015304	0.023210	-0.038040	6010.631077	38107.879326	3751.419013	19887.116496
62.536000	0.022451	0.016023	0.018482	-0.037001	6001.926987	38081.856318	3738.978123	19846.321146
63.043500	0.025875	0.016733	0.022079	-0.031706	5988.293071	37711.890159	3735.347257	19640.031509
63.539000	0.021924	0.017019	0.036375	-0.023995	5904.628356	37121.094710	3749.509146	19344.085931
64.042500	0.022879	0.017545	0.031081	-0.019267	5878.036924	36791.186071	3728.040235	19165.218486
64.536500	0.024403	0.017955	0.024634	-0.013460	5848.124800	36372.037376	3702.453620	18948.155113
65.037500	0.027283	0.018116	0.035011	-0.008142	5831.231458	35976.427185	3712.929954	18751.895832
65.535000	0.026485	0.018628	0.030419	-0.002566	5787.520442	35592.548408	3691.999146	18548.724442
66.035000	0.025864	0.019425	0.033770	0.002203	5751.035364	35294.420241	3689.117131	18376.953288
66.535500	0.030258	0.019750	0.037646	0.006590	5751.088132	34992.504126	3688.081877	18220.644390
67.036000	0.031387	0.021521	0.036099	0.011150	5728.104457	34786.804857	3675.799130	18059.832964
67.536000	0.029113	0.022630	0.030793	0.019982	5654.944522	34223.990523	3648.014505	17753.098934
68.035500	0.033321	0.023895	0.040792	0.018901	5689.549411	34393.819850	3669.710086	17790.287435
68.537000	0.034759	0.023988	0.043486	0.021729	5680.413887	34195.856459	3669.445768	17693.146769
69.037000	0.036150	0.025451	0.041957	0.025363	5665.734883	34039.610707	3659.269435	17569.249446
69.537500	0.033762	0.024661	0.041557	0.034024	5594.506720	33368.336421	3641.700356	17278.083980
70.039500	0.039896	0.025942	0.046138	0.030792	5654.763588	33687.004646	3656.827249	17386.049882
70.535000	0.040736	0.027031	0.049203	0.034255	5637.762140	33518.991556	3656.050529	17270.405448
71.035000	0.039034	0.027921	0.050381	0.037417	5606.492173	33359.014802	3652.186090	17165.589168
71.535000	0.039246	0.027962	0.049763	0.043335	5570.260362	32948.995957	3639.582598	16971.472320
72.041000	0.042452	0.028728	0.050064	0.042803	5593.943612	33039.122105	3641.180139	16988.837745
72.536000	0.046834	0.028340	0.055602	0.044416	5611.623735	32900.378671	3648.740737	16936.323678
73.036500	0.045044	0.030478	0.051491	0.047792	5578.735394	32814.849913	3634.377412	16827.041811
73.536000	0.043943	0.029852	0.051881	0.053573	5535.520242	32376.084438	3624.185896	16641.845160
74.037500	0.047890	0.030945	0.054288	0.051633	5572.441399	32582.974340	3632.393456	16703.718304
74.537500	0.047246	0.031080	0.055959	0.053491	5556.693246	32465.290932	3632.038457	16644.464371
75.038000	0.049023	0.030809	0.058476	0.054636	5560.661288	32368.900811	3634.644656	16608.075385
75.535500	0.051253	0.032688	0.052088	0.061913	5529.115622	32004.331523	3609.050001	16379.002981
76.036000	0.051075	0.033494	0.059687	0.059734	5541.577076	32205.338552	3627.281294	16447.202834
76.536000	0.052284	0.033506	0.057673	0.060864	5542.076595	32129.894858	3621.375714	16411.808253
77.041500	0.053763	0.033038	0.050721	0.062200	5542.966441	32008.594725	3606.006831	16370.063080
77.536500	0.055317	0.033852	0.061603	0.065403	5532.685729	31848.657468	3620.236558	16270.516208
78.037000	0.055584	0.034592	0.062452	0.065861	5531.498987	31867.481797	3620.968127	16256.353884
78.537000	0.057363	0.035222	0.060213	0.067244	5533.962146	31817.228506	3614.219950	16213.650402
79.039500	0.058807	0.035972	0.066394	0.068872	5532.813449	31758.737699	3622.710005	16163.532528
79.537500	0.058028	0.036673	0.063252	0.072365	5506.365154	31573.551921	3610.364737	16056.676359
80.035000	0.059923	0.037117	0.065966	0.071737	5521.955744	31644.454475	3616.558975	16075.813714
80.535500	0.059461	0.037715	0.061373	0.072699	5513.144290	31620.399737	3606.287897	16046.500535
81.036000	0.060172	0.037755	0.069004	0.073283	5513.930527	31584.390542	3619.341512	16028.737351
81.536000	0.062291	0.038159	0.069185	0.075204	5515.149730	31484.156955	3616.097731	15970.441819
82.036500	0.064354	0.038987	0.063064	0.075315	5527.250206	31531.498408	3604.590051	15967.091289
82.536500	0.064578	0.038754	0.070364	0.075876	5525.157807	31479.164402	3617.043198	15950.127978
83.041500	0.065606	0.039310	0.070252	0.077144	5523.667797	31432.232760	3614.475919	15911.838887
83.534500	0.063405	0.038697	0.073806	0.079220	5497.267625	31255.829552	3617.224046	15849.415841
84.037500	0.065569	0.038628	0.069547	0.077869	5518.944200	31339.800602	3611.826668	15890.015155
84.535000	0.068272	0.040195	0.068585	0.080010	5522.427694	31302.144618	3606.105999	15825.753938
85.035500	0.068024	0.039698	0.068981	0.080003	5520.933138	31270.108878	3606.846208	15825.963446
85.535000	0.066049	0.039121	0.073711	0.082756	5491.800629	31053.076142	3610.489761	15743.802727
86.036000	0.069376	0.041160	0.074580	0.082145	5516.043578	31225.593312	3613.226767	15761.982918
86.536000	0.070921	0.040648	0.071445	0.082600	5522.789364	31162.539776	3606.601050	15748.429818
87.036500	0.072606	0.042093	0.076819	0.084294	5522.733582	31146.305474	3613.394843	15698.120422
87.536500	0.072165	0.043441	0.075981	0.086751	5504.827069	31074.161419	3607.309775	15625.482441
88.037000	0.073801	0.043095	0.079142	0.086229	5518.153023	31085.590450	3614.115428	15640.893258
88.537000	0.075006	0.043769	0.086253	0.087680	5516.630649	31035.119812	3624.683736	15598.135181
89.038000	0.075253	0.043919	0.078350	0.088461	5513.328979	30994.219561	3608.523690	15575.185045
89.535000	0.075292	0.043660	0.082017	0.090445	5501.345058	30849.301894	3611.631326	15517.071410
90.035000	0.075830	0.044232	0.085292	0.089626	5509.697408	30939.085760	3619.238418	15541.022054
90.535500	0.076996	0.043383	0.076639	0.090215	5513.266280	30846.323680	3602.165079	15523.798850
91.036000	0.076421	0.043553	0.081253	0.090988	5504.948219	30807.420703	3609.216182	15501.196416
91.536000	0.077254	0.044593	0.085598	0.094377	5489.253327	30656.643711	3610.980904	15402.655260
92.036500	0.076866	0.044356	0.082851	0.092800	5496.542754	30742.590318	3608.823468	15448.425099
92.536500	0.080286	0.047042	0.077157	0.095742	5499.481075	30726.135335	3593.062678	15363.180297
93.034000	0.080127	0.047704	0.085402	0.096747	5492.333351	30704.097738	3606.252660	15334.187205
93.537000	0.079113	0.045952	0.088946	0.097967	5478.681846	30514.254071	3610.534241	15299.109164
94.034000	0.081199	0.045454	0.087881	0.097203	5496.116507	30531.195074	3609.979166	15321.074398
94.535500	0.081621	0.046260	0.085981	0.099009	5487.631890	30467.521429	3603.167867	15269.197799
95.035000	0.081827	0.046570	0.085638	0.100204	5481.584395	30411.252275	3600.356703	15234.993511
95.535500	0.084627	0.047805	0.080485	0.102488	5484.739025	30344.805789	3586.910528	15169.898639
96.036500	0.080889	0.047173	0.092177	0.102125	5464.188420	30327.779348	3608.823468	15180.210099
96.536500	0.084540	0.047761	0.090849	0.103242	5479.608056	30294.392060	3604.330020	15148.492182
97.036000	0.082168	0.047251	0.083427	0.103454	5463.885348	30248.762582	3590.460541	15142.462851
97.537000	0.085967	0.048799	0.094550	0.105449	5474.849627	30220.589278	3607.072500	15086.008492
98.037000	0.084020	0.047692	0.097469	0.105635	5461.898190	30139.288071	3612.116152	15080.764655
98.537500	0.085738	0.049306	0.095629	0.107771	5459.360769	30106.434850	3604.790505	15020.608396
99.035000	0.087637	0.049352	0.091817	0.108357	5467.321410	30072.570422	3596.764620	15004.157449
99.535000	0.085648	0.049079	0.093840	0.109733	5446.969426	29969.512303	3597.941490	14965.642001
100.036000	0.085164	0.050199	0.089776	0.110342	5440.395878	30001.390407	3589.490356	14948.619255
100.536000	0.088111	0.049123	0.092261	0.110929	5454.615087	29897.668690	3592.912866	14932.240743
101.036000	0.084809	0.050031	0.090196	0.112329	5426.353107	29867.025239	3586.676937	14893.256763
101.536500	0.086498	0.050178	0.102407	0.113739	5428.027955	29788.632299	3606.277982	14854.149239
102.037000	0.091126	0.051486	0.097244	0.114371	5452.037893	29830.565345	3595.701721	14836.664752
102.537000	0.087449	0.049823	0.092123	0.113825	5433.206850	29761.294090	3587.450507	14851.774402
103.043500	0.088263	0.050173	0.092919	0.115110	5430.380489	29703.385196	3586.573862	14816.219101
103.535000	0.093425	0.051751	0.095395	0.118556	5440.675679	29588.220019	3584.838145	14721.450562
104.034500	0.089428	0.050883	0.097680	0.117382	5423.763116	29607.006153	3591.046653	14753.642852
104.535500	0.090413	0.051276	0.099733	0.117818	5427.046950	29604.381061	3593.966831	14741.684298
105.035500	0.092125	0.052474	0.096784	0.119986	5424.317627	29544.700792	3584.763920	14682.329144
105.536000	0.091750	0.051489	0.101171	0.120050	5421.701548	29480.317846	3592.531048	14680.583082
106.036500	0.092800	0.050942	0.097362	0.120065	5427.880322	29445.897140	3585.656419	14680.177569
106.537000	0.092867	0.051869	0.101097	0.121615	5419.028551	29407.804813	3589.577286	14637.941388
107.036500	0.094384	0.051908	0.098402	0.123178	5418.750134	29314.737036	3581.953961	14595.475329
107.537000	0.095031	0.052946	0.113018	0.125070	5411.342325	29262.745476	3604.955121	14544.302920
108.037500	0.095405	0.052666	0.103798	0.124939	5414.345914	29253.726680	3588.458184	14547.847499
108.535000	0.093192	0.053079	0.104512	0.125483	5397.997646	29245.749560	3588.762248	14533.171102
109.035500	0.098498	0.053092	0.106639	0.126955	5420.763381	29157.242808	3589.940100	14493.545592
109.535500	0.097707	0.053612	0.107538	0.128108	5409.194639	29118.957615	3589.483591	14462.615665
110.036000	0.096661	0.054462	0.110289	0.129564	5394.377242	29082.303628	3591.814955	14423.641340
110.536000	0.098508	0.054469	0.101588	0.131061	5396.448740	28992.546148	3573.633926	14383.742244
111.036500	0.097948	0.055180	0.109869	0.131556	5390.217396	29005.485572	3587.476500	14370.560730
111.536500	0.097808	0.054156	0.113981	0.132495	5383.863913	28887.528730	3593.189354	14345.609724
112.037000	0.097366	0.055031	0.108081	0.133141	5377.480193	28901.324106	3581.450269	14328.504407
112.540000	0.099558	0.055823	0.103740	0.134864	5380.234171	28845.563659	3570.731099	14282.948255
113.035000	0.100566	0.055427	0.113387	0.135515	5382.328447	28782.952839	3586.686560	14265.781691
113.535000	0.100362	0.056742	0.110778	0.136641	5374.524036	28794.202627	3580.021319	14236.135764
114.035500	0.100762	0.057218	0.109298	0.138050	5368.623086	28738.546990	3574.904647	14199.180447
114.536000	0.102583	0.056348	0.109522	0.138368	5377.422336	28667.899962	3574.740187	14190.862609
115.036000	0.105348	0.057600	0.112135	0.139983	5384.175335	28646.337215	3576.502188	14148.661537
115.536500	0.103751	0.057984	0.112094	0.140844	5369.763433	28618.045807	3574.909605	14126.240367
116.039500	0.104631	0.057139	0.111204	0.141341	5372.003414	28538.514877	3572.465834	14113.311926
116.537000	0.106953	0.059893	0.113267	0.143891	5370.666867	28550.577091	3571.608210	14047.192747
117.034500	0.104147	0.058546	0.117449	0.143506	5356.544597	28493.703868	3579.675943	14057.149768
117.535000	0.105831	0.059590	0.107657	0.145186	5356.571969	28456.201968	3559.568659	14013.785775
118.035000	0.107835	0.060570	0.114691	0.145785	5364.755788	28478.695429	3570.782414	13998.359859
118.534500	0.108022	0.060662	0.123178	0.147060	5358.419104	28408.991656	3583.550676	13965.612343
119.035500	0.109166	0.059294	0.119945	0.147317	5363.584017	28313.535123	3577.345473	13959.008984
119.535500	0.108461	0.060031	0.117652	0.147399	5359.000049	28352.008678	3573.151046	13956.916364
120.036000	0.107921	0.061184	0.115626	0.149166	5345.596079	28315.915841	3566.499938	13911.692005
120.539000	0.112413	0.061380	0.122610	0.150357	5364.790769	28257.684588	3576.681676	13881.325552
121.036500	0.110534	0.061869	0.126517	0.152391	5342.059373	28167.439988	3580.001266	13829.658041
121.537000	0.109080	0.062074	0.117765	0.152368	5333.792845	28180.786934	3564.646410	13830.240433
122.040000	0.110012	0.060934	0.124180	0.151610	5343.555856	28158.489893	3577.242174	13849.479551
122.535000	0.112731	0.062298	0.115016	0.153659	5347.440003	28118.684877	3557.644968	13797.587219
123.035000	0.112264	0.062766	0.124443	0.155629	5333.351973	28031.437644	3570.622464	13747.920133
123.535500	0.112754	0.063204	0.116879	0.155513	5336.843668	28063.542818	3557.659841	13750.819302
124.036000	0.113207	0.062653	0.121955	0.155176	5341.410294	28051.118877	3567.058094	13759.311516
124.536000	0.113629	0.063241	0.120651	0.156832	5334.286089	27989.245062	3561.903707	13717.679296
125.036500	0.114936	0.064636	0.119942	0.159348	5327.327650	27924.450217	3556.329544	13654.760819
125.536500	0.114523	0.064892	0.126940	0.159914	5321.701460	27906.553379	3567.489661	13640.651081
126.037000	0.116840	0.065293	0.128982	0.160128	5333.797341	27917.374514	3570.691663	13635.315707
126.539500	0.115508	0.065222	0.123646	0.159992	5326.907135	27921.078453	3561.618578	13638.696771
127.037500	0.112246	0.064214	0.117012	0.161349	5300.503702	27784.990396	3547.886293	13604.973739
127.535000	0.116279	0.066307	0.125375	0.163117	5313.414773	27803.647787	3559.200663	13561.165305
128.035500	0.117222	0.066122	0.124345	0.162887	5320.136003	27806.279123	3557.819275	13566.857885
128.535000	0.118071	0.067046	0.131415	0.163755	5320.026019	27809.488180	3568.598245	13545.404471
129.035500	0.117945	0.066815	0.116667	0.166464	5303.826273	27641.130555	3538.646716	13478.736956
129.536500	0.120602	0.066579	0.125842	0.164829	5328.391710	27721.068038	3557.051558	13518.916553
130.036000	0.120385	0.066700	0.133913	0.165478	5323.413068	27690.848716	3569.955361	13502.936519
130.536500	0.117683	0.066700	0.126795	0.165985	5305.062670	27661.923411	3556.703031	13490.492257
131.037000	0.119470	0.068023	0.127149	0.167736	5305.262675	27637.442217	3554.297355	13447.550717
131.537000	0.122400	0.068347	0.128049	0.168353	5318.479387	27620.739308	3554.784969	13432.469281
132.035000	0.119739	0.068551	0.127388	0.168911	5300.107595	27600.565829	3552.691999	13418.850398
132.535000	0.121452	0.068813	0.125202	0.169069	5308.964752	27606.500356	3548.686234	13415.006363
133.035500	0.119851	0.069434	0.136770	0.173966	5272.158765	27363.982818	3560.144924	13296.235801
133.535500	0.122787	0.069836	0.130277	0.171746	5301.317707	27512.398246	3552.784712	13349.917058
134.036000	0.123310	0.070436	0.133626	0.171799	5303.991742	27543.476173	3558.456546	13348.623770
134.536000	0.126603	0.071325	0.139343	0.172908	5316.461348	27530.940005	3566.456284	13321.778165
135.036500	0.120283	0.069904	0.124610	0.176741	5259.022244	27234.288521	3534.732528	13229.534084
135.537000	0.124556	0.070186	0.133232	0.174328	5296.695843	27385.982110	3553.423946	13287.511968
136.043500	0.125379	0.070301	0.139398	0.174088	5302.739435	27406.071066	3564.495549	13293.298367
136.537000	0.123577	0.069686	0.135439	0.174316	5291.208243	27358.415970	3557.240755	13287.794667
137.035000	0.124740	0.070708	0.128969	0.179750	5267.131011	27110.854206	3536.995140	13157.696129
137.535000	0.125229	0.071865	0.135853	0.176260	5289.560274	27371.758246	3554.607426	13241.072713
138.035500	0.126984	0.072648	0.130938	0.177652	5291.612948	27337.352573	3543.848820	13207.718952
138.535500	0.127809	0.071638	0.144347	0.176569	5302.455089	27341.523215	3568.804930	13233.661689
139.036000	0.122565	0.071427	0.130334	0.182214	5241.242266	27013.556168	3535.152149	13099.213436
139.536000	0.127638	0.071767	0.132244	0.177928	5293.756682	27272.252380	3545.595725	13201.131473
140.036500	0.124719	0.071130	0.134713	0.178495	5274.059311	27204.636666	3548.829728	13187.581595
140.536500	0.126864	0.072667	0.137247	0.179450	5280.770065	27237.333935	3551.528193	13164.832610
141.037500	0.122361	0.071164	0.127525	0.184100	5229.666261	26894.329133	3527.338061	13054.694649
141.535000	0.125830	0.073353	0.135806	0.180933	5266.605700	27192.580879	3546.541415	13129.564729
142.035000	0.130747	0.072991	0.132571	0.181188	5292.900928	27158.068327	3540.633822	13123.528869
142.535000	0.128947	0.074208	0.135595	0.182691	5274.248743	27142.038335	3543.203579	13087.945050
143.035500	0.125700	0.072786	0.139688	0.187391	5229.933709	26802.090134	3542.176296	12977.445371
143.536000	0.127467	0.073799	0.134473	0.182184	5268.774385	27147.484736	3542.160821	13099.916901
144.036000	0.129621	0.073489	0.129181	0.182954	5276.557303	27087.202009	3531.991477	13081.726482
144.536500	0.127772	0.073445	0.134418	0.183443	5263.428045	27057.484016	3539.946511	13070.184095
145.036500	0.130486	0.073797	0.134917	0.183816	5276.577363	27056.307262	3540.158309	13061.381060
145.539500	0.131137	0.073736	0.138773	0.184591	5275.878678	27009.757306	3545.367402	13043.126211
146.034500	0.133545	0.074861	0.144294	0.185550	5284.050293	27018.964135	3553.150005	13020.580357
146.535000	0.131381	0.074099	0.133561	0.184995	5274.971786	27007.438680	3535.898521	13033.615465
147.035000	0.129650	0.075043	0.141299	0.191929	5226.689007	26676.706134	3537.248424	12871.910344
147.535500	0.134475	0.075649	0.141108	0.187861	5276.261643	26934.460867	3543.782857	12966.477579
148.035500	0.133098	0.075074	0.138522	0.187184	5272.318009	26940.051959	3540.557186	12982.283688
148.536000	0.133626	0.074993	0.139678	0.187269	5274.813432	26930.840260	3542.364425	12980.293643
149.036000	0.125502	0.074644	0.133527	0.193294	5196.458445	26580.107454	3522.072920	12840.366625
149.536500	0.134704	0.075973	0.137896	0.188999	5271.145744	26889.285713	3536.453596	12939.917110
150.037000	0.133765	0.075890	0.145303	0.188899	5266.435389	26890.247225	3549.148372	12942.249742
150.537500	0.132376	0.075662	0.141044	0.189629	5254.576422	26837.330921	3540.687546	12925.256652
151.037500	0.129937	0.075158	0.132222	0.195353	5209.437206	26495.875459	3516.565478	12792.985453
151.535000	0.133590	0.075876	0.142764	0.190604	5255.912624	26795.348545	3541.945787	12902.614633
152.035000	0.133253	0.076817	0.140103	0.191202	5250.699291	26814.235223	3536.460808	12888.741447
152.535500	0.133012	0.076876	0.150167	0.191500	5247.692737	26801.064425	3553.018372	12881.829672
153.036000	0.130144	0.076761	0.140418	0.198004	5196.089068	26438.882099	3525.665313	12732.319207
153.536000	0.134224	0.077475	0.143520	0.193411	5243.805527	26728.782839	3538.488263	12837.657833
154.036500	0.136634	0.077100	0.146602	0.192778	5260.773477	26742.984528	3544.759274	12852.263903
154.537000	0.134331	0.077420	0.142166	0.192930	5247.080913	26752.276868	3537.022648	12848.775063
155.039500	0.132695	0.077542	0.145348	0.199439	5202.174460	26403.412246	3531.460363	12699.623368
155.537500	0.132931	0.077323	0.145180	0.193612	5235.517803	26709.439933	3540.945770	12833.031765
156.035000	0.133838	0.078085	0.152290	0.194615	5234.989528	26696.193127	3551.320078	12809.947648
156.535000	0.138526	0.078537	0.143676	0.195544	5255.889501	26670.000709	3535.171531	12788.599787
157.035500	0.135004	0.077739	0.148111	0.194409	5242.599714	26688.530639	3544.554241	12814.690793
157.535500	0.136171	0.077414	0.146474	0.194465	5248.778538	26667.628780	3541.690713	12813.403073
158.036000	0.135694	0.078133	0.141253	0.195865	5238.344510	26630.289938	3530.593788	12781.233917
158.535500	0.135656	0.078551	0.144572	0.196319	5235.616916	26628.311432	3535.374241	12770.831134
159.036500	0.131880	0.078836	0.145320	0.202544	5180.863507	26305.396814	3526.262906	12629.266311
159.539500	0.137805	0.079821	0.142451	0.197496	5241.005649	26633.391492	3529.873632	12743.904609
160.037500	0.137519	0.078734	0.146384	0.196568	5244.574323	26624.734917	3537.995846	12765.134522
160.537000	0.135481	0.079642	0.147688	0.197859	5226.140869	26603.749452	3538.017329	12735.618450
161.035000	0.134294	0.079241	0.151111	0.204691	5182.309693	26211.582603	3532.313787	12580.912936
161.535500	0.140095	0.079753	0.148839	0.198243	5249.588293	26588.806675	3539.306227	12726.854879
162.035500	0.136664	0.079303	0.150466	0.198381	5229.788646	26556.704247	3541.816924	12723.709137
162.535000	0.138531	0.080160	0.146055	0.199179	5235.700960	26559.935550	3533.073379	12705.532588
163.036000	0.133988	0.079541	0.140058	0.205635	5175.551061	26176.970513	3512.588253	12559.731063
163.536500	0.137804	0.080331	0.147697	0.200451	5224.660197	26499.961139	3533.691938	12676.650883
164.036500	0.137636	0.080244	0.142292	0.200369	5224.182961	26499.670237	3524.855457	12678.497380
164.537000	0.140026	0.081660	0.150855	0.201819	5229.366896	26497.840121	3536.686497	12645.647802
165.037000	0.136733	0.080021	0.148679	0.200697	5217.405752	26469.680752	3534.921415	12671.055615
165.534500	0.140126	0.082161	0.146262	0.201990	5228.976816	26515.758329	3528.740708	12641.778318
166.035000	0.136311	0.079973	0.147830	0.201423	5211.107656	26427.642108	3532.290652	12654.616612
166.535500	0.136124	0.082225	0.145962	0.202238	5205.617438	26505.758355	3527.832578	12636.169607
167.035500	0.136274	0.080975	0.144681	0.202105	5207.164219	26444.996639	3525.932781	12639.183295
167.535000	0.136669	0.080584	0.148772	0.202378	5207.835779	26408.995483	3532.269307	12633.021971
168.036000	0.139034	0.081299	0.149192	0.202803	5218.479496	26424.679495	3532.260373	12623.414006
168.536500	0.136557	0.080258	0.154054	0.201997	5209.306471	26411.958499	3541.770654	12641.630354
169.039500	0.141083	0.082128	0.147119	0.203670	5224.984860	26422.653034	3527.377050	12603.875645
169.537500	0.140442	0.081237	0.151906	0.204157	5218.776638	26348.049488	3534.532676	12592.925908
170.037000	0.138591	0.081328	0.151678	0.203785	5210.655124	26373.029575	3534.771827	12601.284471
170.535000	0.140513	0.081832	0.149946	0.204744	5215.938172	26348.411875	3530.284835	12579.714584
171.035000	0.137768	0.081140	0.149052	0.210755	5168.322704	25988.604316	3518.897892	12445.605190
171.535000	0.136154	0.081409	0.156191	0.204678	5192.474296	26329.101818	3540.852230	12581.193169
172.036000	0.141547	0.082369	0.149698	0.205525	5217.334060	26335.271162	3528.577900	12562.196079
172.536000	0.140165	0.082160	0.149034	0.205734	5208.600820	26312.680106	3527.131531	12557.507352
173.036500	0.139359	0.083436	0.148195	0.211375	5173.558419	26078.076535	3516.485226	12431.872872
173.536500	0.137500	0.081346	0.152176	0.205731	5194.065347	26268.878235	3532.353465	12557.560082
174.036500	0.142231	0.083165	0.154675	0.206757	5214.324344	26311.694460	3534.814208	12534.611694
174.537500	0.142167	0.082938	0.147723	0.207488	5209.956439	26259.998343	3522.075399	12518.260524
175.037000	0.139462	0.083053	0.148532	0.212629	5167.360869	25990.739030	3514.992724	12404.188526
175.535000	0.142462	0.083755	0.153635	0.208721	5204.825026	26237.592481	3529.806309	12490.780638
176.038000	0.141120	0.082292	0.149466	0.207368	5204.884761	26231.672108	3525.144717	12520.952049
176.535500	0.143743	0.082781	0.149344	0.207945	5216.097811	26226.942570	3523.991360	12508.072847
177.036000	0.136416	0.082793	0.154334	0.213270	5147.600651	25942.732130	3523.438609	12390.038629
177.536000	0.140327	0.083518	0.151879	0.208863	5192.410905	26217.224086	3526.661715	12487.632100
178.036500	0.140840	0.083563	0.149212	0.208805	5195.517363	26222.746953	3522.358496	12488.913260
178.539500	0.144217	0.082690	0.155122	0.207991	5218.446936	26219.519439	3533.498697	12507.037352
179.039500	0.140556	0.083208	0.151615	0.214410	5163.662103	25904.259783	3517.113116	12364.960892
179.537000	0.144896	0.083932	0.152928	0.209355	5214.687990	26213.009169	3527.583667	12476.686931
180.035000	0.143339	0.083678	0.155990	0.209789	5203.780482	26176.010942	3531.946462	12467.027411
180.535500	0.143864	0.083448	0.151064	0.209862	5206.252831	26159.778251	3523.667535	12465.423692
181.035000	0.142388	0.083087	0.155329	0.209969	5197.607143	26134.664679	3530.547500	12463.036733
181.536000	0.145058	0.084175	0.155432	0.210645	5208.502151	26156.742322	3529.595871	12448.046383
182.036000	0.143136	0.085210	0.153288	0.211814	5191.636230	26149.552616	3524.114869	12422.166092
182.536000	0.143136	0.084796	0.158680	0.211837	5191.515031	26126.188629	3533.018829	12421.677795
183.039500	0.141061	0.083731	0.152302	0.213632	5170.563179	25973.387794	3519.508343	12382.074664
183.534000	0.145125	0.083853	0.152923	0.211935	5201.815013	26070.453781	3523.313964	12419.503598
184.034000	0.143907	0.084718	0.151698	0.212347	5192.927520	26094.634625	3520.624588	12410.394821
184.535000	0.146755	0.084936	0.153706	0.212095	5209.854263	26119.827463	3524.340644	12415.961783
185.035000	0.142831	0.084254	0.156727	0.215342	5170.888880	25910.279107	3523.968362	12344.506573
185.535500	0.144281	0.084309	0.149500	0.212139	5196.099641	26083.926211	3517.369171	12415.003986
186.035500	0.144404	0.084483	0.153319	0.212524	5194.674751	26072.629474	3522.996972	12406.498299
