sample name	sample
index	1366
start time	 05-03-2021  02:13:12 PM


Wavelength (nm)	Absorbance
494.344910	NaN
494.563924	NaN
494.782919	NaN
495.001897	-0.546789
495.220856	0.456202
495.439797	0.496050
495.658719	0.506268
495.877624	0.637165
496.096510	0.754043
496.315378	0.835664
496.534227	0.754762
496.753059	0.403420
496.971872	0.483093
497.190667	0.018231
497.409444	0.004854
497.628203	-0.002966
497.846943	-0.004120
498.065665	-0.005389
498.284369	-0.005618
498.503055	-0.004019
498.721723	-0.004697
498.940372	-0.004886
499.159003	-0.005509
499.377616	-0.006069
499.596210	-0.005674
499.814787	-0.006663
500.033345	-0.005540
500.251885	-0.005369
500.470406	-0.006252
500.688910	-0.004986
500.907395	-0.004906
501.125862	-0.004556
501.344311	-0.005040
501.562742	-0.004476
501.781154	-0.004698
501.999548	-0.005668
502.217924	-0.005537
502.436282	-0.006462
502.654621	-0.007280
502.872942	-0.007098
503.091245	-0.007017
503.309530	-0.006343
503.527797	-0.006994
503.746045	-0.005839
503.964275	-0.005396
504.182487	-0.005199
504.400681	-0.004947
504.618856	-0.005819
504.837013	-0.006379
505.055152	-0.007408
505.273273	-0.007817
505.491376	-0.008178
505.709460	-0.008113
505.927526	-0.008343
506.145574	-0.009697
506.363604	-0.009445
506.581615	-0.008921
506.799608	-0.009390
507.017583	-0.010155
507.235540	-0.010890
507.453478	-0.010634
507.671399	-0.011599
507.889301	-0.011762
508.107185	-0.010939
508.325050	-0.011222
508.542898	-0.011215
508.760727	-0.011159
508.978538	-0.009658
509.196330	-0.008481
509.414105	-0.008814
509.631861	-0.007788
509.849599	-0.007817
510.067319	-0.008412
510.285021	-0.008572
510.502704	-0.008603
510.720369	-0.008998
510.938016	-0.008508
511.155645	-0.009230
511.373255	-0.008723
511.590848	-0.009544
511.808422	-0.009716
512.025977	-0.009122
512.243515	-0.009184
512.461034	-0.008759
512.678536	-0.008955
512.896018	-0.009433
513.113483	-0.008936
513.330930	-0.009360
513.548358	-0.010365
513.765768	-0.010199
513.983160	-0.010120
514.200533	-0.009910
514.417889	-0.010926
514.635226	-0.010964
514.852545	-0.011693
515.069845	-0.012964
515.287128	-0.013077
515.504392	-0.012643
515.721638	-0.012191
515.938866	-0.013085
516.156075	-0.013605
516.373267	-0.013272
516.590440	-0.013344
516.807594	-0.013163
517.024731	-0.012273
517.241850	-0.011829
517.458950	-0.011838
517.676032	-0.011420
517.893095	-0.010982
518.110141	-0.010541
518.327168	-0.010195
518.544177	-0.009409
518.761168	-0.009200
518.978141	-0.009451
519.195095	-0.009775
519.412031	-0.009557
519.628949	-0.010546
519.845849	-0.010710
520.062731	-0.011012
520.279594	-0.011053
520.496439	-0.010248
520.713266	-0.010136
520.930074	-0.010009
521.146865	-0.009754
521.363637	-0.009839
521.580391	-0.009850
521.797127	-0.009921
522.013844	-0.009787
522.230543	-0.009993
522.447224	-0.010963
522.663887	-0.011149
522.880532	-0.011303
523.097158	-0.010926
523.313766	-0.010749
523.530356	-0.011267
523.746928	-0.011507
523.963481	-0.011769
524.180017	-0.011938
524.396534	-0.012445
524.613032	-0.012590
524.829513	-0.012430
525.045975	-0.012687
525.262420	-0.012852
525.478845	-0.012673
525.695253	-0.012092
525.911643	-0.011912
526.128014	-0.011849
526.344367	-0.011405
526.560702	-0.011377
526.777018	-0.011598
526.993316	-0.011933
527.209597	-0.011264
527.425858	-0.010317
527.642102	-0.010267
527.858328	-0.010425
528.074535	-0.010080
528.290724	-0.009744
528.506894	-0.009128
528.723047	-0.008655
528.939181	-0.007970
529.155297	-0.008419
529.371395	-0.008999
529.587475	-0.009191
529.803536	-0.008686
530.019579	-0.008289
530.235604	-0.008358
530.451611	-0.008606
530.667600	-0.008568
530.883570	-0.008732
531.099522	-0.008993
531.315456	-0.009275
531.531372	-0.009239
531.747269	-0.008838
531.963148	-0.008920
532.179009	-0.009134
532.394852	-0.009597
532.610676	-0.009824
532.826482	-0.010078
533.042271	-0.010098
533.258040	-0.009702
533.473792	-0.009998
533.689525	-0.010096
533.905240	-0.010318
534.120937	-0.009831
534.336616	-0.008861
534.552277	-0.008678
534.767919	-0.008912
534.983543	-0.008183
535.199149	-0.008257
535.414736	-0.008026
535.630306	-0.008336
535.845857	-0.008884
536.061390	-0.009628
536.276904	-0.009913
536.492401	-0.009796
536.707879	-0.009209
536.923339	-0.009437
537.138781	-0.008894
537.354204	-0.008873
537.569610	-0.008702
537.784997	-0.007880
538.000366	-0.007229
538.215716	-0.007483
538.431049	-0.007694
538.646363	-0.007516
538.861659	-0.007290
539.076937	-0.007253
539.292196	-0.006883
539.507438	-0.007431
539.722661	-0.007865
539.937866	-0.007960
540.153052	-0.007622
540.368221	-0.007655
540.583371	-0.008121
540.798503	-0.008335
541.013617	-0.008746
541.228712	-0.008834
541.443789	-0.008069
541.658848	-0.007876
541.873889	-0.007389
542.088912	-0.007440
542.303916	-0.006772
542.518902	-0.006395
542.733870	-0.006145
542.948820	-0.006182
543.163752	-0.005910
543.378665	-0.006130
543.593560	-0.005959
543.808437	-0.006667
544.023295	-0.006510
544.238136	-0.007428
544.452958	-0.007944
544.667762	-0.008250
544.882548	-0.008211
545.097315	-0.008677
545.312064	-0.008676
545.526795	-0.009387
545.741508	-0.009311
545.956203	-0.009392
546.170879	-0.009099
546.385537	-0.009090
546.600177	-0.009195
546.814799	-0.009159
547.029402	-0.009457
547.243988	-0.009623
547.458555	-0.009025
547.673103	-0.008984
547.887634	-0.009397
548.102146	-0.009479
548.316640	-0.009098
548.531116	-0.009002
548.745574	-0.008944
548.960013	-0.008573
549.174435	-0.008535
549.388838	-0.008636
549.603222	-0.008600
549.817589	-0.008339
550.031937	-0.008477
550.246267	-0.008340
550.460579	-0.008181
550.674873	-0.007987
550.889148	-0.007687
551.103405	-0.007746
551.317644	-0.007833
551.531865	-0.007954
551.746068	-0.007793
551.960252	-0.007449
552.174418	-0.007586
552.388566	-0.007283
552.602696	-0.007376
552.816807	-0.007673
553.030900	-0.007356
553.244975	-0.007114
553.459032	-0.006879
553.673070	-0.006864
553.887091	-0.006756
554.101093	-0.007030
554.315077	-0.007271
554.529042	-0.007116
554.742990	-0.006897
554.956919	-0.007302
555.170830	-0.007678
555.384722	-0.007577
555.598597	-0.007559
555.812453	-0.007653
556.026291	-0.007450
556.240111	-0.007440
556.453913	-0.007537
556.667696	-0.007908
556.881461	-0.007675
557.095208	-0.007269
557.308937	-0.007104
557.522647	-0.007019
557.736339	-0.007090
557.950013	-0.007227
558.163669	-0.007329
558.377307	-0.007481
558.590926	-0.007233
558.804527	-0.007448
559.018110	-0.007343
559.231675	-0.007744
559.445221	-0.008166
559.658749	-0.008175
559.872259	-0.007945
560.085751	-0.007774
560.299225	-0.007973
560.512680	-0.007927
560.726117	-0.007576
560.939536	-0.007960
561.152937	-0.007718
561.366319	-0.007721
561.579683	-0.007731
561.793029	-0.007843
562.006357	-0.007645
562.219667	-0.007490
562.432958	-0.007408
562.646231	-0.007619
562.859486	-0.007689
563.072723	-0.007963
563.285941	-0.007650
563.499141	-0.007622
563.712323	-0.007356
563.925487	-0.007518
564.138632	-0.007591
564.351760	-0.007802
564.564869	-0.007748
564.777960	-0.007661
564.991032	-0.007231
565.204087	-0.007347
565.417123	-0.007516
565.630141	-0.007753
565.843140	-0.007979
566.056122	-0.007937
566.269085	-0.008056
566.482030	-0.008221
566.694957	-0.008333
566.907866	-0.008630
567.120756	-0.008681
567.333628	-0.008609
567.546482	-0.008898
567.759318	-0.008835
567.972135	-0.008707
568.184935	-0.008656
568.397716	-0.008653
568.610478	-0.008643
568.823223	-0.008542
569.035949	-0.008615
569.248657	-0.008373
569.461347	-0.008158
569.674019	-0.008567
569.886672	-0.008641
570.099308	-0.008532
570.311925	-0.008242
570.524523	-0.007832
570.737104	-0.008139
570.949666	-0.007705
571.162210	-0.008021
571.374736	-0.007993
571.587244	-0.007634
571.799733	-0.007580
572.012205	-0.007743
572.224658	-0.007939
572.437092	-0.008047
572.649509	-0.008071
572.861907	-0.008872
573.074287	-0.008837
573.286649	-0.009307
573.498993	-0.009433
573.711318	-0.009570
573.923625	-0.009631
574.135914	-0.009515
574.348185	-0.009641
574.560438	-0.009660
574.772672	-0.009301
574.984888	-0.009259
575.197086	-0.008905
575.409266	-0.008709
575.621427	-0.008528
575.833570	-0.008502
576.045695	-0.008787
576.257802	-0.008856
576.469890	-0.008561
576.681961	-0.008372
576.894013	-0.008385
577.106046	-0.008431
577.318062	-0.008683
577.530059	-0.008822
577.742039	-0.008860
577.954000	-0.008648
578.165942	-0.008578
578.377867	-0.009008
578.589773	-0.008977
578.801661	-0.009110
579.013531	-0.009330
579.225382	-0.009206
579.437216	-0.009432
579.649031	-0.009336
579.860828	-0.009498
580.072606	-0.009748
580.284367	-0.009285
580.496109	-0.009432
580.707833	-0.009310
580.919539	-0.009018
581.131227	-0.008904
581.342896	-0.008638
581.554547	-0.008636
581.766180	-0.008310
581.977795	-0.007847
582.189391	-0.007962
582.400969	-0.007957
582.612529	-0.007753
582.824071	-0.007641
583.035595	-0.007536
583.247100	-0.007566
583.458587	-0.007390
583.670056	-0.007368
583.881506	-0.007641
584.092939	-0.007578
584.304353	-0.007726
584.515749	-0.007673
584.727127	-0.007687
584.938486	-0.008142
585.149828	-0.008048
585.361151	-0.008165
585.572456	-0.008293
585.783742	-0.008366
585.995011	-0.008359
586.206261	-0.008337
586.417493	-0.008345
586.628706	-0.008313
586.839902	-0.007670
587.051079	-0.007262
587.262238	-0.007113
587.473379	-0.007332
587.684502	-0.006861
587.895606	-0.006793
588.106692	-0.006747
588.317760	-0.006920
588.528810	-0.006948
588.739841	-0.007285
588.950855	-0.007833
589.161850	-0.007930
589.372827	-0.008082
589.583785	-0.008372
589.794726	-0.008493
590.005648	-0.008347
590.216552	-0.008554
590.427437	-0.008816
590.638305	-0.008880
590.849154	-0.008734
591.059985	-0.008868
591.270798	-0.008862
591.481592	-0.008926
591.692369	-0.008877
591.903127	-0.008875
592.113867	-0.008686
592.324588	-0.008309
592.535292	-0.008126
592.745977	-0.008183
592.956644	-0.008086
593.167293	-0.008002
593.377923	-0.008046
593.588536	-0.007881
593.799130	-0.007984
594.009706	-0.007765
594.220263	-0.008055
594.430803	-0.008203
594.641324	-0.008010
594.851827	-0.007858
595.062312	-0.007633
595.272778	-0.007441
595.483227	-0.007646
595.693657	-0.007464
595.904069	-0.007540
596.114462	-0.007478
596.324838	-0.007240
596.535195	-0.007326
596.745534	-0.007198
596.955855	-0.006961
597.166157	-0.007136
597.376441	-0.006815
597.586707	-0.006795
597.796955	-0.006709
598.007185	-0.006631
598.217396	-0.006889
598.427589	-0.006493
598.637764	-0.006505
598.847921	-0.006811
599.058060	-0.006561
599.268180	-0.006655
599.478282	-0.006719
599.688366	-0.006701
599.898431	-0.006501
600.108479	-0.006590
600.318508	-0.006518
600.528519	-0.006281
600.738511	-0.006171
600.948486	-0.006337
601.158442	-0.006434
601.368380	-0.006385
601.578300	-0.006097
601.788202	-0.006031
601.998085	-0.005931
602.207950	-0.006295
602.417797	-0.006750
602.627626	-0.006822
602.837436	-0.006620
603.047228	-0.006523
603.257002	-0.006210
603.466758	-0.006365
603.676496	-0.006074
603.886215	-0.005693
604.095916	-0.005497
604.305599	-0.005117
604.515264	-0.004838
604.724910	-0.004692
604.934538	-0.004582
605.144148	-0.004743
605.353740	-0.004696
605.563314	-0.004967
605.772869	-0.004962
605.982406	-0.004903
606.191925	-0.005142
606.401425	-0.004893
606.610908	-0.004877
606.820372	-0.004856
607.029818	-0.004857
607.239246	-0.004786
607.448655	-0.004561
607.658047	-0.004612
607.867420	-0.004630
608.076775	-0.004368
608.286111	-0.004464
608.495430	-0.004512
608.704730	-0.004193
608.914012	-0.004155
609.123275	-0.004404
609.332521	-0.004767
609.541748	-0.004705
609.750957	-0.004718
609.960148	-0.004683
610.169321	-0.004706
610.378475	-0.004768
610.587611	-0.005181
610.796729	-0.005260
611.005829	-0.005158
611.214910	-0.005201
611.423974	-0.005407
611.633019	-0.005260
611.842045	-0.004979
612.051054	-0.004910
612.260044	-0.004843
612.469017	-0.004887
612.677970	-0.004759
612.886906	-0.004623
613.095824	-0.004224
613.304723	-0.004182
613.513604	-0.004354
613.722467	-0.004720
613.931311	-0.004803
614.140138	-0.004772
614.348946	-0.004735
614.557736	-0.004553
614.766507	-0.004758
614.975261	-0.004860
615.183996	-0.004689
615.392713	-0.004553
615.601412	-0.004510
615.810092	-0.004606
616.018754	-0.004390
616.227399	-0.004127
616.436024	-0.004313
616.644632	-0.004340
616.853222	-0.004380
617.061793	-0.004507
617.270346	-0.004470
617.478880	-0.004358
617.687397	-0.004119
617.895895	-0.004142
618.104375	-0.004101
618.312837	-0.003922
618.521281	-0.003797
618.729706	-0.003749
618.938113	-0.003563
619.146502	-0.003528
619.354873	-0.003694
619.563226	-0.003660
619.771560	-0.003587
619.979876	-0.003677
620.188174	-0.003681
620.396453	-0.003430
620.604715	-0.003282
620.812958	-0.003111
621.021183	-0.002913
621.229390	-0.002803
621.437578	-0.002629
621.645748	-0.002738
621.853900	-0.002789
622.062034	-0.002775
622.270150	-0.002700
622.478247	-0.002789
622.686326	-0.002865
622.894387	-0.003229
623.102430	-0.003199
623.310454	-0.003325
623.518461	-0.003288
623.726449	-0.003007
623.934418	-0.003066
624.142370	-0.003042
624.350303	-0.002837
624.558218	-0.002756
624.766115	-0.002606
624.973994	-0.002538
625.181855	-0.002505
625.389697	-0.002449
625.597521	-0.002493
625.805327	-0.002330
626.013114	-0.002425
626.220883	-0.002582
626.428634	-0.002735
626.636367	-0.002681
626.844082	-0.002605
627.051778	-0.002662
627.259457	-0.002653
627.467117	-0.002763
627.674758	-0.002536
627.882382	-0.002340
628.089987	-0.002445
628.297574	-0.002344
628.505143	-0.002314
628.712694	-0.002424
628.920226	-0.002386
629.127740	-0.002351
629.335236	-0.002169
629.542714	-0.002295
629.750174	-0.002457
629.957615	-0.002154
630.165038	-0.002092
630.372443	-0.002071
630.579829	-0.001861
630.787198	-0.001701
630.994548	-0.001732
631.201880	-0.001594
631.409194	-0.001688
631.616489	-0.001430
631.823766	-0.001336
632.031025	-0.001236
632.238266	-0.001045
632.445489	-0.001044
632.652693	-0.001009
632.859879	-0.000926
633.067047	-0.001074
633.274197	-0.000905
633.481329	-0.001100
633.688442	-0.001165
633.895537	-0.001241
634.102614	-0.001410
634.309672	-0.001375
634.516713	-0.001349
634.723735	-0.001462
634.930739	-0.001610
635.137724	-0.001633
635.344692	-0.001474
635.551641	-0.001462
635.758572	-0.001353
635.965485	-0.001454
636.172379	-0.001523
636.379256	-0.001648
636.586114	-0.001721
636.792954	-0.001514
636.999775	-0.001668
637.206579	-0.001790
637.413364	-0.001793
637.620131	-0.001773
637.826880	-0.001591
638.033610	-0.001806
638.240323	-0.001915
638.447017	-0.001970
638.653692	-0.002062
638.860350	-0.002077
639.066990	-0.001989
639.273611	-0.002068
639.480214	-0.002146
639.686798	-0.002137
639.893365	-0.001916
640.099913	-0.001813
640.306443	-0.001579
640.512955	-0.001445
640.719449	-0.001323
640.925924	-0.001309
641.132381	-0.001140
641.338820	-0.001147
641.545241	-0.001210
641.751644	-0.001150
641.958028	-0.001118
642.164394	-0.000956
642.370742	-0.000881
642.577071	-0.000779
642.783383	-0.000719
642.989676	-0.000693
643.195951	-0.000522
643.402207	-0.000495
643.608446	-0.000276
643.814666	-0.000211
644.020868	-0.000283
644.227052	-0.000356
644.433218	-0.000353
644.639365	-0.000312
644.845494	-0.000247
645.051605	-0.000204
645.257698	0.000000
645.463772	-0.000257
645.669828	-0.000205
645.875866	-0.000098
646.081886	-0.000062
646.287888	-0.000090
646.493871	-0.000207
646.699836	-0.000377
646.905783	-0.000331
647.111712	-0.000329
647.317622	0.000006
647.523514	0.000269
647.729388	0.000453
647.935244	0.000596
648.141082	0.000710
648.346901	0.000858
648.552702	0.001032
648.758485	0.001007
648.964250	0.000988
649.169996	0.000785
649.375724	0.000672
649.581434	0.000583
649.787126	0.000712
649.992800	0.000722
650.198455	0.000860
650.404092	0.001146
650.609711	0.001162
650.815311	0.001356
651.020894	0.001476
651.226458	0.001500
651.432004	0.001704
651.637532	0.001643
651.843041	0.001752
652.048532	0.001859
652.254006	0.001784
652.459460	0.001844
652.664897	0.001820
652.870315	0.001735
653.075716	0.001667
653.281097	0.001441
653.486461	0.001643
653.691807	0.001457
653.897134	0.001374
654.102443	0.001438
654.307734	0.001484
654.513006	0.001449
654.718261	0.001556
654.923497	0.001788
655.128715	0.002076
655.333915	0.001903
655.539096	0.002162
655.744259	0.002212
655.949404	0.002053
656.154531	0.002056
656.359640	0.002105
656.564730	0.002211
656.769802	0.002137
656.974856	0.001924
657.179892	0.001776
657.384909	0.001901
657.589908	0.001865
657.794889	0.001919
657.999852	0.001794
658.204797	0.001814
658.409723	0.001610
658.614631	0.001574
658.819521	0.001347
659.024393	0.001443
659.229246	0.001161
659.434081	0.001068
659.638898	0.000910
659.843697	0.000883
660.048478	0.000719
660.253240	0.000786
660.457984	0.000693
660.662710	0.000930
660.867417	0.000913
661.072107	0.000845
661.276778	0.000685
661.481431	0.000660
661.686066	0.000734
661.890682	0.000748
662.095281	0.000800
662.299861	0.000732
662.504422	0.000812
662.708966	0.000829
662.913491	0.000929
663.117999	0.001119
663.322488	0.001292
663.526958	0.001338
663.731411	0.001361
663.935845	0.001265
664.140261	0.001412
664.344659	0.001275
664.549038	0.001445
664.753400	0.001570
664.957743	0.001808
665.162068	0.001936
665.366375	0.002057
665.570663	0.002349
665.774933	0.002759
665.979185	0.002785
666.183419	0.002995
666.387635	0.002941
666.591832	0.002998
666.796011	0.002916
667.000172	0.003003
667.204315	0.003087
667.408439	0.002989
667.612545	0.002903
667.816634	0.003008
668.020703	0.003024
668.224755	0.003165
668.428788	0.003121
668.632803	0.003129
668.836800	0.003198
669.040779	0.003281
669.244739	0.003401
669.448681	0.003319
669.652605	0.003494
669.856511	0.003458
670.060399	0.003400
670.264268	0.003501
670.468119	0.003598
670.671952	0.003549
670.875767	0.003371
671.079563	0.003430
671.283341	0.003632
671.487101	0.003635
671.690843	0.003863
671.894567	0.003996
672.098272	0.004198
672.301959	0.004404
672.505628	0.004375
672.709278	0.004717
672.912911	0.004848
673.116525	0.004937
673.320121	0.004998
673.523699	0.005078
673.727258	0.005148
673.930799	0.005339
674.134322	0.005166
674.337827	0.005239
674.541314	0.005300
674.744782	0.005218
674.948232	0.005218
675.151664	0.005146
675.355078	0.004986
675.558474	0.005126
675.761851	0.004907
675.965210	0.004977
676.168551	0.005001
676.371873	0.004914
676.575178	0.004949
676.778464	0.005010
676.981732	0.005069
677.184981	0.005071
677.388213	0.004947
677.591426	0.004936
677.794621	0.004977
677.997798	0.004974
678.200956	0.004897
678.404097	0.004934
678.607219	0.004984
678.810323	0.004916
679.013408	0.004955
679.216476	0.004936
679.419525	0.005012
679.622556	0.004980
679.825569	0.005054
680.028563	0.005249
680.231540	0.005168
680.434498	0.005058
680.637438	0.005260
680.840359	0.005525
681.043263	0.005638
681.246148	0.005669
681.449015	0.005792
681.651864	0.005811
681.854694	0.005743
682.057506	0.005808
682.260301	0.005918
682.463076	0.005953
682.665834	0.006134
682.868573	0.006184
683.071295	0.006212
683.273998	0.006460
683.476682	0.006647
683.679349	0.006713
683.881997	0.006732
684.084627	0.006921
684.287239	0.007081
684.489833	0.006902
684.692408	0.006982
684.894965	0.007148
685.097504	0.006991
685.300025	0.006951
685.502527	0.007016
685.705012	0.007114
685.907478	0.007076
686.109925	0.006866
686.312355	0.006799
686.514766	0.006835
686.717159	0.006829
686.919534	0.006769
687.121891	0.006687
687.324230	0.006656
687.526550	0.006618
687.728852	0.006391
687.931136	0.006385
688.133401	0.006371
688.335649	0.006114
688.537878	0.005896
688.740089	0.005932
688.942281	0.005957
689.144456	0.005831
689.346612	0.005978
689.548750	0.005990
689.750870	0.006156
689.952971	0.006237
690.155055	0.006550
690.357120	0.006763
690.559167	0.006822
690.761195	0.007009
690.963206	0.007278
691.165198	0.007333
691.367172	0.007562
691.569128	0.007713
691.771065	0.007825
691.972984	0.007791
692.174885	0.007813
692.376768	0.007938
692.578633	0.007935
692.780479	0.007931
692.982308	0.007934
693.184118	0.007905
693.385909	0.007784
693.587683	0.007751
693.789438	0.007695
693.991175	0.007761
694.192894	0.007652
694.394595	0.007564
694.596277	0.007419
694.797941	0.007411
694.999587	0.007618
695.201215	0.007621
695.402824	0.007821
695.604416	0.007984
695.805989	0.008060
696.007543	0.008304
696.209080	0.008479
696.410598	0.008754
696.612099	0.008976
696.813580	0.008850
697.015044	0.009068
697.216490	0.009052
697.417917	0.009077
697.619326	0.009069
697.820717	0.008988
698.022089	0.009007
698.223444	0.009057
698.424780	0.008935
698.626098	0.009261
698.827397	0.009392
699.028679	0.009476
699.229942	0.009567
699.431187	0.009541
699.632414	0.009633
699.833622	0.009800
700.034813	0.009753
700.235985	0.009910
700.437139	0.009710
700.638274	0.009549
700.839392	0.009453
701.040491	0.009470
701.241572	0.009559
701.442635	0.009541
701.643679	0.009442
701.844706	0.009466
702.045714	0.009411
702.246704	0.009395
702.447675	0.009501
702.648629	0.009626
702.849564	0.009623
703.050481	0.009631
703.251380	0.009409
703.452260	0.009308
703.653122	0.009158
703.853966	0.009022
704.054792	0.008968
704.255600	0.008684
704.456389	0.008521
704.657160	0.008319
704.857913	0.008149
705.058648	0.008281
705.259365	0.008149
705.460063	0.008083
705.660743	0.008014
705.861405	0.007898
706.062048	0.007921
706.262674	0.007936
706.463281	0.007862
706.663870	0.008027
706.864441	0.008114
707.064993	0.008078
707.265527	0.008078
707.466043	0.008066
707.666541	0.008142
707.867021	0.008044
708.067482	0.007914
708.267925	0.007904
708.468350	0.007784
708.668757	0.007592
708.869145	0.007624
709.069516	0.007585
709.269868	0.007596
709.470201	0.007649
709.670517	0.007737
709.870814	0.007750
710.071093	0.007773
710.271354	0.007649
710.471597	0.007745
710.671821	0.007763
710.872028	0.007679
711.072216	0.007701
711.272385	0.007706
711.472537	0.007804
711.672670	0.007882
711.872785	0.007893
712.072882	0.007908
712.272961	0.007954
712.473021	0.008100
712.673063	0.008264
712.873087	0.008318
713.073093	0.008310
713.273081	0.008269
713.473050	0.008059
713.673001	0.008170
713.872934	0.008270
714.072849	0.008228
714.272745	0.008102
714.472623	0.008126
714.672483	0.008039
714.872325	0.008017
715.072148	0.007951
715.271954	0.008313
715.471741	0.008390
715.671509	0.008375
715.871260	0.008247
716.070992	0.008353
716.270707	0.008463
716.470403	0.008636
716.670080	0.008468
716.869740	0.008575
717.069381	0.008553
717.269004	0.008427
717.468609	0.008400
717.668195	0.008451
717.867764	0.008381
718.067314	0.008114
718.266846	0.007958
718.466360	0.007956
718.665855	0.007751
718.865332	0.007563
719.064791	0.007482
719.264232	0.007321
719.463655	0.007308
719.663059	0.007302
719.862445	0.007288
720.061813	0.007095
720.261163	0.007179
720.460494	0.007172
720.659807	0.006795
720.859102	0.006643
721.058379	0.006666
721.257638	0.006444
721.456878	0.006281
721.656100	0.006244
721.855304	0.006394
722.054490	0.006183
722.253657	0.005981
722.452806	0.006123
722.651937	0.006006
722.851050	0.005889
723.050145	0.005852
723.249221	0.005669
723.448279	0.005606
723.647319	0.005370
723.846340	0.005225
724.045344	0.005173
724.244329	0.005153
724.443296	0.005152
724.642245	0.004973
724.841175	0.004927
725.040088	0.005125
725.238982	0.005260
725.437857	0.005283
725.636715	0.005329
725.835554	0.005469
726.034376	0.005304
726.233179	0.005311
726.431963	0.005314
726.630730	0.005341
726.829478	0.005201
727.028208	0.005019
727.226920	0.005048
727.425614	0.005028
727.624289	0.004994
727.822946	0.005077
728.021585	0.005044
728.220206	0.005204
728.418808	0.005226
728.617392	0.005187
728.815958	0.005097
729.014506	0.004985
729.213036	0.004908
729.411547	0.005023
729.610040	0.004951
729.808515	0.004968
730.006972	0.004981
730.205410	0.004933
730.403831	0.005037
730.602233	0.005171
730.800616	0.005229
730.998982	0.005251
731.197329	0.004990
731.395658	0.005226
731.593969	0.005251
731.792262	0.005095
731.990536	0.005084
732.188793	0.004891
732.387031	0.004758
732.585250	0.004678
732.783452	0.004816
732.981635	0.004838
733.179800	0.004606
733.377947	0.004437
733.576076	0.004360
733.774186	0.004436
733.972278	0.004214
734.170352	0.004263
734.368408	0.004163
734.566446	0.003801
734.764465	0.003540
734.962466	0.003427
735.160449	0.003602
735.358413	0.003511
735.556360	0.003392
735.754288	0.003690
735.952198	0.003619
736.150090	0.003749
736.347963	0.003898
736.545818	0.004153
736.743655	0.004290
736.941474	0.004121
737.139275	0.004267
737.337057	0.004199
737.534821	0.004092
737.732567	0.004181
737.930295	0.004325
738.128005	0.004335
738.325696	0.004301
738.523369	0.004255
738.721024	0.004372
738.918660	0.004586
739.116279	0.004721
739.313879	0.004744
739.511461	0.004651
739.709024	0.004560
739.906570	0.004664
740.104097	0.004694
740.301606	0.004710
740.499097	0.004798
740.696569	0.004560
740.894024	0.004474
741.091460	0.004427
741.288878	0.004169
741.486277	0.003915
741.683659	0.003676
741.881022	0.003568
742.078367	0.003521
742.275694	0.003233
742.473002	0.003132
742.670293	0.003089
742.867565	0.003044
743.064819	0.003279
743.262054	0.003485
743.459272	0.003618
743.656471	0.003814
743.853652	0.004010
744.050815	0.004177
744.247959	0.004409
744.445085	0.004448
744.642194	0.004469
744.839283	0.004438
745.036355	0.004586
745.233408	0.004680
745.430444	0.004693
745.627461	0.004667
745.824459	0.004825
746.021440	0.004833
746.218402	0.004785
746.415346	0.004945
746.612272	0.005031
746.809180	0.004871
747.006069	0.004707
747.202940	0.004771
747.399793	0.004650
747.596628	0.004359
747.793444	0.004291
747.990243	0.004458
748.187023	0.004312
748.383784	0.004290
748.580528	0.004344
748.777253	0.004529
748.973960	0.004563
749.170649	0.004600
749.367320	0.005037
749.563973	0.005007
749.760607	0.004959
749.957223	0.005017
750.153821	0.004970
750.350400	0.004973
750.546962	0.005021
750.743505	0.004946
750.940030	0.005031
751.136536	0.004865
751.333025	0.004918
751.529495	0.004986
751.725947	0.004877
751.922381	0.005093
752.118796	0.005105
752.315194	0.005092
752.511573	0.005175
752.707934	0.005117
752.904276	0.005032
753.100601	0.004979
753.296907	0.004905
753.493195	0.005269
753.689465	0.005227
753.885716	0.005009
754.081949	0.005046
754.278164	0.004916
754.474361	0.004781
754.670540	0.004765
754.866700	0.004847
755.062843	0.004834
755.258967	0.004740
755.455072	0.004526
755.651160	0.004700
755.847229	0.004574
756.043280	0.004404
756.239313	0.004292
756.435328	0.004317
756.631324	0.004226
756.827302	0.004176
757.023262	0.004008
757.219204	0.004068
757.415127	0.004087
757.611033	0.004093
757.806920	0.004217
758.002788	0.004263
758.198639	0.004055
758.394471	0.004035
758.590286	0.004117
758.786081	0.003947
758.981859	0.004008
759.177619	0.003862
759.373360	0.003814
759.569083	0.003626
759.764788	0.003759
759.960474	0.003919
760.156143	0.003818
760.351793	0.003643
760.547425	0.003690
760.743038	0.003692
760.938634	0.003797
761.134211	0.003700
761.329770	0.003853
761.525311	0.003681
761.720833	0.003552
761.916338	0.003666
762.111824	0.003586
762.307292	0.003721
762.502741	0.003484
762.698173	0.003308
762.893586	0.003298
763.088981	0.003156
763.284358	0.003363
763.479716	0.003292
763.675057	0.003264
763.870379	0.003202
764.065683	0.003096
764.260968	0.003067
764.456236	0.002933
764.651485	0.002899
764.846716	0.002905
765.041929	0.002577
765.237123	0.002557
765.432299	0.002504
765.627457	0.002584
765.822597	0.002676
766.017719	0.002684
766.212822	0.002682
766.407907	0.002702
766.602974	0.002662
766.798023	0.002712
766.993054	0.002496
767.188066	0.002312
767.383060	0.002271
767.578036	0.002013
767.772993	0.002102
767.967933	0.001950
768.162854	0.001757
768.357757	0.001605
768.552642	0.001511
768.747508	0.001696
768.942356	0.001649
769.137186	0.001640
769.331998	0.001728
769.526792	0.001729
769.721567	0.002071
769.916324	0.002157
770.111063	0.002272
770.305784	0.002682
770.500486	0.002783
770.695171	0.002991
770.889837	0.002957
771.084484	0.003120
771.279114	0.003246
771.473725	0.003087
771.668318	0.003178
771.862893	0.003349
772.057450	0.003074
772.251988	0.002971
772.446509	0.002771
772.641011	0.002573
772.835494	0.002286
773.029960	0.001896
773.224407	0.001916
773.418836	0.001904
773.613247	0.001734
773.807640	0.001756
774.002014	0.001733
774.196370	0.001848
774.390708	0.002099
774.585028	0.002275
774.779330	0.002386
774.973613	0.002436
775.167878	0.002391
775.362125	0.002424
775.556354	0.002410
775.750564	0.002443
775.944756	0.002400
776.138930	0.002433
776.333086	0.002432
776.527223	0.002543
776.721343	0.002467
776.915444	0.002543
777.109526	0.002596
777.303591	0.002791
777.497637	0.002787
777.691666	0.002902
777.885676	0.002866
778.079667	0.002745
778.273641	0.002731
778.467596	0.002721
778.661533	0.002644
778.855452	0.002775
779.049352	0.002535
779.243235	0.002695
779.437099	0.002675
779.630945	0.002756
779.824773	0.002888
780.018582	0.002869
780.212373	0.002947
780.406146	0.003015
780.599901	0.002959
780.793638	0.003325
780.987356	0.003204
781.181056	0.003395
781.374738	0.003190
781.568402	0.003030
781.762047	0.003264
781.955674	0.003290
782.149283	0.003425
782.342874	0.003538
782.536447	0.003196
782.730001	0.003323
782.923537	0.003364
783.117055	0.003825
783.310555	0.003955
783.504036	0.003938
783.697499	0.003985
783.890944	0.003903
784.084371	0.003669
784.277780	0.003653
784.471170	0.003768
784.664542	0.003375
784.857896	0.002992
785.051231	0.003015
785.244549	0.002816
785.437848	0.002740
785.631129	0.002586
785.824392	0.002616
786.017636	0.002593
786.210863	0.002294
786.404071	0.002349
786.597260	0.002154
786.790432	0.002055
786.983585	0.001976
787.176721	0.001881
787.369838	0.001921
787.562936	0.001987
787.756017	0.002098
787.949079	0.002185
788.142123	0.002240
788.335149	0.002519
788.528156	0.002688
788.721146	0.002972
788.914117	0.002845
789.107070	0.003041
789.300005	0.003123
789.492921	0.003195
789.685819	0.003429
789.878699	0.003694
790.071561	0.003770
790.264405	0.003770
790.457230	0.003826
790.650037	0.004019
790.842826	0.003823
791.035597	0.003800
791.228349	0.003827
791.421084	0.003860
791.613800	0.003855
791.806497	0.003929
791.999177	0.004033
792.191838	0.004086
792.384481	0.004426
792.577106	0.004534
792.769713	0.004676
792.962301	0.004862
793.154871	0.004926
793.347423	0.004895
793.539957	0.004941
793.732473	0.005132
793.924970	0.005192
794.117449	0.005020
794.309910	0.005309
794.502353	0.004981
794.694777	0.004897
794.887183	0.004882
795.079571	0.005035
795.271941	0.005108
795.464293	0.004994
795.656626	0.004679
795.848941	0.004662
796.041238	0.004691
796.233516	0.005118
796.425777	0.005003
796.618019	0.005023
796.810243	0.004773
797.002449	0.004721
797.194636	0.004875
797.386805	0.005267
797.578956	0.005381
797.771089	0.005375
797.963204	0.005415
798.155300	0.005779
798.347378	0.005807
798.539438	0.006207
798.731480	0.006425
798.923503	0.006420
799.115509	0.006354
799.307496	0.006571
799.499465	0.006670
799.691415	0.006791
799.883348	0.006677
800.075262	0.006582
800.267158	0.006535
800.459035	0.006443
800.650895	0.006382
800.842736	0.006378
801.034559	0.006290
801.226364	0.006303
801.418150	0.006101
801.609919	0.006038
801.801669	0.005989
801.993401	0.006106
802.185114	0.006069
802.376810	0.006057
802.568487	0.006084
802.760146	0.006108
802.951787	0.006064
803.143409	0.006030
803.335014	0.006077
803.526600	0.006204
803.718168	0.005903
803.909717	0.005892
804.101249	0.005991
804.292762	0.006163
804.484257	0.006281
804.675734	0.006371
804.867192	0.006377
805.058632	0.006509
805.250054	0.006547
805.441458	0.006808
805.632844	0.007076
805.824211	0.006957
806.015561	0.006816
806.206891	0.006751
806.398204	0.006702
806.589499	0.006639
806.780775	0.006517
806.972033	0.006496
807.163273	0.006439
807.354495	0.006244
807.545698	0.006444
807.736883	0.006473
807.928050	0.006486
808.119199	0.006345
808.310329	0.006574
808.501441	0.006581
808.692535	0.006769
808.883611	0.006807
809.074669	0.006898
809.265708	0.006744
809.456729	0.006919
809.647732	0.007042
809.838717	0.007372
810.029683	0.007473
810.220632	0.007854
810.411562	0.007805
810.602474	0.007897
810.793367	0.007887
810.984242	0.008087
811.175100	0.007843
811.365938	0.007778
811.556759	0.007757
811.747562	0.007728
811.938346	0.007491
812.129112	0.007550
812.319860	0.007575
812.510589	0.007667
812.701300	0.007493
812.891994	0.007542
813.082668	0.007650
813.273325	0.007531
813.463964	0.007513
813.654584	0.007496
813.845186	0.007569
814.035769	0.007503
814.226335	0.007509
814.416882	0.007821
814.607411	0.008048
814.797922	0.008086
814.988415	0.008017
815.178889	0.007978
815.369345	0.007936
815.559783	0.007865
815.750203	0.007902
815.940605	0.007840
816.130988	0.007711
816.321353	0.007822
816.511700	0.007811
816.702028	0.007982
816.892339	0.008315
817.082631	0.008545
817.272905	0.008658
817.463161	0.008717
817.653398	0.008794
817.843617	0.008860
818.033819	0.008855
818.224001	0.008850
818.414166	0.008931
818.604312	0.008767
818.794440	0.008538
818.984550	0.008553
819.174642	0.008462
819.364716	0.008429
819.554771	0.008306
819.744808	0.008216
819.934827	0.008384
820.124827	0.008323
820.314810	0.008208
820.504774	0.008512
820.694720	0.008549
820.884647	0.008843
821.074557	0.008825
821.264448	0.008940
821.454321	0.008840
821.644176	0.008646
821.834012	0.008831
822.023831	0.008986
822.213631	0.008968
822.403413	0.008840
822.593176	0.008418
822.782922	0.008746
822.972649	0.008788
823.162358	0.008915
823.352049	0.009080
823.541721	0.009026
823.731376	0.009001
823.921012	0.009094
824.110629	0.009227
824.300229	0.009583
824.489811	0.009587
824.679374	0.009661
824.868919	0.009641
825.058445	0.009770
825.247954	0.009914
825.437444	0.010203
825.626916	0.010213
825.816370	0.010389
826.005806	0.010409
826.195223	0.010269
826.384622	0.010398
826.574003	0.010562
826.763366	0.010584
826.952711	0.010566
827.142037	0.010141
827.331345	0.010101
827.520635	0.010268
827.709906	0.010492
827.899160	0.010526
828.088395	0.010414
828.277612	0.010364
828.466810	0.009917
828.655991	0.009849
828.845153	0.010058
829.034297	0.010132
829.223423	0.009639
829.412531	0.009159
829.601620	0.009215
829.790691	0.009233
829.979744	0.009462
830.168779	0.009717
830.357795	0.009435
830.546793	0.009230
830.735773	0.008986
830.924735	0.009221
831.113679	0.009304
831.302604	0.009522
831.491511	0.009553
831.680400	0.009233
831.869271	0.009267
832.058123	0.009621
832.246957	0.009962
832.435773	0.010158
832.624571	0.010108
832.813351	0.010379
833.002112	0.010297
833.190855	0.010370
833.379580	0.010635
833.568287	0.010770
833.756975	0.010685
833.945645	0.010690
834.134297	0.010956
834.322931	0.011339
834.511547	0.011358
834.700144	0.011351
834.888723	0.011275
835.077284	0.011258
835.265826	0.011249
835.454351	0.011345
835.642857	0.011740
835.831345	0.011673
836.019815	0.011706
836.208266	0.011904
836.396699	0.011991
836.585114	0.012217
836.773511	0.012484
836.961890	0.012879
837.150250	0.013345
837.338592	0.013260
837.526916	0.013662
837.715222	0.013764
837.903510	0.013951
838.091779	0.014178
838.280030	0.014416
838.468263	0.014666
838.656477	0.014872
838.844674	0.015039
839.032852	0.015230
839.221012	0.015300
839.409153	0.015493
839.597277	0.015439
839.785382	0.015567
839.973469	0.015626
840.161538	0.015855
840.349589	0.015716
840.537621	0.015428
840.725635	0.015596
840.913631	0.015459
841.101609	0.015490
841.289568	0.016008
841.477509	0.016254
841.665432	0.016535
841.853337	0.016415
842.041224	0.016705
842.229092	0.017124
842.416942	0.016954
842.604774	0.017087
842.792588	0.017207
842.980383	0.017258
843.168160	0.017327
843.355919	0.017309
843.543660	0.017530
843.731382	0.017386
843.919087	0.017394
844.106773	0.017645
844.294441	0.017720
844.482090	0.017650
844.669722	0.017566
844.857335	0.017583
845.044930	0.017687
845.232507	0.017434
845.420065	0.017533
845.607605	0.017415
845.795127	0.017232
845.982631	0.017239
846.170117	0.017481
846.357584	0.017403
846.545033	0.017496
846.732464	0.017416
846.919877	0.017775
847.107272	0.017746
847.294648	0.017977
847.482006	0.018149
847.669346	0.018254
847.856667	0.018430
848.043971	0.018810
848.231256	0.018849
848.418523	0.018979
848.605771	0.019041
848.793002	0.019212
848.980214	0.019166
849.167408	0.019429
849.354584	0.019566
849.541742	0.019420
849.728881	0.019515
849.916002	0.019465
850.103105	0.019594
850.290190	0.019309
850.477256	0.019480
850.664304	0.019482
850.851334	0.019441
851.038346	0.019438
851.225340	0.019575
851.412315	0.019290
851.599272	0.019251
851.786211	0.019003
851.973132	0.019034
852.160034	0.018899
852.346918	0.019111
852.533784	0.019195
852.720632	0.019159
852.907462	0.019021
853.094273	0.019086
853.281066	0.019032
853.467841	0.019361
853.654598	0.019404
853.841336	0.019452
854.028056	0.019394
854.214758	0.019334
854.401442	0.019393
854.588107	0.019413
854.774755	0.019532
854.961384	0.019594
855.147995	0.019496
855.334587	0.019598
855.521162	0.019657
855.707718	0.019713
855.894256	0.019799
856.080775	0.019873
856.267277	0.019890
856.453760	0.019833
856.640225	0.020015
856.826672	0.019943
857.013101	0.020256
857.199511	0.020510
857.385903	0.020780
857.572277	0.020785
857.758633	0.020906
857.944970	0.020927
858.131290	0.020882
858.317591	0.020999
858.503873	0.021133
858.690138	0.021197
858.876384	0.021292
859.062612	0.021201
859.248822	0.021498
859.435014	0.021758
859.621188	0.022140
859.807343	0.022541
859.993480	0.022751
860.179599	0.023046
860.365699	0.023183
860.551781	0.023291
860.737846	0.023528
860.923891	0.023805
861.109919	0.023958
861.295929	0.024338
861.481920	0.024691
861.667893	0.024821
861.853848	0.024883
862.039784	0.024858
862.225702	0.024936
862.411603	0.025088
862.597484	0.024894
862.783348	0.024929
862.969193	0.024857
863.155021	0.024621
863.340830	0.024476
863.526620	0.024707
863.712393	0.025120
863.898147	0.025121
864.083883	0.025142
864.269601	0.025394
864.455301	0.025643
864.640982	0.025415
864.826645	0.025511
865.012290	0.025507
865.197917	0.025375
865.383526	0.025140
865.569116	0.024918
865.754688	0.024938
865.940242	0.024665
866.125777	0.024414
866.311295	0.024433
866.496794	0.024219
866.682275	0.024269
866.867737	0.024187
867.053182	0.024105
867.238608	0.024518
867.424016	0.024432
867.609406	0.024808
867.794778	0.024702
867.980131	0.024743
868.165466	0.025089
868.350783	0.025171
868.536082	0.025298
868.721362	0.025325
868.906625	0.025310
869.091869	0.025303
869.277094	0.025193
869.462302	0.025156
869.647491	0.025477
869.832662	0.025379
870.017815	0.025686
870.202950	0.025754
870.388066	0.025948
870.573165	0.025850
870.758245	0.026208
870.943306	0.026031
871.128350	0.026251
871.313375	0.026151
871.498382	0.026077
871.683371	0.025816
871.868342	0.025894
872.053294	0.025884
872.238229	0.025966
872.423144	0.025834
872.608042	0.026086
872.792922	0.026196
872.977783	0.026071
873.162626	0.026176
873.347451	0.026058
873.532258	0.025954
873.717046	0.025884
873.901816	0.026030
874.086568	0.025888
874.271302	0.025922
874.456017	0.025523
874.640715	0.025595
874.825394	0.025312
875.010055	0.025387
875.194697	0.025692
875.379322	0.025697
875.563928	0.025579
875.748516	0.025418
875.933085	0.025879
876.117637	0.026367
876.302170	0.026316
876.486685	0.026752
876.671182	0.027263
876.855661	0.027422
877.040121	0.027496
877.224563	0.027351
877.408987	0.027540
877.593393	0.027036
877.777780	0.027140
877.962150	0.027438
878.146501	0.027595
878.330833	0.027591
878.515148	0.027506
878.699444	0.027468
878.883722	0.027934
879.067982	0.028167
879.252224	0.028172
879.436447	0.028030
879.620653	0.027985
879.804840	0.028046
879.989008	0.028043
880.173159	0.027785
880.357291	0.027970
880.541405	0.027958
880.725501	0.028036
880.909579	0.028064
881.093638	0.028416
881.277680	0.028206
881.461703	0.027959
881.645707	0.027904
881.829694	0.028051
882.013662	0.028233
882.197612	0.028325
882.381544	0.028391
882.565458	0.028395
882.749353	0.028214
882.933230	0.028154
883.117089	0.028084
883.300930	0.028104
883.484753	0.028196
883.668557	0.027798
883.852343	0.027768
884.036111	0.027352
884.219861	0.027454
884.403592	0.027538
884.587305	0.027853
884.771000	0.027947
884.954677	0.028031
885.138335	0.027994
885.321976	0.028232
885.505598	0.028117
885.689201	0.028172
885.872787	0.028161
886.056354	0.027964
886.239904	0.027934
886.423434	0.028108
886.606947	0.028346
886.790442	0.028577
886.973918	0.028597
887.157376	0.028527
887.340816	0.028774
887.524237	0.028632
887.707641	0.028495
887.891026	0.028554
888.074393	0.028628
888.257741	0.028338
888.441072	0.028159
888.624384	0.028087
888.807678	0.028115
888.990954	0.028004
889.174211	0.028241
889.357451	0.028101
889.540672	0.027585
889.723875	0.027443
889.907059	0.027379
890.090226	0.027034
890.273374	0.027099
890.456504	0.026730
890.639616	0.026813
890.822709	0.026570
891.005785	0.026733
891.188842	0.027121
891.371881	0.026812
891.554901	0.026592
891.737904	0.026488
891.920888	0.026333
892.103854	0.026863
892.286802	0.026964
892.469731	0.027069
892.652643	0.027341
892.835536	0.027610
893.018410	0.027928
893.201267	0.028277
893.384106	0.028524
893.566926	0.028635
893.749728	0.028401
893.932511	0.028255
894.115277	0.028419
894.298024	0.027950
894.480753	0.027670
894.663464	0.027591
894.846157	0.027474
895.028831	0.027499
895.211487	0.027388
895.394125	0.027387
895.576745	0.027023
895.759346	0.026735
895.941930	0.027048
896.124495	0.027068
896.307041	0.026867
896.489570	0.026853
896.672080	0.027118
896.854573	0.027058
897.037046	0.027216
897.219502	0.027728
897.401940	0.027808
897.584359	0.027866
897.766760	0.027791
897.949143	0.027652
898.131507	0.027518
898.313854	0.027178
898.496182	0.027394
898.678492	0.027434
898.860783	0.027181
899.043057	0.027156
899.225312	0.026876
899.407549	0.027012
899.589768	0.027206
899.771968	0.027085
899.954151	0.027031
900.136315	0.026910
900.318461	0.026495
900.500588	0.026267
900.682698	0.026240
900.864789	0.025885
901.046862	0.025095
901.228917	0.024580
901.410953	0.024466
901.592971	0.024223
901.774972	0.023836
901.956953	0.023571
902.138917	0.023635
902.320862	0.023045
902.502790	0.023023
902.684699	0.023572
902.866589	0.023620
903.048462	0.023538
903.230316	0.023617
903.412152	0.023484
903.593970	0.023559
903.775770	0.023361
903.957551	0.023766
904.139314	0.024009
904.321059	0.023775
904.502786	0.023854
904.684494	0.023651
904.866185	0.023930
905.047857	0.023810
905.229510	0.023693
905.411146	0.023544
905.592763	0.023500
905.774363	0.023413
905.955943	0.023395
906.137506	0.023531
906.319051	0.023768
906.500577	0.023147
906.682085	0.023321
906.863575	0.023194
907.045046	0.023115
907.226500	0.022848
907.407935	0.022844
907.589352	0.022564
907.770750	0.022291
907.952131	0.022199
908.133493	0.022312
908.314837	0.022309
908.496163	0.022355
908.677470	0.022255
908.858760	0.022266
909.040031	0.022074
909.221284	0.021922
909.402518	0.021881
909.583735	0.021472
909.764933	0.021336
909.946113	0.021192
910.127275	0.020912
910.308418	0.020740
910.489544	0.020392
910.670651	0.020005
910.851740	0.019938
911.032810	0.019721
911.213863	0.019633
911.394897	0.019503
911.575913	0.019207
911.756911	0.019014
911.937890	0.018999
912.118851	0.019139
912.299794	0.019041
912.480719	0.018739
912.661626	0.018923
912.842514	0.018684
913.023384	0.018426
913.204236	0.018474
913.385070	0.018856
913.565886	0.018736
913.746683	0.018790
913.927462	0.019350
914.108223	0.018902
914.288965	0.018636
914.469690	0.018890
914.650396	0.018647
914.831084	0.017998
915.011754	0.017506
915.192405	0.017205
915.373038	0.016595
915.553653	0.015643
915.734250	0.015611
915.914829	0.015464
916.095389	0.015132
916.275931	0.015032
916.456455	0.015291
916.636961	0.015165
916.817448	0.015055
916.997917	0.014864
917.178368	0.014685
917.358801	0.015285
917.539216	0.014732
917.719612	0.014373
917.899990	0.014739
918.080350	0.014410
918.260692	0.014202
918.441015	0.014094
918.621320	0.013711
918.801607	0.013556
918.981876	0.012979
919.162127	0.012794
919.342359	0.012827
919.522573	0.012720
919.702769	0.012680
919.882947	0.012462
920.063106	0.011870
920.243247	0.012028
920.423370	0.011920
920.603475	0.011464
920.783562	0.011498
920.963630	0.011287
921.143680	0.010694
921.323712	0.010360
921.503725	0.010316
921.683721	0.010660
921.863698	0.010581
922.043657	0.010612
922.223598	0.010445
922.403520	0.009991
922.583424	0.009443
922.763311	0.008953
922.943178	0.008956
923.123028	0.008619
923.302859	0.008130
923.482673	0.007790
923.662467	0.007446
923.842244	0.007233
924.022003	0.007357
924.201743	0.007541
924.381465	0.007402
924.561169	0.007443
924.740854	0.006800
924.920522	0.006740
925.100171	0.006475
925.279802	0.006159
925.459414	0.006036
925.639009	0.005465
925.818585	0.005394
925.998143	0.004823
926.177683	0.004010
926.357205	0.004084
926.536708	0.004067
926.716193	0.003927
926.895660	0.003898
927.075109	0.003474
927.254539	0.003735
927.433951	0.003084
927.613345	0.002887
927.792721	0.002944
927.972079	0.002637
928.151418	0.002176
928.330739	0.002252
928.510042	0.002192
928.689327	0.002239
928.868593	0.002012
929.047841	0.001777
929.227071	0.001850
929.406283	0.001493
929.585476	0.001332
929.764652	0.000653
929.943809	-0.000192
930.122948	-0.001087
930.302068	-0.001189
930.481171	-0.001997
930.660255	-0.002346
930.839321	-0.002581
931.018369	-0.003249
931.197398	-0.004013
931.376409	-0.004324
931.555402	-0.004581
931.734377	-0.004313
931.913334	-0.005069
932.092272	-0.005320
932.271192	-0.005639
932.450094	-0.006142
932.628978	-0.006124
932.807844	-0.006507
932.986691	-0.006943
933.165520	-0.007708
933.344331	-0.009154
933.523123	-0.008860
933.701898	-0.009437
933.880654	-0.010186
934.059392	-0.010258
934.238111	-0.010220
934.416813	-0.010020
934.595496	-0.009949
934.774161	-0.009805
934.952808	-0.009564
935.131437	-0.009666
935.310047	-0.009261
935.488639	-0.009272
935.667213	-0.009820
935.845769	-0.010620
936.024306	-0.010862
936.202825	-0.010759
936.381326	-0.011386
936.559809	-0.011414
936.738274	-0.012578
936.916720	-0.013702
937.095148	-0.013543
937.273558	-0.013435
937.451950	-0.013651
937.630323	-0.013932
937.808678	-0.014222
937.987015	-0.013737
938.165334	-0.014390
938.343635	-0.014459
938.521917	-0.014237
938.700181	-0.014900
938.878427	-0.015668
939.056655	-0.015897
939.234864	-0.015881
939.413055	-0.016656
939.591228	-0.018065
939.769383	-0.018169
939.947519	-0.018139
940.125638	-0.018752
940.303738	-0.019017
940.481820	-0.019601
940.659883	-0.019598
940.837929	-0.020463
941.015956	-0.020628
941.193965	-0.019960
941.371955	-0.020579
941.549928	-0.021060
941.727882	-0.021032
941.905818	-0.020899
942.083736	-0.021049
942.261636	-0.021617
942.439517	-0.022148
942.617380	-0.022388
942.795225	-0.022834
942.973052	-0.022206
943.150860	-0.022421
943.328651	-0.023058
943.506423	-0.023479
943.684176	-0.024093
943.861912	-0.024622
944.039629	-0.024235
944.217328	-0.024751
944.395009	-0.025402
944.572672	-0.026196
944.750317	-0.026172
944.927943	-0.026570
945.105551	-0.026813
945.283141	-0.026711
945.460712	-0.026230
945.638265	-0.026828
945.815801	-0.027271
945.993317	-0.026995
946.170816	-0.027174
946.348297	-0.026937
946.525759	-0.027034
946.703203	-0.027106
946.880629	-0.026452
947.058036	-0.027335
947.235425	-0.027691
947.412797	-0.027820
947.590149	-0.028633
947.767484	-0.027732
947.944800	-0.028338
948.122099	-0.027520
948.299379	-0.028375
948.476640	-0.029450
948.653884	-0.028755
948.831109	-0.028854
949.008316	-0.027997
949.185505	-0.027310
949.362676	-0.028740
949.539828	-0.029114
949.716962	-0.029341
949.894078	-0.029457
950.071176	-0.028037
950.248256	-0.029158
950.425317	-0.028639
950.602360	-0.029351
950.779385	-0.030191
950.956391	-0.030056
951.133380	-0.030117
951.310350	-0.030426
951.487302	-0.028804
951.664235	-0.030033
951.841151	-0.030484
952.018048	-0.030868
952.194927	-0.030940
952.371788	-0.030363
952.548631	-0.030263
952.725455	-0.030588
952.902261	-0.031523
953.079049	-0.033746
953.255819	-0.033524
953.432570	-0.033235
953.609303	-0.033349
953.786018	-0.032031
953.962715	-0.031127
954.139394	-0.030216
954.316054	-0.029561
954.492696	-0.028532
954.669320	-0.026548
954.845926	-0.026824
955.022513	-0.025246
955.199083	-0.024493
955.375634	-0.023810
955.552166	-0.025154
955.728681	-0.025675
955.905177	-0.025645
956.081655	-0.025354
956.258115	-0.026868
956.434557	-0.026626
956.610980	-0.027481
956.787385	-0.027099
956.963772	-0.028486
957.140141	-0.027081
957.316492	-0.026098
957.492824	-0.023534
957.669138	-0.023655
957.845434	-0.021395
958.021712	-0.021144
958.197971	-0.021099
958.374212	-0.021810
958.550435	-0.022485
958.726640	-0.023006
958.902826	-0.023076
959.078995	-0.025928
959.255145	-0.026292
959.431277	-0.027189
959.607390	-0.026379
959.783486	-0.025750
959.959563	-0.025947
960.135622	-0.022877
960.311662	-0.020692
960.487685	-0.021542
960.663689	-0.021739
960.839675	-0.019793
961.015643	-0.020436
961.191593	-0.021305
961.367524	-0.023062
961.543437	-0.023681
961.719332	-0.026300
961.895209	-0.027920
962.071067	-0.027834
962.246907	-0.026614
962.422730	-0.025776
962.598533	-0.025339
962.774319	-0.023043
962.950086	-0.021401
963.125835	-0.019488
963.301566	-0.018043
963.477279	-0.017543
963.652973	-0.017521
963.828650	-0.016357
964.004308	-0.016958
964.179947	-0.016963
964.355569	-0.017162
964.531172	-0.016463
964.706757	-0.016199
964.882324	-0.016743
965.057873	-0.016465
965.233403	-0.013354
965.408916	-0.013024
965.584410	-0.014743
965.759885	-0.014644
965.935343	-0.014585
966.110782	-0.010858
966.286203	-0.009879
966.461606	-0.010259
966.636991	-0.012068
966.812357	-0.012982
966.987705	-0.014696
967.163035	-0.013419
967.338347	-0.012088
967.513641	-0.011417
967.688916	-0.014575
967.864173	-0.013655
968.039412	-0.012445
968.214632	-0.009551
968.389835	-0.009944
968.565019	-0.008939
968.740185	-0.010882
968.915333	-0.010903
969.090462	-0.010366
969.265573	-0.009655
969.440667	-0.009590
969.615741	-0.009245
969.790798	-0.007479
969.965836	-0.007828
970.140856	-0.004276
970.315858	-0.001247
970.490842	-0.001421
970.665808	-0.002780
970.840755	-0.000909
971.015684	-0.000634
971.190595	0.000011
971.365487	-0.004859
971.540362	-0.003582
971.715218	-0.008379
971.890056	-0.008113
972.064875	-0.006218
972.239677	-0.006746
972.414460	-0.007710
972.589225	-0.010154
972.763972	-0.010526
972.938700	-0.007909
973.113411	-0.009426
973.288103	-0.006318
973.462777	-0.007768
973.637432	-0.008928
973.812070	-0.009279
973.986689	-0.010694
974.161290	-0.010216
974.335873	-0.008083
974.510437	-0.010679
974.684984	-0.009166
974.859512	-0.010553
975.034022	-0.008603
975.208513	-0.008731
975.382987	-0.006552
975.557442	-0.006760
975.731879	-0.004608
975.906298	-0.005492
976.080698	-0.002295
976.255080	-0.002095
976.429445	-0.000729
976.603790	-0.002331
976.778118	-0.002964
976.952427	-0.005450
977.126719	-0.005888
977.300992	-0.004528
977.475246	-0.006058
977.649483	-0.008131
977.823701	-0.009108
977.997901	-0.012126
978.172083	-0.011646
978.346247	-0.011254
978.520392	-0.010152
978.694519	-0.009888
978.868628	-0.013633
979.042719	-0.013751
979.216791	-0.013057
979.390845	-0.012564
979.564882	-0.012380
979.738899	-0.013832
979.912899	-0.013288
980.086880	-0.012899
980.260843	-0.012119
980.434788	-0.010225
980.608715	-0.010188
980.782623	-0.009412
980.956514	-0.009170
981.130386	-0.007764
981.304240	-0.006601
981.478075	-0.006704
981.651892	-0.007361
981.825692	-0.007078
981.999472	-0.007992
982.173235	-0.009826
982.346980	-0.010760
982.520706	-0.012607
982.694414	-0.014430
982.868104	-0.013966
983.041775	-0.013658
983.215428	-0.011370
983.389064	-0.012057
983.562680	-0.012126
983.736279	-0.009150
983.909860	-0.008115
984.083422	-0.006107
984.256966	-0.006358
984.430491	-0.006009
984.603999	-0.007490
984.777488	-0.008795
984.950959	-0.008968
985.124412	-0.008501
985.297847	-0.008140
985.471263	-0.009803
985.644661	-0.010452
985.818041	-0.010465
985.991403	-0.009645
986.164747	-0.009831
986.338072	-0.009861
986.511379	-0.010247
986.684668	-0.010633
986.857938	-0.012497
987.031191	-0.011551
987.204425	-0.011422
987.377641	-0.008981
987.550839	-0.010606
987.724018	-0.007793
987.897179	-0.007916
988.070322	-0.005227
988.243447	-0.005183
988.416554	-0.004250
988.589642	-0.003263
988.762712	-0.003090
988.935764	-0.003315
989.108798	-0.004513
989.281813	-0.006788
989.454811	-0.008245
989.627790	-0.008915
989.800751	-0.008222
989.973693	-0.007521
990.146617	-0.008884
990.319524	-0.009368
990.492412	-0.008866
990.665281	-0.006190
990.838133	-0.006081
991.010966	-0.005085
991.183781	-0.006220
991.356578	-0.008928
991.529356	-0.008499
991.702117	-0.006583
991.874859	-0.007905
992.047583	-0.007897
992.220288	-0.010098
992.392976	-0.009951
992.565645	-0.011195
992.738296	-0.011919
992.910929	-0.010592
993.083543	-0.012867
993.256139	-0.014185
993.428718	-0.012341
993.601277	-0.012317
993.773819	-0.009905
993.946342	-0.009710
994.118848	-0.009462
994.291335	-0.009592
994.463803	-0.009119
994.636254	-0.008899
994.808686	-0.010335
994.981100	-0.010446
995.153496	-0.011461
995.325874	-0.012629
995.498233	-0.014286
995.670574	-0.014063
995.842897	-0.013965
996.015202	-0.014725
996.187488	-0.015218
996.359757	-0.012921
996.532007	-0.012836
996.704239	-0.013173
996.876452	-0.015005
997.048648	-0.012758
997.220825	-0.011629
997.392984	-0.010423
997.565124	-0.009417
997.737247	-0.009227
997.909351	-0.011080
998.081437	-0.011393
998.253505	-0.011563
998.425554	-0.010021
998.597586	-0.010052
998.769599	-0.010080
998.941594	-0.012997
999.113571	-0.012945
999.285529	-0.012746
999.457469	-0.012550
999.629391	-0.014596
999.801295	-0.014443
999.973181	-0.015115
1000.145048	-0.017166
1000.316897	-0.017844
1000.488728	-0.015887
1000.660541	-0.015985
1000.832335	-0.015866
1001.004111	-0.014787
1001.175869	-0.013811
1001.347609	-0.013925
1001.519331	-0.014965
1001.691034	-0.012623
1001.862719	-0.012813
1002.034386	-0.013331
1002.206035	-0.014541
1002.377665	-0.015228
1002.549277	-0.016794
1002.720871	-0.016508
1002.892447	-0.016857
1003.064004	-0.015859
1003.235544	-0.016629
1003.407065	-0.016359
1003.578568	-0.016275
1003.750052	-0.015284
1003.921519	-0.014712
1004.092967	-0.013409
1004.264397	-0.013356
1004.435809	-0.013686
1004.607202	-0.014346
1004.778577	-0.013212
1004.949934	-0.014232
1005.121273	-0.013939
1005.292594	-0.014372
1005.463896	-0.014311
1005.635180	-0.015148
1005.806446	-0.015800
1005.977694	-0.014641
1006.148923	-0.015153
1006.320135	-0.015801
1006.491328	-0.015561
1006.662503	-0.015618
1006.833659	-0.014683
1007.004798	-0.014207
1007.175918	-0.013722
1007.347020	-0.013933
1007.518103	-0.013796
1007.689169	-0.013444
1007.860216	-0.014630
1008.031245	-0.013809
1008.202256	-0.014711
1008.373248	-0.015082
1008.544223	-0.015986
1008.715179	-0.016671
1008.886117	-0.016642
1009.057036	-0.018588
1009.227938	-0.015767
1009.398821	-0.015026
1009.569686	-0.014973
1009.740533	-0.013256
1009.911361	-0.013627
1010.082172	-0.012434
1010.252964	-0.011898
1010.423738	-0.011377
1010.594493	-0.010039
1010.765231	-0.011932
1010.935950	-0.011524
1011.106651	-0.010492
1011.277334	-0.012770
1011.447998	-0.012145
1011.618645	-0.013662
1011.789273	-0.014414
1011.959882	-0.014059
1012.130474	-0.014378
1012.301048	-0.015236
1012.471603	-0.015697
1012.642140	-0.017509
1012.812658	-0.016673
1012.983159	-0.016187
1013.153641	-0.015724
1013.324105	-0.015889
1013.494551	-0.016885
1013.664979	-0.016204
1013.835388	-0.015051
1014.005779	-0.015062
1014.176152	-0.015275
1014.346507	-0.014993
1014.516843	-0.014360
1014.687162	-0.013341
1014.857462	-0.013246
1015.027744	-0.011953
1015.198007	-0.012482
1015.368252	-0.012984
1015.538480	-0.014005
1015.708689	-0.013548
1015.878879	-0.013488
1016.049052	-0.014837
1016.219206	-0.015140
1016.389342	-0.014355
1016.559460	-0.014764
1016.729559	-0.014084
1016.899641	-0.013208
1017.069704	-0.012989
1017.239749	-0.013258
1017.409775	-0.013139
1017.579784	-0.014000
1017.749774	-0.016162
1017.919746	-0.013977
1018.089700	-0.015606
1018.259635	-0.015944
1018.429553	-0.015801
1018.599452	-0.016507
1018.769333	-0.014624
1018.939195	-0.013826
1019.109040	-0.014507
1019.278866	-0.011988
1019.448674	-0.013602
1019.618464	-0.013563
1019.788235	-0.013883
1019.957989	-0.014712
1020.127724	-0.014117
1020.297441	-0.015314
1020.467139	-0.015944
1020.636820	-0.016502
1020.806482	-0.018639
1020.976126	-0.018874
1021.145752	-0.017031
1021.315359	-0.016014
1021.484948	-0.016926
1021.654519	-0.015855
1021.824072	-0.015570
1021.993607	-0.016381
1022.163123	-0.017702
1022.332621	-0.018096
1022.502101	-0.021227
1022.671563	-0.021513
1022.841007	-0.023273
1023.010432	-0.022614
1023.179839	-0.023777
1023.349228	-0.024897
1023.518598	-0.025823
1023.687951	-0.022620
1023.857285	-0.020995
1024.026601	-0.019450
1024.195899	-0.020925
1024.365178	-0.019889
1024.534439	-0.020707
1024.703682	-0.020400
1024.872907	-0.020803
1025.042114	-0.019509
1025.211302	-0.020378
1025.380472	-0.020619
1025.549624	-0.018756
1025.718758	-0.017131
1025.887873	-0.017455
1026.056970	-0.018287
1026.226049	-0.019506
1026.395110	-0.018724
1026.564153	-0.017641
1026.733177	-0.018491
1026.902183	-0.017634
1027.071171	-0.019701
1027.240141	-0.020070
1027.409092	-0.021364
1027.578026	-0.019905
1027.746940	-0.017956
1027.915837	-0.017779
1028.084716	-0.019874
1028.253576	-0.020462
1028.422418	-0.021154
1028.591242	-0.020104
1028.760048	-0.020390
1028.928835	-0.018187
1029.097604	-0.017762
1029.266355	-0.018822
1029.435088	-0.019056
1029.603803	-0.018205
1029.772499	-0.016599
1029.941177	-0.017080
1030.109837	-0.016630
1030.278478	-0.016800
1030.447102	-0.017657
1030.615707	-0.016924
1030.784294	-0.017326
1030.952863	-0.016992
1031.121413	-0.016530
1031.289945	-0.015928
1031.458460	-0.015735
1031.626955	-0.016627
1031.795433	-0.016169
1031.963892	-0.017898
1032.132334	-0.020197
1032.300756	-0.020047
1032.469161	-0.021238
1032.637548	-0.022180
1032.805916	-0.022427
1032.974266	-0.023314
1033.142598	-0.023506
1033.310911	-0.022685
1033.479207	-0.023019
1033.647484	-0.022067
1033.815743	-0.021591
1033.983983	-0.020082
1034.152206	-0.019952
1034.320410	-0.021812
1034.488596	-0.018854
1034.656764	-0.018945
1034.824914	-0.019574
1034.993045	-0.017667
1035.161158	-0.018341
1035.329253	-0.017274
1035.497330	-0.016913
1035.665388	-0.017941
1035.833428	-0.016817
1036.001450	-0.019893
1036.169454	-0.017982
1036.337440	-0.019204
1036.505407	-0.018832
1036.673356	-0.017900
1036.841287	-0.019335
1037.009200	-0.019854
1037.177094	-0.019081
1037.344970	-0.018801
1037.512828	-0.018297
1037.680668	-0.019478
1037.848489	-0.019742
1038.016293	-0.020568
1038.184078	-0.021098
1038.351845	-0.021295
1038.519593	-0.021909
1038.687324	-0.020796
1038.855036	-0.020124
1039.022730	-0.019587
1039.190406	-0.019918
1039.358063	-0.018225
1039.525702	-0.017634
1039.693323	-0.017673
1039.860926	-0.015115
1040.028511	-0.013476
1040.196077	-0.014950
1040.363625	-0.016106
1040.531155	-0.016084
1040.698667	-0.014915
1040.866161	-0.015205
1041.033636	-0.015072
1041.201093	-0.014944
1041.368532	-0.016796
1041.535952	-0.018950
1041.703355	-0.018368
1041.870739	-0.017831
1042.038105	-0.017669
1042.205452	-0.019005
1042.372782	-0.019230
1042.540093	-0.017921
1042.707386	-0.017451
1042.874661	-0.016800
1043.041918	-0.015711
1043.209156	-0.015379
1043.376376	-0.015553
1043.543578	-0.015127
1043.710762	-0.014292
1043.877927	-0.014270
1044.045074	-0.016033
1044.212203	-0.015983
1044.379314	-0.017452
1044.546407	-0.018935
1044.713481	-0.019261
1044.880537	-0.017784
1045.047575	-0.019638
1045.214595	-0.018957
1045.381596	-0.020239
1045.548579	-0.020376
1045.715544	-0.021631
1045.882491	-0.022227
1046.049420	-0.019219
1046.216330	-0.019682
1046.383222	-0.020979
1046.550096	-0.019858
1046.716951	-0.021082
1046.883789	-0.020004
1047.050608	-0.018930
1047.217409	-0.018232
1047.384192	-0.016806
1047.550956	-0.018909
1047.717703	-0.018719
1047.884431	-0.017777
1048.051140	-0.017622
1048.217832	-0.017759
1048.384505	-0.017144
1048.551161	-0.017510
1048.717798	-0.019147
1048.884416	-0.019607
1049.051017	-0.018773
1049.217599	-0.019046
1049.384163	-0.021003
1049.550709	-0.019113
1049.717237	-0.018632
1049.883746	-0.018788
1050.050237	-0.019222
1050.216710	-0.017371
1050.383165	-0.016950
1050.549601	-0.017127
1050.716019	-0.015999
1050.882420	-0.014131
1051.048801	-0.014563
1051.215165	-0.013850
1051.381510	-0.012825
1051.547837	-0.011884
1051.714146	-0.011118
1051.880437	-0.010478
1052.046709	-0.011451
1052.212964	-0.012314
1052.379200	-0.014621
1052.545417	-0.015824
1052.711617	-0.015355
1052.877798	-0.017646
1053.043961	-0.017968
1053.210106	-0.018783
1053.376233	-0.020322
1053.542341	-0.019079
1053.708432	-0.018357
1053.874504	-0.018315
1054.040557	-0.018890
1054.206593	-0.022582
1054.372610	-0.021932
1054.538609	-0.023519
1054.704590	-0.021579
1054.870553	-0.019682
1055.036497	-0.018441
1055.202424	-0.018949
1055.368331	-0.017282
1055.534221	-0.016402
1055.700093	-0.014706
1055.865946	-0.013060
1056.031781	-0.013368
1056.197598	-0.014385
1056.363397	-0.015777
1056.529177	-0.016153
1056.694939	-0.015441
1056.860683	-0.016501
1057.026409	-0.017580
1057.192116	-0.018195
1057.357806	-0.018627
1057.523477	-0.018020
1057.689130	-0.019541
1057.854764	-0.020368
1058.020381	-0.020644
1058.185979	-0.020722
1058.351559	-0.020655
1058.517120	-0.020990
1058.682664	-0.021466
1058.848189	-0.024055
1059.013696	-0.023754
1059.179185	-0.023035
1059.344656	-0.021183
1059.510108	-0.022901
1059.675542	-0.024233
1059.840958	-0.025105
1060.006356	-0.024786
1060.171735	-0.024351
1060.337096	-0.021739
1060.502439	-0.022663
1060.667764	-0.022690
1060.833071	-0.023386
1060.998359	-0.024071
1061.163629	-0.024217
1061.328881	-0.023477
1061.494115	-0.023321
1061.659330	-0.021440
1061.824527	-0.022278
1061.989706	-0.019660
1062.154867	-0.018857
1062.320010	-0.020649
1062.485134	-0.019241
1062.650240	-0.017363
1062.815328	-0.016886
1062.980398	-0.015986
1063.145449	-0.017607
1063.310482	-0.017380
1063.475497	-0.019478
1063.640494	-0.020322
1063.805473	-0.019240
1063.970433	-0.018325
1064.135375	-0.019832
1064.300299	-0.017682
1064.465204	-0.017889
1064.630092	-0.017087
1064.794961	-0.019006
1064.959812	-0.016846
1065.124645	-0.016846
1065.289459	-0.016886
1065.454256	-0.018985
1065.619034	-0.018274
1065.783793	-0.020696
1065.948535	-0.021780
1066.113258	-0.023235
1066.277964	-0.023040
1066.442651	-0.023906
1066.607319	-0.023831
1066.771970	-0.024804
1066.936602	-0.023554
1067.101216	-0.024864
1067.265812	-0.024055
1067.430389	-0.023186
1067.594949	-0.022759
1067.759490	-0.023374
1067.924013	-0.023701
1068.088518	-0.024585
1068.253004	-0.024794
1068.417472	-0.026504
1068.581922	-0.025966
1068.746354	-0.027155
1068.910768	-0.028935
1069.075163	-0.030668
1069.239540	-0.028580
1069.403899	-0.028067
1069.568240	-0.028509
1069.732562	-0.026905
1069.896866	-0.025892
1070.061152	-0.025101
1070.225420	-0.024226
1070.389670	-0.021837
1070.553901	-0.020967
1070.718114	-0.020661
1070.882309	-0.022154
1071.046486	-0.021458
1071.210644	-0.022131
1071.374784	-0.020907
1071.538906	-0.023636
1071.703010	-0.023959
1071.867096	-0.024931
1072.031163	-0.024483
1072.195212	-0.026246
1072.359243	-0.027421
1072.523256	-0.027265
1072.687250	-0.025821
1072.851226	-0.027040
1073.015184	-0.024103
1073.179124	-0.023054
1073.343045	-0.024215
1073.506949	-0.021549
1073.670834	-0.020801
1073.834701	-0.019106
1073.998549	-0.018798
1074.162380	-0.020410
1074.326192	-0.020414
1074.489986	-0.019364
1074.653761	-0.020796
1074.817519	-0.019370
1074.981258	-0.022076
1075.144979	-0.022093
1075.308682	-0.022814
1075.472367	-0.021976
1075.636033	-0.022888
1075.799681	-0.022039
1075.963311	-0.022876
1076.126923	-0.021970
1076.290516	-0.019482
1076.454092	-0.017664
1076.617649	-0.018062
1076.781187	-0.016969
1076.944708	-0.018332
1077.108210	-0.015987
1077.271695	-0.017417
1077.435160	-0.017697
1077.598608	-0.017830
1077.762038	-0.021413
1077.925449	-0.021762
1078.088842	-0.021552
1078.252217	-0.022775
1078.415573	-0.022146
1078.578912	-0.025427
1078.742232	-0.025785
1078.905534	-0.026254
1079.068817	-0.026500
1079.232083	-0.025356
1079.395330	-0.024436
1079.558559	-0.023968
1079.721770	-0.023226
1079.884962	-0.023500
1080.048136	-0.019946
1080.211293	-0.018693
1080.374430	-0.019706
1080.537550	-0.019570
1080.700651	-0.016875
1080.863735	-0.017892
1081.026800	-0.017696
1081.189846	-0.017386
1081.352875	-0.017713
1081.515885	-0.020714
1081.678877	-0.023290
1081.841851	-0.022414
1082.004807	-0.021205
1082.167744	-0.023424
1082.330663	-0.024412
1082.493564	-0.025430
1082.656447	-0.024956
1082.819312	-0.026121
1082.982158	-0.024628
1083.144986	-0.020690
1083.307796	-0.020442
1083.470587	-0.021224
1083.633361	-0.026919
1083.796116	-0.025853
1083.958853	-0.026148
1084.121571	-0.026985
1084.284272	-0.025907
1084.446954	-0.023121
1084.609618	-0.023797
1084.772264	-0.022528
1084.934892	-0.022446
1085.097501	-0.017183
1085.260092	-0.016048
1085.422665	-0.018511
1085.585220	-0.019788
1085.747756	-0.021683
1085.910274	-0.025252
1086.072774	-0.026067
1086.235256	-0.028280
1086.397720	-0.031725
1086.560165	-0.031572
1086.722592	-0.033908
1086.885001	-0.030224
1087.047392	-0.027712
1087.209764	-0.026292
1087.372119	-0.026430
1087.534455	-0.028256
1087.696772	-0.027993
1087.859072	-0.025446
1088.021353	-0.025506
1088.183616	-0.025102
1088.345861	-0.027367
1088.508088	-0.028918
1088.670296	-0.029688
1088.832486	-0.028509
1088.994658	-0.028761
1089.156812	-0.024513
1089.318948	-0.025716
1089.481065	-0.025663
1089.643164	-0.026508
1089.805245	-0.023594
1089.967308	-0.025203
1090.129352	-0.022793
1090.291378	-0.023151
1090.453386	-0.022547
1090.615376	-0.028094
1090.777347	-0.027045
1090.939301	-0.027769
1091.101236	-0.025760
1091.263153	-0.028321
1091.425051	-0.028310
1091.586932	-0.030154
1091.748794	-0.029535
1091.910638	-0.028207
1092.072463	-0.026802
1092.234271	-0.028401
1092.396060	-0.032161
1092.557831	-0.031825
1092.719584	-0.032949
1092.881319	-0.028056
1093.043035	-0.027291
1093.204733	-0.025082
1093.366413	-0.025448
1093.528075	-0.026349
1093.689718	-0.024393
1093.851343	-0.019337
1094.012950	-0.020952
1094.174539	-0.018773
1094.336110	-0.022218
1094.497662	-0.023517
1094.659196	-0.027055
1094.820712	-0.026677
1094.982210	-0.025238
1095.143689	-0.027724
1095.305151	-0.031778
1095.466594	-0.033473
1095.628018	-0.033554
1095.789425	-0.034047
1095.950813	-0.031043
1096.112183	-0.030520
1096.273535	-0.030460
1096.434869	-0.031011
1096.596184	-0.027574
1096.757482	-0.024179
1096.918761	-0.019453
1097.080021	-0.016066
1097.241264	-0.018473
1097.402488	-0.023792
1097.563694	-0.024603
1097.724882	-0.027821
1097.886052	-0.024662
1098.047203	-0.022727
1098.208336	-0.024829
1098.369451	-0.028265
1098.530548	-0.032317
1098.691627	-0.030488
1098.852687	-0.027316
1099.013729	-0.025776
1099.174753	-0.022791
1099.335758	-0.026836
1099.496746	-0.032129
1099.657715	-0.029865
1099.818666	-0.027022
1099.979599	-0.025991
1100.140513	-0.025647
1100.301409	-0.026266
1100.462287	-0.025519
1100.623147	-0.028615
1100.783989	-0.028828
1100.944812	-0.024626
1101.105617	-0.025044
1101.266404	-0.028099
1101.427173	-0.028808
1101.587923	-0.027215
1101.748656	-0.026805
1101.909370	-0.028688
1102.070066	-0.023964
1102.230743	-0.020035
1102.391403	-0.020947
1102.552044	-0.023320
1102.712667	-0.021718
1102.873271	-0.019329
1103.033858	-0.021084
1103.194426	-0.023426
1103.354976	-0.022933
1103.515508	-0.027665
1103.676021	-0.032357
1103.836517	-0.035202
1103.996994	-0.034238
1104.157453	-0.035593
1104.317893	-0.036437
1104.478316	-0.036969
1104.638720	-0.031867
1104.799106	-0.033418
1104.959474	-0.032824
1105.119823	-0.029883
1105.280155	-0.028961
1105.440468	-0.030402
1105.600763	-0.028308
1105.761039	-0.029428
1105.921298	-0.030330
1106.081538	-0.031950
1106.241760	-0.026991
1106.401964	-0.023710
1106.562149	-0.025305
1106.722316	-0.027282
1106.882465	-0.025318
1107.042596	-0.030822
1107.202709	-0.027433
1107.362803	-0.023343
1107.522879	-0.024025
1107.682937	-0.027361
1107.842977	-0.028480
1108.002999	-0.026387
1108.163002	-0.026190
1108.322987	-0.026250
1108.482954	-0.021678
1108.642902	-0.026283
1108.802833	-0.027651
1108.962745	-0.028523
1109.122639	-0.030597
1109.282515	-0.032035
1109.442372	-0.029355
1109.602211	-0.028538
1109.762032	-0.027776
1109.921835	-0.027360
1110.081620	-0.027970
1110.241386	-0.029002
1110.401134	-0.026298
1110.560864	-0.025286
1110.720576	-0.022319
1110.880269	-0.025806
1111.039945	-0.025859
1111.199602	-0.025750
1111.359240	-0.023798
1111.518861	-0.020551
1111.678463	-0.022668
1111.838047	-0.025284
1111.997613	-0.024489
1112.157161	-0.028533
1112.316690	-0.026925
1112.476202	-0.026632
1112.635695	-0.030101
1112.795169	-0.032513
1112.954626	-0.032239
1113.114064	-0.029425
1113.273484	-0.029205
1113.432886	-0.032288
1113.592270	-0.029140
1113.751635	-0.032613
1113.910983	-0.032283
1114.070312	-0.031547
1114.229622	-0.034692
1114.388915	-0.037381
1114.548189	-0.039577
1114.707445	-0.043658
1114.866683	-0.043126
1115.025903	-0.046617
1115.185104	-0.044040
1115.344287	-0.041745
1115.503452	-0.042295
1115.662599	-0.040471
1115.821727	-0.036177
1115.980838	-0.032803
1116.139930	-0.030316
1116.299004	-0.024927
1116.458059	-0.019762
1116.617097	-0.017066
1116.776116	-0.022582
1116.935117	-0.020771
1117.094099	-0.019568
1117.253064	-0.020221
1117.412010	-0.019182
1117.570938	-0.014996
1117.729848	-0.016525
1117.888740	-0.018708
1118.047613	-0.021161
1118.206468	-0.017539
1118.365305	-0.016466
1118.524124	-0.020100
1118.682924	-0.019773
1118.841707	-0.025710
1119.000471	-0.027290
1119.159216	-0.028905
1119.317944	-0.030564
1119.476653	-0.036363
1119.635344	-0.034045
1119.794017	-0.034052
1119.952672	-0.034013
1120.111308	-0.035586
1120.269927	-0.034179
1120.428527	-0.035314
1120.587108	-0.037091
1120.745672	-0.034877
1120.904217	-0.033332
1121.062744	-0.035188
1121.221253	-0.033597
1121.379744	-0.030950
1121.538216	-0.031917
1121.696671	-0.029330
1121.855107	-0.029393
1122.013524	-0.024585
1122.171924	-0.028321
1122.330305	-0.028567
1122.488668	-0.030434
1122.647013	-0.034252
1122.805340	-0.033767
1122.963648	-0.036535
1123.121938	-0.039184
1123.280210	-0.040053
1123.438464	-0.041985
1123.596700	-0.035774
1123.754917	-0.036883
1123.913116	-0.030923
1124.071297	-0.031208
1124.229459	-0.032492
1124.387604	-0.029647
1124.545730	-0.025285
1124.703838	-0.024279
1124.861928	-0.028110
1125.019999	-0.032676
1125.178052	-0.032269
1125.336088	-0.037697
1125.494104	-0.032736
1125.652103	-0.033022
1125.810083	-0.033625
1125.968045	-0.033963
1126.125989	-0.034409
1126.283915	-0.024431
1126.441823	-0.025616
1126.599712	-0.025487
1126.757583	-0.021736
1126.915436	-0.022659
1127.073270	-0.021839
1127.231087	-0.019073
1127.388885	-0.019189
1127.546665	-0.017753
1127.704426	-0.023127
1127.862170	-0.023352
1128.019895	-0.020644
1128.177602	-0.023372
1128.335291	-0.021257
1128.492961	-0.024924
1128.650614	-0.023913
1128.808248	-0.028665
1128.965864	-0.031906
1129.123461	-0.035099
1129.281041	-0.030476
1129.438602	-0.021939
1129.596145	-0.022946
1129.753670	-0.023497
1129.911176	-0.017530
1130.068665	-0.023499
1130.226135	-0.019540
1130.383587	-0.017121
1130.541020	-0.014957
1130.698436	-0.018661
1130.855833	-0.021642
1131.013212	-0.018838
1131.170573	-0.024187
1131.327915	-0.021003
1131.485239	-0.013728
1131.642545	-0.012729
1131.799833	-0.010915
1131.957103	-0.015650
1132.114354	-0.014806
1132.271588	-0.014394
1132.428803	-0.014413
1132.585999	-0.015385
1132.743178	-0.018566
1132.900338	-0.027501
1133.057480	-0.023095
1133.214604	-0.030346
1133.371710	-0.029564
1133.528797	-0.033569
1133.685866	-0.034237
1133.842917	-0.034097
1133.999950	-0.032018
1134.156964	-0.036192
1134.313960	-0.036650
1134.470938	-0.038788
1134.627898	-0.034330
1134.784840	-0.031809
1134.941763	-0.020892
1135.098668	-0.026326
1135.255555	-0.027481
1135.412424	-0.027140
1135.569274	-0.024019
1135.726107	-0.018904
1135.882921	-0.022492
1136.039716	-0.021527
1136.196494	-0.018160
1136.353253	-0.024192
1136.509995	-0.023248
1136.666717	-0.022072
1136.823422	-0.025666
1136.980109	-0.018234
1137.136777	-0.022308
1137.293427	-0.029259
1137.450059	-0.025648
1137.606672	-0.025107
1137.763267	-0.018973
1137.919844	-0.020893
1138.076403	-0.023213
1138.232944	-0.019311
1138.389466	-0.028403
1138.545971	-0.025059
1138.702457	-0.021892
1138.858924	-0.027012
1139.015374	-0.031169
1139.171805	-0.036140
1139.328218	-0.027772
1139.484613	-0.026865
1139.640990	-0.026548
1139.797348	-0.024152
1139.953688	-0.024808
1140.110010	-0.019707
1140.266314	-0.013812
1140.422600	-0.015105
1140.578867	-0.021327
1140.735116	-0.031831
1140.891347	-0.031459
1141.047559	-0.030280
1141.203754	-0.032276
1141.359930	-0.034095
1141.516088	-0.037513
1141.672228	-0.039554
1141.828349	-0.037485
1141.984452	-0.032882
1142.140537	-0.029557
1142.296604	-0.036668
1142.452653	-0.037123
1142.608683	-0.031533
1142.764695	-0.027937
1142.920689	-0.023446
1143.076665	-0.022165
1143.232622	-0.021108
1143.388562	-0.015853
1143.544483	-0.019111
1143.700385	-0.008653
1143.856270	-0.009854
1144.012136	-0.015150
1144.167985	-0.015394
1144.323814	-0.014479
1144.479626	-0.013814
1144.635420	-0.015542
1144.791195	-0.019507
1144.946952	-0.014928
1145.102691	-0.013227
1145.258411	-0.015606
1145.414113	-0.016873
1145.569798	-0.015440
1145.725463	-0.019068
1145.881111	-0.023277
1146.036741	-0.017776
1146.192352	-0.014116
1146.347945	-0.012323
1146.503519	-0.020703
1146.659076	-0.020031
1146.814614	-0.012047
1146.970134	-0.015500
1147.125636	-0.016645
1147.281120	-0.006530
1147.436585	-0.010657
1147.592032	-0.017084
1147.747461	-0.017743
1147.902872	-0.022721
1148.058265	-0.019430
1148.213639	-0.023077
1148.368995	-0.022322
1148.524333	-0.025284
1148.679653	-0.036222
1148.834954	-0.035259
1148.990237	-0.035545
1149.145502	-0.044509
1149.300749	-0.036951
1149.455977	-0.041896
1149.611188	-0.046677
1149.766380	-0.045629
1149.921553	-0.038580
1150.076709	-0.036716
1150.231846	-0.037357
1150.386966	-0.033321
1150.542066	-0.024618
1150.697149	-0.023187
1150.852214	-0.012567
1151.007260	-0.008416
1151.162288	-0.007102
1151.317298	-0.005819
1151.472289	-0.005844
1151.627263	-0.011287
1151.782218	-0.016185
1151.937155	-0.018087
1152.092073	-0.017304
1152.246974	-0.018534
1152.401856	-0.017163
1152.556720	-0.017634
1152.711566	-0.027135
1152.866393	-0.027045
1153.021203	-0.023555
1153.175994	-0.032678
1153.330767	-0.029865
1153.485521	-0.033722
1153.640258	-0.043724
1153.794976	-0.040791
1153.949676	-0.042266
1154.104358	-0.037321
1154.259021	-0.036411
1154.413667	-0.037091
1154.568294	-0.025073
1154.722903	-0.031315
1154.877493	-0.036501
1155.032066	-0.030497
1155.186620	-0.038558
1155.341156	-0.038195
1155.495674	-0.034387
1155.650173	-0.037438
1155.804654	-0.039882
1155.959118	-0.038347
1156.113562	-0.031420
1156.267989	-0.022262
1156.422397	-0.030330
1156.576788	-0.025814
1156.731160	-0.020827
1156.885513	-0.027033
1157.039849	-0.026086
1157.194166	-0.025480
1157.348465	-0.030789
1157.502746	-0.041470
1157.657009	-0.050262
1157.811253	-0.039065
1157.965479	-0.036165
1158.119687	-0.037169
1158.273877	-0.038213
1158.428048	-0.039366
1158.582201	-0.042683
1158.736337	-0.035113
1158.890453	-0.024999
1159.044552	-0.021715
1159.198632	-0.027270
1159.352694	-0.038865
1159.506738	-0.040198
1159.660764	-0.040667
1159.814771	-0.033030
1159.968761	-0.025286
1160.122732	-0.029919
1160.276685	-0.017921
1160.430619	-0.018357
1160.584535	-0.022809
1160.738434	-0.005942
1160.892313	-0.017836
1161.046175	-0.014133
1161.200019	-0.012862
1161.353844	-0.011069
1161.507651	-0.010739
1161.661440	-0.025269
1161.815210	-0.017598
1161.968962	-0.009876
1162.122697	-0.010561
1162.276412	-0.000104
1162.430110	-0.002890
1162.583789	-0.003347
1162.737451	-0.008154
1162.891094	-0.012512
1163.044718	-0.019083
1163.198325	-0.024393
1163.351913	-0.027004
1163.505483	-0.041279
1163.659035	-0.041524
1163.812569	-0.045969
1163.966084	-0.045242
1164.119581	-0.045124
1164.273060	-0.044650
1164.426521	-0.038829
1164.579964	-0.036272
1164.733388	-0.031073
1164.886794	-0.027909
1165.040182	-0.028193
1165.193551	-0.017619
1165.346903	-0.034582
1165.500236	-0.038186
1165.653551	-0.028732
1165.806848	-0.025294
1165.960126	-0.020904
1166.113386	-0.029267
1166.266628	-0.027886
1166.419852	-0.026944
1166.573058	-0.027360
1166.726245	-0.019566
1166.879414	-0.016754
1167.032565	-0.025737
1167.185698	-0.028660
1167.338812	-0.034519
1167.491909	-0.023761
1167.644987	-0.022747
1167.798046	-0.025466
1167.951088	-0.030902
1168.104111	-0.026303
1168.257117	-0.028320
1168.410103	-0.022152
1168.563072	-0.017343
1168.716023	-0.017480
1168.868955	-0.010031
1169.021869	-0.009265
1169.174765	-0.005977
1169.327642	0.006504
1169.480501	-0.001200
1169.633343	0.011426
1169.786165	0.019909
1169.938970	0.017526
1170.091757	0.018973
1170.244525	0.014844
1170.397275	0.014700
1170.550007	0.010550
1170.702720	0.003216
1170.855415	0.002728
1171.008092	-0.002666
1171.160751	-0.015487
1171.313392	-0.018194
1171.466014	-0.088740
1171.618619	-0.015508
1171.771205	-0.015508
1171.923772	-0.015508
