sample name	sample
index	498
start time	 03-11-2021  02:39:15 PM


Wavelength (nm)	Absorbance
494.344910	1.021558
494.563924	1.021558
494.782919	1.021558
495.001897	1.184603
495.220856	0.398600
495.439797	0.408840
495.658719	0.427842
495.877624	0.176770
496.096510	0.068461
496.315378	-0.126728
496.534227	-0.146344
496.753059	-0.086663
496.971872	0.027563
497.190667	-0.022701
497.409444	-0.019481
497.628203	-0.016645
497.846943	-0.013765
498.065665	-0.012812
498.284369	-0.011845
498.503055	-0.012257
498.721723	-0.012981
498.940372	-0.014086
499.159003	-0.013309
499.377616	-0.012685
499.596210	-0.012564
499.814787	-0.013101
500.033345	-0.012335
500.251885	-0.012315
500.470406	-0.013026
500.688910	-0.013008
500.907395	-0.012265
501.125862	-0.013097
501.344311	-0.013957
501.562742	-0.014504
501.781154	-0.015315
501.999548	-0.016110
502.217924	-0.016075
502.436282	-0.015241
502.654621	-0.015067
502.872942	-0.015108
503.091245	-0.014109
503.309530	-0.013177
503.527797	-0.013833
503.746045	-0.014241
503.964275	-0.014683
504.182487	-0.014760
504.400681	-0.014806
504.618856	-0.014771
504.837013	-0.015114
505.055152	-0.016357
505.273273	-0.017347
505.491376	-0.017800
505.709460	-0.017421
505.927526	-0.017108
506.145574	-0.017447
506.363604	-0.017558
506.581615	-0.017364
506.799608	-0.017081
507.017583	-0.016180
507.235540	-0.016439
507.453478	-0.015029
507.671399	-0.013901
507.889301	-0.013402
508.107185	-0.012957
508.325050	-0.012584
508.542898	-0.012287
508.760727	-0.011625
508.978538	-0.012493
509.196330	-0.012033
509.414105	-0.012793
509.631861	-0.013454
509.849599	-0.014142
510.067319	-0.014566
510.285021	-0.015510
510.502704	-0.015316
510.720369	-0.015492
510.938016	-0.014906
511.155645	-0.014480
511.373255	-0.014776
511.590848	-0.015063
511.808422	-0.014895
512.025977	-0.014586
512.243515	-0.014163
512.461034	-0.015077
512.678536	-0.015858
512.896018	-0.015966
513.113483	-0.016341
513.330930	-0.015861
513.548358	-0.015898
513.765768	-0.016453
513.983160	-0.016683
514.200533	-0.016760
514.417889	-0.016532
514.635226	-0.016510
514.852545	-0.016421
515.069845	-0.016483
515.287128	-0.016937
515.504392	-0.016544
515.721638	-0.016719
515.938866	-0.016506
516.156075	-0.016627
516.373267	-0.016699
516.590440	-0.016452
516.807594	-0.016769
517.024731	-0.016691
517.241850	-0.015757
517.458950	-0.015371
517.676032	-0.015031
517.893095	-0.015169
518.110141	-0.014748
518.327168	-0.015155
518.544177	-0.015557
518.761168	-0.015330
518.978141	-0.015569
519.195095	-0.015510
519.412031	-0.016496
519.628949	-0.016246
519.845849	-0.017060
520.062731	-0.017222
520.279594	-0.016509
520.496439	-0.016334
520.713266	-0.016066
520.930074	-0.016022
521.146865	-0.016671
521.363637	-0.016350
521.580391	-0.016567
521.797127	-0.015933
522.013844	-0.016085
522.230543	-0.016531
522.447224	-0.016802
522.663887	-0.017071
522.880532	-0.017025
523.097158	-0.017375
523.313766	-0.017670
523.530356	-0.017520
523.746928	-0.017647
523.963481	-0.017910
524.180017	-0.017375
524.396534	-0.016785
524.613032	-0.016781
524.829513	-0.016537
525.045975	-0.016016
525.262420	-0.015767
525.478845	-0.016116
525.695253	-0.015282
525.911643	-0.015791
526.128014	-0.016262
526.344367	-0.016368
526.560702	-0.016189
526.777018	-0.016149
526.993316	-0.016030
527.209597	-0.015961
527.425858	-0.015993
527.642102	-0.016571
527.858328	-0.015909
528.074535	-0.015101
528.290724	-0.014915
528.506894	-0.014655
528.723047	-0.014767
528.939181	-0.014755
529.155297	-0.014554
529.371395	-0.014389
529.587475	-0.013886
529.803536	-0.014145
530.019579	-0.015133
530.235604	-0.015597
530.451611	-0.015530
530.667600	-0.015265
530.883570	-0.015318
531.099522	-0.015435
531.315456	-0.015099
531.531372	-0.015544
531.747269	-0.015095
531.963148	-0.014916
532.179009	-0.014878
532.394852	-0.015127
532.610676	-0.014921
532.826482	-0.014635
533.042271	-0.014836
533.258040	-0.014794
533.473792	-0.015022
533.689525	-0.015431
533.905240	-0.015599
534.120937	-0.015642
534.336616	-0.015221
534.552277	-0.015476
534.767919	-0.015784
534.983543	-0.015555
535.199149	-0.015572
535.414736	-0.015470
535.630306	-0.015271
535.845857	-0.014686
536.061390	-0.014482
536.276904	-0.014990
536.492401	-0.014823
536.707879	-0.014678
536.923339	-0.015006
537.138781	-0.015306
537.354204	-0.014786
537.569610	-0.014794
537.784997	-0.014979
538.000366	-0.014869
538.215716	-0.014964
538.431049	-0.014871
538.646363	-0.015185
538.861659	-0.015178
539.076937	-0.014916
539.292196	-0.015690
539.507438	-0.015598
539.722661	-0.016084
539.937866	-0.016231
540.153052	-0.016066
540.368221	-0.016420
540.583371	-0.016171
540.798503	-0.015699
541.013617	-0.015511
541.228712	-0.015226
541.443789	-0.015300
541.658848	-0.014733
541.873889	-0.014683
542.088912	-0.015045
542.303916	-0.015346
542.518902	-0.015195
542.733870	-0.015131
542.948820	-0.015206
543.163752	-0.015196
543.378665	-0.015204
543.593560	-0.015767
543.808437	-0.015784
544.023295	-0.015777
544.238136	-0.015457
544.452958	-0.015527
544.667762	-0.015957
544.882548	-0.015795
545.097315	-0.015653
545.312064	-0.016003
545.526795	-0.015350
545.741508	-0.015253
545.956203	-0.014603
546.170879	-0.014575
546.385537	-0.014286
546.600177	-0.013972
546.814799	-0.014360
547.029402	-0.014481
547.243988	-0.014239
547.458555	-0.014243
547.673103	-0.014464
547.887634	-0.015124
548.102146	-0.015172
548.316640	-0.015743
548.531116	-0.015988
548.745574	-0.015821
548.960013	-0.015915
549.174435	-0.015460
549.388838	-0.015718
549.603222	-0.015398
549.817589	-0.014939
550.031937	-0.014630
550.246267	-0.014599
550.460579	-0.014524
550.674873	-0.014699
550.889148	-0.014644
551.103405	-0.014659
551.317644	-0.014794
551.531865	-0.015099
551.746068	-0.015263
551.960252	-0.015547
552.174418	-0.015317
552.388566	-0.015484
552.602696	-0.015190
552.816807	-0.015167
553.030900	-0.015285
553.244975	-0.015148
553.459032	-0.014986
553.673070	-0.015140
553.887091	-0.015088
554.101093	-0.014845
554.315077	-0.014380
554.529042	-0.014340
554.742990	-0.014362
554.956919	-0.014632
555.170830	-0.014623
555.384722	-0.014346
555.598597	-0.014151
555.812453	-0.014083
556.026291	-0.014427
556.240111	-0.014787
556.453913	-0.014968
556.667696	-0.014965
556.881461	-0.014690
557.095208	-0.014676
557.308937	-0.014946
557.522647	-0.015197
557.736339	-0.015401
557.950013	-0.015257
558.163669	-0.015330
558.377307	-0.015367
558.590926	-0.015394
558.804527	-0.015557
559.018110	-0.015342
559.231675	-0.015299
559.445221	-0.015002
559.658749	-0.014787
559.872259	-0.014965
560.085751	-0.014291
560.299225	-0.014170
560.512680	-0.013904
560.726117	-0.013970
560.939536	-0.014001
561.152937	-0.013647
561.366319	-0.013735
561.579683	-0.013726
561.793029	-0.013948
562.006357	-0.014271
562.219667	-0.014373
562.432958	-0.014629
562.646231	-0.014563
562.859486	-0.014719
563.072723	-0.014897
563.285941	-0.014868
563.499141	-0.015235
563.712323	-0.015093
563.925487	-0.015026
564.138632	-0.015431
564.351760	-0.015243
564.564869	-0.015275
564.777960	-0.015203
564.991032	-0.015396
565.204087	-0.015451
565.417123	-0.015129
565.630141	-0.014780
565.843140	-0.014998
566.056122	-0.014815
566.269085	-0.014775
566.482030	-0.014635
566.694957	-0.014752
566.907866	-0.014635
567.120756	-0.014639
567.333628	-0.014648
567.546482	-0.014702
567.759318	-0.014276
567.972135	-0.013840
568.184935	-0.014066
568.397716	-0.013973
568.610478	-0.013876
568.823223	-0.014030
569.035949	-0.013804
569.248657	-0.013920
569.461347	-0.013978
569.674019	-0.014442
569.886672	-0.014440
570.099308	-0.014387
570.311925	-0.014100
570.524523	-0.013944
570.737104	-0.014208
570.949666	-0.014448
571.162210	-0.014478
571.374736	-0.014472
571.587244	-0.014102
571.799733	-0.014246
572.012205	-0.013962
572.224658	-0.014281
572.437092	-0.014382
572.649509	-0.014082
572.861907	-0.013675
573.074287	-0.013555
573.286649	-0.013498
573.498993	-0.013839
573.711318	-0.013842
573.923625	-0.013914
574.135914	-0.014008
574.348185	-0.014089
574.560438	-0.013768
574.772672	-0.013963
574.984888	-0.013917
575.197086	-0.014045
575.409266	-0.014145
575.621427	-0.014048
575.833570	-0.014139
576.045695	-0.014083
576.257802	-0.014014
576.469890	-0.014207
576.681961	-0.013983
576.894013	-0.013697
577.106046	-0.013423
577.318062	-0.013252
577.530059	-0.013302
577.742039	-0.013481
577.954000	-0.013581
578.165942	-0.013817
578.377867	-0.013524
578.589773	-0.013655
578.801661	-0.013930
579.013531	-0.014121
579.225382	-0.014140
579.437216	-0.014213
579.649031	-0.013927
579.860828	-0.013733
580.072606	-0.013278
580.284367	-0.013741
580.496109	-0.013696
580.707833	-0.013590
580.919539	-0.013409
581.131227	-0.013317
581.342896	-0.012987
581.554547	-0.013127
581.766180	-0.012872
581.977795	-0.012998
582.189391	-0.012786
582.400969	-0.012820
582.612529	-0.012791
582.824071	-0.012883
583.035595	-0.012637
583.247100	-0.012499
583.458587	-0.012365
583.670056	-0.012485
583.881506	-0.012446
584.092939	-0.012360
584.304353	-0.012094
584.515749	-0.012053
584.727127	-0.011873
584.938486	-0.011769
585.149828	-0.012036
585.361151	-0.011904
585.572456	-0.012007
585.783742	-0.011870
585.995011	-0.011832
586.206261	-0.012018
586.417493	-0.011825
586.628706	-0.011806
586.839902	-0.011963
587.051079	-0.012211
587.262238	-0.012264
587.473379	-0.012331
587.684502	-0.012240
587.895606	-0.012149
588.106692	-0.012068
588.317760	-0.012168
588.528810	-0.012270
588.739841	-0.012201
588.950855	-0.011860
589.161850	-0.011872
589.372827	-0.011739
589.583785	-0.011945
589.794726	-0.011878
590.005648	-0.011956
590.216552	-0.011852
590.427437	-0.011791
590.638305	-0.011662
590.849154	-0.011586
591.059985	-0.011284
591.270798	-0.011125
591.481592	-0.011100
591.692369	-0.011138
591.903127	-0.010938
592.113867	-0.011278
592.324588	-0.011179
592.535292	-0.010993
592.745977	-0.010955
592.956644	-0.011127
593.167293	-0.011075
593.377923	-0.010726
593.588536	-0.010677
593.799130	-0.010558
594.009706	-0.010243
594.220263	-0.010081
594.430803	-0.010114
594.641324	-0.010306
594.851827	-0.009982
595.062312	-0.009975
595.272778	-0.010109
595.483227	-0.010033
595.693657	-0.010103
595.904069	-0.010181
596.114462	-0.010438
596.324838	-0.010416
596.535195	-0.010089
596.745534	-0.010092
596.955855	-0.010105
597.166157	-0.010109
597.376441	-0.010163
597.586707	-0.010191
597.796955	-0.009948
598.007185	-0.009972
598.217396	-0.010075
598.427589	-0.010114
598.637764	-0.010304
598.847921	-0.010353
599.058060	-0.010290
599.268180	-0.010365
599.478282	-0.010303
599.688366	-0.010434
599.898431	-0.010185
600.108479	-0.009989
600.318508	-0.009869
600.528519	-0.009661
600.738511	-0.009456
600.948486	-0.009443
601.158442	-0.008988
601.368380	-0.008891
601.578300	-0.008570
601.788202	-0.008442
601.998085	-0.008426
602.207950	-0.008590
602.417797	-0.008705
602.627626	-0.008650
602.837436	-0.008671
603.047228	-0.009034
603.257002	-0.009088
603.466758	-0.009274
603.676496	-0.009342
603.886215	-0.009316
604.095916	-0.009104
604.305599	-0.008976
604.515264	-0.008793
604.724910	-0.008840
604.934538	-0.008595
605.144148	-0.008332
605.353740	-0.008150
605.563314	-0.008080
605.772869	-0.008074
605.982406	-0.008226
606.191925	-0.008126
606.401425	-0.008185
606.610908	-0.008083
606.820372	-0.008081
607.029818	-0.008133
607.239246	-0.008155
607.448655	-0.007966
607.658047	-0.007889
607.867420	-0.007648
608.076775	-0.007684
608.286111	-0.007827
608.495430	-0.007899
608.704730	-0.007892
608.914012	-0.008140
609.123275	-0.008079
609.332521	-0.008450
609.541748	-0.008692
609.750957	-0.008793
609.960148	-0.008772
610.169321	-0.008674
610.378475	-0.008435
610.587611	-0.008599
610.796729	-0.008384
611.005829	-0.008637
611.214910	-0.008354
611.423974	-0.008059
611.633019	-0.007970
611.842045	-0.007940
612.051054	-0.007863
612.260044	-0.008056
612.469017	-0.007963
612.677970	-0.007937
612.886906	-0.007806
613.095824	-0.007722
613.304723	-0.007809
613.513604	-0.007719
613.722467	-0.007775
613.931311	-0.007954
614.140138	-0.007766
614.348946	-0.007543
614.557736	-0.007625
614.766507	-0.007522
614.975261	-0.007639
615.183996	-0.007679
615.392713	-0.007865
615.601412	-0.007835
615.810092	-0.007558
616.018754	-0.007510
616.227399	-0.007524
616.436024	-0.007302
616.644632	-0.007361
616.853222	-0.007208
617.061793	-0.006992
617.270346	-0.006785
617.478880	-0.006648
617.687397	-0.006710
617.895895	-0.006623
618.104375	-0.006599
618.312837	-0.006695
618.521281	-0.006482
618.729706	-0.006554
618.938113	-0.006617
619.146502	-0.006569
619.354873	-0.006520
619.563226	-0.006416
619.771560	-0.006467
619.979876	-0.006320
620.188174	-0.006100
620.396453	-0.005998
620.604715	-0.006025
620.812958	-0.005992
621.021183	-0.006038
621.229390	-0.006069
621.437578	-0.006116
621.645748	-0.005917
621.853900	-0.005948
622.062034	-0.006031
622.270150	-0.006022
622.478247	-0.005904
622.686326	-0.005822
622.894387	-0.005706
623.102430	-0.005873
623.310454	-0.005770
623.518461	-0.005800
623.726449	-0.005921
623.934418	-0.005956
624.142370	-0.006060
624.350303	-0.006091
624.558218	-0.005926
624.766115	-0.005980
624.973994	-0.005670
625.181855	-0.005578
625.389697	-0.005455
625.597521	-0.005197
625.805327	-0.005195
626.013114	-0.005321
626.220883	-0.005111
626.428634	-0.005316
626.636367	-0.005176
626.844082	-0.005248
627.051778	-0.005292
627.259457	-0.005306
627.467117	-0.005434
627.674758	-0.005272
627.882382	-0.004850
628.089987	-0.005046
628.297574	-0.004997
628.505143	-0.005028
628.712694	-0.005242
628.920226	-0.005159
629.127740	-0.005073
629.335236	-0.004981
629.542714	-0.004886
629.750174	-0.005135
629.957615	-0.004887
630.165038	-0.004761
630.372443	-0.004769
630.579829	-0.004485
630.787198	-0.004526
630.994548	-0.004572
631.201880	-0.004497
631.409194	-0.004621
631.616489	-0.004309
631.823766	-0.004226
632.031025	-0.004051
632.238266	-0.003840
632.445489	-0.003870
632.652693	-0.003784
632.859879	-0.003704
633.067047	-0.003521
633.274197	-0.003563
633.481329	-0.003619
633.688442	-0.003709
633.895537	-0.003756
634.102614	-0.003859
634.309672	-0.003727
634.516713	-0.003720
634.723735	-0.003785
634.930739	-0.004114
635.137724	-0.004079
635.344692	-0.004028
635.551641	-0.003921
635.758572	-0.004191
635.965485	-0.004174
636.172379	-0.004097
636.379256	-0.004071
636.586114	-0.004001
636.792954	-0.003838
636.999775	-0.003787
637.206579	-0.003670
637.413364	-0.003718
637.620131	-0.003567
637.826880	-0.003421
638.033610	-0.003373
638.240323	-0.003248
638.447017	-0.003255
638.653692	-0.003265
638.860350	-0.003062
639.066990	-0.003248
639.273611	-0.003155
639.480214	-0.003173
639.686798	-0.003271
639.893365	-0.003097
640.099913	-0.003124
640.306443	-0.003033
640.512955	-0.002838
640.719449	-0.003024
640.925924	-0.003011
641.132381	-0.002874
641.338820	-0.002410
641.545241	-0.002393
641.751644	-0.002409
641.958028	-0.002435
642.164394	-0.002543
642.370742	-0.002396
642.577071	-0.002278
642.783383	-0.002133
642.989676	-0.002111
643.195951	-0.002424
643.402207	-0.002266
643.608446	-0.002464
643.814666	-0.002457
644.020868	-0.002303
644.227052	-0.002511
644.433218	-0.002343
644.639365	-0.002191
644.845494	-0.002332
645.051605	-0.002197
645.257698	-0.002327
645.463772	-0.002163
645.669828	-0.002270
645.875866	-0.002324
646.081886	-0.002226
646.287888	-0.002319
646.493871	-0.002425
646.699836	-0.002255
646.905783	-0.002342
647.111712	-0.002280
647.317622	-0.002329
647.523514	-0.002102
647.729388	-0.002004
647.935244	-0.001981
648.141082	-0.002021
648.346901	-0.002154
648.552702	-0.002382
648.758485	-0.002235
648.964250	-0.002196
649.169996	-0.002248
649.375724	-0.002293
649.581434	-0.002248
649.787126	-0.002263
649.992800	-0.002029
650.198455	-0.002074
650.404092	-0.001842
650.609711	-0.001969
650.815311	-0.001876
651.020894	-0.001769
651.226458	-0.001870
651.432004	-0.001963
651.637532	-0.002012
651.843041	-0.002163
652.048532	-0.002161
652.254006	-0.002132
652.459460	-0.001963
652.664897	-0.001870
652.870315	-0.001821
653.075716	-0.001595
653.281097	-0.001416
653.486461	-0.001147
653.691807	-0.001029
653.897134	-0.000650
654.102443	-0.000673
654.307734	-0.000697
654.513006	-0.000705
654.718261	-0.000526
654.923497	-0.000383
655.128715	-0.000404
655.333915	-0.000577
655.539096	-0.000446
655.744259	-0.000484
655.949404	-0.000390
656.154531	-0.000276
656.359640	-0.000272
656.564730	-0.000183
656.769802	-0.000233
656.974856	-0.000167
657.179892	-0.000082
657.384909	-0.000078
657.589908	0.000063
657.794889	0.000061
657.999852	-0.000025
658.204797	-0.000037
658.409723	-0.000075
658.614631	-0.000015
658.819521	0.000033
659.024393	0.000069
659.229246	0.000022
659.434081	-0.000125
659.638898	0.000073
659.843697	0.000306
660.048478	0.000382
660.253240	0.000335
660.457984	0.000372
660.662710	0.000318
660.867417	0.000476
661.072107	0.000628
661.276778	0.000697
661.481431	0.000542
661.686066	0.000576
661.890682	0.000741
662.095281	0.000831
662.299861	0.000838
662.504422	0.000967
662.708966	0.000971
662.913491	0.000843
663.117999	0.000932
663.322488	0.001098
663.526958	0.001111
663.731411	0.001055
663.935845	0.001011
664.140261	0.001012
664.344659	0.001071
664.549038	0.001007
664.753400	0.001121
664.957743	0.001092
665.162068	0.001133
665.366375	0.000960
665.570663	0.000970
665.774933	0.001040
665.979185	0.001038
666.183419	0.000885
666.387635	0.000962
666.591832	0.000990
666.796011	0.001076
667.000172	0.000999
667.204315	0.001075
667.408439	0.001106
667.612545	0.001112
667.816634	0.001383
668.020703	0.001538
668.224755	0.001524
668.428788	0.001578
668.632803	0.001634
668.836800	0.001576
669.040779	0.001683
669.244739	0.001619
669.448681	0.001777
669.652605	0.001489
669.856511	0.001554
670.060399	0.001694
670.264268	0.001683
670.468119	0.001733
670.671952	0.001951
670.875767	0.001999
671.079563	0.002361
671.283341	0.002358
671.487101	0.002593
671.690843	0.002683
671.894567	0.002717
672.098272	0.002906
672.301959	0.003056
672.505628	0.002987
672.709278	0.003133
672.912911	0.003063
673.116525	0.003211
673.320121	0.003375
673.523699	0.003448
673.727258	0.003416
673.930799	0.003341
674.134322	0.003201
674.337827	0.003272
674.541314	0.003271
674.744782	0.003165
674.948232	0.002973
675.151664	0.002994
675.355078	0.002990
675.558474	0.003023
675.761851	0.003105
675.965210	0.003187
676.168551	0.003336
676.371873	0.003433
676.575178	0.003390
676.778464	0.003581
676.981732	0.003457
677.184981	0.003562
677.388213	0.003644
677.591426	0.003543
677.794621	0.003642
677.997798	0.003538
678.200956	0.003488
678.404097	0.003693
678.607219	0.003678
678.810323	0.003617
679.013408	0.003567
679.216476	0.003831
679.419525	0.004147
679.622556	0.004053
679.825569	0.004422
680.028563	0.004489
680.231540	0.004562
680.434498	0.004690
680.637438	0.004934
680.840359	0.005018
681.043263	0.004788
681.246148	0.004737
681.449015	0.004861
681.651864	0.004658
681.854694	0.004696
682.057506	0.004856
682.260301	0.004885
682.463076	0.004922
682.665834	0.005090
682.868573	0.005320
683.071295	0.005302
683.273998	0.005374
683.476682	0.005392
683.679349	0.005506
683.881997	0.005349
684.084627	0.005311
684.287239	0.005223
684.489833	0.005122
684.692408	0.005037
684.894965	0.005088
685.097504	0.005116
685.300025	0.005355
685.502527	0.005442
685.705012	0.005676
685.907478	0.005751
686.109925	0.005994
686.312355	0.006128
686.514766	0.006251
686.717159	0.006290
686.919534	0.006201
687.121891	0.006223
687.324230	0.006180
687.526550	0.006080
687.728852	0.006229
687.931136	0.006138
688.133401	0.006028
688.335649	0.005912
688.537878	0.005992
688.740089	0.005999
688.942281	0.005911
689.144456	0.005885
689.346612	0.005961
689.548750	0.005745
689.750870	0.005857
689.952971	0.005945
690.155055	0.006032
690.357120	0.005987
690.559167	0.006191
690.761195	0.006273
690.963206	0.006208
691.165198	0.006212
691.367172	0.006168
691.569128	0.006031
691.771065	0.006111
691.972984	0.006061
692.174885	0.006293
692.376768	0.006029
692.578633	0.005988
692.780479	0.006118
692.982308	0.006132
693.184118	0.006298
693.385909	0.006560
693.587683	0.006488
693.789438	0.006580
693.991175	0.006359
694.192894	0.006538
694.394595	0.006486
694.596277	0.006381
694.797941	0.006334
694.999587	0.006342
695.201215	0.006335
695.402824	0.006407
695.604416	0.006435
695.805989	0.006603
696.007543	0.006739
696.209080	0.006785
696.410598	0.007049
696.612099	0.007219
696.813580	0.007154
697.015044	0.007256
697.216490	0.007368
697.417917	0.007362
697.619326	0.007343
697.820717	0.007360
698.022089	0.007338
698.223444	0.007329
698.424780	0.007286
698.626098	0.007472
698.827397	0.007262
699.028679	0.007361
699.229942	0.007503
699.431187	0.007541
699.632414	0.007594
699.833622	0.007671
700.034813	0.007650
700.235985	0.007639
700.437139	0.007709
700.638274	0.007877
700.839392	0.007768
701.040491	0.007644
701.241572	0.007692
701.442635	0.007833
701.643679	0.007729
701.844706	0.007679
702.045714	0.007762
702.246704	0.007723
702.447675	0.007661
702.648629	0.007694
702.849564	0.007796
703.050481	0.007714
703.251380	0.007493
703.452260	0.007829
703.653122	0.007808
703.853966	0.007773
704.054792	0.007772
704.255600	0.007744
704.456389	0.007658
704.657160	0.007728
704.857913	0.007724
705.058648	0.007792
705.259365	0.007573
705.460063	0.007538
705.660743	0.007678
705.861405	0.007653
706.062048	0.007699
706.262674	0.007689
706.463281	0.007608
706.663870	0.007713
706.864441	0.007704
707.064993	0.007833
707.265527	0.007834
707.466043	0.007639
707.666541	0.007783
707.867021	0.007623
708.067482	0.007627
708.267925	0.007687
708.468350	0.007602
708.668757	0.007704
708.869145	0.007653
709.069516	0.007741
709.269868	0.007764
709.470201	0.007688
709.670517	0.007812
709.870814	0.007927
710.071093	0.007865
710.271354	0.007881
710.471597	0.007855
710.671821	0.007828
710.872028	0.007838
711.072216	0.007747
711.272385	0.007731
711.472537	0.007755
711.672670	0.007580
711.872785	0.007482
712.072882	0.007456
712.272961	0.007262
712.473021	0.007299
712.673063	0.007120
712.873087	0.007229
713.073093	0.007211
713.273081	0.007126
713.473050	0.007054
713.673001	0.007154
713.872934	0.007188
714.072849	0.007374
714.272745	0.007316
714.472623	0.007446
714.672483	0.007507
714.872325	0.007466
715.072148	0.007366
715.271954	0.007521
715.471741	0.007528
715.671509	0.007463
715.871260	0.007390
716.070992	0.007449
716.270707	0.007525
716.470403	0.007515
716.670080	0.007483
716.869740	0.007677
717.069381	0.007836
717.269004	0.008032
717.468609	0.007978
717.668195	0.008041
717.867764	0.008037
718.067314	0.007916
718.266846	0.007889
718.466360	0.007851
718.665855	0.007697
718.865332	0.007524
719.064791	0.007274
719.264232	0.007281
719.463655	0.007060
719.663059	0.006939
719.862445	0.006804
720.061813	0.006762
720.261163	0.006715
720.460494	0.006839
720.659807	0.006819
720.859102	0.006764
721.058379	0.006876
721.257638	0.007000
721.456878	0.006932
721.656100	0.007026
721.855304	0.007101
722.054490	0.007287
722.253657	0.007324
722.452806	0.007280
722.651937	0.007270
722.851050	0.007074
723.050145	0.006951
723.249221	0.007021
723.448279	0.007041
723.647319	0.007045
723.846340	0.006891
724.045344	0.006637
724.244329	0.006562
724.443296	0.006651
724.642245	0.006832
724.841175	0.006973
725.040088	0.007018
725.238982	0.007127
725.437857	0.007020
725.636715	0.007109
725.835554	0.007129
726.034376	0.007182
726.233179	0.007032
726.431963	0.006894
726.630730	0.006738
726.829478	0.006689
727.028208	0.006399
727.226920	0.006201
727.425614	0.006037
727.624289	0.006017
727.822946	0.006074
728.021585	0.006072
728.220206	0.006142
728.418808	0.006098
728.617392	0.005912
728.815958	0.006076
729.014506	0.006081
729.213036	0.006171
729.411547	0.006192
729.610040	0.006062
729.808515	0.006129
730.006972	0.006012
730.205410	0.006141
730.403831	0.006300
730.602233	0.006324
730.800616	0.006340
730.998982	0.006199
731.197329	0.006034
731.395658	0.005975
731.593969	0.005868
731.792262	0.005915
731.990536	0.005653
732.188793	0.005452
732.387031	0.005228
732.585250	0.005043
732.783452	0.004947
732.981635	0.004962
733.179800	0.005008
733.377947	0.004955
733.576076	0.004836
733.774186	0.004925
733.972278	0.004781
734.170352	0.004851
734.368408	0.004670
734.566446	0.004550
734.764465	0.004459
734.962466	0.004368
735.160449	0.004205
735.358413	0.004131
735.556360	0.003964
735.754288	0.004100
735.952198	0.003946
736.150090	0.004268
736.347963	0.004352
736.545818	0.004456
736.743655	0.004428
736.941474	0.004382
737.139275	0.004260
737.337057	0.004302
737.534821	0.004213
737.732567	0.004140
737.930295	0.004031
738.128005	0.003919
738.325696	0.003996
738.523369	0.003967
738.721024	0.004094
738.918660	0.004100
739.116279	0.004138
739.313879	0.004110
739.511461	0.004151
739.709024	0.004053
739.906570	0.004325
740.104097	0.004115
740.301606	0.004190
740.499097	0.004209
740.696569	0.004279
740.894024	0.004215
741.091460	0.004179
741.288878	0.004150
741.486277	0.004249
741.683659	0.003963
741.881022	0.003961
742.078367	0.003845
742.275694	0.003713
742.473002	0.003647
742.670293	0.003781
742.867565	0.003658
743.064819	0.003607
743.262054	0.003504
743.459272	0.003461
743.656471	0.003454
743.853652	0.003363
744.050815	0.003241
744.247959	0.003060
744.445085	0.002945
744.642194	0.003087
744.839283	0.003157
745.036355	0.003141
745.233408	0.003292
745.430444	0.003295
745.627461	0.003295
745.824459	0.003450
746.021440	0.003497
746.218402	0.003545
746.415346	0.003598
746.612272	0.003675
746.809180	0.003648
747.006069	0.003524
747.202940	0.003713
747.399793	0.003695
747.596628	0.003804
747.793444	0.003950
747.990243	0.003963
748.187023	0.003940
748.383784	0.003815
748.580528	0.003979
748.777253	0.003973
748.973960	0.003684
749.170649	0.003725
749.367320	0.003490
749.563973	0.003532
749.760607	0.003277
749.957223	0.003167
750.153821	0.003165
750.350400	0.002962
750.546962	0.002819
750.743505	0.002954
750.940030	0.003019
751.136536	0.002966
751.333025	0.002843
751.529495	0.002932
751.725947	0.002880
751.922381	0.002803
752.118796	0.002738
752.315194	0.002646
752.511573	0.002486
752.707934	0.002356
752.904276	0.002313
753.100601	0.002263
753.296907	0.002132
753.493195	0.002047
753.689465	0.002101
753.885716	0.002293
754.081949	0.002403
754.278164	0.002346
754.474361	0.002394
754.670540	0.002400
754.866700	0.002341
755.062843	0.002448
755.258967	0.002571
755.455072	0.002487
755.651160	0.002299
755.847229	0.002279
756.043280	0.002241
756.239313	0.002128
756.435328	0.002118
756.631324	0.002219
756.827302	0.002046
757.023262	0.001990
757.219204	0.001939
757.415127	0.001983
757.611033	0.002040
757.806920	0.002209
758.002788	0.002255
758.198639	0.002411
758.394471	0.002334
758.590286	0.002394
758.786081	0.002552
758.981859	0.002702
759.177619	0.002798
759.373360	0.002992
759.569083	0.002895
759.764788	0.002880
759.960474	0.002791
760.156143	0.002873
760.351793	0.002959
760.547425	0.002804
760.743038	0.002881
760.938634	0.002693
761.134211	0.002500
761.329770	0.002562
761.525311	0.002487
761.720833	0.002580
761.916338	0.002552
762.111824	0.002533
762.307292	0.002419
762.502741	0.002443
762.698173	0.002501
762.893586	0.002504
763.088981	0.002565
763.284358	0.002580
763.479716	0.002425
763.675057	0.002513
763.870379	0.002479
764.065683	0.002502
764.260968	0.002301
764.456236	0.002047
764.651485	0.001886
764.846716	0.001701
765.041929	0.001690
765.237123	0.001749
765.432299	0.001476
765.627457	0.001400
765.822597	0.001460
766.017719	0.001330
766.212822	0.001420
766.407907	0.001494
766.602974	0.001431
766.798023	0.001421
766.993054	0.001312
767.188066	0.001549
767.383060	0.001594
767.578036	0.001465
767.772993	0.001469
767.967933	0.001680
768.162854	0.001695
768.357757	0.001694
768.552642	0.001583
768.747508	0.001617
768.942356	0.001332
769.137186	0.001151
769.331998	0.001329
769.526792	0.001428
769.721567	0.001293
769.916324	0.001420
770.111063	0.001578
770.305784	0.001702
770.500486	0.001714
770.695171	0.001813
770.889837	0.002009
771.084484	0.001867
771.279114	0.001674
771.473725	0.001569
771.668318	0.001434
771.862893	0.001273
772.057450	0.001181
772.251988	0.000968
772.446509	0.000843
772.641011	0.000746
772.835494	0.000725
773.029960	0.000742
773.224407	0.000696
773.418836	0.000607
773.613247	0.000527
773.807640	0.000527
774.002014	0.000675
774.196370	0.000729
774.390708	0.000595
774.585028	0.000605
774.779330	0.000664
774.973613	0.000825
775.167878	0.000844
775.362125	0.000811
775.556354	0.000713
775.750564	0.000782
775.944756	0.000858
776.138930	0.001068
776.333086	0.001111
776.527223	0.001106
776.721343	0.001003
776.915444	0.001057
777.109526	0.001014
777.303591	0.001124
777.497637	0.001169
777.691666	0.001304
777.885676	0.001198
778.079667	0.001356
778.273641	0.001329
778.467596	0.001478
778.661533	0.001533
778.855452	0.001530
779.049352	0.001540
779.243235	0.001395
779.437099	0.001251
779.630945	0.001291
779.824773	0.001106
780.018582	0.001034
780.212373	0.000948
780.406146	0.000852
780.599901	0.001206
780.793638	0.001126
780.987356	0.001039
781.181056	0.000930
781.374738	0.000857
781.568402	0.000702
781.762047	0.000913
781.955674	0.001130
782.149283	0.001077
782.342874	0.001069
782.536447	0.001090
782.730001	0.001153
782.923537	0.001074
783.117055	0.001376
783.310555	0.001549
783.504036	0.001484
783.697499	0.001227
783.890944	0.001317
784.084371	0.001149
784.277780	0.001093
784.471170	0.001163
784.664542	0.001443
784.857896	0.001180
785.051231	0.001290
785.244549	0.001454
785.437848	0.001526
785.631129	0.001552
785.824392	0.001558
786.017636	0.001608
786.210863	0.001576
786.404071	0.001416
786.597260	0.001418
786.790432	0.001344
786.983585	0.001188
787.176721	0.001104
787.369838	0.001178
787.562936	0.001257
787.756017	0.001228
787.949079	0.001186
788.142123	0.001396
788.335149	0.001522
788.528156	0.001612
788.721146	0.001649
788.914117	0.001625
789.107070	0.001706
789.300005	0.001794
789.492921	0.001888
789.685819	0.001909
789.878699	0.001672
790.071561	0.001739
790.264405	0.001727
790.457230	0.001731
790.650037	0.001861
790.842826	0.001748
791.035597	0.001403
791.228349	0.001393
791.421084	0.001720
791.613800	0.001774
791.806497	0.001749
791.999177	0.001398
792.191838	0.001377
792.384481	0.001485
792.577106	0.001501
792.769713	0.001739
792.962301	0.001754
793.154871	0.001490
793.347423	0.001491
793.539957	0.001396
793.732473	0.001655
793.924970	0.001772
794.117449	0.001854
794.309910	0.001817
794.502353	0.001936
794.694777	0.002127
794.887183	0.002297
795.079571	0.002334
795.271941	0.002400
795.464293	0.002577
795.656626	0.002535
795.848941	0.002397
796.041238	0.002384
796.233516	0.002386
796.425777	0.002230
796.618019	0.002229
796.810243	0.002325
797.002449	0.002440
797.194636	0.002360
797.386805	0.002260
797.578956	0.002235
797.771089	0.002156
797.963204	0.001970
798.155300	0.001923
798.347378	0.001873
798.539438	0.001808
798.731480	0.001690
798.923503	0.001706
799.115509	0.001787
799.307496	0.001768
799.499465	0.001840
799.691415	0.001979
799.883348	0.002038
800.075262	0.002031
800.267158	0.002044
800.459035	0.001927
800.650895	0.001879
800.842736	0.001772
801.034559	0.002000
801.226364	0.001979
801.418150	0.001884
801.609919	0.001861
801.801669	0.001909
801.993401	0.001950
802.185114	0.002212
802.376810	0.002270
802.568487	0.002525
802.760146	0.002404
802.951787	0.002452
803.143409	0.002646
803.335014	0.002633
803.526600	0.002478
803.718168	0.002411
803.909717	0.002200
804.101249	0.002177
804.292762	0.002176
804.484257	0.002199
804.675734	0.002193
804.867192	0.002242
805.058632	0.002375
805.250054	0.002657
805.441458	0.002787
805.632844	0.002935
805.824211	0.002920
806.015561	0.002925
806.206891	0.002881
806.398204	0.002910
806.589499	0.002688
806.780775	0.002452
806.972033	0.002427
807.163273	0.002533
807.354495	0.002599
807.545698	0.002496
807.736883	0.002407
807.928050	0.002485
808.119199	0.002464
808.310329	0.002635
808.501441	0.002999
808.692535	0.003165
808.883611	0.003275
809.074669	0.003286
809.265708	0.003742
809.456729	0.003631
809.647732	0.003794
809.838717	0.003827
810.029683	0.004085
810.220632	0.004127
810.411562	0.004032
810.602474	0.003858
810.793367	0.003868
810.984242	0.003814
811.175100	0.004352
811.365938	0.004229
811.556759	0.004494
811.747562	0.004503
811.938346	0.004438
812.129112	0.004400
812.319860	0.004538
812.510589	0.004559
812.701300	0.004453
812.891994	0.004340
813.082668	0.004477
813.273325	0.004561
813.463964	0.004544
813.654584	0.004672
813.845186	0.004823
814.035769	0.004822
814.226335	0.004766
814.416882	0.004984
814.607411	0.004954
814.797922	0.005018
814.988415	0.005078
815.178889	0.005071
815.369345	0.005079
815.559783	0.005156
815.750203	0.005241
815.940605	0.005617
816.130988	0.005450
816.321353	0.005415
816.511700	0.005320
816.702028	0.005303
816.892339	0.005181
817.082631	0.005124
817.272905	0.005088
817.463161	0.005124
817.653398	0.004903
817.843617	0.004982
818.033819	0.004831
818.224001	0.004847
818.414166	0.004512
818.604312	0.004471
818.794440	0.004503
818.984550	0.004304
819.174642	0.004068
819.364716	0.004138
819.554771	0.004266
819.744808	0.004481
819.934827	0.004585
820.124827	0.004868
820.314810	0.005129
820.504774	0.005149
820.694720	0.005299
820.884647	0.005601
821.074557	0.005628
821.264448	0.005577
821.454321	0.005457
821.644176	0.005363
821.834012	0.005175
822.023831	0.005060
822.213631	0.005137
822.403413	0.005070
822.593176	0.004927
822.782922	0.004888
822.972649	0.004822
823.162358	0.004910
823.352049	0.005147
823.541721	0.005151
823.731376	0.005090
823.921012	0.005169
824.110629	0.005340
824.300229	0.005422
824.489811	0.005365
824.679374	0.005354
824.868919	0.005560
825.058445	0.005410
825.247954	0.005649
825.437444	0.005846
825.626916	0.005820
825.816370	0.005769
826.005806	0.005977
826.195223	0.006298
826.384622	0.006548
826.574003	0.006464
826.763366	0.006574
826.952711	0.006532
827.142037	0.006735
827.331345	0.006809
827.520635	0.006906
827.709906	0.006820
827.899160	0.006770
828.088395	0.006940
828.277612	0.007199
828.466810	0.007477
828.655991	0.007551
828.845153	0.007480
829.034297	0.007551
829.223423	0.007558
829.412531	0.007484
829.601620	0.007419
829.790691	0.007242
829.979744	0.006999
830.168779	0.006812
830.357795	0.006992
830.546793	0.006904
830.735773	0.006754
830.924735	0.006960
831.113679	0.007019
831.302604	0.006816
831.491511	0.006918
831.680400	0.006974
831.869271	0.006979
832.058123	0.007091
832.246957	0.007280
832.435773	0.007449
832.624571	0.007411
832.813351	0.007447
833.002112	0.007908
833.190855	0.008034
833.379580	0.008084
833.568287	0.008165
833.756975	0.007926
833.945645	0.007750
834.134297	0.007890
834.322931	0.007828
834.511547	0.008052
834.700144	0.008002
834.888723	0.007800
835.077284	0.007756
835.265826	0.007668
835.454351	0.007823
835.642857	0.007918
835.831345	0.007824
836.019815	0.007813
836.208266	0.007764
836.396699	0.007638
836.585114	0.007538
836.773511	0.007687
836.961890	0.007778
837.150250	0.007808
837.338592	0.007889
837.526916	0.007989
837.715222	0.007953
837.903510	0.008044
838.091779	0.008093
838.280030	0.008511
838.468263	0.008497
838.656477	0.008687
838.844674	0.008901
839.032852	0.008918
839.221012	0.008892
839.409153	0.009119
839.597277	0.009216
839.785382	0.009350
839.973469	0.009119
840.161538	0.009476
840.349589	0.009281
840.537621	0.009060
840.725635	0.009120
840.913631	0.009409
841.101609	0.009617
841.289568	0.009655
841.477509	0.009814
841.665432	0.010265
841.853337	0.010065
842.041224	0.010194
842.229092	0.010479
842.416942	0.010654
842.604774	0.010446
842.792588	0.010325
842.980383	0.010547
843.168160	0.010760
843.355919	0.010484
843.543660	0.010727
843.731382	0.011020
843.919087	0.011158
844.106773	0.011160
844.294441	0.011398
844.482090	0.011628
844.669722	0.011380
844.857335	0.011206
845.044930	0.011076
845.232507	0.010929
845.420065	0.010961
845.607605	0.011210
845.795127	0.011322
845.982631	0.011436
846.170117	0.011356
846.357584	0.011662
846.545033	0.011781
846.732464	0.012166
846.919877	0.012368
847.107272	0.012414
847.294648	0.012141
847.482006	0.012081
847.669346	0.012018
847.856667	0.012337
848.043971	0.012250
848.231256	0.012338
848.418523	0.012254
848.605771	0.012265
848.793002	0.012412
848.980214	0.012478
849.167408	0.012828
849.354584	0.013030
849.541742	0.012913
849.728881	0.013020
849.916002	0.013057
850.103105	0.013362
850.290190	0.013730
850.477256	0.013842
850.664304	0.014085
850.851334	0.014254
851.038346	0.014285
851.225340	0.014309
851.412315	0.014602
851.599272	0.014836
851.786211	0.014704
851.973132	0.014582
852.160034	0.014489
852.346918	0.014529
852.533784	0.014340
852.720632	0.014094
852.907462	0.014095
853.094273	0.013777
853.281066	0.013620
853.467841	0.013645
853.654598	0.013777
853.841336	0.013664
854.028056	0.013691
854.214758	0.013746
854.401442	0.014233
854.588107	0.014333
854.774755	0.014569
854.961384	0.015048
855.147995	0.015337
855.334587	0.015215
855.521162	0.015655
855.707718	0.015624
855.894256	0.015721
856.080775	0.015747
856.267277	0.015877
856.453760	0.016059
856.640225	0.015844
856.826672	0.015750
857.013101	0.015898
857.199511	0.015603
857.385903	0.015775
857.572277	0.015775
857.758633	0.015582
857.944970	0.015600
858.131290	0.015618
858.317591	0.016043
858.503873	0.016239
858.690138	0.016257
858.876384	0.016476
859.062612	0.016590
859.248822	0.016800
859.435014	0.017151
859.621188	0.017428
859.807343	0.017526
859.993480	0.017406
860.179599	0.017524
860.365699	0.017957
860.551781	0.018027
860.737846	0.018075
860.923891	0.017926
861.109919	0.018079
861.295929	0.018084
861.481920	0.018243
861.667893	0.018087
861.853848	0.018171
862.039784	0.017870
862.225702	0.018135
862.411603	0.018458
862.597484	0.018742
862.783348	0.018819
862.969193	0.018952
863.155021	0.018977
863.340830	0.019236
863.526620	0.019317
863.712393	0.019167
863.898147	0.019305
864.083883	0.019264
864.269601	0.019226
864.455301	0.019098
864.640982	0.019240
864.826645	0.019320
865.012290	0.019376
865.197917	0.019425
865.383526	0.019911
865.569116	0.019673
865.754688	0.019722
865.940242	0.019783
866.125777	0.019811
866.311295	0.019999
866.496794	0.020255
866.682275	0.020229
866.867737	0.020263
867.053182	0.020336
867.238608	0.020545
867.424016	0.020614
867.609406	0.020647
867.794778	0.020791
867.980131	0.020766
868.165466	0.020709
868.350783	0.020937
868.536082	0.020970
868.721362	0.020892
868.906625	0.021165
869.091869	0.021146
869.277094	0.021372
869.462302	0.021217
869.647491	0.021038
869.832662	0.020967
870.017815	0.020904
870.202950	0.021278
870.388066	0.021606
870.573165	0.021515
870.758245	0.021695
870.943306	0.021972
871.128350	0.022365
871.313375	0.022549
871.498382	0.022903
871.683371	0.022990
871.868342	0.022598
872.053294	0.022402
872.238229	0.022475
872.423144	0.022826
872.608042	0.022753
872.792922	0.023008
872.977783	0.023205
873.162626	0.023119
873.347451	0.022949
873.532258	0.023237
873.717046	0.023474
873.901816	0.023510
874.086568	0.023170
874.271302	0.023378
874.456017	0.023170
874.640715	0.022998
874.825394	0.023167
875.010055	0.023306
875.194697	0.023436
875.379322	0.023268
875.563928	0.023398
875.748516	0.023480
875.933085	0.023443
876.117637	0.023395
876.302170	0.023354
876.486685	0.023256
876.671182	0.023406
876.855661	0.023128
877.040121	0.023499
877.224563	0.023495
877.408987	0.023375
877.593393	0.023346
877.777780	0.023273
877.962150	0.023332
878.146501	0.023129
878.330833	0.023120
878.515148	0.023417
878.699444	0.023150
878.883722	0.023245
879.067982	0.023397
879.252224	0.023194
879.436447	0.023356
879.620653	0.023591
879.804840	0.023476
879.989008	0.023505
880.173159	0.023279
880.357291	0.023400
880.541405	0.023388
880.725501	0.023344
880.909579	0.023499
881.093638	0.023416
881.277680	0.023515
881.461703	0.023781
881.645707	0.024058
881.829694	0.024116
882.013662	0.024119
882.197612	0.023820
882.381544	0.023611
882.565458	0.023512
882.749353	0.023861
882.933230	0.024072
883.117089	0.024435
883.300930	0.024174
883.484753	0.024356
883.668557	0.024242
883.852343	0.024252
884.036111	0.024518
884.219861	0.024534
884.403592	0.024232
884.587305	0.023764
884.771000	0.023745
884.954677	0.023726
885.138335	0.024074
885.321976	0.024358
885.505598	0.024498
885.689201	0.024793
885.872787	0.024889
886.056354	0.024939
886.239904	0.025165
886.423434	0.024651
886.606947	0.024360
886.790442	0.024113
886.973918	0.024335
887.157376	0.024135
887.340816	0.024057
887.524237	0.023956
887.707641	0.024095
887.891026	0.024198
888.074393	0.024670
888.257741	0.025281
888.441072	0.025146
888.624384	0.024734
888.807678	0.025239
888.990954	0.024992
889.174211	0.024867
889.357451	0.024921
889.540672	0.024717
889.723875	0.024415
889.907059	0.024361
890.090226	0.024624
890.273374	0.024818
890.456504	0.024808
890.639616	0.024859
890.822709	0.025063
891.005785	0.025198
891.188842	0.025126
891.371881	0.025274
891.554901	0.024945
891.737904	0.024648
891.920888	0.024505
892.103854	0.024377
892.286802	0.024257
892.469731	0.024186
892.652643	0.024046
892.835536	0.023929
893.018410	0.023721
893.201267	0.024063
893.384106	0.024170
893.566926	0.024479
893.749728	0.024712
893.932511	0.024904
894.115277	0.025328
894.298024	0.025213
894.480753	0.025490
894.663464	0.025931
894.846157	0.025880
895.028831	0.026114
895.211487	0.026085
895.394125	0.025757
895.576745	0.025482
895.759346	0.025301
895.941930	0.025356
896.124495	0.025106
896.307041	0.024697
896.489570	0.024787
896.672080	0.024455
896.854573	0.024106
897.037046	0.024063
897.219502	0.024149
897.401940	0.023932
897.584359	0.023838
897.766760	0.023918
897.949143	0.024267
898.131507	0.024289
898.313854	0.024343
898.496182	0.024297
898.678492	0.024382
898.860783	0.024485
899.043057	0.024619
899.225312	0.024549
899.407549	0.024286
899.589768	0.024168
899.771968	0.023580
899.954151	0.023339
900.136315	0.023184
900.318461	0.023129
900.500588	0.022894
900.682698	0.022766
900.864789	0.022952
901.046862	0.023024
901.228917	0.022932
901.410953	0.023216
901.592971	0.023165
901.774972	0.023381
901.956953	0.023433
902.138917	0.023233
902.320862	0.023152
902.502790	0.023003
902.684699	0.023231
902.866589	0.023056
903.048462	0.022933
903.230316	0.022953
903.412152	0.022804
903.593970	0.022664
903.775770	0.023076
903.957551	0.022981
904.139314	0.022735
904.321059	0.022582
904.502786	0.022522
904.684494	0.022472
904.866185	0.022422
905.047857	0.022405
905.229510	0.022115
905.411146	0.021643
905.592763	0.021639
905.774363	0.021882
905.955943	0.022151
906.137506	0.021942
906.319051	0.021664
906.500577	0.021490
906.682085	0.020871
906.863575	0.021129
907.045046	0.021244
907.226500	0.021103
907.407935	0.020756
907.589352	0.020073
907.770750	0.019826
907.952131	0.019989
908.133493	0.020139
908.314837	0.020521
908.496163	0.020101
908.677470	0.019483
908.858760	0.019394
909.040031	0.019527
909.221284	0.019751
909.402518	0.019869
909.583735	0.019426
909.764933	0.019067
909.946113	0.018895
910.127275	0.018598
910.308418	0.018938
910.489544	0.018746
910.670651	0.018381
910.851740	0.018218
911.032810	0.017874
911.213863	0.018052
911.394897	0.018264
911.575913	0.017920
911.756911	0.018198
911.937890	0.018182
912.118851	0.017965
912.299794	0.018038
912.480719	0.017491
912.661626	0.017505
912.842514	0.017146
913.023384	0.017032
913.204236	0.017432
913.385070	0.017507
913.565886	0.017391
913.746683	0.017867
913.927462	0.017666
914.108223	0.018130
914.288965	0.018301
914.469690	0.018212
914.650396	0.018120
914.831084	0.017604
915.011754	0.016938
915.192405	0.016873
915.373038	0.016513
915.553653	0.016570
915.734250	0.016093
915.914829	0.015938
916.095389	0.016153
916.275931	0.016019
916.456455	0.016246
916.636961	0.016441
916.817448	0.016315
916.997917	0.016056
917.178368	0.016106
917.358801	0.016278
917.539216	0.016017
917.719612	0.015881
917.899990	0.015601
918.080350	0.015357
918.260692	0.015216
918.441015	0.015084
918.621320	0.015183
918.801607	0.014507
918.981876	0.014220
919.162127	0.014157
919.342359	0.013943
919.522573	0.013782
919.702769	0.013473
919.882947	0.013433
920.063106	0.013464
920.243247	0.013080
920.423370	0.013101
920.603475	0.013065
920.783562	0.012669
920.963630	0.012274
921.143680	0.012466
921.323712	0.012535
921.503725	0.012161
921.683721	0.011867
921.863698	0.011762
922.043657	0.011092
922.223598	0.010760
922.403520	0.010978
922.583424	0.010561
922.763311	0.009775
922.943178	0.009182
923.123028	0.009413
923.302859	0.009145
923.482673	0.009199
923.662467	0.009529
923.842244	0.009594
924.022003	0.009120
924.201743	0.009365
924.381465	0.009238
924.561169	0.009866
924.740854	0.008816
924.920522	0.008165
925.100171	0.007708
925.279802	0.007824
925.459414	0.007266
925.639009	0.006722
925.818585	0.006295
925.998143	0.005761
926.177683	0.005019
926.357205	0.005050
926.536708	0.005145
926.716193	0.004681
926.895660	0.003898
927.075109	0.004101
927.254539	0.004158
927.433951	0.004221
927.613345	0.004352
927.792721	0.004565
927.972079	0.004508
928.151418	0.004459
928.330739	0.004085
928.510042	0.004181
928.689327	0.003601
928.868593	0.003444
929.047841	0.002884
929.227071	0.002793
929.406283	0.002026
929.585476	0.002026
929.764652	0.002029
929.943809	0.002066
930.122948	0.002078
930.302068	0.001701
930.481171	0.002030
930.660255	0.001735
930.839321	0.001717
931.018369	0.001544
931.197398	0.001276
931.376409	0.001243
931.555402	0.001083
931.734377	0.000623
931.913334	0.000976
932.092272	0.000343
932.271192	0.000866
932.450094	0.000394
932.628978	0.000575
932.807844	0.000250
932.986691	-0.000093
933.165520	-0.000615
933.344331	-0.001305
933.523123	-0.001852
933.701898	-0.002486
933.880654	-0.003139
934.059392	-0.003764
934.238111	-0.004498
934.416813	-0.004530
934.595496	-0.005122
934.774161	-0.004833
934.952808	-0.004705
935.131437	-0.004993
935.310047	-0.004533
935.488639	-0.004280
935.667213	-0.004327
935.845769	-0.004145
936.024306	-0.004619
936.202825	-0.004382
936.381326	-0.004354
936.559809	-0.004650
936.738274	-0.004789
936.916720	-0.005182
937.095148	-0.006178
937.273558	-0.005615
937.451950	-0.006169
937.630323	-0.005940
937.808678	-0.006416
937.987015	-0.006901
938.165334	-0.007139
938.343635	-0.007412
938.521917	-0.007871
938.700181	-0.007924
938.878427	-0.008082
939.056655	-0.007770
939.234864	-0.008111
939.413055	-0.008649
939.591228	-0.009498
939.769383	-0.009525
939.947519	-0.010146
940.125638	-0.009856
940.303738	-0.010316
940.481820	-0.011106
940.659883	-0.012148
940.837929	-0.012707
941.015956	-0.012863
941.193965	-0.012471
941.371955	-0.012388
941.549928	-0.012021
941.727882	-0.012930
941.905818	-0.011901
942.083736	-0.011650
942.261636	-0.012119
942.439517	-0.012861
942.617380	-0.013629
942.795225	-0.013373
942.973052	-0.013993
943.150860	-0.013943
943.328651	-0.013766
943.506423	-0.014843
943.684176	-0.015310
943.861912	-0.014731
944.039629	-0.014404
944.217328	-0.013513
944.395009	-0.015313
944.572672	-0.014940
944.750317	-0.016238
944.927943	-0.016841
945.105551	-0.017205
945.283141	-0.017352
945.460712	-0.017030
945.638265	-0.016480
945.815801	-0.016734
945.993317	-0.015381
946.170816	-0.016419
946.348297	-0.015820
946.525759	-0.015077
946.703203	-0.015454
946.880629	-0.015480
947.058036	-0.016591
947.235425	-0.016844
947.412797	-0.017199
947.590149	-0.018081
947.767484	-0.018397
947.944800	-0.018968
948.122099	-0.019633
948.299379	-0.018750
948.476640	-0.019461
948.653884	-0.019616
948.831109	-0.019331
949.008316	-0.020638
949.185505	-0.020747
949.362676	-0.018876
949.539828	-0.018761
949.716962	-0.019033
949.894078	-0.018472
950.071176	-0.017963
950.248256	-0.018251
950.425317	-0.018005
950.602360	-0.017991
950.779385	-0.017591
950.956391	-0.019792
951.133380	-0.018939
951.310350	-0.018708
951.487302	-0.019489
951.664235	-0.019073
951.841151	-0.017788
952.018048	-0.018587
952.194927	-0.017604
952.371788	-0.016691
952.548631	-0.016048
952.725455	-0.017095
952.902261	-0.019299
953.079049	-0.020526
953.255819	-0.020711
953.432570	-0.021863
953.609303	-0.022102
953.786018	-0.021187
953.962715	-0.021608
954.139394	-0.021223
954.316054	-0.020562
954.492696	-0.017969
954.669320	-0.018432
954.845926	-0.019817
955.022513	-0.017903
955.199083	-0.018388
955.375634	-0.018745
955.552166	-0.018899
955.728681	-0.019270
955.905177	-0.019173
956.081655	-0.019443
956.258115	-0.017818
956.434557	-0.016417
956.610980	-0.017632
956.787385	-0.017088
956.963772	-0.017632
957.140141	-0.017117
957.316492	-0.015109
957.492824	-0.015864
957.669138	-0.016020
957.845434	-0.015168
958.021712	-0.016264
958.197971	-0.015822
958.374212	-0.015795
958.550435	-0.015441
958.726640	-0.015131
958.902826	-0.017861
959.078995	-0.016944
959.255145	-0.015742
959.431277	-0.016019
959.607390	-0.013768
959.783486	-0.013638
959.959563	-0.012992
960.135622	-0.013070
960.311662	-0.013255
960.487685	-0.011691
960.663689	-0.010919
960.839675	-0.011578
961.015643	-0.011753
961.191593	-0.012780
961.367524	-0.013933
961.543437	-0.014735
961.719332	-0.014716
961.895209	-0.015222
962.071067	-0.014792
962.246907	-0.015742
962.422730	-0.015900
962.598533	-0.014803
962.774319	-0.014402
962.950086	-0.013223
963.125835	-0.013101
963.301566	-0.012658
963.477279	-0.013450
963.652973	-0.015243
963.828650	-0.016037
964.004308	-0.015307
964.179947	-0.016529
964.355569	-0.016932
964.531172	-0.018270
964.706757	-0.017356
964.882324	-0.018174
965.057873	-0.017550
965.233403	-0.016611
965.408916	-0.015812
965.584410	-0.016229
965.759885	-0.017792
965.935343	-0.020423
966.110782	-0.018851
966.286203	-0.018995
966.461606	-0.018136
966.636991	-0.019555
966.812357	-0.020406
966.987705	-0.019463
967.163035	-0.018021
967.338347	-0.016599
967.513641	-0.013229
967.688916	-0.012735
967.864173	-0.013289
968.039412	-0.012108
968.214632	-0.011008
968.389835	-0.008971
968.565019	-0.012033
968.740185	-0.013272
968.915333	-0.012492
969.090462	-0.014032
969.265573	-0.014966
969.440667	-0.013463
969.615741	-0.013756
969.790798	-0.014085
969.965836	-0.015717
970.140856	-0.014365
970.315858	-0.013231
970.490842	-0.012551
970.665808	-0.011511
970.840755	-0.011269
971.015684	-0.013161
971.190595	-0.013737
971.365487	-0.013443
971.540362	-0.014822
971.715218	-0.014625
971.890056	-0.016789
972.064875	-0.019296
972.239677	-0.018229
972.414460	-0.019112
972.589225	-0.018046
972.763972	-0.018864
972.938700	-0.018400
973.113411	-0.016921
973.288103	-0.016689
973.462777	-0.014686
973.637432	-0.012782
973.812070	-0.013465
973.986689	-0.012750
974.161290	-0.013029
974.335873	-0.011438
974.510437	-0.010462
974.684984	-0.009200
974.859512	-0.009422
975.034022	-0.010382
975.208513	-0.009356
975.382987	-0.009411
975.557442	-0.008805
975.731879	-0.009910
975.906298	-0.012237
976.080698	-0.014629
976.255080	-0.014752
976.429445	-0.013366
976.603790	-0.013094
976.778118	-0.013398
976.952427	-0.012137
977.126719	-0.012938
977.300992	-0.010349
977.475246	-0.008696
977.649483	-0.006436
977.823701	-0.006004
977.997901	-0.008736
978.172083	-0.009814
978.346247	-0.009501
978.520392	-0.011474
978.694519	-0.010936
978.868628	-0.013289
979.042719	-0.013378
979.216791	-0.013914
979.390845	-0.013337
979.564882	-0.013037
979.738899	-0.012086
979.912899	-0.013371
980.086880	-0.013900
980.260843	-0.015362
980.434788	-0.014653
980.608715	-0.014992
980.782623	-0.016570
980.956514	-0.018331
981.130386	-0.016565
981.304240	-0.017038
981.478075	-0.016719
981.651892	-0.015576
981.825692	-0.013812
981.999472	-0.011595
982.173235	-0.011799
982.346980	-0.011079
982.520706	-0.009385
982.694414	-0.009938
982.868104	-0.009488
983.041775	-0.010425
983.215428	-0.010867
983.389064	-0.011239
983.562680	-0.013645
983.736279	-0.012481
983.909860	-0.011009
984.083422	-0.012621
984.256966	-0.012370
984.430491	-0.012433
984.603999	-0.012352
984.777488	-0.013203
984.950959	-0.013672
985.124412	-0.013147
985.297847	-0.014494
985.471263	-0.015155
985.644661	-0.015007
985.818041	-0.014405
985.991403	-0.014747
986.164747	-0.014749
986.338072	-0.014667
986.511379	-0.013822
986.684668	-0.014425
986.857938	-0.013876
987.031191	-0.014078
987.204425	-0.015065
987.377641	-0.016134
987.550839	-0.016924
987.724018	-0.015819
987.897179	-0.014709
988.070322	-0.015189
988.243447	-0.014401
988.416554	-0.014455
988.589642	-0.014253
988.762712	-0.011823
988.935764	-0.012092
989.108798	-0.011488
989.281813	-0.011912
989.454811	-0.011699
989.627790	-0.013086
989.800751	-0.013238
989.973693	-0.013144
990.146617	-0.012691
990.319524	-0.012016
990.492412	-0.010695
990.665281	-0.009886
990.838133	-0.009970
991.010966	-0.010257
991.183781	-0.008896
991.356578	-0.009139
991.529356	-0.010193
991.702117	-0.011263
991.874859	-0.013145
992.047583	-0.014523
992.220288	-0.015202
992.392976	-0.015925
992.565645	-0.016175
992.738296	-0.015277
992.910929	-0.014359
993.083543	-0.013113
993.256139	-0.011275
993.428718	-0.011797
993.601277	-0.009985
993.773819	-0.010367
993.946342	-0.010003
994.118848	-0.010369
994.291335	-0.012371
994.463803	-0.012993
994.636254	-0.013884
994.808686	-0.015061
994.981100	-0.015705
995.153496	-0.016246
995.325874	-0.016562
995.498233	-0.017091
995.670574	-0.016381
995.842897	-0.015759
996.015202	-0.015486
996.187488	-0.015693
996.359757	-0.016687
996.532007	-0.015425
996.704239	-0.015391
996.876452	-0.012829
997.048648	-0.012932
997.220825	-0.012293
997.392984	-0.011983
997.565124	-0.012851
997.737247	-0.012847
997.909351	-0.011448
998.081437	-0.011982
998.253505	-0.011769
998.425554	-0.012560
998.597586	-0.013037
998.769599	-0.014933
998.941594	-0.015894
999.113571	-0.015702
999.285529	-0.015818
999.457469	-0.016116
999.629391	-0.015936
999.801295	-0.018046
999.973181	-0.019104
1000.145048	-0.016438
1000.316897	-0.016311
1000.488728	-0.016005
1000.660541	-0.015673
1000.832335	-0.015764
1001.004111	-0.016795
1001.175869	-0.017008
1001.347609	-0.015853
1001.519331	-0.015698
1001.691034	-0.016887
1001.862719	-0.015058
1002.034386	-0.015021
1002.206035	-0.014936
1002.377665	-0.013761
1002.549277	-0.013092
1002.720871	-0.013041
1002.892447	-0.011839
1003.064004	-0.010369
1003.235544	-0.010204
1003.407065	-0.012405
1003.578568	-0.012084
1003.750052	-0.012759
1003.921519	-0.012343
1004.092967	-0.012743
1004.264397	-0.011513
1004.435809	-0.012384
1004.607202	-0.014739
1004.778577	-0.015496
1004.949934	-0.015204
1005.121273	-0.016881
1005.292594	-0.017459
1005.463896	-0.018583
1005.635180	-0.019087
1005.806446	-0.020266
1005.977694	-0.020223
1006.148923	-0.018609
1006.320135	-0.019151
1006.491328	-0.018180
1006.662503	-0.016172
1006.833659	-0.016753
1007.004798	-0.016596
1007.175918	-0.015920
1007.347020	-0.015224
1007.518103	-0.015279
1007.689169	-0.015960
1007.860216	-0.014616
1008.031245	-0.015911
1008.202256	-0.016362
1008.373248	-0.015126
1008.544223	-0.014859
1008.715179	-0.014709
1008.886117	-0.016301
1009.057036	-0.015621
1009.227938	-0.015724
1009.398821	-0.017224
1009.569686	-0.017222
1009.740533	-0.016459
1009.911361	-0.016222
1010.082172	-0.016531
1010.252964	-0.017283
1010.423738	-0.015241
1010.594493	-0.015948
1010.765231	-0.016653
1010.935950	-0.016507
1011.106651	-0.014354
1011.277334	-0.015437
1011.447998	-0.016364
1011.618645	-0.016490
1011.789273	-0.016069
1011.959882	-0.017555
1012.130474	-0.017511
1012.301048	-0.018036
1012.471603	-0.018374
1012.642140	-0.019442
1012.812658	-0.018218
1012.983159	-0.017989
1013.153641	-0.018144
1013.324105	-0.016950
1013.494551	-0.016584
1013.664979	-0.018182
1013.835388	-0.017926
1014.005779	-0.017397
1014.176152	-0.018119
1014.346507	-0.018778
1014.516843	-0.019542
1014.687162	-0.019448
1014.857462	-0.021846
1015.027744	-0.021948
1015.198007	-0.020463
1015.368252	-0.019371
1015.538480	-0.017192
1015.708689	-0.017273
1015.878879	-0.017560
1016.049052	-0.017552
1016.219206	-0.016856
1016.389342	-0.014608
1016.559460	-0.013613
1016.729559	-0.013992
1016.899641	-0.014710
1017.069704	-0.015661
1017.239749	-0.014388
1017.409775	-0.014873
1017.579784	-0.012431
1017.749774	-0.013849
1017.919746	-0.015439
1018.089700	-0.015244
1018.259635	-0.015945
1018.429553	-0.015571
1018.599452	-0.016520
1018.769333	-0.016664
1018.939195	-0.016107
1019.109040	-0.017295
1019.278866	-0.017977
1019.448674	-0.017434
1019.618464	-0.019656
1019.788235	-0.018923
1019.957989	-0.019682
1020.127724	-0.019212
1020.297441	-0.019734
1020.467139	-0.019887
1020.636820	-0.019540
1020.806482	-0.018932
1020.976126	-0.019253
1021.145752	-0.017479
1021.315359	-0.017474
1021.484948	-0.016241
1021.654519	-0.016811
1021.824072	-0.017618
1021.993607	-0.018482
1022.163123	-0.019294
1022.332621	-0.018273
1022.502101	-0.018666
1022.671563	-0.019078
1022.841007	-0.019526
1023.010432	-0.018609
1023.179839	-0.018746
1023.349228	-0.018108
1023.518598	-0.016809
1023.687951	-0.017981
1023.857285	-0.017847
1024.026601	-0.016823
1024.195899	-0.016989
1024.365178	-0.015460
1024.534439	-0.015767
1024.703682	-0.016321
1024.872907	-0.016089
1025.042114	-0.017012
1025.211302	-0.016662
1025.380472	-0.017470
1025.549624	-0.018062
1025.718758	-0.018980
1025.887873	-0.019377
1026.056970	-0.021544
1026.226049	-0.021057
1026.395110	-0.020096
1026.564153	-0.019763
1026.733177	-0.018933
1026.902183	-0.018738
1027.071171	-0.019024
1027.240141	-0.018501
1027.409092	-0.019792
1027.578026	-0.018673
1027.746940	-0.018099
1027.915837	-0.018674
1028.084716	-0.017668
1028.253576	-0.017015
1028.422418	-0.017423
1028.591242	-0.016364
1028.760048	-0.017792
1028.928835	-0.016527
1029.097604	-0.017787
1029.266355	-0.017614
1029.435088	-0.017103
1029.603803	-0.018258
1029.772499	-0.018010
1029.941177	-0.015732
1030.109837	-0.016598
1030.278478	-0.015143
1030.447102	-0.016288
1030.615707	-0.015895
1030.784294	-0.017560
1030.952863	-0.019391
1031.121413	-0.019017
1031.289945	-0.020113
1031.458460	-0.021356
1031.626955	-0.020984
1031.795433	-0.020876
1031.963892	-0.020185
1032.132334	-0.019730
1032.300756	-0.018140
1032.469161	-0.017077
1032.637548	-0.018606
1032.805916	-0.019099
1032.974266	-0.019576
1033.142598	-0.019934
1033.310911	-0.019780
1033.479207	-0.019795
1033.647484	-0.020244
1033.815743	-0.020663
1033.983983	-0.021841
1034.152206	-0.020961
1034.320410	-0.021016
1034.488596	-0.020878
1034.656764	-0.021443
1034.824914	-0.023315
1034.993045	-0.023399
1035.161158	-0.023044
1035.329253	-0.022990
1035.497330	-0.021338
1035.665388	-0.021283
1035.833428	-0.021099
1036.001450	-0.021274
1036.169454	-0.020785
1036.337440	-0.018426
1036.505407	-0.019541
1036.673356	-0.019659
1036.841287	-0.019928
1037.009200	-0.021650
1037.177094	-0.021035
1037.344970	-0.020939
1037.512828	-0.021029
1037.680668	-0.021029
1037.848489	-0.021675
1038.016293	-0.021074
1038.184078	-0.021266
1038.351845	-0.021983
1038.519593	-0.021648
1038.687324	-0.021530
1038.855036	-0.021257
1039.022730	-0.021829
1039.190406	-0.021377
1039.358063	-0.023044
1039.525702	-0.022852
1039.693323	-0.021908
1039.860926	-0.020884
1040.028511	-0.020649
1040.196077	-0.021927
1040.363625	-0.021700
1040.531155	-0.019496
1040.698667	-0.019451
1040.866161	-0.017162
1041.033636	-0.016999
1041.201093	-0.018664
1041.368532	-0.019109
1041.535952	-0.020122
1041.703355	-0.018486
1041.870739	-0.018690
1042.038105	-0.019977
1042.205452	-0.020837
1042.372782	-0.021372
1042.540093	-0.022254
1042.707386	-0.021321
1042.874661	-0.021489
1043.041918	-0.019397
1043.209156	-0.020094
1043.376376	-0.019934
1043.543578	-0.018777
1043.710762	-0.017215
1043.877927	-0.018141
1044.045074	-0.018085
1044.212203	-0.017329
1044.379314	-0.017934
1044.546407	-0.019787
1044.713481	-0.019977
1044.880537	-0.020316
1045.047575	-0.021281
1045.214595	-0.021376
1045.381596	-0.021310
1045.548579	-0.019962
1045.715544	-0.021378
1045.882491	-0.020020
1046.049420	-0.019764
1046.216330	-0.018992
1046.383222	-0.019246
1046.550096	-0.020346
1046.716951	-0.021231
1046.883789	-0.020054
1047.050608	-0.019096
1047.217409	-0.017538
1047.384192	-0.018634
1047.550956	-0.016915
1047.717703	-0.016308
1047.884431	-0.016553
1048.051140	-0.016881
1048.217832	-0.018232
1048.384505	-0.020148
1048.551161	-0.022492
1048.717798	-0.022910
1048.884416	-0.022184
1049.051017	-0.024603
1049.217599	-0.024970
1049.384163	-0.024206
1049.550709	-0.023494
1049.717237	-0.021767
1049.883746	-0.019952
1050.050237	-0.019237
1050.216710	-0.020072
1050.383165	-0.019234
1050.549601	-0.019586
1050.716019	-0.018279
1050.882420	-0.019508
1051.048801	-0.019536
1051.215165	-0.020313
1051.381510	-0.020776
1051.547837	-0.020612
1051.714146	-0.020432
1051.880437	-0.021185
1052.046709	-0.017702
1052.212964	-0.019289
1052.379200	-0.017336
1052.545417	-0.016731
1052.711617	-0.016350
1052.877798	-0.016947
1053.043961	-0.017901
1053.210106	-0.018637
1053.376233	-0.020154
1053.542341	-0.023392
1053.708432	-0.024608
1053.874504	-0.025227
1054.040557	-0.026046
1054.206593	-0.025784
1054.372610	-0.025581
1054.538609	-0.024105
1054.704590	-0.024820
1054.870553	-0.022840
1055.036497	-0.022028
1055.202424	-0.021808
1055.368331	-0.021526
1055.534221	-0.021038
1055.700093	-0.021038
1055.865946	-0.020327
1056.031781	-0.021250
1056.197598	-0.017891
1056.363397	-0.018314
1056.529177	-0.017889
1056.694939	-0.018157
1056.860683	-0.018385
1057.026409	-0.016876
1057.192116	-0.016164
1057.357806	-0.016148
1057.523477	-0.016179
1057.689130	-0.018048
1057.854764	-0.018533
1058.020381	-0.017254
1058.185979	-0.017404
1058.351559	-0.016999
1058.517120	-0.018504
1058.682664	-0.021296
1058.848189	-0.021264
1059.013696	-0.018000
1059.179185	-0.019448
1059.344656	-0.019612
1059.510108	-0.020210
1059.675542	-0.019505
1059.840958	-0.020684
1060.006356	-0.020784
1060.171735	-0.020974
1060.337096	-0.021477
1060.502439	-0.024746
1060.667764	-0.022841
1060.833071	-0.022567
1060.998359	-0.022755
1061.163629	-0.022564
1061.328881	-0.021959
1061.494115	-0.022331
1061.659330	-0.020864
1061.824527	-0.020427
1061.989706	-0.018972
1062.154867	-0.018576
1062.320010	-0.020065
1062.485134	-0.021808
1062.650240	-0.022962
1062.815328	-0.022183
1062.980398	-0.021674
1063.145449	-0.021351
1063.310482	-0.022000
1063.475497	-0.024798
1063.640494	-0.026652
1063.805473	-0.024820
1063.970433	-0.025142
1064.135375	-0.024689
1064.300299	-0.025487
1064.465204	-0.023444
1064.630092	-0.022736
1064.794961	-0.023177
1064.959812	-0.022624
1065.124645	-0.022520
1065.289459	-0.022826
1065.454256	-0.023315
1065.619034	-0.022596
1065.783793	-0.023852
1065.948535	-0.025941
1066.113258	-0.026733
1066.277964	-0.026807
1066.442651	-0.025164
1066.607319	-0.024006
1066.771970	-0.024695
1066.936602	-0.024605
1067.101216	-0.025918
1067.265812	-0.025644
1067.430389	-0.027263
1067.594949	-0.027709
1067.759490	-0.025826
1067.924013	-0.025602
1068.088518	-0.025497
1068.253004	-0.024198
1068.417472	-0.023183
1068.581922	-0.021194
1068.746354	-0.020664
1068.910768	-0.019741
1069.075163	-0.018918
1069.239540	-0.019934
1069.403899	-0.020268
1069.568240	-0.020730
1069.732562	-0.022850
1069.896866	-0.020977
1070.061152	-0.021195
1070.225420	-0.020312
1070.389670	-0.019380
1070.553901	-0.019001
1070.718114	-0.019696
1070.882309	-0.019853
1071.046486	-0.020392
1071.210644	-0.019160
1071.374784	-0.019033
1071.538906	-0.021384
1071.703010	-0.020259
1071.867096	-0.021467
1072.031163	-0.022615
1072.195212	-0.023428
1072.359243	-0.022993
1072.523256	-0.023652
1072.687250	-0.023064
1072.851226	-0.023358
1073.015184	-0.020923
1073.179124	-0.022953
1073.343045	-0.022639
1073.506949	-0.020823
1073.670834	-0.018794
1073.834701	-0.020325
1073.998549	-0.020179
1074.162380	-0.019277
1074.326192	-0.019020
1074.489986	-0.022160
1074.653761	-0.021202
1074.817519	-0.019327
1074.981258	-0.020733
1075.144979	-0.019895
1075.308682	-0.019123
1075.472367	-0.019502
1075.636033	-0.020773
1075.799681	-0.022029
1075.963311	-0.018582
1076.126923	-0.017512
1076.290516	-0.019388
1076.454092	-0.017113
1076.617649	-0.019466
1076.781187	-0.019263
1076.944708	-0.017758
1077.108210	-0.018085
1077.271695	-0.019990
1077.435160	-0.022504
1077.598608	-0.024070
1077.762038	-0.022381
1077.925449	-0.023884
1078.088842	-0.022320
1078.252217	-0.022054
1078.415573	-0.020376
1078.578912	-0.021045
1078.742232	-0.020338
1078.905534	-0.019707
1079.068817	-0.019806
1079.232083	-0.021425
1079.395330	-0.022287
1079.558559	-0.023431
1079.721770	-0.025293
1079.884962	-0.027442
1080.048136	-0.023506
1080.211293	-0.021775
1080.374430	-0.021265
1080.537550	-0.020939
1080.700651	-0.021377
1080.863735	-0.019465
1081.026800	-0.018602
1081.189846	-0.020477
1081.352875	-0.020195
1081.515885	-0.021498
1081.678877	-0.021375
1081.841851	-0.021865
1082.004807	-0.022925
1082.167744	-0.022090
1082.330663	-0.024028
1082.493564	-0.024056
1082.656447	-0.019495
1082.819312	-0.019321
1082.982158	-0.019794
1083.144986	-0.020130
1083.307796	-0.017691
1083.470587	-0.017347
1083.633361	-0.016770
1083.796116	-0.016361
1083.958853	-0.017879
1084.121571	-0.020574
1084.284272	-0.020569
1084.446954	-0.019527
1084.609618	-0.018627
1084.772264	-0.020544
1084.934892	-0.019914
1085.097501	-0.021247
1085.260092	-0.019252
1085.422665	-0.018865
1085.585220	-0.017362
1085.747756	-0.016824
1085.910274	-0.021033
1086.072774	-0.024105
1086.235256	-0.025175
1086.397720	-0.025715
1086.560165	-0.025015
1086.722592	-0.026464
1086.885001	-0.025085
1087.047392	-0.025414
1087.209764	-0.025515
1087.372119	-0.025043
1087.534455	-0.022849
1087.696772	-0.023362
1087.859072	-0.022807
1088.021353	-0.021282
1088.183616	-0.023372
1088.345861	-0.022199
1088.508088	-0.021754
1088.670296	-0.023516
1088.832486	-0.022066
1088.994658	-0.022255
1089.156812	-0.019650
1089.318948	-0.019736
1089.481065	-0.023210
1089.643164	-0.022587
1089.805245	-0.022675
1089.967308	-0.022231
1090.129352	-0.021479
1090.291378	-0.022738
1090.453386	-0.025329
1090.615376	-0.024023
1090.777347	-0.022765
1090.939301	-0.020754
1091.101236	-0.021122
1091.263153	-0.021327
1091.425051	-0.022696
1091.586932	-0.023122
1091.748794	-0.020461
1091.910638	-0.019873
1092.072463	-0.020771
1092.234271	-0.020800
1092.396060	-0.019890
1092.557831	-0.016591
1092.719584	-0.018086
1092.881319	-0.018229
1093.043035	-0.016588
1093.204733	-0.018017
1093.366413	-0.015891
1093.528075	-0.016029
1093.689718	-0.018902
1093.851343	-0.018362
1094.012950	-0.020319
1094.174539	-0.020546
1094.336110	-0.019933
1094.497662	-0.020924
1094.659196	-0.020826
1094.820712	-0.022388
1094.982210	-0.023964
1095.143689	-0.021195
1095.305151	-0.020930
1095.466594	-0.020308
1095.628018	-0.017966
1095.789425	-0.019210
1095.950813	-0.017368
1096.112183	-0.017242
1096.273535	-0.015031
1096.434869	-0.014735
1096.596184	-0.015801
1096.757482	-0.018347
1096.918761	-0.019501
1097.080021	-0.020358
1097.241264	-0.017396
1097.402488	-0.021152
1097.563694	-0.022763
1097.724882	-0.023610
1097.886052	-0.023120
1098.047203	-0.024092
1098.208336	-0.023464
1098.369451	-0.023742
1098.530548	-0.027183
1098.691627	-0.031610
1098.852687	-0.027560
1099.013729	-0.028213
1099.174753	-0.025436
1099.335758	-0.023935
1099.496746	-0.022223
1099.657715	-0.021963
1099.818666	-0.021814
1099.979599	-0.021317
1100.140513	-0.016260
1100.301409	-0.019157
1100.462287	-0.018734
1100.623147	-0.020773
1100.783989	-0.021762
1100.944812	-0.022650
1101.105617	-0.021123
1101.266404	-0.023377
1101.427173	-0.021291
1101.587923	-0.025172
1101.748656	-0.023276
1101.909370	-0.021447
1102.070066	-0.020659
1102.230743	-0.024564
1102.391403	-0.022825
1102.552044	-0.024385
1102.712667	-0.021970
1102.873271	-0.023491
1103.033858	-0.023733
1103.194426	-0.028188
1103.354976	-0.026019
1103.515508	-0.026055
1103.676021	-0.021969
1103.836517	-0.024244
1103.996994	-0.024636
1104.157453	-0.025668
1104.317893	-0.026119
1104.478316	-0.025241
1104.638720	-0.021867
1104.799106	-0.023723
1104.959474	-0.024819
1105.119823	-0.024071
1105.280155	-0.025569
1105.440468	-0.025997
1105.600763	-0.024342
1105.761039	-0.022628
1105.921298	-0.019523
1106.081538	-0.019223
1106.241760	-0.022792
1106.401964	-0.023167
1106.562149	-0.024810
1106.722316	-0.024777
1106.882465	-0.023070
1107.042596	-0.022480
1107.202709	-0.025002
1107.362803	-0.029891
1107.522879	-0.029244
1107.682937	-0.025411
1107.842977	-0.025417
1108.002999	-0.025500
1108.163002	-0.024967
1108.322987	-0.029265
1108.482954	-0.031883
1108.642902	-0.025374
1108.802833	-0.021762
1108.962745	-0.023206
1109.122639	-0.024805
1109.282515	-0.025040
1109.442372	-0.024981
1109.602211	-0.024783
1109.762032	-0.022398
1109.921835	-0.020513
1110.081620	-0.023299
1110.241386	-0.025576
1110.401134	-0.024165
1110.560864	-0.023106
1110.720576	-0.023421
1110.880269	-0.023408
1111.039945	-0.021808
1111.199602	-0.019935
1111.359240	-0.019141
1111.518861	-0.022925
1111.678463	-0.020042
1111.838047	-0.019281
1111.997613	-0.018166
1112.157161	-0.017697
1112.316690	-0.015713
1112.476202	-0.015299
1112.635695	-0.017410
1112.795169	-0.018787
1112.954626	-0.013875
1113.114064	-0.015376
1113.273484	-0.015751
1113.432886	-0.017948
1113.592270	-0.018636
1113.751635	-0.024075
1113.910983	-0.026620
1114.070312	-0.027402
1114.229622	-0.025553
1114.388915	-0.026820
1114.548189	-0.025434
1114.707445	-0.026921
1114.866683	-0.025544
1115.025903	-0.026994
1115.185104	-0.023282
1115.344287	-0.021575
1115.503452	-0.020836
1115.662599	-0.020919
1115.821727	-0.023469
1115.980838	-0.024658
1116.139930	-0.021538
1116.299004	-0.023773
1116.458059	-0.018541
1116.617097	-0.021328
1116.776116	-0.021349
1116.935117	-0.020339
1117.094099	-0.020172
1117.253064	-0.021165
1117.412010	-0.021379
1117.570938	-0.026605
1117.729848	-0.026465
1117.888740	-0.028035
1118.047613	-0.024505
1118.206468	-0.026230
1118.365305	-0.028601
1118.524124	-0.031837
1118.682924	-0.028408
1118.841707	-0.023853
1119.000471	-0.022805
1119.159216	-0.021221
1119.317944	-0.021610
1119.476653	-0.021449
1119.635344	-0.020551
1119.794017	-0.019587
1119.952672	-0.016342
1120.111308	-0.018504
1120.269927	-0.020483
1120.428527	-0.018309
1120.587108	-0.014743
1120.745672	-0.012991
1120.904217	-0.014425
1121.062744	-0.013828
1121.221253	-0.010112
1121.379744	-0.010266
1121.538216	-0.011364
1121.696671	-0.016404
1121.855107	-0.016377
1122.013524	-0.020198
1122.171924	-0.022776
1122.330305	-0.020273
1122.488668	-0.018159
1122.647013	-0.025251
1122.805340	-0.027000
1122.963648	-0.024130
1123.121938	-0.022460
1123.280210	-0.022611
1123.438464	-0.025929
1123.596700	-0.026098
1123.754917	-0.026304
1123.913116	-0.030601
1124.071297	-0.020214
1124.229459	-0.020778
1124.387604	-0.021021
1124.545730	-0.018897
1124.703838	-0.019999
1124.861928	-0.016111
1125.019999	-0.015506
1125.178052	-0.016929
1125.336088	-0.013494
1125.494104	-0.021009
1125.652103	-0.023770
1125.810083	-0.027509
1125.968045	-0.028419
1126.125989	-0.029522
1126.283915	-0.029312
1126.441823	-0.027028
1126.599712	-0.025507
1126.757583	-0.022864
1126.915436	-0.023737
1127.073270	-0.017066
1127.231087	-0.017508
1127.388885	-0.017340
1127.546665	-0.015019
1127.704426	-0.020093
1127.862170	-0.026848
1128.019895	-0.032791
1128.177602	-0.034289
1128.335291	-0.026610
1128.492961	-0.025791
1128.650614	-0.022613
1128.808248	-0.025830
1128.965864	-0.028419
1129.123461	-0.022653
1129.281041	-0.018528
1129.438602	-0.014479
1129.596145	-0.019258
1129.753670	-0.019258
1129.911176	-0.020183
1130.068665	-0.019266
1130.226135	-0.016667
1130.383587	-0.016753
1130.541020	-0.018227
1130.698436	-0.017538
1130.855833	-0.017304
1131.013212	-0.018717
1131.170573	-0.022813
1131.327915	-0.028579
1131.485239	-0.028935
1131.642545	-0.026928
1131.799833	-0.024747
1131.957103	-0.024859
1132.114354	-0.025232
1132.271588	-0.027005
1132.428803	-0.020780
1132.585999	-0.022699
1132.743178	-0.019424
1132.900338	-0.020177
1133.057480	-0.018046
1133.214604	-0.018621
1133.371710	-0.014594
1133.528797	-0.013913
1133.685866	-0.010359
1133.842917	-0.016338
1133.999950	-0.016568
1134.156964	-0.020554
1134.313960	-0.020443
1134.470938	-0.029393
1134.627898	-0.028004
1134.784840	-0.027354
1134.941763	-0.026738
1135.098668	-0.028414
1135.255555	-0.027097
1135.412424	-0.024995
1135.569274	-0.018108
1135.726107	-0.019150
1135.882921	-0.010856
1136.039716	-0.014287
1136.196494	-0.018480
1136.353253	-0.019076
1136.509995	-0.021685
1136.666717	-0.022834
1136.823422	-0.026458
1136.980109	-0.026840
1137.136777	-0.020742
1137.293427	-0.021257
1137.450059	-0.021431
1137.606672	-0.019122
1137.763267	-0.023247
1137.919844	-0.022898
1138.076403	-0.022300
1138.232944	-0.018020
1138.389466	-0.019899
1138.545971	-0.023559
1138.702457	-0.027631
1138.858924	-0.025729
1139.015374	-0.030571
1139.171805	-0.023503
1139.328218	-0.023465
1139.484613	-0.019473
1139.640990	-0.025905
1139.797348	-0.027266
1139.953688	-0.025986
1140.110010	-0.023905
1140.266314	-0.019165
1140.422600	-0.018189
1140.578867	-0.024849
1140.735116	-0.024568
1140.891347	-0.025026
1141.047559	-0.018568
1141.203754	-0.022011
1141.359930	-0.027087
1141.516088	-0.027877
1141.672228	-0.033980
1141.828349	-0.032823
1141.984452	-0.034063
1142.140537	-0.036173
1142.296604	-0.037229
1142.452653	-0.045147
1142.608683	-0.039586
1142.764695	-0.034776
1142.920689	-0.036197
1143.076665	-0.035763
1143.232622	-0.034923
1143.388562	-0.035924
1143.544483	-0.028345
1143.700385	-0.028381
1143.856270	-0.020095
1144.012136	-0.023243
1144.167985	-0.027968
1144.323814	-0.027623
1144.479626	-0.022297
1144.635420	-0.022212
1144.791195	-0.016390
1144.946952	-0.024952
1145.102691	-0.023769
1145.258411	-0.023628
1145.414113	-0.023332
1145.569798	-0.022901
1145.725463	-0.024594
1145.881111	-0.023529
1146.036741	-0.022951
1146.192352	-0.024553
1146.347945	-0.022073
1146.503519	-0.028659
1146.659076	-0.027801
1146.814614	-0.030744
1146.970134	-0.028487
1147.125636	-0.021201
1147.281120	-0.027570
1147.436585	-0.023957
1147.592032	-0.023073
1147.747461	-0.025498
1147.902872	-0.010928
1148.058265	-0.014715
1148.213639	-0.007752
1148.368995	-0.002629
1148.524333	-0.008973
1148.679653	-0.005631
1148.834954	-0.015341
1148.990237	-0.010560
1149.145502	-0.007817
1149.300749	-0.019734
1149.455977	-0.016346
1149.611188	-0.021156
1149.766380	-0.028640
1149.921553	-0.030231
1150.076709	-0.029682
1150.231846	-0.031617
1150.386966	-0.033422
1150.542066	-0.026843
1150.697149	-0.029022
1150.852214	-0.039539
1151.007260	-0.034995
1151.162288	-0.030345
1151.317298	-0.034385
1151.472289	-0.034579
1151.627263	-0.029195
1151.782218	-0.034831
1151.937155	-0.035749
1152.092073	-0.034131
1152.246974	-0.026061
1152.401856	-0.032981
1152.556720	-0.036721
1152.711566	-0.032789
1152.866393	-0.035180
1153.021203	-0.031639
1153.175994	-0.028920
1153.330767	-0.032200
1153.485521	-0.030930
1153.640258	-0.034196
1153.794976	-0.031575
1153.949676	-0.031627
1154.104358	-0.027438
1154.259021	-0.026013
1154.413667	-0.026238
1154.568294	-0.024436
1154.722903	-0.024076
1154.877493	-0.018984
1155.032066	-0.016131
1155.186620	-0.019342
1155.341156	-0.018185
1155.495674	-0.018655
1155.650173	-0.020369
1155.804654	-0.019445
1155.959118	-0.027491
1156.113562	-0.024576
1156.267989	-0.025612
1156.422397	-0.019786
1156.576788	-0.015893
1156.731160	-0.011020
1156.885513	-0.010578
1157.039849	-0.008191
1157.194166	-0.008831
1157.348465	0.003018
1157.502746	-0.002180
1157.657009	-0.004974
1157.811253	-0.009787
1157.965479	-0.008459
1158.119687	-0.008232
1158.273877	-0.011210
1158.428048	-0.009709
1158.582201	-0.015975
1158.736337	-0.016366
1158.890453	-0.020085
1159.044552	-0.014191
1159.198632	-0.011102
1159.352694	-0.008001
1159.506738	-0.019525
1159.660764	-0.017531
1159.814771	-0.017107
1159.968761	-0.010443
1160.122732	-0.011616
1160.276685	-0.007594
1160.430619	-0.009578
1160.584535	-0.020160
1160.738434	-0.029720
1160.892313	-0.030979
1161.046175	-0.033431
1161.200019	-0.041057
1161.353844	-0.048100
1161.507651	-0.051732
1161.661440	-0.050901
1161.815210	-0.047592
1161.968962	-0.044512
1162.122697	-0.037288
1162.276412	-0.037507
1162.430110	-0.032821
1162.583789	-0.029156
1162.737451	-0.025030
1162.891094	-0.019653
1163.044718	-0.026339
1163.198325	-0.028922
1163.351913	-0.030738
1163.505483	-0.029921
1163.659035	-0.025240
1163.812569	-0.024094
1163.966084	-0.018644
1164.119581	-0.022794
1164.273060	-0.026031
1164.426521	-0.017373
1164.579964	-0.025611
1164.733388	-0.020258
1164.886794	-0.022535
1165.040182	-0.019301
1165.193551	-0.021061
1165.346903	-0.024903
1165.500236	-0.011494
1165.653551	-0.015314
1165.806848	-0.014530
1165.960126	-0.019778
1166.113386	-0.016762
1166.266628	-0.021047
1166.419852	-0.021587
1166.573058	-0.021260
1166.726245	-0.030461
1166.879414	-0.041601
1167.032565	-0.046171
1167.185698	-0.057944
1167.338812	-0.044647
1167.491909	-0.042472
1167.644987	-0.039109
1167.798046	-0.044899
1167.951088	-0.048912
1168.104111	-0.041855
1168.257117	-0.036410
1168.410103	-0.028797
1168.563072	-0.022363
1168.716023	-0.018578
1168.868955	-0.016593
1169.021869	-0.017151
1169.174765	-0.014679
1169.327642	-0.011250
1169.480501	-0.006793
1169.633343	-0.010308
1169.786165	-0.017063
1169.938970	-0.009511
1170.091757	-0.015982
1170.244525	-0.033446
1170.397275	-0.041148
1170.550007	-0.038064
1170.702720	-0.033148
1170.855415	-0.030044
1171.008092	-0.033352
1171.160751	-0.032417
1171.313392	-0.041064
1171.466014	0.049764
1171.618619	-0.060795
1171.771205	-0.060795
1171.923772	-0.060795
