sample name	sample
index	294
start time	 02-25-2021  12:57:38 PM


Wavelength (nm)	Absorbance
494.344910	0.018605
494.563924	0.018605
494.782919	0.018605
495.001897	NaN
495.220856	0.429517
495.439797	0.834633
495.658719	0.846263
495.877624	0.632776
496.096510	0.809641
496.315378	0.638677
496.534227	0.246381
496.753059	0.297438
496.971872	0.221896
497.190667	0.035521
497.409444	0.019709
497.628203	0.019960
497.846943	0.018117
498.065665	0.017778
498.284369	0.018029
498.503055	0.018700
498.721723	0.018198
498.940372	0.018414
499.159003	0.017889
499.377616	0.019008
499.596210	0.019176
499.814787	0.020509
500.033345	0.020279
500.251885	0.020397
500.470406	0.021247
500.688910	0.021052
500.907395	0.022452
501.125862	0.021864
501.344311	0.022196
501.562742	0.022255
501.781154	0.021717
501.999548	0.022643
502.217924	0.022565
502.436282	0.022428
502.654621	0.022309
502.872942	0.021492
503.091245	0.021332
503.309530	0.021317
503.527797	0.021008
503.746045	0.020413
503.964275	0.020692
504.182487	0.020793
504.400681	0.020032
504.618856	0.020522
504.837013	0.020232
505.055152	0.020823
505.273273	0.019775
505.491376	0.020425
505.709460	0.020815
505.927526	0.019684
506.145574	0.019056
506.363604	0.019445
506.581615	0.019114
506.799608	0.018945
507.017583	0.019192
507.235540	0.019738
507.453478	0.019951
507.671399	0.020853
507.889301	0.022064
508.107185	0.022751
508.325050	0.022561
508.542898	0.023652
508.760727	0.023422
508.978538	0.024044
509.196330	0.023998
509.414105	0.023324
509.631861	0.023472
509.849599	0.022872
510.067319	0.022512
510.285021	0.022435
510.502704	0.021986
510.720369	0.022665
510.938016	0.021636
511.155645	0.022505
511.373255	0.022710
511.590848	0.022059
511.808422	0.022038
512.025977	0.022629
512.243515	0.023559
512.461034	0.023745
512.678536	0.024070
512.896018	0.024874
513.113483	0.024238
513.330930	0.024106
513.548358	0.024946
513.765768	0.025057
513.983160	0.024843
514.200533	0.024387
514.417889	0.024124
514.635226	0.024714
514.852545	0.024324
515.069845	0.024748
515.287128	0.025160
515.504392	0.025632
515.721638	0.025610
515.938866	0.026195
516.156075	0.027255
516.373267	0.026352
516.590440	0.025147
516.807594	0.025634
517.024731	0.025480
517.241850	0.026343
517.458950	0.025642
517.676032	0.025260
517.893095	0.025156
518.110141	0.024623
518.327168	0.024848
518.544177	0.025530
518.761168	0.025480
518.978141	0.025613
519.195095	0.025293
519.412031	0.026091
519.628949	0.027033
519.845849	0.026521
520.062731	0.026448
520.279594	0.027520
520.496439	0.027381
520.713266	0.027856
520.930074	0.027853
521.146865	0.028505
521.363637	0.028373
521.580391	0.028610
521.797127	0.029199
522.013844	0.029642
522.230543	0.029331
522.447224	0.029721
522.663887	0.030000
522.880532	0.030237
523.097158	0.029678
523.313766	0.029303
523.530356	0.029460
523.746928	0.030171
523.963481	0.029977
524.180017	0.030255
524.396534	0.030580
524.613032	0.029984
524.829513	0.030089
525.045975	0.030471
525.262420	0.030654
525.478845	0.030000
525.695253	0.029631
525.911643	0.029515
526.128014	0.029750
526.344367	0.029130
526.560702	0.029296
526.777018	0.028958
526.993316	0.028720
527.209597	0.029057
527.425858	0.029592
527.642102	0.029530
527.858328	0.029763
528.074535	0.029829
528.290724	0.030321
528.506894	0.030649
528.723047	0.030881
528.939181	0.031188
529.155297	0.031637
529.371395	0.031407
529.587475	0.031824
529.803536	0.032746
530.019579	0.033157
530.235604	0.033374
530.451611	0.033799
530.667600	0.034174
530.883570	0.034167
531.099522	0.033610
531.315456	0.033941
531.531372	0.033895
531.747269	0.033355
531.963148	0.033181
532.179009	0.032853
532.394852	0.032600
532.610676	0.032891
532.826482	0.033062
533.042271	0.033209
533.258040	0.033214
533.473792	0.033484
533.689525	0.033825
533.905240	0.033756
534.120937	0.034241
534.336616	0.034317
534.552277	0.034260
534.767919	0.033854
534.983543	0.034333
535.199149	0.034923
535.414736	0.035045
535.630306	0.034717
535.845857	0.035049
536.061390	0.035297
536.276904	0.035470
536.492401	0.035559
536.707879	0.036215
536.923339	0.035989
537.138781	0.035806
537.354204	0.035860
537.569610	0.036094
537.784997	0.036491
538.000366	0.036765
538.215716	0.036734
538.431049	0.036830
538.646363	0.037014
538.861659	0.037381
539.076937	0.037908
539.292196	0.037802
539.507438	0.038278
539.722661	0.038141
539.937866	0.038233
540.153052	0.038256
540.368221	0.038619
540.583371	0.038446
540.798503	0.038650
541.013617	0.038435
541.228712	0.038986
541.443789	0.038659
541.658848	0.038966
541.873889	0.038798
542.088912	0.038831
542.303916	0.038962
542.518902	0.039183
542.733870	0.039222
542.948820	0.039220
543.163752	0.038994
543.378665	0.039155
543.593560	0.039355
543.808437	0.039468
544.023295	0.039960
544.238136	0.039783
544.452958	0.039990
544.667762	0.040178
544.882548	0.040683
545.097315	0.041109
545.312064	0.041425
545.526795	0.041381
545.741508	0.041640
545.956203	0.041796
546.170879	0.042379
546.385537	0.042610
546.600177	0.042583
546.814799	0.042475
547.029402	0.042399
547.243988	0.042568
547.458555	0.042904
547.673103	0.043060
547.887634	0.042866
548.102146	0.042882
548.316640	0.042574
548.531116	0.042902
548.745574	0.042835
548.960013	0.043360
549.174435	0.043286
549.388838	0.043297
549.603222	0.043444
549.817589	0.044171
550.031937	0.044308
550.246267	0.044885
550.460579	0.044188
550.674873	0.044750
550.889148	0.044481
551.103405	0.044642
551.317644	0.044819
551.531865	0.044745
551.746068	0.044180
551.960252	0.044168
552.174418	0.044132
552.388566	0.045453
552.602696	0.045378
552.816807	0.045574
553.030900	0.045572
553.244975	0.045267
553.459032	0.045530
553.673070	0.045900
553.887091	0.045924
554.101093	0.046072
554.315077	0.045540
554.529042	0.045520
554.742990	0.045444
554.956919	0.045950
555.170830	0.046186
555.384722	0.046437
555.598597	0.046802
555.812453	0.047135
556.026291	0.047027
556.240111	0.047274
556.453913	0.047453
556.667696	0.047772
556.881461	0.047945
557.095208	0.048266
557.308937	0.048001
557.522647	0.048191
557.736339	0.048081
557.950013	0.048424
558.163669	0.048349
558.377307	0.048542
558.590926	0.048671
558.804527	0.048463
559.018110	0.048442
559.231675	0.048686
559.445221	0.048187
559.658749	0.048242
559.872259	0.048356
560.085751	0.048744
560.299225	0.048873
560.512680	0.048979
560.726117	0.049208
560.939536	0.049373
561.152937	0.049391
561.366319	0.049821
561.579683	0.049859
561.793029	0.049740
562.006357	0.049741
562.219667	0.049880
562.432958	0.049560
562.646231	0.049480
562.859486	0.049508
563.072723	0.049781
563.285941	0.049875
563.499141	0.049947
563.712323	0.050139
563.925487	0.050648
564.138632	0.050644
564.351760	0.051043
564.564869	0.051219
564.777960	0.051572
564.991032	0.051727
565.204087	0.052015
565.417123	0.052018
565.630141	0.052200
565.843140	0.051740
566.056122	0.051691
566.269085	0.051727
566.482030	0.051869
566.694957	0.051674
566.907866	0.051873
567.120756	0.051787
567.333628	0.052037
567.546482	0.051993
567.759318	0.052245
567.972135	0.052440
568.184935	0.052752
568.397716	0.052823
568.610478	0.052886
568.823223	0.052518
569.035949	0.052464
569.248657	0.052529
569.461347	0.052598
569.674019	0.052462
569.886672	0.052216
570.099308	0.052122
570.311925	0.052441
570.524523	0.052446
570.737104	0.052628
570.949666	0.052873
571.162210	0.052831
571.374736	0.053080
571.587244	0.053304
571.799733	0.053590
572.012205	0.053598
572.224658	0.053440
572.437092	0.053620
572.649509	0.053689
572.861907	0.053414
573.074287	0.053705
573.286649	0.053648
573.498993	0.053592
573.711318	0.053639
573.923625	0.053782
574.135914	0.054004
574.348185	0.054157
574.560438	0.054374
574.772672	0.054744
574.984888	0.054847
575.197086	0.055030
575.409266	0.055120
575.621427	0.055240
575.833570	0.055457
576.045695	0.055567
576.257802	0.055625
576.469890	0.055922
576.681961	0.056060
576.894013	0.056100
577.106046	0.056070
577.318062	0.056181
577.530059	0.056716
577.742039	0.056812
577.954000	0.056875
578.165942	0.057238
578.377867	0.057087
578.589773	0.057268
578.801661	0.057583
579.013531	0.057738
579.225382	0.058170
579.437216	0.057606
579.649031	0.057591
579.860828	0.057310
580.072606	0.057176
580.284367	0.057396
580.496109	0.057469
580.707833	0.057263
580.919539	0.057314
581.131227	0.056992
581.342896	0.057321
581.554547	0.057406
581.766180	0.057658
581.977795	0.057590
582.189391	0.057490
582.400969	0.057496
582.612529	0.057527
582.824071	0.057582
583.035595	0.057685
583.247100	0.057902
583.458587	0.058336
583.670056	0.058475
583.881506	0.058743
584.092939	0.058939
584.304353	0.059141
584.515749	0.059120
584.727127	0.059152
584.938486	0.059772
585.149828	0.059794
585.361151	0.059628
585.572456	0.059689
585.783742	0.059512
585.995011	0.059477
586.206261	0.059477
586.417493	0.059420
586.628706	0.059624
586.839902	0.059225
587.051079	0.059265
587.262238	0.059226
587.473379	0.059286
587.684502	0.059471
587.895606	0.059825
588.106692	0.060052
588.317760	0.060514
588.528810	0.060565
588.739841	0.060755
588.950855	0.061006
589.161850	0.061301
589.372827	0.061513
589.583785	0.061506
589.794726	0.061712
590.005648	0.061526
590.216552	0.061548
590.427437	0.061344
590.638305	0.061567
590.849154	0.061216
591.059985	0.060961
591.270798	0.060922
591.481592	0.061177
591.692369	0.060968
591.903127	0.061031
592.113867	0.060848
592.324588	0.061362
592.535292	0.061342
592.745977	0.062022
592.956644	0.062313
593.167293	0.062369
593.377923	0.062570
593.588536	0.062653
593.799130	0.062927
594.009706	0.063296
594.220263	0.063554
594.430803	0.063555
594.641324	0.063354
594.851827	0.063411
595.062312	0.063537
595.272778	0.063549
595.483227	0.063536
595.693657	0.063487
595.904069	0.063663
596.114462	0.063475
596.324838	0.063643
596.535195	0.063773
596.745534	0.063399
596.955855	0.063429
597.166157	0.063494
597.376441	0.063355
597.586707	0.063325
597.796955	0.063127
598.007185	0.062781
598.217396	0.062579
598.427589	0.062548
598.637764	0.062817
598.847921	0.062887
599.058060	0.062999
599.268180	0.063182
599.478282	0.063374
599.688366	0.063768
599.898431	0.064300
600.108479	0.064464
600.318508	0.064674
600.528519	0.064849
600.738511	0.064811
600.948486	0.064934
601.158442	0.065201
601.368380	0.065080
601.578300	0.065075
601.788202	0.065082
601.998085	0.065186
602.207950	0.064949
602.417797	0.065309
602.627626	0.065700
602.837436	0.065602
603.047228	0.065504
603.257002	0.065726
603.466758	0.065793
603.676496	0.065974
603.886215	0.066231
604.095916	0.066600
604.305599	0.066758
604.515264	0.066720
604.724910	0.066982
604.934538	0.067152
605.144148	0.067332
605.353740	0.067403
605.563314	0.066951
605.772869	0.066931
605.982406	0.066742
606.191925	0.066720
606.401425	0.066615
606.610908	0.066714
606.820372	0.066764
607.029818	0.067006
607.239246	0.066997
607.448655	0.067448
607.658047	0.067735
607.867420	0.067821
608.076775	0.067519
608.286111	0.067593
608.495430	0.067267
608.704730	0.067273
608.914012	0.066866
609.123275	0.066855
609.332521	0.066653
609.541748	0.066320
609.750957	0.066426
609.960148	0.066788
610.169321	0.066892
610.378475	0.067192
610.587611	0.067537
610.796729	0.068104
611.005829	0.068073
611.214910	0.068262
611.423974	0.068587
611.633019	0.068865
611.842045	0.068913
612.051054	0.069006
612.260044	0.069223
612.469017	0.069069
612.677970	0.068912
612.886906	0.069137
613.095824	0.069429
613.304723	0.069311
613.513604	0.069316
613.722467	0.069272
613.931311	0.069325
614.140138	0.069329
614.348946	0.069485
614.557736	0.069383
614.766507	0.069585
614.975261	0.069521
615.183996	0.069586
615.392713	0.069687
615.601412	0.069893
615.810092	0.070136
616.018754	0.070197
616.227399	0.070130
616.436024	0.070118
616.644632	0.069885
616.853222	0.069952
617.061793	0.070325
617.270346	0.070219
617.478880	0.069946
617.687397	0.069733
617.895895	0.069522
618.104375	0.069730
618.312837	0.070049
618.521281	0.070245
618.729706	0.070308
618.938113	0.070181
619.146502	0.070483
619.354873	0.070718
619.563226	0.070844
619.771560	0.071040
619.979876	0.071035
620.188174	0.071194
620.396453	0.071240
620.604715	0.071464
620.812958	0.071415
621.021183	0.071228
621.229390	0.071417
621.437578	0.071537
621.645748	0.071693
621.853900	0.071870
622.062034	0.071799
622.270150	0.071913
622.478247	0.071894
622.686326	0.072290
622.894387	0.072486
623.102430	0.072334
623.310454	0.072483
623.518461	0.072674
623.726449	0.072846
623.934418	0.073211
624.142370	0.073405
624.350303	0.073544
624.558218	0.073475
624.766115	0.073679
624.973994	0.074102
625.181855	0.074024
625.389697	0.074195
625.597521	0.074139
625.805327	0.073814
626.013114	0.074078
626.220883	0.074187
626.428634	0.074225
626.636367	0.074319
626.844082	0.074196
627.051778	0.074633
627.259457	0.074528
627.467117	0.074870
627.674758	0.075219
627.882382	0.075185
628.089987	0.075076
628.297574	0.075202
628.505143	0.075032
628.712694	0.075076
628.920226	0.074890
629.127740	0.074931
629.335236	0.074781
629.542714	0.074701
629.750174	0.074721
629.957615	0.075134
630.165038	0.075168
630.372443	0.075329
630.579829	0.075446
630.787198	0.075472
630.994548	0.075462
631.201880	0.075518
631.409194	0.075674
631.616489	0.075654
631.823766	0.075234
632.031025	0.075169
632.238266	0.075242
632.445489	0.075260
632.652693	0.075416
632.859879	0.075595
633.067047	0.075735
633.274197	0.075931
633.481329	0.075947
633.688442	0.076323
633.895537	0.076573
634.102614	0.076704
634.309672	0.076790
634.516713	0.077056
634.723735	0.077024
634.930739	0.077040
635.137724	0.076964
635.344692	0.077227
635.551641	0.077095
635.758572	0.077239
635.965485	0.077297
636.172379	0.077422
636.379256	0.077416
636.586114	0.077638
636.792954	0.077639
636.999775	0.077609
637.206579	0.077503
637.413364	0.077786
637.620131	0.077927
637.826880	0.078115
638.033610	0.077997
638.240323	0.077974
638.447017	0.077872
638.653692	0.077903
638.860350	0.078041
639.066990	0.078167
639.273611	0.078063
639.480214	0.077834
639.686798	0.077510
639.893365	0.077812
640.099913	0.077599
640.306443	0.077751
640.512955	0.077896
640.719449	0.077915
640.925924	0.078024
641.132381	0.077973
641.338820	0.078253
641.545241	0.078534
641.751644	0.078582
641.958028	0.078853
642.164394	0.079012
642.370742	0.079321
642.577071	0.079384
642.783383	0.079463
642.989676	0.079809
643.195951	0.079640
643.402207	0.079803
643.608446	0.079909
643.814666	0.080253
644.020868	0.080380
644.227052	0.080453
644.433218	0.080737
644.639365	0.080937
644.845494	0.081037
645.051605	0.081221
645.257698	0.081225
645.463772	0.081254
645.669828	0.081054
645.875866	0.081048
646.081886	0.081036
646.287888	0.081146
646.493871	0.081149
646.699836	0.081175
646.905783	0.081367
647.111712	0.081438
647.317622	0.081608
647.523514	0.081664
647.729388	0.081772
647.935244	0.081805
648.141082	0.081730
648.346901	0.082035
648.552702	0.082278
648.758485	0.082269
648.964250	0.082421
649.169996	0.082376
649.375724	0.082626
649.581434	0.082836
649.787126	0.083090
649.992800	0.083097
650.198455	0.082950
650.404092	0.083107
650.609711	0.083405
650.815311	0.083693
651.020894	0.083849
651.226458	0.083898
651.432004	0.083936
651.637532	0.083951
651.843041	0.084065
652.048532	0.084294
652.254006	0.084126
652.459460	0.084129
652.664897	0.084098
652.870315	0.084246
653.075716	0.084314
653.281097	0.084167
653.486461	0.084246
653.691807	0.084549
653.897134	0.084525
654.102443	0.084773
654.307734	0.084880
654.513006	0.084914
654.718261	0.085027
654.923497	0.085235
655.128715	0.085645
655.333915	0.085671
655.539096	0.085691
655.744259	0.085894
655.949404	0.085988
656.154531	0.086041
656.359640	0.086390
656.564730	0.086595
656.769802	0.086711
656.974856	0.086575
657.179892	0.086610
657.384909	0.086748
657.589908	0.086879
657.794889	0.087007
657.999852	0.087120
658.204797	0.087090
658.409723	0.087046
658.614631	0.087331
658.819521	0.087583
659.024393	0.087850
659.229246	0.088032
659.434081	0.087977
659.638898	0.088174
659.843697	0.088117
660.048478	0.088213
660.253240	0.088446
660.457984	0.088502
660.662710	0.088718
660.867417	0.088815
661.072107	0.088921
661.276778	0.089106
661.481431	0.089151
661.686066	0.089560
661.890682	0.089553
662.095281	0.089730
662.299861	0.089733
662.504422	0.089717
662.708966	0.089794
662.913491	0.089781
663.117999	0.089861
663.322488	0.089821
663.526958	0.089859
663.731411	0.090048
663.935845	0.090013
664.140261	0.090055
664.344659	0.090198
664.549038	0.090292
664.753400	0.090459
664.957743	0.090490
665.162068	0.090584
665.366375	0.090640
665.570663	0.090665
665.774933	0.090694
665.979185	0.090739
666.183419	0.090668
666.387635	0.090714
666.591832	0.090716
666.796011	0.090666
667.000172	0.090806
667.204315	0.090804
667.408439	0.090860
667.612545	0.091017
667.816634	0.091201
668.020703	0.091533
668.224755	0.091473
668.428788	0.091584
668.632803	0.091998
668.836800	0.092038
669.040779	0.092237
669.244739	0.092313
669.448681	0.092366
669.652605	0.092393
669.856511	0.092486
670.060399	0.092728
670.264268	0.092823
670.468119	0.092796
670.671952	0.093075
670.875767	0.092868
671.079563	0.092867
671.283341	0.092948
671.487101	0.093103
671.690843	0.093178
671.894567	0.093342
672.098272	0.093513
672.301959	0.093706
672.505628	0.093725
672.709278	0.094227
672.912911	0.094626
673.116525	0.094713
673.320121	0.094902
673.523699	0.095092
673.727258	0.095245
673.930799	0.095305
674.134322	0.095515
674.337827	0.095889
674.541314	0.095969
674.744782	0.096051
674.948232	0.096333
675.151664	0.096476
675.355078	0.096363
675.558474	0.096448
675.761851	0.096724
675.965210	0.096716
676.168551	0.096749
676.371873	0.097003
676.575178	0.097159
676.778464	0.097335
676.981732	0.097406
677.184981	0.097663
677.388213	0.097810
677.591426	0.097869
677.794621	0.098008
677.997798	0.098167
678.200956	0.098236
678.404097	0.098425
678.607219	0.098567
678.810323	0.098712
679.013408	0.098939
679.216476	0.099021
679.419525	0.099321
679.622556	0.099604
679.825569	0.099633
680.028563	0.099749
680.231540	0.099867
680.434498	0.099946
680.637438	0.100108
680.840359	0.100269
681.043263	0.100397
681.246148	0.100403
681.449015	0.100470
681.651864	0.100546
681.854694	0.100511
682.057506	0.100467
682.260301	0.100586
682.463076	0.100433
682.665834	0.100227
682.868573	0.100235
683.071295	0.100182
683.273998	0.100073
683.476682	0.099931
683.679349	0.100017
683.881997	0.099902
684.084627	0.099811
684.287239	0.099755
684.489833	0.099720
684.692408	0.099737
684.894965	0.099760
685.097504	0.099815
685.300025	0.099912
685.502527	0.099869
685.705012	0.100018
685.907478	0.100040
686.109925	0.100342
686.312355	0.100570
686.514766	0.100737
686.717159	0.100983
686.919534	0.101166
687.121891	0.101318
687.324230	0.101464
687.526550	0.101872
687.728852	0.101876
687.931136	0.102023
688.133401	0.102081
688.335649	0.102326
688.537878	0.102364
688.740089	0.102433
688.942281	0.102548
689.144456	0.102578
689.346612	0.102470
689.548750	0.102709
689.750870	0.102903
689.952971	0.102954
690.155055	0.102894
690.357120	0.102773
690.559167	0.102719
690.761195	0.102856
690.963206	0.103066
691.165198	0.103082
691.367172	0.103206
691.569128	0.103024
691.771065	0.103209
691.972984	0.103356
692.174885	0.103639
692.376768	0.103650
692.578633	0.103714
692.780479	0.103799
692.982308	0.103882
693.184118	0.103961
693.385909	0.104217
693.587683	0.104325
693.789438	0.104176
693.991175	0.104173
694.192894	0.104368
694.394595	0.104417
694.596277	0.104377
694.797941	0.104461
694.999587	0.104506
695.201215	0.104483
695.402824	0.104482
695.604416	0.104632
695.805989	0.104401
696.007543	0.104279
696.209080	0.104204
696.410598	0.104279
696.612099	0.104349
696.813580	0.104246
697.015044	0.104284
697.216490	0.104248
697.417917	0.104308
697.619326	0.104770
697.820717	0.104990
698.022089	0.105196
698.223444	0.105347
698.424780	0.105635
698.626098	0.105875
698.827397	0.106026
699.028679	0.106342
699.229942	0.106450
699.431187	0.106238
699.632414	0.106300
699.833622	0.106450
700.034813	0.106640
700.235985	0.106463
700.437139	0.106516
700.638274	0.106502
700.839392	0.106493
701.040491	0.106696
701.241572	0.107074
701.442635	0.107249
701.643679	0.107331
701.844706	0.107432
702.045714	0.107376
702.246704	0.107232
702.447675	0.107277
702.648629	0.107274
702.849564	0.107229
703.050481	0.107094
703.251380	0.107095
703.452260	0.107018
703.653122	0.106897
703.853966	0.106989
704.054792	0.107326
704.255600	0.107421
704.456389	0.107630
704.657160	0.107588
704.857913	0.107696
705.058648	0.107799
705.259365	0.107839
705.460063	0.107714
705.660743	0.107803
705.861405	0.107523
706.062048	0.107292
706.262674	0.107043
706.463281	0.106854
706.663870	0.106790
706.864441	0.106574
707.064993	0.106416
707.265527	0.106477
707.466043	0.106370
707.666541	0.106573
707.867021	0.106878
708.067482	0.106940
708.267925	0.107305
708.468350	0.107377
708.668757	0.107718
708.869145	0.108134
709.069516	0.108220
709.269868	0.108590
709.470201	0.108505
709.670517	0.108546
709.870814	0.108527
710.071093	0.108487
710.271354	0.108550
710.471597	0.108389
710.671821	0.108206
710.872028	0.108224
711.072216	0.108091
711.272385	0.108343
711.472537	0.108053
711.672670	0.108155
711.872785	0.108088
712.072882	0.108075
712.272961	0.107872
712.473021	0.107760
712.673063	0.107561
712.873087	0.107372
713.073093	0.107349
713.273081	0.107414
713.473050	0.107505
713.673001	0.107549
713.872934	0.107481
714.072849	0.107531
714.272745	0.107539
714.472623	0.107494
714.672483	0.107533
714.872325	0.107373
715.072148	0.107459
715.271954	0.107326
715.471741	0.107178
715.671509	0.107024
715.871260	0.107032
716.070992	0.107002
716.270707	0.107022
716.470403	0.107120
716.670080	0.107105
716.869740	0.107059
717.069381	0.106942
717.269004	0.106994
717.468609	0.107140
717.668195	0.107205
717.867764	0.107263
718.067314	0.107400
718.266846	0.107279
718.466360	0.107287
718.665855	0.107410
718.865332	0.107513
719.064791	0.107460
719.264232	0.107450
719.463655	0.107367
719.663059	0.107162
719.862445	0.107041
720.061813	0.107188
720.261163	0.107035
720.460494	0.106891
720.659807	0.106762
720.859102	0.106843
721.058379	0.106788
721.257638	0.106777
721.456878	0.106785
721.656100	0.106737
721.855304	0.106504
722.054490	0.106662
722.253657	0.106568
722.452806	0.106557
722.651937	0.106612
722.851050	0.106538
723.050145	0.106610
723.249221	0.106626
723.448279	0.106754
723.647319	0.106863
723.846340	0.106874
724.045344	0.107013
724.244329	0.107115
724.443296	0.106980
724.642245	0.106952
724.841175	0.106912
725.040088	0.107032
725.238982	0.106792
725.437857	0.106758
725.636715	0.106557
725.835554	0.106668
726.034376	0.106506
726.233179	0.106547
726.431963	0.106508
726.630730	0.106526
726.829478	0.106363
727.028208	0.106679
727.226920	0.106582
727.425614	0.106597
727.624289	0.106307
727.822946	0.106264
728.021585	0.106103
728.220206	0.106112
728.418808	0.106120
728.617392	0.106105
728.815958	0.105867
729.014506	0.105807
729.213036	0.105693
729.411547	0.105715
729.610040	0.105740
729.808515	0.105503
730.006972	0.105373
730.205410	0.105112
730.403831	0.105168
730.602233	0.105195
730.800616	0.105055
730.998982	0.104998
731.197329	0.104881
731.395658	0.104842
731.593969	0.105033
731.792262	0.104921
731.990536	0.104845
732.188793	0.104706
732.387031	0.104385
732.585250	0.104334
732.783452	0.104342
732.981635	0.104160
733.179800	0.103820
733.377947	0.103667
733.576076	0.103529
733.774186	0.103419
733.972278	0.103196
734.170352	0.103309
734.368408	0.103352
734.566446	0.103182
734.764465	0.103153
734.962466	0.103423
735.160449	0.103324
735.358413	0.103259
735.556360	0.103181
735.754288	0.103261
735.952198	0.103201
736.150090	0.103207
736.347963	0.103175
736.545818	0.103329
736.743655	0.103081
736.941474	0.103057
737.139275	0.103192
737.337057	0.103345
737.534821	0.103208
737.732567	0.103002
737.930295	0.102952
738.128005	0.103139
738.325696	0.103129
738.523369	0.103213
738.721024	0.103192
738.918660	0.103261
739.116279	0.103085
739.313879	0.103087
739.511461	0.103251
739.709024	0.102906
739.906570	0.102614
740.104097	0.102458
740.301606	0.102380
740.499097	0.102302
740.696569	0.102163
740.894024	0.102063
741.091460	0.101877
741.288878	0.101737
741.486277	0.101677
741.683659	0.101790
741.881022	0.101606
742.078367	0.101411
742.275694	0.101494
742.473002	0.101335
742.670293	0.101139
742.867565	0.101119
743.064819	0.100952
743.262054	0.101092
743.459272	0.100708
743.656471	0.100660
743.853652	0.100584
744.050815	0.100129
744.247959	0.100095
744.445085	0.100182
744.642194	0.100086
744.839283	0.100068
745.036355	0.099897
745.233408	0.100081
745.430444	0.100079
745.627461	0.100146
745.824459	0.100321
746.021440	0.100360
746.218402	0.100310
746.415346	0.100418
746.612272	0.100394
746.809180	0.100432
747.006069	0.100240
747.202940	0.100209
747.399793	0.100133
747.596628	0.100242
747.793444	0.100065
747.990243	0.100259
748.187023	0.100046
748.383784	0.099938
748.580528	0.099944
748.777253	0.100106
748.973960	0.100136
749.170649	0.100075
749.367320	0.100060
749.563973	0.100031
749.760607	0.099753
749.957223	0.099750
750.153821	0.099789
750.350400	0.099837
750.546962	0.099763
750.743505	0.099701
750.940030	0.099712
751.136536	0.099450
751.333025	0.099236
751.529495	0.099238
751.725947	0.099325
751.922381	0.099268
752.118796	0.098992
752.315194	0.098954
752.511573	0.098662
752.707934	0.098599
752.904276	0.098642
753.100601	0.098893
753.296907	0.098967
753.493195	0.098853
753.689465	0.098816
753.885716	0.098869
754.081949	0.098657
754.278164	0.098854
754.474361	0.098650
754.670540	0.098537
754.866700	0.098281
755.062843	0.097942
755.258967	0.098085
755.455072	0.097788
755.651160	0.097587
755.847229	0.097410
756.043280	0.097241
756.239313	0.096970
756.435328	0.096788
756.631324	0.096645
756.827302	0.096577
757.023262	0.096207
757.219204	0.096224
757.415127	0.096211
757.611033	0.096174
757.806920	0.095917
758.002788	0.096153
758.198639	0.096274
758.394471	0.096305
758.590286	0.096165
758.786081	0.096032
758.981859	0.096134
759.177619	0.096024
759.373360	0.096079
759.569083	0.095990
759.764788	0.095902
759.960474	0.095647
760.156143	0.095494
760.351793	0.095868
760.547425	0.095905
760.743038	0.095861
760.938634	0.095964
761.134211	0.096017
761.329770	0.096094
761.525311	0.095804
761.720833	0.096070
761.916338	0.096050
762.111824	0.095576
762.307292	0.095524
762.502741	0.095357
762.698173	0.095216
762.893586	0.094996
763.088981	0.095019
763.284358	0.095082
763.479716	0.094683
763.675057	0.094565
763.870379	0.094757
764.065683	0.094753
764.260968	0.094605
764.456236	0.094429
764.651485	0.094515
764.846716	0.094555
765.041929	0.094402
765.237123	0.094483
765.432299	0.094566
765.627457	0.094588
765.822597	0.094511
766.017719	0.094438
766.212822	0.094416
766.407907	0.094128
766.602974	0.093924
766.798023	0.093911
766.993054	0.093797
767.188066	0.093717
767.383060	0.093510
767.578036	0.093570
767.772993	0.093528
767.967933	0.093500
768.162854	0.093426
768.357757	0.093227
768.552642	0.093347
768.747508	0.093342
768.942356	0.093541
769.137186	0.093374
769.331998	0.093290
769.526792	0.093482
769.721567	0.093456
769.916324	0.093527
770.111063	0.093610
770.305784	0.093505
770.500486	0.093541
770.695171	0.093430
770.889837	0.093511
771.084484	0.093581
771.279114	0.093473
771.473725	0.093486
771.668318	0.093362
771.862893	0.093356
772.057450	0.093427
772.251988	0.093346
772.446509	0.093027
772.641011	0.093152
772.835494	0.092919
773.029960	0.092940
773.224407	0.092951
773.418836	0.092909
773.613247	0.092798
773.807640	0.092640
774.002014	0.092582
774.196370	0.092683
774.390708	0.092475
774.585028	0.092381
774.779330	0.092300
774.973613	0.092174
775.167878	0.092312
775.362125	0.092341
775.556354	0.092367
775.750564	0.092280
775.944756	0.092233
776.138930	0.092256
776.333086	0.092225
776.527223	0.092150
776.721343	0.091990
776.915444	0.091919
777.109526	0.092058
777.303591	0.092080
777.497637	0.092248
777.691666	0.092352
777.885676	0.092461
778.079667	0.092552
778.273641	0.092479
778.467596	0.092760
778.661533	0.092667
778.855452	0.092467
779.049352	0.092432
779.243235	0.092109
779.437099	0.091895
779.630945	0.091753
779.824773	0.091780
780.018582	0.091942
780.212373	0.091832
780.406146	0.091797
780.599901	0.091791
780.793638	0.091722
780.987356	0.091915
781.181056	0.091848
781.374738	0.091806
781.568402	0.091669
781.762047	0.091238
781.955674	0.091204
782.149283	0.091248
782.342874	0.091414
782.536447	0.091459
782.730001	0.091293
782.923537	0.091018
783.117055	0.090914
783.310555	0.090915
783.504036	0.091268
783.697499	0.091189
783.890944	0.091282
784.084371	0.091091
784.277780	0.090894
784.471170	0.090833
784.664542	0.091361
784.857896	0.091443
785.051231	0.091388
785.244549	0.091344
785.437848	0.091577
785.631129	0.091425
785.824392	0.091415
786.017636	0.091580
786.210863	0.091737
786.404071	0.091466
786.597260	0.091332
786.790432	0.091241
786.983585	0.091258
787.176721	0.090878
787.369838	0.091000
787.562936	0.090790
787.756017	0.090554
787.949079	0.090319
788.142123	0.090260
788.335149	0.090311
788.528156	0.090310
788.721146	0.090161
788.914117	0.090443
789.107070	0.090307
789.300005	0.090436
789.492921	0.090561
789.685819	0.090698
789.878699	0.090643
790.071561	0.090584
790.264405	0.090699
790.457230	0.090771
790.650037	0.090636
790.842826	0.090828
791.035597	0.090931
791.228349	0.091070
791.421084	0.091155
791.613800	0.091407
791.806497	0.091634
791.999177	0.091862
792.191838	0.092097
792.384481	0.092199
792.577106	0.092321
792.769713	0.092430
792.962301	0.092593
793.154871	0.092780
793.347423	0.092902
793.539957	0.092917
793.732473	0.092794
793.924970	0.092857
794.117449	0.093031
794.309910	0.092999
794.502353	0.093062
794.694777	0.093092
794.887183	0.093066
795.079571	0.093228
795.271941	0.093330
795.464293	0.093454
795.656626	0.093207
795.848941	0.093364
796.041238	0.093379
796.233516	0.093268
796.425777	0.093320
796.618019	0.093404
796.810243	0.093275
797.002449	0.093103
797.194636	0.093205
797.386805	0.093491
797.578956	0.093251
797.771089	0.093211
797.963204	0.093488
798.155300	0.093640
798.347378	0.093628
798.539438	0.093894
798.731480	0.094303
798.923503	0.094328
799.115509	0.094425
799.307496	0.094516
799.499465	0.094714
799.691415	0.094784
799.883348	0.094662
800.075262	0.094619
800.267158	0.094635
800.459035	0.094674
800.650895	0.094905
800.842736	0.094887
801.034559	0.094951
801.226364	0.094935
801.418150	0.095046
801.609919	0.095479
801.801669	0.095873
801.993401	0.096087
802.185114	0.096319
802.376810	0.096309
802.568487	0.096625
802.760146	0.096860
802.951787	0.097142
803.143409	0.096941
803.335014	0.096829
803.526600	0.096677
803.718168	0.096599
803.909717	0.096530
804.101249	0.096626
804.292762	0.096471
804.484257	0.096456
804.675734	0.096596
804.867192	0.096966
805.058632	0.096905
805.250054	0.097063
805.441458	0.097225
805.632844	0.097198
805.824211	0.097256
806.015561	0.097284
806.206891	0.097443
806.398204	0.097301
806.589499	0.097547
806.780775	0.097661
806.972033	0.097570
807.163273	0.097444
807.354495	0.097420
807.545698	0.097346
807.736883	0.097606
807.928050	0.097498
808.119199	0.097837
808.310329	0.097750
808.501441	0.097800
808.692535	0.098095
808.883611	0.098213
809.074669	0.098357
809.265708	0.098700
809.456729	0.098641
809.647732	0.098900
809.838717	0.098792
810.029683	0.098879
810.220632	0.098879
810.411562	0.098754
810.602474	0.099073
810.793367	0.099192
810.984242	0.099338
811.175100	0.099695
811.365938	0.099723
811.556759	0.099820
811.747562	0.099877
811.938346	0.100209
812.129112	0.100733
812.319860	0.100954
812.510589	0.101168
812.701300	0.101141
812.891994	0.101198
813.082668	0.101448
813.273325	0.101729
813.463964	0.101920
813.654584	0.101887
813.845186	0.101980
814.035769	0.102096
814.226335	0.102254
814.416882	0.102717
814.607411	0.102658
814.797922	0.102992
814.988415	0.102911
815.178889	0.103076
815.369345	0.103351
815.559783	0.103508
815.750203	0.103400
815.940605	0.103589
816.130988	0.103283
816.321353	0.103503
816.511700	0.103290
816.702028	0.103443
816.892339	0.103385
817.082631	0.103399
817.272905	0.103324
817.463161	0.103273
817.653398	0.103286
817.843617	0.103445
818.033819	0.103720
818.224001	0.104042
818.414166	0.104300
818.604312	0.104482
818.794440	0.104704
818.984550	0.104597
819.174642	0.105094
819.364716	0.105299
819.554771	0.105572
819.744808	0.105543
819.934827	0.105617
820.124827	0.105794
820.314810	0.106110
820.504774	0.106203
820.694720	0.106551
820.884647	0.106740
821.074557	0.106849
821.264448	0.106911
821.454321	0.107195
821.644176	0.107279
821.834012	0.107201
822.023831	0.107464
822.213631	0.107624
822.403413	0.107900
822.593176	0.107722
822.782922	0.107723
822.972649	0.107874
823.162358	0.107919
823.352049	0.108063
823.541721	0.108231
823.731376	0.107929
823.921012	0.107986
824.110629	0.108014
824.300229	0.108085
824.489811	0.108408
824.679374	0.108451
824.868919	0.108486
825.058445	0.108700
825.247954	0.109005
825.437444	0.109119
825.626916	0.109230
825.816370	0.109216
826.005806	0.109562
826.195223	0.109581
826.384622	0.109763
826.574003	0.109713
826.763366	0.109830
826.952711	0.110023
827.142037	0.110397
827.331345	0.110579
827.520635	0.111055
827.709906	0.110972
827.899160	0.111132
828.088395	0.111451
828.277612	0.111914
828.466810	0.112224
828.655991	0.112209
828.845153	0.112392
829.034297	0.112652
829.223423	0.112772
829.412531	0.113177
829.601620	0.113161
829.790691	0.113311
829.979744	0.113499
830.168779	0.113522
830.357795	0.113573
830.546793	0.113736
830.735773	0.113870
830.924735	0.114019
831.113679	0.114215
831.302604	0.114542
831.491511	0.114454
831.680400	0.114541
831.869271	0.114726
832.058123	0.115046
832.246957	0.115038
832.435773	0.115219
832.624571	0.115192
832.813351	0.115079
833.002112	0.115321
833.190855	0.115739
833.379580	0.115917
833.568287	0.115916
833.756975	0.115913
833.945645	0.116236
834.134297	0.116446
834.322931	0.116556
834.511547	0.116718
834.700144	0.116514
834.888723	0.116440
835.077284	0.116323
835.265826	0.116458
835.454351	0.116774
835.642857	0.116739
835.831345	0.116853
836.019815	0.117225
836.208266	0.117586
836.396699	0.118128
836.585114	0.118335
836.773511	0.118756
836.961890	0.118965
837.150250	0.119215
837.338592	0.119585
837.526916	0.119819
837.715222	0.120065
837.903510	0.120037
838.091779	0.120048
838.280030	0.120411
838.468263	0.120404
838.656477	0.120503
838.844674	0.120385
839.032852	0.120393
839.221012	0.120621
839.409153	0.120690
839.597277	0.120883
839.785382	0.120986
839.973469	0.120847
840.161538	0.121172
840.349589	0.121268
840.537621	0.121785
840.725635	0.121896
840.913631	0.122051
841.101609	0.122186
841.289568	0.122582
841.477509	0.123030
841.665432	0.123316
841.853337	0.123668
842.041224	0.124101
842.229092	0.124032
842.416942	0.124536
842.604774	0.124714
842.792588	0.125006
842.980383	0.125400
843.168160	0.125455
843.355919	0.125682
843.543660	0.125716
843.731382	0.125948
843.919087	0.126292
844.106773	0.126460
844.294441	0.126691
844.482090	0.126798
844.669722	0.126824
844.857335	0.126900
845.044930	0.127187
845.232507	0.127457
845.420065	0.127695
845.607605	0.127834
845.795127	0.127736
845.982631	0.127750
846.170117	0.127852
846.357584	0.127931
846.545033	0.128250
846.732464	0.128769
846.919877	0.129312
847.107272	0.129302
847.294648	0.129585
847.482006	0.130042
847.669346	0.130497
847.856667	0.130717
848.043971	0.130996
848.231256	0.131163
848.418523	0.131162
848.605771	0.131097
848.793002	0.131526
848.980214	0.131650
849.167408	0.131689
849.354584	0.131656
849.541742	0.131870
849.728881	0.132239
849.916002	0.132712
850.103105	0.132932
850.290190	0.132936
850.477256	0.133229
850.664304	0.133410
850.851334	0.133752
851.038346	0.134007
851.225340	0.134172
851.412315	0.134090
851.599272	0.134043
851.786211	0.134048
851.973132	0.134233
852.160034	0.134098
852.346918	0.134325
852.533784	0.134358
852.720632	0.134623
852.907462	0.134684
853.094273	0.135072
853.281066	0.135279
853.467841	0.135240
853.654598	0.135482
853.841336	0.135621
854.028056	0.135674
854.214758	0.136005
854.401442	0.136227
854.588107	0.136684
854.774755	0.136666
854.961384	0.136995
855.147995	0.137298
855.334587	0.137429
855.521162	0.137681
855.707718	0.138024
855.894256	0.138283
856.080775	0.138489
856.267277	0.138574
856.453760	0.138863
856.640225	0.139034
856.826672	0.139190
857.013101	0.139485
857.199511	0.139663
857.385903	0.139810
857.572277	0.140068
857.758633	0.140211
857.944970	0.140441
858.131290	0.140650
858.317591	0.140914
858.503873	0.140970
858.690138	0.141185
858.876384	0.141624
859.062612	0.141840
859.248822	0.141978
859.435014	0.141861
859.621188	0.142158
859.807343	0.142187
859.993480	0.142308
860.179599	0.142694
860.365699	0.142720
860.551781	0.142805
860.737846	0.142937
860.923891	0.142809
861.109919	0.143154
861.295929	0.143127
861.481920	0.143461
861.667893	0.143313
861.853848	0.143442
862.039784	0.143742
862.225702	0.143717
862.411603	0.143978
862.597484	0.144259
862.783348	0.144470
862.969193	0.144516
863.155021	0.144593
863.340830	0.144965
863.526620	0.145000
863.712393	0.145058
863.898147	0.145267
864.083883	0.145451
864.269601	0.145539
864.455301	0.145372
864.640982	0.145920
864.826645	0.145841
865.012290	0.146131
865.197917	0.146448
865.383526	0.146790
865.569116	0.146863
865.754688	0.146676
865.940242	0.147043
866.125777	0.147282
866.311295	0.147211
866.496794	0.147466
866.682275	0.147532
866.867737	0.147795
867.053182	0.147813
867.238608	0.148245
867.424016	0.148510
867.609406	0.148440
867.794778	0.148643
867.980131	0.148820
868.165466	0.148872
868.350783	0.148947
868.536082	0.148867
868.721362	0.148714
868.906625	0.148780
869.091869	0.148774
869.277094	0.149097
869.462302	0.149188
869.647491	0.149348
869.832662	0.149677
870.017815	0.149801
870.202950	0.150179
870.388066	0.150614
870.573165	0.150608
870.758245	0.150807
870.943306	0.150627
871.128350	0.150917
871.313375	0.150815
871.498382	0.150962
871.683371	0.150947
871.868342	0.151002
872.053294	0.151057
872.238229	0.151115
872.423144	0.151501
872.608042	0.151944
872.792922	0.151721
872.977783	0.152148
873.162626	0.151978
873.347451	0.152177
873.532258	0.152198
873.717046	0.152231
873.901816	0.152218
874.086568	0.151936
874.271302	0.151732
874.456017	0.151839
874.640715	0.151689
874.825394	0.151951
875.010055	0.151802
875.194697	0.151621
875.379322	0.151917
875.563928	0.152017
875.748516	0.152160
875.933085	0.152158
876.117637	0.152450
876.302170	0.152376
876.486685	0.152545
876.671182	0.152825
876.855661	0.153312
877.040121	0.153259
877.224563	0.153497
877.408987	0.153630
877.593393	0.153864
877.777780	0.154076
877.962150	0.154500
878.146501	0.154408
878.330833	0.154726
878.515148	0.154746
878.699444	0.154411
878.883722	0.154093
879.067982	0.153996
879.252224	0.153873
879.436447	0.153885
879.620653	0.154042
879.804840	0.154126
879.989008	0.153780
880.173159	0.153721
880.357291	0.154253
880.541405	0.154896
880.725501	0.155464
880.909579	0.155793
881.093638	0.155947
881.277680	0.155790
881.461703	0.155963
881.645707	0.156402
881.829694	0.156705
882.013662	0.156872
882.197612	0.156683
882.381544	0.156567
882.565458	0.156361
882.749353	0.156352
882.933230	0.156530
883.117089	0.156633
883.300930	0.156543
883.484753	0.156473
883.668557	0.156684
883.852343	0.156873
884.036111	0.157047
884.219861	0.157414
884.403592	0.157471
884.587305	0.157496
884.771000	0.157655
884.954677	0.157725
885.138335	0.157585
885.321976	0.157249
885.505598	0.157248
885.689201	0.157269
885.872787	0.157499
886.056354	0.157617
886.239904	0.157536
886.423434	0.157564
886.606947	0.157518
886.790442	0.157925
886.973918	0.157644
887.157376	0.157371
887.340816	0.157355
887.524237	0.156869
887.707641	0.156776
887.891026	0.156543
888.074393	0.156530
888.257741	0.156819
888.441072	0.156461
888.624384	0.156695
888.807678	0.157009
888.990954	0.157043
889.174211	0.157010
889.357451	0.156950
889.540672	0.157061
889.723875	0.156947
889.907059	0.156454
890.090226	0.156482
890.273374	0.156152
890.456504	0.155794
890.639616	0.155417
890.822709	0.155956
891.005785	0.155751
891.188842	0.155606
891.371881	0.155421
891.554901	0.155642
891.737904	0.155733
891.920888	0.156319
892.103854	0.156535
892.286802	0.156628
892.469731	0.156035
892.652643	0.155824
892.835536	0.156230
893.018410	0.156435
893.201267	0.155911
893.384106	0.155577
893.566926	0.155268
893.749728	0.155380
893.932511	0.155284
894.115277	0.155245
894.298024	0.155116
894.480753	0.154902
894.663464	0.154797
894.846157	0.155080
895.028831	0.155270
895.211487	0.155214
895.394125	0.154915
895.576745	0.154907
895.759346	0.154807
895.941930	0.155146
896.124495	0.155096
896.307041	0.154530
896.489570	0.154603
896.672080	0.154274
896.854573	0.153999
897.037046	0.154202
897.219502	0.154118
897.401940	0.154451
897.584359	0.154227
897.766760	0.153878
897.949143	0.154083
898.131507	0.153371
898.313854	0.153567
898.496182	0.153435
898.678492	0.153009
898.860783	0.152922
899.043057	0.152433
899.225312	0.152263
899.407549	0.152015
899.589768	0.152028
899.771968	0.152400
899.954151	0.151842
900.136315	0.151670
900.318461	0.151803
900.500588	0.151553
900.682698	0.151599
900.864789	0.151918
901.046862	0.151850
901.228917	0.151778
901.410953	0.151698
901.592971	0.151896
901.774972	0.151808
901.956953	0.151284
902.138917	0.151253
902.320862	0.150668
902.502790	0.149846
902.684699	0.150130
902.866589	0.149745
903.048462	0.149634
903.230316	0.149098
903.412152	0.149135
903.593970	0.148970
903.775770	0.148743
903.957551	0.148744
904.139314	0.148687
904.321059	0.148543
904.502786	0.148400
904.684494	0.148144
904.866185	0.148033
905.047857	0.147950
905.229510	0.147771
905.411146	0.147546
905.592763	0.147507
905.774363	0.147712
905.955943	0.146855
906.137506	0.146208
906.319051	0.145914
906.500577	0.145831
906.682085	0.145658
906.863575	0.145591
907.045046	0.145393
907.226500	0.145276
907.407935	0.144856
907.589352	0.144787
907.770750	0.145169
907.952131	0.145130
908.133493	0.145190
908.314837	0.144738
908.496163	0.144753
908.677470	0.144713
908.858760	0.144488
909.040031	0.144666
909.221284	0.144776
909.402518	0.144140
909.583735	0.143703
909.764933	0.143304
909.946113	0.143046
910.127275	0.142721
910.308418	0.142468
910.489544	0.142438
910.670651	0.141562
910.851740	0.141072
911.032810	0.140906
911.213863	0.140762
911.394897	0.140564
911.575913	0.140257
911.756911	0.139951
911.937890	0.139466
912.118851	0.139236
912.299794	0.139402
912.480719	0.139346
912.661626	0.139173
912.842514	0.139111
913.023384	0.138981
913.204236	0.138868
913.385070	0.138081
913.565886	0.137896
913.746683	0.137406
913.927462	0.137256
914.108223	0.136874
914.288965	0.136775
914.469690	0.136130
914.650396	0.135745
914.831084	0.135477
915.011754	0.135569
915.192405	0.135622
915.373038	0.135758
915.553653	0.135368
915.734250	0.134976
915.914829	0.134616
916.095389	0.134244
916.275931	0.133851
916.456455	0.133538
916.636961	0.133260
916.817448	0.132503
916.997917	0.131890
917.178368	0.131196
917.358801	0.131455
917.539216	0.131221
917.719612	0.131059
917.899990	0.130577
918.080350	0.130404
918.260692	0.130331
918.441015	0.130274
918.621320	0.129766
918.801607	0.129449
918.981876	0.128701
919.162127	0.128270
919.342359	0.127871
919.522573	0.127701
919.702769	0.126937
919.882947	0.126448
920.063106	0.125318
920.243247	0.125017
920.423370	0.124990
920.603475	0.124574
920.783562	0.124419
920.963630	0.123974
921.143680	0.123639
921.323712	0.123672
921.503725	0.123036
921.683721	0.123323
921.863698	0.122832
922.043657	0.122812
922.223598	0.122851
922.403520	0.122053
922.583424	0.122153
922.763311	0.121628
922.943178	0.121222
923.123028	0.120921
923.302859	0.120605
923.482673	0.120102
923.662467	0.119681
923.842244	0.118829
924.022003	0.118607
924.201743	0.117949
924.381465	0.117397
924.561169	0.116367
924.740854	0.115967
924.920522	0.115471
925.100171	0.115511
925.279802	0.114680
925.459414	0.114618
925.639009	0.114269
925.818585	0.113658
925.998143	0.113311
926.177683	0.113529
926.357205	0.113285
926.536708	0.112560
926.716193	0.112054
926.895660	0.111458
927.075109	0.110068
927.254539	0.109253
927.433951	0.109211
927.613345	0.109068
927.792721	0.108470
927.972079	0.108277
928.151418	0.108086
928.330739	0.107216
928.510042	0.106498
928.689327	0.106659
928.868593	0.106536
929.047841	0.105384
929.227071	0.105130
929.406283	0.104178
929.585476	0.103377
929.764652	0.102892
929.943809	0.102711
930.122948	0.102343
930.302068	0.101409
930.481171	0.100706
930.660255	0.100399
930.839321	0.099174
931.018369	0.099250
931.197398	0.098927
931.376409	0.098676
931.555402	0.097899
931.734377	0.097541
931.913334	0.097747
932.092272	0.097422
932.271192	0.097246
932.450094	0.097023
932.628978	0.096235
932.807844	0.095131
932.986691	0.094681
933.165520	0.094087
933.344331	0.093918
933.523123	0.093069
933.701898	0.092520
933.880654	0.092008
934.059392	0.091773
934.238111	0.091186
934.416813	0.091124
934.595496	0.090479
934.774161	0.089838
934.952808	0.088898
935.131437	0.088589
935.310047	0.087699
935.488639	0.086989
935.667213	0.086833
935.845769	0.086840
936.024306	0.085851
936.202825	0.084530
936.381326	0.084286
936.559809	0.083491
936.738274	0.083012
936.916720	0.083396
937.095148	0.082797
937.273558	0.081631
937.451950	0.081333
937.630323	0.081094
937.808678	0.080593
937.987015	0.080311
938.165334	0.080499
938.343635	0.080105
938.521917	0.079130
938.700181	0.079289
938.878427	0.079066
939.056655	0.077571
939.234864	0.077751
939.413055	0.076996
939.591228	0.076434
939.769383	0.076340
939.947519	0.075323
940.125638	0.074540
940.303738	0.073963
940.481820	0.072981
940.659883	0.073076
940.837929	0.071984
941.015956	0.072310
941.193965	0.071820
941.371955	0.071033
941.549928	0.070731
941.727882	0.069883
941.905818	0.069106
942.083736	0.068869
942.261636	0.068291
942.439517	0.067872
942.617380	0.067115
942.795225	0.066453
942.973052	0.064579
943.150860	0.063472
943.328651	0.064208
943.506423	0.062006
943.684176	0.060809
943.861912	0.059386
944.039629	0.058079
944.217328	0.057375
944.395009	0.056855
944.572672	0.056364
944.750317	0.055445
944.927943	0.053748
945.105551	0.054250
945.283141	0.054451
945.460712	0.054220
945.638265	0.053981
945.815801	0.052802
945.993317	0.051105
946.170816	0.050720
946.348297	0.051297
946.525759	0.050807
946.703203	0.049684
946.880629	0.048752
947.058036	0.048323
947.235425	0.047057
947.412797	0.047496
947.590149	0.047567
947.767484	0.047510
947.944800	0.045826
948.122099	0.046538
948.299379	0.047278
948.476640	0.047714
948.653884	0.047843
948.831109	0.048365
949.008316	0.047389
949.185505	0.048241
949.362676	0.047353
949.539828	0.047422
949.716962	0.044779
949.894078	0.043210
950.071176	0.041412
950.248256	0.039640
950.425317	0.038345
950.602360	0.036923
950.779385	0.035861
950.956391	0.035759
951.133380	0.035554
951.310350	0.035859
951.487302	0.036264
951.664235	0.035016
951.841151	0.034755
952.018048	0.035383
952.194927	0.035722
952.371788	0.033578
952.548631	0.033209
952.725455	0.032646
952.902261	0.031155
953.079049	0.030591
953.255819	0.031766
953.432570	0.030581
953.609303	0.029102
953.786018	0.029440
953.962715	0.029906
954.139394	0.029650
954.316054	0.028444
954.492696	0.029403
954.669320	0.028244
954.845926	0.026877
955.022513	0.027958
955.199083	0.027831
955.375634	0.026247
955.552166	0.026198
955.728681	0.024621
955.905177	0.022875
956.081655	0.020966
956.258115	0.021589
956.434557	0.022472
956.610980	0.022007
956.787385	0.023044
956.963772	0.022491
957.140141	0.022657
957.316492	0.024337
957.492824	0.026177
957.669138	0.027433
957.845434	0.026232
958.021712	0.025510
958.197971	0.025786
958.374212	0.024915
958.550435	0.026398
958.726640	0.025021
958.902826	0.022765
959.078995	0.022639
959.255145	0.020934
959.431277	0.020298
959.607390	0.018978
959.783486	0.016843
959.959563	0.016772
960.135622	0.015615
960.311662	0.017064
960.487685	0.016871
960.663689	0.016354
960.839675	0.017163
961.015643	0.018023
961.191593	0.017756
961.367524	0.018803
961.543437	0.016893
961.719332	0.017527
961.895209	0.015918
962.071067	0.015111
962.246907	0.014388
962.422730	0.014803
962.598533	0.013537
962.774319	0.013251
962.950086	0.012028
963.125835	0.012657
963.301566	0.013272
963.477279	0.014873
963.652973	0.015799
963.828650	0.016446
964.004308	0.017392
964.179947	0.017844
964.355569	0.016728
964.531172	0.016434
964.706757	0.016444
964.882324	0.014129
965.057873	0.013059
965.233403	0.013238
965.408916	0.012312
965.584410	0.010995
965.759885	0.011585
965.935343	0.013179
966.110782	0.014450
966.286203	0.015131
966.461606	0.018008
966.636991	0.017991
966.812357	0.018789
966.987705	0.018443
967.163035	0.019700
967.338347	0.018764
967.513641	0.017862
967.688916	0.016900
967.864173	0.018011
968.039412	0.015880
968.214632	0.015448
968.389835	0.015035
968.565019	0.014893
968.740185	0.011980
968.915333	0.013518
969.090462	0.017279
969.265573	0.017685
969.440667	0.014984
969.615741	0.014178
969.790798	0.013406
969.965836	0.014709
970.140856	0.015181
970.315858	0.016169
970.490842	0.014881
970.665808	0.011110
970.840755	0.010809
971.015684	0.013475
971.190595	0.015221
971.365487	0.017776
971.540362	0.015209
971.715218	0.015885
971.890056	0.017369
972.064875	0.017713
972.239677	0.017873
972.414460	0.018648
972.589225	0.017495
972.763972	0.016496
972.938700	0.014654
973.113411	0.016940
973.288103	0.018377
973.462777	0.017113
973.637432	0.017398
973.812070	0.016862
973.986689	0.017866
974.161290	0.017714
974.335873	0.016717
974.510437	0.018171
974.684984	0.016231
974.859512	0.014716
975.034022	0.015161
975.208513	0.014369
975.382987	0.016441
975.557442	0.016860
975.731879	0.019392
975.906298	0.020547
976.080698	0.021017
976.255080	0.020821
976.429445	0.020112
976.603790	0.019991
976.778118	0.020817
976.952427	0.021059
977.126719	0.020027
977.300992	0.017244
977.475246	0.017326
977.649483	0.015884
977.823701	0.017770
977.997901	0.018068
978.172083	0.017473
978.346247	0.017486
978.520392	0.016714
978.694519	0.015335
978.868628	0.015384
979.042719	0.015734
979.216791	0.016619
979.390845	0.016719
979.564882	0.016398
979.738899	0.017267
979.912899	0.018490
980.086880	0.019088
980.260843	0.020377
980.434788	0.019543
980.608715	0.018252
980.782623	0.017254
980.956514	0.017586
981.130386	0.018538
981.304240	0.018558
981.478075	0.017626
981.651892	0.016544
981.825692	0.015435
981.999472	0.016694
982.173235	0.019871
982.346980	0.020165
982.520706	0.018199
982.694414	0.017906
982.868104	0.017576
983.041775	0.017428
983.215428	0.017699
983.389064	0.018480
983.562680	0.018022
983.736279	0.015766
983.909860	0.015002
984.083422	0.015476
984.256966	0.015017
984.430491	0.015637
984.603999	0.014225
984.777488	0.013779
984.950959	0.014701
985.124412	0.014759
985.297847	0.015075
985.471263	0.016542
985.644661	0.015083
985.818041	0.016061
985.991403	0.015092
986.164747	0.015698
986.338072	0.015414
986.511379	0.014968
986.684668	0.014354
986.857938	0.013593
987.031191	0.010057
987.204425	0.013103
987.377641	0.012925
987.550839	0.013018
987.724018	0.012406
987.897179	0.012839
988.070322	0.013652
988.243447	0.014359
988.416554	0.017310
988.589642	0.021336
988.762712	0.019935
988.935764	0.019876
989.108798	0.019381
989.281813	0.021636
989.454811	0.022524
989.627790	0.020081
989.800751	0.020442
989.973693	0.018229
990.146617	0.017812
990.319524	0.017476
990.492412	0.018104
990.665281	0.019264
990.838133	0.018701
991.010966	0.018704
991.183781	0.021615
991.356578	0.023536
991.529356	0.023883
991.702117	0.022191
991.874859	0.021053
992.047583	0.021077
992.220288	0.020240
992.392976	0.020027
992.565645	0.020058
992.738296	0.016891
992.910929	0.015436
993.083543	0.015025
993.256139	0.015933
993.428718	0.016450
993.601277	0.016602
993.773819	0.016899
993.946342	0.016535
994.118848	0.016388
994.291335	0.017742
994.463803	0.016903
994.636254	0.017647
994.808686	0.017441
994.981100	0.017537
995.153496	0.016352
995.325874	0.017990
995.498233	0.018113
995.670574	0.017383
995.842897	0.017098
996.015202	0.017949
996.187488	0.017438
996.359757	0.017672
996.532007	0.017531
996.704239	0.017153
996.876452	0.015536
997.048648	0.015873
997.220825	0.016111
997.392984	0.016456
997.565124	0.015338
997.737247	0.015685
997.909351	0.013802
998.081437	0.014655
998.253505	0.014785
998.425554	0.014410
998.597586	0.012826
998.769599	0.013161
998.941594	0.012922
999.113571	0.012764
999.285529	0.012440
999.457469	0.013930
999.629391	0.012803
999.801295	0.013013
999.973181	0.014051
1000.145048	0.014894
1000.316897	0.014908
1000.488728	0.014297
1000.660541	0.014344
1000.832335	0.013837
1001.004111	0.014221
1001.175869	0.015160
1001.347609	0.015195
1001.519331	0.014836
1001.691034	0.014304
1001.862719	0.014468
1002.034386	0.014690
1002.206035	0.015354
1002.377665	0.014100
1002.549277	0.013455
1002.720871	0.013435
1002.892447	0.012379
1003.064004	0.011998
1003.235544	0.013709
1003.407065	0.013477
1003.578568	0.013571
1003.750052	0.014212
1003.921519	0.015419
1004.092967	0.016748
1004.264397	0.018085
1004.435809	0.017652
1004.607202	0.016605
1004.778577	0.016624
1004.949934	0.016870
1005.121273	0.017949
1005.292594	0.017449
1005.463896	0.019330
1005.635180	0.017245
1005.806446	0.017139
1005.977694	0.019049
1006.148923	0.019881
1006.320135	0.018637
1006.491328	0.017963
1006.662503	0.016353
1006.833659	0.014735
1007.004798	0.013635
1007.175918	0.013841
1007.347020	0.012586
1007.518103	0.011767
1007.689169	0.011519
1007.860216	0.011512
1008.031245	0.011099
1008.202256	0.011216
1008.373248	0.012478
1008.544223	0.012290
1008.715179	0.014902
1008.886117	0.014401
1009.057036	0.015263
1009.227938	0.015943
1009.398821	0.015465
1009.569686	0.015783
1009.740533	0.016151
1009.911361	0.016133
1010.082172	0.014919
1010.252964	0.013486
1010.423738	0.014583
1010.594493	0.012638
1010.765231	0.013171
1010.935950	0.013575
1011.106651	0.014378
1011.277334	0.013354
1011.447998	0.013645
1011.618645	0.014558
1011.789273	0.014434
1011.959882	0.012694
1012.130474	0.014688
1012.301048	0.014697
1012.471603	0.012909
1012.642140	0.012765
1012.812658	0.014764
1012.983159	0.015464
1013.153641	0.014541
1013.324105	0.014243
1013.494551	0.016478
1013.664979	0.016004
1013.835388	0.015848
1014.005779	0.017164
1014.176152	0.016556
1014.346507	0.016008
1014.516843	0.014211
1014.687162	0.016251
1014.857462	0.014751
1015.027744	0.013168
1015.198007	0.013542
1015.368252	0.012289
1015.538480	0.012656
1015.708689	0.012537
1015.878879	0.011774
1016.049052	0.012591
1016.219206	0.011095
1016.389342	0.012710
1016.559460	0.013326
1016.729559	0.013906
1016.899641	0.015026
1017.069704	0.015351
1017.239749	0.017134
1017.409775	0.016769
1017.579784	0.016716
1017.749774	0.017489
1017.919746	0.017131
1018.089700	0.017291
1018.259635	0.014981
1018.429553	0.014774
1018.599452	0.014328
1018.769333	0.013614
1018.939195	0.014406
1019.109040	0.015306
1019.278866	0.014333
1019.448674	0.015546
1019.618464	0.016175
1019.788235	0.019255
1019.957989	0.018626
1020.127724	0.019187
1020.297441	0.018565
1020.467139	0.018840
1020.636820	0.016948
1020.806482	0.016137
1020.976126	0.014702
1021.145752	0.014317
1021.315359	0.012788
1021.484948	0.012424
1021.654519	0.011175
1021.824072	0.011019
1021.993607	0.011211
1022.163123	0.011785
1022.332621	0.013580
1022.502101	0.014722
1022.671563	0.014000
1022.841007	0.014208
1023.010432	0.014918
1023.179839	0.017060
1023.349228	0.017569
1023.518598	0.018137
1023.687951	0.018590
1023.857285	0.018085
1024.026601	0.017641
1024.195899	0.017456
1024.365178	0.018576
1024.534439	0.018697
1024.703682	0.017384
1024.872907	0.017026
1025.042114	0.016396
1025.211302	0.016237
1025.380472	0.015775
1025.549624	0.015698
1025.718758	0.015842
1025.887873	0.013615
1026.056970	0.013592
1026.226049	0.014631
1026.395110	0.015612
1026.564153	0.015335
1026.733177	0.015843
1026.902183	0.015311
1027.071171	0.014112
1027.240141	0.014578
1027.409092	0.016131
1027.578026	0.015964
1027.746940	0.015830
1027.915837	0.015415
1028.084716	0.015097
1028.253576	0.015166
1028.422418	0.017002
1028.591242	0.017648
1028.760048	0.017161
1028.928835	0.016891
1029.097604	0.017686
1029.266355	0.016044
1029.435088	0.015641
1029.603803	0.015152
1029.772499	0.014475
1029.941177	0.013582
1030.109837	0.014362
1030.278478	0.013013
1030.447102	0.011841
1030.615707	0.011177
1030.784294	0.013625
1030.952863	0.013168
1031.121413	0.014281
1031.289945	0.014344
1031.458460	0.012989
1031.626955	0.011668
1031.795433	0.012184
1031.963892	0.013652
1032.132334	0.013463
1032.300756	0.011709
1032.469161	0.012081
1032.637548	0.011654
1032.805916	0.011291
1032.974266	0.012475
1033.142598	0.013389
1033.310911	0.013610
1033.479207	0.015115
1033.647484	0.015342
1033.815743	0.015789
1033.983983	0.015087
1034.152206	0.015750
1034.320410	0.015998
1034.488596	0.016284
1034.656764	0.016889
1034.824914	0.017078
1034.993045	0.014747
1035.161158	0.014426
1035.329253	0.012889
1035.497330	0.012969
1035.665388	0.010819
1035.833428	0.011068
1036.001450	0.010799
1036.169454	0.009396
1036.337440	0.010208
1036.505407	0.009577
1036.673356	0.009855
1036.841287	0.011858
1037.009200	0.010589
1037.177094	0.011378
1037.344970	0.011868
1037.512828	0.012060
1037.680668	0.011406
1037.848489	0.010888
1038.016293	0.011033
1038.184078	0.011507
1038.351845	0.009770
1038.519593	0.010728
1038.687324	0.011171
1038.855036	0.010165
1039.022730	0.008111
1039.190406	0.010333
1039.358063	0.011278
1039.525702	0.012052
1039.693323	0.011394
1039.860926	0.011851
1040.028511	0.013669
1040.196077	0.014547
1040.363625	0.014494
1040.531155	0.015256
1040.698667	0.013810
1040.866161	0.012929
1041.033636	0.011530
1041.201093	0.012462
1041.368532	0.013070
1041.535952	0.011423
1041.703355	0.011303
1041.870739	0.010854
1042.038105	0.012239
1042.205452	0.012751
1042.372782	0.013419
1042.540093	0.013565
1042.707386	0.011775
1042.874661	0.011245
1043.041918	0.011749
1043.209156	0.011930
1043.376376	0.012037
1043.543578	0.011514
1043.710762	0.011739
1043.877927	0.010396
1044.045074	0.011046
1044.212203	0.011283
1044.379314	0.010676
1044.546407	0.011260
1044.713481	0.011206
1044.880537	0.012329
1045.047575	0.011604
1045.214595	0.010965
1045.381596	0.012396
1045.548579	0.012561
1045.715544	0.013461
1045.882491	0.014479
1046.049420	0.013901
1046.216330	0.012854
1046.383222	0.012268
1046.550096	0.012346
1046.716951	0.012347
1046.883789	0.012086
1047.050608	0.012549
1047.217409	0.012481
1047.384192	0.011643
1047.550956	0.010447
1047.717703	0.009957
1047.884431	0.009643
1048.051140	0.011723
1048.217832	0.012914
1048.384505	0.013121
1048.551161	0.013225
1048.717798	0.013654
1048.884416	0.014534
1049.051017	0.017009
1049.217599	0.017263
1049.384163	0.018085
1049.550709	0.017738
1049.717237	0.017346
1049.883746	0.017222
1050.050237	0.018233
1050.216710	0.018718
1050.383165	0.019883
1050.549601	0.019230
1050.716019	0.020612
1050.882420	0.021392
1051.048801	0.020417
1051.215165	0.021389
1051.381510	0.022191
1051.547837	0.020266
1051.714146	0.019984
1051.880437	0.019275
1052.046709	0.018162
1052.212964	0.016738
1052.379200	0.015353
1052.545417	0.016128
1052.711617	0.015276
1052.877798	0.015362
1053.043961	0.016242
1053.210106	0.016276
1053.376233	0.016750
1053.542341	0.017728
1053.708432	0.017114
1053.874504	0.018501
1054.040557	0.016384
1054.206593	0.014843
1054.372610	0.012545
1054.538609	0.012924
1054.704590	0.011741
1054.870553	0.010971
1055.036497	0.011061
1055.202424	0.014070
1055.368331	0.012479
1055.534221	0.014769
1055.700093	0.015672
1055.865946	0.016864
1056.031781	0.014849
1056.197598	0.014797
1056.363397	0.013889
1056.529177	0.013396
1056.694939	0.011870
1056.860683	0.011858
1057.026409	0.012262
1057.192116	0.012267
1057.357806	0.014449
1057.523477	0.014911
1057.689130	0.016534
1057.854764	0.016485
1058.020381	0.015432
1058.185979	0.015002
1058.351559	0.014705
1058.517120	0.016089
1058.682664	0.015390
1058.848189	0.012854
1059.013696	0.013645
1059.179185	0.015305
1059.344656	0.015317
1059.510108	0.015971
1059.675542	0.016699
1059.840958	0.017909
1060.006356	0.016154
1060.171735	0.016904
1060.337096	0.016952
1060.502439	0.016144
1060.667764	0.014025
1060.833071	0.014259
1060.998359	0.014827
1061.163629	0.013548
1061.328881	0.012690
1061.494115	0.010644
1061.659330	0.010472
1061.824527	0.011936
1061.989706	0.012324
1062.154867	0.011247
1062.320010	0.012995
1062.485134	0.012155
1062.650240	0.012939
1062.815328	0.011649
1062.980398	0.011973
1063.145449	0.012095
1063.310482	0.011459
1063.475497	0.010542
1063.640494	0.011289
1063.805473	0.010811
1063.970433	0.011464
1064.135375	0.012131
1064.300299	0.014464
1064.465204	0.016670
1064.630092	0.016049
1064.794961	0.014671
1064.959812	0.015325
1065.124645	0.014332
1065.289459	0.012654
1065.454256	0.012399
1065.619034	0.013591
1065.783793	0.012959
1065.948535	0.011135
1066.113258	0.012268
1066.277964	0.013352
1066.442651	0.016369
1066.607319	0.015840
1066.771970	0.015321
1066.936602	0.014978
1067.101216	0.013995
1067.265812	0.012139
1067.430389	0.012376
1067.594949	0.010891
1067.759490	0.009924
1067.924013	0.008382
1068.088518	0.008205
1068.253004	0.009715
1068.417472	0.010425
1068.581922	0.010466
1068.746354	0.011383
1068.910768	0.012849
1069.075163	0.013740
1069.239540	0.016521
1069.403899	0.018248
1069.568240	0.020161
1069.732562	0.020001
1069.896866	0.019896
1070.061152	0.017985
1070.225420	0.019385
1070.389670	0.018166
1070.553901	0.018331
1070.718114	0.016224
1070.882309	0.014378
1071.046486	0.010915
1071.210644	0.010846
1071.374784	0.009973
1071.538906	0.013019
1071.703010	0.012034
1071.867096	0.011655
1072.031163	0.012979
1072.195212	0.012137
1072.359243	0.010649
1072.523256	0.014413
1072.687250	0.016516
1072.851226	0.018660
1073.015184	0.018167
1073.179124	0.020950
1073.343045	0.021210
1073.506949	0.021161
1073.670834	0.020873
1073.834701	0.020209
1073.998549	0.019359
1074.162380	0.017660
1074.326192	0.018013
1074.489986	0.017300
1074.653761	0.015418
1074.817519	0.014158
1074.981258	0.013839
1075.144979	0.015770
1075.308682	0.017847
1075.472367	0.019675
1075.636033	0.019945
1075.799681	0.018822
1075.963311	0.018355
1076.126923	0.017321
1076.290516	0.021802
1076.454092	0.020155
1076.617649	0.021230
1076.781187	0.022445
1076.944708	0.022156
1077.108210	0.021833
1077.271695	0.021120
1077.435160	0.023735
1077.598608	0.024710
1077.762038	0.022386
1077.925449	0.024572
1078.088842	0.023860
1078.252217	0.023499
1078.415573	0.023710
1078.578912	0.023751
1078.742232	0.026001
1078.905534	0.025547
1079.068817	0.025576
1079.232083	0.025553
1079.395330	0.025646
1079.558559	0.024992
1079.721770	0.026204
1079.884962	0.022499
1080.048136	0.021815
1080.211293	0.020629
1080.374430	0.018734
1080.537550	0.019362
1080.700651	0.018642
1080.863735	0.017374
1081.026800	0.019825
1081.189846	0.016742
1081.352875	0.019848
1081.515885	0.022702
1081.678877	0.022539
1081.841851	0.022853
1082.004807	0.022614
1082.167744	0.022453
1082.330663	0.020795
1082.493564	0.018697
1082.656447	0.020667
1082.819312	0.021774
1082.982158	0.020235
1083.144986	0.019257
1083.307796	0.020382
1083.470587	0.021460
1083.633361	0.023720
1083.796116	0.025130
1083.958853	0.026009
1084.121571	0.024624
1084.284272	0.024995
1084.446954	0.025057
1084.609618	0.027506
1084.772264	0.024797
1084.934892	0.027046
1085.097501	0.025877
1085.260092	0.025889
1085.422665	0.025138
1085.585220	0.025990
1085.747756	0.024549
1085.910274	0.023397
1086.072774	0.022130
1086.235256	0.022828
1086.397720	0.020738
1086.560165	0.021735
1086.722592	0.021914
1086.885001	0.021195
1087.047392	0.021259
1087.209764	0.020654
1087.372119	0.023884
1087.534455	0.023131
1087.696772	0.023608
1087.859072	0.023456
1088.021353	0.023284
1088.183616	0.025072
1088.345861	0.025619
1088.508088	0.025130
1088.670296	0.022711
1088.832486	0.022306
1088.994658	0.025013
1089.156812	0.024725
1089.318948	0.024770
1089.481065	0.022680
1089.643164	0.025206
1089.805245	0.024692
1089.967308	0.025028
1090.129352	0.030379
1090.291378	0.030327
1090.453386	0.029617
1090.615376	0.030635
1090.777347	0.026885
1090.939301	0.028659
1091.101236	0.025122
1091.263153	0.026591
1091.425051	0.029482
1091.586932	0.026904
1091.748794	0.025848
1091.910638	0.024764
1092.072463	0.022821
1092.234271	0.024677
1092.396060	0.027758
1092.557831	0.027863
1092.719584	0.025915
1092.881319	0.023122
1093.043035	0.024137
1093.204733	0.024304
1093.366413	0.024656
1093.528075	0.024428
1093.689718	0.023727
1093.851343	0.019068
1094.012950	0.020437
1094.174539	0.021784
1094.336110	0.019252
1094.497662	0.017534
1094.659196	0.017395
1094.820712	0.015608
1094.982210	0.018196
1095.143689	0.018382
1095.305151	0.020732
1095.466594	0.018554
1095.628018	0.019535
1095.789425	0.021585
1095.950813	0.022291
1096.112183	0.024676
1096.273535	0.026090
1096.434869	0.026969
1096.596184	0.028291
1096.757482	0.024836
1096.918761	0.027416
1097.080021	0.028957
1097.241264	0.029213
1097.402488	0.030316
1097.563694	0.029191
1097.724882	0.027645
1097.886052	0.026139
1098.047203	0.026610
1098.208336	0.028938
1098.369451	0.026131
1098.530548	0.018993
1098.691627	0.020942
1098.852687	0.021090
1099.013729	0.019294
1099.174753	0.022099
1099.335758	0.023006
1099.496746	0.022945
1099.657715	0.021787
1099.818666	0.024878
1099.979599	0.029223
1100.140513	0.027694
1100.301409	0.029322
1100.462287	0.027091
1100.623147	0.026436
1100.783989	0.027416
1100.944812	0.029951
1101.105617	0.033318
1101.266404	0.033122
1101.427173	0.035059
1101.587923	0.034874
1101.748656	0.032963
1101.909370	0.037212
1102.070066	0.034237
1102.230743	0.032032
1102.391403	0.033493
1102.552044	0.033977
1102.712667	0.032165
1102.873271	0.029416
1103.033858	0.028367
1103.194426	0.025261
1103.354976	0.025550
1103.515508	0.028743
1103.676021	0.028789
1103.836517	0.026946
1103.996994	0.023917
1104.157453	0.023809
1104.317893	0.025903
1104.478316	0.026284
1104.638720	0.030127
1104.799106	0.027067
1104.959474	0.028618
1105.119823	0.031718
1105.280155	0.030841
1105.440468	0.031783
1105.600763	0.033660
1105.761039	0.035944
1105.921298	0.035680
1106.081538	0.032208
1106.241760	0.034365
1106.401964	0.033874
1106.562149	0.028056
1106.722316	0.027848
1106.882465	0.028218
1107.042596	0.026902
1107.202709	0.025659
1107.362803	0.031375
1107.522879	0.035670
1107.682937	0.037033
1107.842977	0.036079
1108.002999	0.041059
1108.163002	0.040610
1108.322987	0.040774
1108.482954	0.040845
1108.642902	0.040733
1108.802833	0.037768
1108.962745	0.036600
1109.122639	0.033328
1109.282515	0.034494
1109.442372	0.037804
1109.602211	0.033525
1109.762032	0.032351
1109.921835	0.033154
1110.081620	0.029549
1110.241386	0.029478
1110.401134	0.030000
1110.560864	0.032780
1110.720576	0.034478
1110.880269	0.029023
1111.039945	0.032131
1111.199602	0.037439
1111.359240	0.038287
1111.518861	0.042926
1111.678463	0.042153
1111.838047	0.040673
1111.997613	0.041853
1112.157161	0.039176
1112.316690	0.042780
1112.476202	0.048064
1112.635695	0.042255
1112.795169	0.039730
1112.954626	0.036442
1113.114064	0.037192
1113.273484	0.038484
1113.432886	0.037984
1113.592270	0.039574
1113.751635	0.035572
1113.910983	0.032285
1114.070312	0.032373
1114.229622	0.036232
1114.388915	0.037923
1114.548189	0.038066
1114.707445	0.036353
1114.866683	0.031088
1115.025903	0.031367
1115.185104	0.036823
1115.344287	0.037817
1115.503452	0.038908
1115.662599	0.037002
1115.821727	0.033626
1115.980838	0.032260
1116.139930	0.033520
1116.299004	0.036669
1116.458059	0.035691
1116.617097	0.032337
1116.776116	0.030147
1116.935117	0.031635
1117.094099	0.030412
1117.253064	0.037135
1117.412010	0.040875
1117.570938	0.040900
1117.729848	0.044763
1117.888740	0.043846
1118.047613	0.043415
1118.206468	0.041944
1118.365305	0.043153
1118.524124	0.040326
1118.682924	0.039464
1118.841707	0.035814
1119.000471	0.035668
1119.159216	0.029739
1119.317944	0.031695
1119.476653	0.029888
1119.635344	0.033472
1119.794017	0.029156
1119.952672	0.033198
1120.111308	0.031290
1120.269927	0.036324
1120.428527	0.040950
1120.587108	0.046321
1120.745672	0.043494
1120.904217	0.045591
1121.062744	0.042915
1121.221253	0.046243
1121.379744	0.043361
1121.538216	0.044220
1121.696671	0.040535
1121.855107	0.037765
1122.013524	0.030701
1122.171924	0.032890
1122.330305	0.035031
1122.488668	0.034104
1122.647013	0.032168
1122.805340	0.035735
1122.963648	0.033072
1123.121938	0.031219
1123.280210	0.027676
1123.438464	0.033911
1123.596700	0.031519
1123.754917	0.034635
1123.913116	0.037378
1124.071297	0.035577
1124.229459	0.036181
1124.387604	0.038034
1124.545730	0.042064
1124.703838	0.047201
1124.861928	0.044019
1125.019999	0.045815
1125.178052	0.043268
1125.336088	0.046482
1125.494104	0.047238
1125.652103	0.046938
1125.810083	0.042162
1125.968045	0.044201
1126.125989	0.043629
1126.283915	0.044702
1126.441823	0.048377
1126.599712	0.042380
1126.757583	0.046727
1126.915436	0.047771
1127.073270	0.046761
1127.231087	0.054756
1127.388885	0.046321
1127.546665	0.043715
1127.704426	0.045446
1127.862170	0.040619
1128.019895	0.042885
1128.177602	0.037805
1128.335291	0.035849
1128.492961	0.033564
1128.650614	0.031296
1128.808248	0.033519
1128.965864	0.035377
1129.123461	0.032964
1129.281041	0.034072
1129.438602	0.035720
1129.596145	0.028089
1129.753670	0.031478
1129.911176	0.031850
1130.068665	0.035050
1130.226135	0.039220
1130.383587	0.042201
1130.541020	0.044067
1130.698436	0.040900
1130.855833	0.040328
1131.013212	0.049952
1131.170573	0.044672
1131.327915	0.048496
1131.485239	0.045424
1131.642545	0.044928
1131.799833	0.036793
1131.957103	0.034267
1132.114354	0.041767
1132.271588	0.039844
1132.428803	0.036497
1132.585999	0.039640
1132.743178	0.044450
1132.900338	0.042874
1133.057480	0.043841
1133.214604	0.050513
1133.371710	0.055099
1133.528797	0.051706
1133.685866	0.050897
1133.842917	0.055258
1133.999950	0.059675
1134.156964	0.054152
1134.313960	0.056955
1134.470938	0.050932
1134.627898	0.048606
1134.784840	0.047591
1134.941763	0.047264
1135.098668	0.050123
1135.255555	0.044218
1135.412424	0.047124
1135.569274	0.046238
1135.726107	0.045385
1135.882921	0.048100
1136.039716	0.048856
1136.196494	0.048143
1136.353253	0.045978
1136.509995	0.049031
1136.666717	0.054261
1136.823422	0.046037
1136.980109	0.045015
1137.136777	0.045325
1137.293427	0.046969
1137.450059	0.044901
1137.606672	0.040235
1137.763267	0.041460
1137.919844	0.042560
1138.076403	0.042541
1138.232944	0.047454
1138.389466	0.049200
1138.545971	0.053775
1138.702457	0.051187
1138.858924	0.049725
1139.015374	0.056866
1139.171805	0.058673
1139.328218	0.059969
1139.484613	0.057890
1139.640990	0.050576
1139.797348	0.048803
1139.953688	0.041423
1140.110010	0.045194
1140.266314	0.049777
1140.422600	0.042772
1140.578867	0.036759
1140.735116	0.035301
1140.891347	0.037770
1141.047559	0.042858
1141.203754	0.042991
1141.359930	0.044739
1141.516088	0.039076
1141.672228	0.031889
1141.828349	0.031730
1141.984452	0.033797
1142.140537	0.031078
1142.296604	0.024168
1142.452653	0.025586
1142.608683	0.022437
1142.764695	0.016909
1142.920689	0.022427
1143.076665	0.023614
1143.232622	0.031465
1143.388562	0.030132
1143.544483	0.030969
1143.700385	0.032215
1143.856270	0.032908
1144.012136	0.041000
1144.167985	0.050980
1144.323814	0.047487
1144.479626	0.052517
1144.635420	0.050024
1144.791195	0.048240
1144.946952	0.045033
1145.102691	0.045957
1145.258411	0.042981
1145.414113	0.039911
1145.569798	0.034872
1145.725463	0.032367
1145.881111	0.036760
1146.036741	0.037449
1146.192352	0.042847
1146.347945	0.047960
1146.503519	0.050296
1146.659076	0.056198
1146.814614	0.054755
1146.970134	0.053540
1147.125636	0.062209
1147.281120	0.058064
1147.436585	0.052880
1147.592032	0.053632
1147.747461	0.044316
1147.902872	0.039792
1148.058265	0.032908
1148.213639	0.032503
1148.368995	0.030718
1148.524333	0.027772
1148.679653	0.027560
1148.834954	0.027028
1148.990237	0.025901
1149.145502	0.029361
1149.300749	0.034682
1149.455977	0.039876
1149.611188	0.034100
1149.766380	0.037737
1149.921553	0.029995
1150.076709	0.028964
1150.231846	0.031615
1150.386966	0.046368
1150.542066	0.041130
1150.697149	0.031708
1150.852214	0.036102
1151.007260	0.044881
1151.162288	0.049000
1151.317298	0.051304
1151.472289	0.053455
1151.627263	0.050460
1151.782218	0.032436
1151.937155	0.042202
1152.092073	0.050418
1152.246974	0.047831
1152.401856	0.042447
1152.556720	0.036012
1152.711566	0.039850
1152.866393	0.036773
1153.021203	0.047565
1153.175994	0.055316
1153.330767	0.058740
1153.485521	0.056309
1153.640258	0.053184
1153.794976	0.058184
1153.949676	0.063687
1154.104358	0.066438
1154.259021	0.070169
1154.413667	0.067224
1154.568294	0.064277
1154.722903	0.062265
1154.877493	0.067202
1155.032066	0.067074
1155.186620	0.064934
1155.341156	0.065133
1155.495674	0.057926
1155.650173	0.059991
1155.804654	0.053665
1155.959118	0.058686
1156.113562	0.056276
1156.267989	0.058737
1156.422397	0.054778
1156.576788	0.060632
1156.731160	0.061256
1156.885513	0.072596
1157.039849	0.071856
1157.194166	0.076903
1157.348465	0.069599
1157.502746	0.058554
1157.657009	0.051781
1157.811253	0.055416
1157.965479	0.048461
1158.119687	0.040248
1158.273877	0.037009
1158.428048	0.035123
1158.582201	0.026972
1158.736337	0.027269
1158.890453	0.032843
1159.044552	0.037154
1159.198632	0.048891
1159.352694	0.049027
1159.506738	0.053368
1159.660764	0.050714
1159.814771	0.044421
1159.968761	0.048807
1160.122732	0.066423
1160.276685	0.071723
1160.430619	0.067445
1160.584535	0.053646
1160.738434	0.054492
1160.892313	0.056650
1161.046175	0.056148
1161.200019	0.058383
1161.353844	0.059437
1161.507651	0.041043
1161.661440	0.040667
1161.815210	0.036216
1161.968962	0.036068
1162.122697	0.039815
1162.276412	0.029452
1162.430110	0.029123
1162.583789	0.033982
1162.737451	0.033698
1162.891094	0.038464
1163.044718	0.029875
1163.198325	0.037875
1163.351913	0.035671
1163.505483	0.043641
1163.659035	0.049165
1163.812569	0.049378
1163.966084	0.042539
1164.119581	0.050249
1164.273060	0.046283
1164.426521	0.060420
1164.579964	0.060810
1164.733388	0.060561
1164.886794	0.046917
1165.040182	0.048586
1165.193551	0.054227
1165.346903	0.063387
1165.500236	0.063681
1165.653551	0.055713
1165.806848	0.054653
1165.960126	0.050148
1166.113386	0.048736
1166.266628	0.049738
1166.419852	0.051832
1166.573058	0.046510
1166.726245	0.044013
1166.879414	0.037546
1167.032565	0.056405
1167.185698	0.051850
1167.338812	0.062811
1167.491909	0.060202
1167.644987	0.054214
1167.798046	0.052158
1167.951088	0.054651
1168.104111	0.061500
1168.257117	0.063723
1168.410103	0.049428
1168.563072	0.049888
1168.716023	0.047113
1168.868955	0.062171
1169.021869	0.068244
1169.174765	0.070405
1169.327642	0.079163
1169.480501	0.067299
1169.633343	0.058952
1169.786165	0.060311
1169.938970	0.057320
1170.091757	0.049896
1170.244525	0.034036
1170.397275	0.046213
1170.550007	0.051611
1170.702720	0.043034
1170.855415	0.055010
1171.008092	0.081824
1171.160751	0.109811
1171.313392	0.136772
1171.466014	0.135489
1171.618619	0.299334
1171.771205	0.299334
1171.923772	0.299334
