sample name	sample
index	302
start time	 02-25-2021  02:11:29 PM
880	0.434774
Peak Time (s)	92.538
Peak Height 	0.4348
calc peak height	90,93
Baseline Time (s)	10.037
Baseline Value 	-0.005641
subtract baseline	10,4
Abs	0.303803
Peak Time (s)	90.037
Peak Height 	0.3038
calc peak height	90,93
Baseline Time (s)	10.535
Baseline Value 	0.004044
subtract baseline	10,3
PK_550	0.168319
Peak Time (s)	92.035
Peak Height 	0.1683
calc peak height	90,93
Baseline Time (s)	10.535
Baseline Value 	5.9098E-4
subtract baseline	10,2
PK_880	0.287973
Peak Time (s)	90.538
Peak Height 	0.288
calc peak height	90,93
Baseline Time (s)	11.036
Baseline Value 	0.002032
subtract baseline	10,1


Time (s)	A880-A510	A880-A775	A880-A975	A880	I510	I775	I975	I880	
0.034500	0.000064	-0.000024	-0.001806	0.003231	6817.710581	44952.218620	3984.807021	23804.880269
0.538000	-0.002702	-0.000692	-0.002918	0.003748	6788.497142	44837.790155	3980.804940	23780.036441
1.035000	-0.002416	-0.000875	-0.004891	0.005519	6775.360126	44649.689774	3971.666115	23695.169725
1.535500	-0.002144	-0.000782	-0.001539	0.002071	6808.362502	44991.087320	3988.323226	23860.710939
2.036000	-0.001740	-0.000412	0.001331	0.001343	6818.461441	45097.519328	3997.243487	23895.839547
2.536000	-0.000356	0.000005	-0.004375	0.001464	6829.766293	45126.244186	3982.837198	23890.019397
3.036000	-0.001786	-0.001364	-0.004795	0.003993	6794.457531	44749.484802	3975.617932	23768.295309
3.536500	0.001306	-0.000252	0.002944	0.000635	6852.142047	45181.800506	4003.036816	23930.054787
4.037000	0.001972	0.000665	-0.002349	0.001078	6854.151291	45227.890242	3988.774778	23908.641502
4.537000	0.000833	0.000184	0.003847	0.001515	6839.970620	45138.711854	4003.094293	23887.558170
5.039500	0.000371	-0.000140	-0.003139	0.000931	6841.069514	45163.943804	3987.189699	23915.758247
5.534500	0.000583	-0.000880	-0.008241	0.000123	6850.243329	45170.519077	3976.651980	23954.814783
6.035500	0.001342	-0.000689	-0.001162	0.000178	6856.587029	45183.758064	3993.942472	23952.152618
6.535500	-0.000134	-0.000519	-0.004935	-0.000515	6849.541087	45267.850257	3986.326652	23985.774940
7.035500	-0.000714	-0.000579	0.001150	0.000149	6838.343056	45197.220350	3999.766664	23953.567550
7.536500	0.000773	-0.000786	0.001259	0.000377	6849.670339	45154.990176	3999.470123	23942.551962
8.036500	0.000338	-0.000019	0.002693	0.000817	6841.793792	45186.798919	4001.951970	23921.253463
8.536500	0.002169	-0.001360	0.000720	-0.000773	6872.664638	45211.015999	4000.995762	23998.274284
9.037000	0.001277	-0.000829	0.000396	-0.000106	6858.566924	45197.770585	3998.523452	23965.918052
9.540000	0.000060	0.000321	-0.003054	0.000412	6842.942489	45259.270240	3988.680033	23940.862395
10.037500	-0.000838	0.000086	0.000754	0.000000	6838.571719	45276.562204	3999.151702	23960.794179
10.535000	-0.000725	0.000000	0.000000	-0.000191	6841.303710	45286.756143	3997.748608	23970.044214
11.035500	0.000000	-0.000019	-0.000456	0.000191	6844.389070	45247.704465	3995.665329	23951.561802
11.536000	-0.000889	0.000475	-0.007373	0.000239	6835.968980	45291.149570	3978.488827	23949.202941
12.036000	-0.000239	-0.000243	-0.001397	-0.000103	6844.878214	45254.488571	3994.057426	23965.783232
12.536000	0.000049	-0.000890	-0.003791	-0.000059	6847.069528	45187.278146	3988.023224	23963.638486
13.036500	0.003137	-0.000585	0.003161	-0.001696	6889.827750	45376.506702	4009.431198	24043.106932
13.536500	0.000719	-0.000598	-0.004300	0.000498	6848.091048	45161.473474	3985.394561	23936.685519
14.039500	0.000143	-0.000686	-0.001832	0.000484	6843.033203	45154.291458	3991.521923	23937.349039
14.537000	-0.000648	0.000418	-0.003849	0.003183	6811.792387	44999.694126	3979.910030	23807.223640
15.035000	-0.001213	-0.000925	0.001546	0.000751	6828.468678	45105.139848	3999.252765	23924.436781
15.538500	-0.001225	-0.000088	0.001891	0.001206	6824.295295	45142.215639	3998.978532	23902.452683
16.036000	0.000283	-0.001824	-0.002252	-0.000257	6850.959505	45115.730562	3992.318404	23973.222446
16.536000	-0.001401	-0.001014	-0.001697	0.001326	6821.648188	45040.818957	3989.774037	23896.684995
17.036000	0.002115	0.000557	0.004218	0.001184	6854.496952	45207.143364	4004.854126	23903.548729
17.536500	0.000390	-0.000588	-0.003242	0.000511	6845.014828	45161.234099	3987.973408	23936.078885
18.037000	0.004160	-0.000232	0.001804	-0.002641	6907.770627	45503.518869	4008.395876	24089.095757
18.537000	-0.000203	-0.000063	0.001317	0.002267	6823.944692	45041.811671	3994.911005	23851.297443
19.037500	-0.000850	-0.000410	0.002136	0.001489	6825.112362	45083.484431	3998.885216	23888.787203
19.535000	-0.000497	-0.000317	-0.004154	0.001651	6826.829701	45076.852999	3982.919238	23881.007992
20.035000	-0.001000	-0.001159	-0.003811	0.001027	6827.916391	45055.750235	3985.297269	23911.127422
20.535500	-0.000391	0.000518	-0.003269	0.002613	6819.171935	45064.540606	3982.730507	23834.627272
21.035500	-0.001105	-0.000081	-0.001285	0.002153	6816.899393	45051.067792	3988.748630	23856.771578
21.536000	-0.000432	-0.000433	-0.002398	0.001341	6830.188933	45095.637979	3988.005563	23895.948949
22.036000	-0.000116	0.000442	-0.002430	0.002225	6825.106137	45094.880375	3985.748511	23853.332642
22.536500	0.000146	-0.000469	-0.002089	0.001509	6833.860030	45075.900807	3988.354108	23887.845772
23.036500	0.001919	0.000018	0.002048	0.002327	6842.443019	45043.850089	3996.579845	23848.418728
23.539500	0.000300	-0.000378	0.001743	0.001645	6834.025647	45071.540852	3997.517272	23881.292616
24.037500	0.000002	-0.000906	0.001169	0.001489	6832.753528	45035.441899	3996.476390	23888.814484
24.535000	-0.000716	-0.000559	0.002243	0.001191	6828.987418	45098.005257	3999.896198	23903.192426
25.035000	-0.001277	-0.000271	0.002313	0.001715	6819.272432	45075.101271	3998.762448	23877.874584
25.535000	0.000002	0.000348	0.000070	0.001927	6828.820862	45114.586895	3992.660855	23867.657426
26.036000	-0.001037	-0.000838	0.003818	0.001138	6826.584734	45076.090982	4003.965378	23905.761732
26.536500	0.001065	-0.000380	0.003816	0.001737	6840.066028	45062.380770	4002.461309	23876.849645
27.036000	-0.000749	-0.000089	-0.001384	0.001568	6825.314295	45107.034362	3989.950754	23885.007422
27.536500	-0.001235	-0.000944	-0.001642	0.000871	6827.205848	45091.711382	3991.035737	23918.654712
28.040000	-0.000980	-0.000991	-0.002001	-0.001117	6847.334604	45280.431159	3995.072917	24014.942713
28.537000	-0.001269	-0.000268	0.000026	0.001014	6825.625222	45143.475633	3994.818360	23911.764049
29.035000	0.000006	0.000085	0.001922	0.000988	6837.282356	45180.228882	3999.600173	23913.003522
29.535000	0.000232	-0.000243	-0.000623	0.000771	6841.259291	45169.420418	3993.808359	23923.479435
30.035000	-0.000034	-0.000867	0.000148	0.000282	6843.259049	45156.404822	3996.939131	23947.146814
30.535500	-0.001436	-0.000585	-0.001188	0.001658	6818.371172	45050.226233	3990.212592	23880.651414
31.036000	-0.000021	-0.000419	-0.000199	0.000674	6839.852089	45161.759230	3995.102662	23928.173997
31.565500	0.001525	-0.000499	-0.001044	0.000864	6852.051580	45135.532645	3992.532905	23918.975072
32.036000	-0.001596	0.000610	-0.004741	0.003097	6804.109818	45026.491437	3977.935318	23811.314034
32.537000	0.001537	-0.000629	-0.001275	0.001805	6843.697203	45031.691615	3989.633538	23873.561865
33.065500	-0.001337	-0.000534	-0.001439	0.004171	6796.863475	44812.155150	3983.397833	23759.730782
33.534500	-0.000133	-0.000763	0.000192	0.000063	6844.334029	45187.747613	3997.594063	23957.720512
34.037500	0.000217	-0.000032	-0.006823	0.000623	6842.451172	45204.369681	3978.897328	23930.656189
34.535500	-0.000310	-0.000516	0.000359	0.001619	6828.783163	45060.627523	3994.140292	23882.517257
35.035500	-0.001581	-0.000249	0.005282	0.004073	6795.564280	44849.105404	4000.286813	23764.444025
35.536000	-0.000212	-0.001025	-0.001814	0.001012	6835.107494	45070.146402	3990.261273	23911.840967
36.036000	-0.000505	0.000403	-0.002560	0.002679	6817.563393	45046.938239	3984.310920	23831.441975
36.536500	-0.001860	-0.000271	-0.003109	0.002011	6811.431508	45046.426053	3984.601317	23863.611551
37.036500	-0.000572	-0.000411	-0.002774	0.003857	6806.458053	44854.319680	3980.890509	23774.801265
37.537000	0.001067	-0.000215	-0.002062	0.002276	6835.244158	45026.166862	3986.530635	23850.872889
38.037500	-0.000683	0.000016	-0.001344	0.002319	6819.187498	45044.406569	3988.193400	23848.788030
38.534500	-0.000246	-0.001433	0.003023	0.001638	6829.189992	44970.030882	4000.727313	23881.616222
39.035000	-0.001233	-0.000216	-0.001847	0.002482	6812.825814	45006.135658	3986.549571	23840.929495
39.535500	-0.000293	0.000290	0.002152	0.002688	6819.375843	45035.164895	3995.940388	23831.014893
40.035500	-0.001900	-0.001020	-0.000126	0.001586	6814.869743	45015.038493	3993.021501	23884.129248
40.535500	-0.000591	-0.000523	-0.002363	0.002072	6822.222363	45016.046459	3986.289384	23860.678601
41.036000	0.001053	-0.000608	0.005194	0.002425	6833.776974	44973.693841	4004.189347	23843.679378
41.536000	-0.000104	-0.000244	-0.000455	0.002383	6823.789352	45012.911213	3990.230770	23845.678177
42.039500	0.000110	-0.000386	0.000067	0.002467	6824.956528	44991.148624	3991.315754	23841.653596
42.537000	-0.001280	-0.000718	-0.002462	0.001888	6817.708654	45015.035856	3986.499909	23869.549229
43.036500	-0.002809	-0.001409	0.000999	0.001287	6809.426908	45006.265682	3996.555057	23898.542145
43.537500	-0.000475	-0.001038	-0.002283	0.001763	6826.021181	44996.086849	3987.248605	23875.579132
44.035500	-0.001480	-0.000332	-0.002474	0.001833	6816.412522	45057.755493	3986.604500	23872.192080
44.535000	0.000534	-0.000479	0.001374	0.001836	6834.408464	45043.238036	3996.125746	23872.077805
45.035000	-0.000833	-0.000434	0.001098	0.002121	6819.619131	45019.955899	3994.727902	23858.310354
45.536000	0.001475	-0.000751	0.003252	-0.003019	6886.749604	45489.720327	4012.996841	24107.535757
46.036000	0.000889	-0.000350	-0.000726	0.000714	6847.673645	45164.562907	3993.694835	23926.236353
46.538500	0.000669	-0.000912	0.001040	0.000991	6843.209789	45083.200744	3997.394659	23912.860278
47.037000	-0.000673	-0.000580	-0.004938	0.004054	6803.804177	44819.037603	3975.121228	23765.367980
47.537000	0.001357	-0.000927	-0.000018	0.000362	6855.064556	45142.765783	3996.328834	23943.275612
48.034500	-0.000206	-0.000221	-0.002583	0.000937	6835.836121	45155.472113	3988.546523	23915.471156
48.535000	-0.000923	-0.000341	0.003413	0.001212	6826.943736	45117.151543	4002.766715	23902.171732
49.035500	0.000504	-0.000304	0.003770	0.001307	6838.887933	45111.515352	4003.422697	23897.610844
49.535500	-0.000449	-0.000958	-0.003108	0.002022	6823.931352	44978.771154	3984.577648	23863.076901
50.036000	-0.000037	-0.000298	-0.000705	0.001354	6833.610023	45107.519357	3992.158970	23895.312291
50.536000	0.000544	0.000110	0.000396	0.002142	6831.756712	45070.649433	3992.937790	23857.331982
51.039000	0.000042	-0.000300	0.000002	0.002912	6820.365840	44956.383274	3990.052624	23820.217061
51.537000	0.001278	0.000305	0.007394	0.000293	6854.977499	45269.292388	4015.095819	23946.611256
52.037000	0.001343	0.000036	0.002620	-0.001810	6874.568592	45448.307944	4008.356800	24048.614482
52.537500	0.000484	-0.000377	0.004087	0.002817	6825.174617	44958.161644	4000.439706	23824.821469
53.037000	-0.020734	-0.015640	0.004738	0.023251	6469.767714	41643.782072	3952.156287	22864.309454
53.535000	-0.016728	-0.014883	0.002595	0.183922	5400.501913	29726.904621	3628.281534	16699.072501
54.035000	-0.020109	-0.023310	-0.002109	-0.072933	7351.452696	50389.820086	4188.763493	27806.976109
54.535500	-0.008161	-0.021115	0.008919	-0.111380	7894.375841	55042.984324	4342.313365	30109.945606
55.035500	-0.018148	-0.020258	-0.002046	-0.059390	7235.330877	49257.744759	4149.869841	27043.095532
55.536500	-0.013061	-0.016082	-0.005234	-0.078872	7485.400541	51849.925302	4197.034761	28149.542029
56.036000	0.009273	-0.011644	0.009918	-0.101277	7978.731830	54967.245444	4312.728713	29484.882162
56.536500	0.012927	-0.008078	0.016606	-0.069589	7663.680071	51706.179005	4234.608564	27616.141144
57.037000	0.015007	-0.007736	0.013517	-0.050416	7481.334177	49637.506527	4168.727216	26549.869974
57.537500	0.021470	-0.007050	0.021706	-0.038949	7429.302086	48493.011836	4159.311146	25934.345848
58.037500	0.024669	-0.006059	0.023137	-0.026847	7338.173434	47342.701455	4129.137388	25302.038269
58.535000	0.027273	-0.006414	0.028287	-0.009515	7191.496390	45571.311025	4095.588800	24426.696933
59.035500	0.032936	-0.004694	0.030473	0.009450	7063.217177	43912.397563	4050.893110	23508.073602
59.536000	0.043857	0.001714	0.043742	0.029168	6980.511579	42676.201201	4034.167763	22594.539194
60.036000	0.050592	0.002299	0.048498	0.051003	6842.413424	40779.464272	3991.056170	21630.187596
60.536000	0.059233	0.005866	0.062393	0.094501	6541.358585	37457.000370	3920.232593	19847.709400
61.036500	0.066120	0.010567	0.069033	0.107154	6493.839117	36830.992077	3906.426306	19361.831335
61.537000	0.086297	0.021899	0.087522	0.119557	6558.047871	36747.530320	3920.399619	18899.113130
62.037000	0.101198	0.030679	0.109416	0.171432	6262.681773	33555.486661	3853.416520	17100.886640
62.537500	0.120456	0.042637	0.130159	0.208186	6131.443289	31857.352110	3819.492742	15950.729892
63.035000	0.140893	0.057118	0.157155	0.235650	6080.195756	31006.119176	3818.518494	15152.650376
63.535500	0.163395	0.069922	0.178259	0.257670	6083.692639	30417.227287	3816.619815	14548.255455
64.037500	0.183703	0.086094	0.191877	0.275592	6101.014155	30306.771287	3807.740127	14078.450283
64.559000	0.195832	0.095273	0.196076	0.286803	6107.704949	30179.066482	3793.462079	13794.280819
65.039000	0.204755	0.102373	0.207057	0.302795	6056.545017	29627.402271	3783.397171	13401.399899
65.536500	0.213661	0.107459	0.219933	0.312934	6047.701250	29318.817699	3788.879000	13159.700252
66.038500	0.219890	0.113302	0.224131	0.323547	6016.480049	29030.912641	3776.084366	12912.687822
66.536500	0.229667	0.119817	0.239360	0.333396	6015.970648	28831.473353	3786.803225	12688.785407
67.037500	0.233938	0.124049	0.240832	0.340844	5993.548994	28640.627616	3774.904706	12522.814913
67.538000	0.240585	0.129818	0.246712	0.348460	5986.735766	28531.575514	3771.479941	12356.000896
68.035000	0.243763	0.132991	0.250722	0.353395	5974.431085	28428.049410	3769.659481	12249.466470
68.538000	0.249523	0.137761	0.256829	0.359803	5969.907692	28332.159940	3769.069015	12112.940277
69.035500	0.253558	0.140657	0.259353	0.364399	5965.988811	28232.980663	3765.007873	12016.224621
69.538500	0.258117	0.145308	0.268845	0.369435	5962.665450	28210.619681	3773.762538	11911.440228
70.036000	0.259709	0.146275	0.265828	0.371543	5959.081460	28144.395981	3763.703345	11867.951850
70.539000	0.263671	0.149006	0.271668	0.375115	5961.795269	28095.614320	3768.140900	11794.716505
71.037000	0.264515	0.151163	0.273898	0.379469	5937.461260	27968.740746	3763.982535	11706.252235
71.534000	0.266914	0.153090	0.275882	0.382375	5933.962351	27912.449619	3762.185211	11647.708716
72.037500	0.271568	0.154702	0.272591	0.384509	5951.390836	27882.497523	3751.682883	11604.964235
72.537500	0.270846	0.155851	0.274470	0.388216	5920.824693	27736.090301	3748.174493	11531.215138
73.035500	0.270955	0.155606	0.281098	0.390752	5904.213670	27577.961406	3756.050860	11481.123943
73.538000	0.275569	0.157958	0.282882	0.392805	5921.751596	27594.944817	3755.531177	11440.788439
74.036000	0.274468	0.159360	0.285040	0.396181	5891.156647	27483.154664	3753.179672	11374.849929
74.536000	0.275747	0.159412	0.288444	0.397951	5887.817278	27386.313350	3756.334336	11340.497457
75.036500	0.276842	0.159983	0.286965	0.400447	5878.327347	27278.300141	3748.680664	11292.291029
75.539500	0.279415	0.160502	0.287174	0.402971	5878.655864	27166.280116	3744.255727	11243.816545
76.036500	0.279311	0.161304	0.293047	0.405645	5859.904615	27062.083750	3750.376324	11192.752636
76.534500	0.279875	0.162183	0.291675	0.407570	5850.766572	27004.095681	3744.066840	11156.200701
77.035000	0.278639	0.160813	0.286696	0.409302	5830.935946	26832.938372	3731.372666	11123.446418
77.537500	0.277364	0.159948	0.284781	0.409344	5822.181410	26783.169381	3727.708681	11122.660834
78.035500	0.280815	0.162593	0.288566	0.412860	5821.750865	26735.414967	3728.211547	11056.584281
78.535500	0.278266	0.160754	0.288928	0.412487	5807.342718	26655.302178	3729.587891	11063.569155
79.036000	0.281980	0.162522	0.288187	0.415459	5812.245272	26589.691447	3722.661724	11008.069913
79.536500	0.282073	0.162941	0.291816	0.416989	5802.755687	26529.322861	3726.570265	10979.660144
80.036500	0.280070	0.162973	0.287309	0.417784	5784.368233	26487.920916	3716.737451	10964.936401
80.536500	0.282109	0.165024	0.293484	0.420762	5778.222414	26437.786516	3722.652257	10910.012723
81.037000	0.282881	0.163607	0.293657	0.419767	5789.795405	26414.969854	3724.823895	10928.322922
81.534500	0.280711	0.163636	0.294469	0.420723	5769.346581	26364.937629	3724.555583	10910.724550
82.035000	0.282687	0.163929	0.296011	0.420750	5782.074939	26379.225012	3727.379296	10910.219168
82.535000	0.284621	0.164883	0.293463	0.423926	5773.960688	26259.743880	3716.758262	10852.065520
83.035500	0.282921	0.163399	0.297837	0.422507	5772.123632	26256.225208	3727.508829	10877.991111
83.539000	0.284171	0.163701	0.288664	0.423146	5776.118553	26238.195141	3709.386104	10866.314233
84.036000	0.284374	0.164638	0.293847	0.424653	5767.608688	26207.646832	3716.126241	10838.810012
84.539000	0.285127	0.166699	0.299818	0.427845	5751.771599	26147.202935	3721.262899	10780.875954
85.037000	0.284176	0.165166	0.293939	0.426133	5756.700537	26156.729028	3713.574214	10811.898709
85.537000	0.285721	0.166185	0.294255	0.427910	5755.195852	26116.279110	3710.897008	10779.695772
86.037500	0.286715	0.166292	0.301107	0.427542	5764.043868	26141.621235	3724.219140	10786.355924
86.535000	0.285720	0.166438	0.294188	0.428657	5750.347845	26089.906331	3709.408034	10766.195586
87.035000	0.284446	0.166676	0.297520	0.428389	5743.840060	26116.918922	3716.009635	10771.033483
87.535500	0.283901	0.165815	0.296379	0.427994	5742.876497	26092.074792	3714.637491	10778.177243
88.038500	0.284026	0.166556	0.296670	0.428942	5737.565088	26081.027026	3713.431460	10761.055619
88.536000	0.287500	0.166316	0.302675	0.429898	5753.841122	26017.424591	3722.754059	10743.831362
89.036000	0.287364	0.167235	0.297464	0.431004	5745.804294	26007.506484	3711.105948	10723.952187
89.536500	0.285065	0.166737	0.300689	0.430642	5733.309538	26000.311651	3717.699218	10730.452460
90.036500	0.287291	0.167229	0.303803	0.431261	5743.670441	25993.531408	3722.316864	10719.334841
90.537500	0.287973	0.166926	0.301394	0.432255	5741.656306	25924.903114	3716.025334	10701.534178
91.037000	0.285620	0.167526	0.298440	0.432820	5722.888456	25926.718508	3709.570394	10691.422786
91.535000	0.287422	0.168104	0.300121	0.433805	5728.132718	25905.221368	3710.844265	10673.835756
92.035500	0.285524	0.168319	0.295435	0.434033	5714.511500	25904.560994	3701.903347	10669.769488
92.538000	0.287718	0.167003	0.299479	0.434774	5723.810912	25796.119461	3707.900951	10656.570469
93.035500	0.289087	0.168179	0.301845	0.434547	5734.062770	25869.984683	3712.641675	10660.597273
93.536000	0.289082	0.166672	0.297575	0.434027	5737.384846	25817.979354	3705.795810	10669.877416
94.036000	0.289178	0.167212	0.303018	0.434639	5734.054124	25814.179577	3714.626819	10658.962781
94.539500	0.286518	0.166720	0.301037	0.436138	5707.416644	25709.658580	3708.255124	10632.331077
95.036500	0.286104	0.166935	0.298997	0.435132	5711.192141	25773.707447	3706.371405	10650.196475
95.534500	0.289424	0.167269	0.294347	0.435969	5727.090249	25747.292445	3696.451574	10635.334147
96.100500	0.289520	0.166855	0.299769	0.436028	5727.327608	25722.508374	3706.145405	10634.283041
96.536500	0.289268	0.167862	0.307185	0.436695	5721.436094	25740.312414	3718.517785	10622.459727
97.035500	0.288329	0.167320	0.298692	0.436858	5714.382791	25703.377358	3702.685850	10619.569701
97.535000	0.287083	0.166416	0.295623	0.436835	5706.573291	25657.213080	3697.187118	10619.962856
98.035500	0.290618	0.168567	0.298736	0.438815	5716.503451	25666.193937	3699.227346	10584.972709
98.536500	0.290419	0.168552	0.294799	0.438749	5715.654564	25668.857536	3692.278784	10586.141702
99.036500	0.289370	0.168341	0.306545	0.439459	5704.429606	25620.778199	3712.254210	10573.636463
