sample name	sample
index	1022
start time	 04-19-2021  12:08:48 PM


Wavelength (nm)	Absorbance
494.344910	0.018273
494.563924	0.018273
494.782919	0.018273
495.001897	0.040237
495.220856	0.000116
495.439797	0.001387
495.658719	0.001635
495.877624	-0.000898
496.096510	-0.001727
496.315378	-0.003618
496.534227	-0.014524
496.753059	-0.016910
496.971872	-0.010581
497.190667	0.005419
497.409444	0.008030
497.628203	0.010568
497.846943	0.011432
498.065665	0.012254
498.284369	0.012174
498.503055	0.012270
498.721723	0.013034
498.940372	0.012595
499.159003	0.012636
499.377616	0.012303
499.596210	0.011321
499.814787	0.011501
500.033345	0.011363
500.251885	0.011457
500.470406	0.011658
500.688910	0.009946
500.907395	0.009631
501.125862	0.009829
501.344311	0.009745
501.562742	0.009285
501.781154	0.008373
501.999548	0.008173
502.217924	0.008396
502.436282	0.007992
502.654621	0.008930
502.872942	0.008977
503.091245	0.008679
503.309530	0.008878
503.527797	0.009343
503.746045	0.008787
503.964275	0.007605
504.182487	0.006994
504.400681	0.007233
504.618856	0.007218
504.837013	0.006882
505.055152	0.006133
505.273273	0.005737
505.491376	0.006031
505.709460	0.006780
505.927526	0.006990
506.145574	0.006232
506.363604	0.006447
506.581615	0.006497
506.799608	0.006624
507.017583	0.007129
507.235540	0.006987
507.453478	0.006002
507.671399	0.005859
507.889301	0.006073
508.107185	0.006166
508.325050	0.005857
508.542898	0.006074
508.760727	0.006339
508.978538	0.006125
509.196330	0.006430
509.414105	0.007032
509.631861	0.006921
509.849599	0.007226
510.067319	0.008084
510.285021	0.007452
510.502704	0.006403
510.720369	0.006018
510.938016	0.006121
511.155645	0.005492
511.373255	0.005083
511.590848	0.004689
511.808422	0.004716
512.025977	0.003816
512.243515	0.003850
512.461034	0.004048
512.678536	0.003672
512.896018	0.003676
513.113483	0.004071
513.330930	0.004445
513.548358	0.004773
513.765768	0.004810
513.983160	0.005483
514.200533	0.005951
514.417889	0.006235
514.635226	0.007252
514.852545	0.006995
515.069845	0.006786
515.287128	0.006566
515.504392	0.006051
515.721638	0.005932
515.938866	0.005602
516.156075	0.005267
516.373267	0.005742
516.590440	0.005352
516.807594	0.005862
517.024731	0.005763
517.241850	0.006069
517.458950	0.007331
517.676032	0.007129
517.893095	0.006650
518.110141	0.006951
518.327168	0.006643
518.544177	0.006132
518.761168	0.006236
518.978141	0.006114
519.195095	0.005941
519.412031	0.004957
519.628949	0.004480
519.845849	0.004853
520.062731	0.004667
520.279594	0.003620
520.496439	0.003747
520.713266	0.003468
520.930074	0.003401
521.146865	0.003626
521.363637	0.003601
521.580391	0.003386
521.797127	0.002902
522.013844	0.002827
522.230543	0.003930
522.447224	0.004058
522.663887	0.004195
522.880532	0.004245
523.097158	0.004214
523.313766	0.004814
523.530356	0.005367
523.746928	0.005582
523.963481	0.006029
524.180017	0.005723
524.396534	0.005819
524.613032	0.005619
524.829513	0.005945
525.045975	0.005958
525.262420	0.005267
525.478845	0.005188
525.695253	0.005406
525.911643	0.005485
526.128014	0.006057
526.344367	0.006016
526.560702	0.006025
526.777018	0.005984
526.993316	0.005053
527.209597	0.005742
527.425858	0.005886
527.642102	0.005745
527.858328	0.005833
528.074535	0.005594
528.290724	0.006019
528.506894	0.005951
528.723047	0.006096
528.939181	0.006783
529.155297	0.006043
529.371395	0.006440
529.587475	0.006327
529.803536	0.006198
530.019579	0.006229
530.235604	0.006474
530.451611	0.006470
530.667600	0.006524
530.883570	0.006094
531.099522	0.006919
531.315456	0.006496
531.531372	0.006619
531.747269	0.006427
531.963148	0.006260
532.179009	0.005413
532.394852	0.005823
532.610676	0.005808
532.826482	0.005961
533.042271	0.005205
533.258040	0.005229
533.473792	0.005634
533.689525	0.005290
533.905240	0.005189
534.120937	0.005620
534.336616	0.004936
534.552277	0.005186
534.767919	0.005869
534.983543	0.006038
535.199149	0.006372
535.414736	0.006376
535.630306	0.006882
535.845857	0.006629
536.061390	0.006397
536.276904	0.006893
536.492401	0.006678
536.707879	0.006322
536.923339	0.006208
537.138781	0.005605
537.354204	0.005152
537.569610	0.005016
537.784997	0.004905
538.000366	0.004896
538.215716	0.004995
538.431049	0.004673
538.646363	0.004920
538.861659	0.005133
539.076937	0.005122
539.292196	0.004982
539.507438	0.005059
539.722661	0.005609
539.937866	0.005861
540.153052	0.005345
540.368221	0.005459
540.583371	0.005242
540.798503	0.005392
541.013617	0.006049
541.228712	0.006797
541.443789	0.006184
541.658848	0.005918
541.873889	0.005904
542.088912	0.006114
542.303916	0.005911
542.518902	0.005651
542.733870	0.005584
542.948820	0.005240
543.163752	0.004960
543.378665	0.005676
543.593560	0.005547
543.808437	0.005469
544.023295	0.005541
544.238136	0.005801
544.452958	0.006126
544.667762	0.005810
544.882548	0.005206
545.097315	0.005184
545.312064	0.005040
545.526795	0.004974
545.741508	0.004593
545.956203	0.004626
546.170879	0.004467
546.385537	0.004360
546.600177	0.004602
546.814799	0.005122
547.029402	0.005202
547.243988	0.005109
547.458555	0.005470
547.673103	0.005774
547.887634	0.006112
548.102146	0.006400
548.316640	0.006124
548.531116	0.006280
548.745574	0.006352
548.960013	0.006140
549.174435	0.006040
549.388838	0.006034
549.603222	0.005867
549.817589	0.005729
550.031937	0.005715
550.246267	0.005835
550.460579	0.005579
550.674873	0.005277
550.889148	0.005043
551.103405	0.004961
551.317644	0.004766
551.531865	0.004784
551.746068	0.004530
551.960252	0.004234
552.174418	0.004431
552.388566	0.004471
552.602696	0.004772
552.816807	0.004795
553.030900	0.004918
553.244975	0.004771
553.459032	0.004835
553.673070	0.004725
553.887091	0.004562
554.101093	0.004079
554.315077	0.003929
554.529042	0.003877
554.742990	0.003575
554.956919	0.003253
555.170830	0.003310
555.384722	0.003024
555.598597	0.002897
555.812453	0.002802
556.026291	0.002964
556.240111	0.002840
556.453913	0.002655
556.667696	0.002798
556.881461	0.002947
557.095208	0.002534
557.308937	0.002734
557.522647	0.002845
557.736339	0.002970
557.950013	0.002765
558.163669	0.003217
558.377307	0.003312
558.590926	0.003489
558.804527	0.003172
559.018110	0.003719
559.231675	0.003940
559.445221	0.003781
559.658749	0.003647
559.872259	0.003936
560.085751	0.003615
560.299225	0.003221
560.512680	0.003221
560.726117	0.003404
560.939536	0.003153
561.152937	0.002560
561.366319	0.002328
561.579683	0.002357
561.793029	0.002189
562.006357	0.001869
562.219667	0.001767
562.432958	0.001533
562.646231	0.001310
562.859486	0.001027
563.072723	0.000975
563.285941	0.000939
563.499141	0.000845
563.712323	0.000456
563.925487	0.000296
564.138632	0.000532
564.351760	0.000595
564.564869	0.000801
564.777960	0.001031
564.991032	0.000915
565.204087	0.000860
565.417123	0.000692
565.630141	0.001254
565.843140	0.001410
566.056122	0.001195
566.269085	0.000800
566.482030	0.000566
566.694957	0.000427
566.907866	0.000892
567.120756	0.001091
567.333628	0.001112
567.546482	0.000581
567.759318	0.000593
567.972135	0.000507
568.184935	0.000755
568.397716	0.000654
568.610478	0.000708
568.823223	0.000312
569.035949	-0.000010
569.248657	0.000029
569.461347	0.000280
569.674019	0.000264
569.886672	0.000326
570.099308	0.000249
570.311925	0.000347
570.524523	0.000149
570.737104	0.000154
570.949666	0.000237
571.162210	0.000253
571.374736	0.000209
571.587244	0.000131
571.799733	0.000066
572.012205	0.000137
572.224658	0.000128
572.437092	0.000378
572.649509	0.000444
572.861907	0.000412
573.074287	0.000310
573.286649	0.000121
573.498993	0.000647
573.711318	0.000839
573.923625	0.000996
574.135914	0.001088
574.348185	0.000837
574.560438	0.000688
574.772672	0.000782
574.984888	0.000703
575.197086	0.000634
575.409266	0.000024
575.621427	-0.000211
575.833570	-0.000430
576.045695	-0.000476
576.257802	-0.000727
576.469890	-0.000775
576.681961	-0.000768
576.894013	-0.000265
577.106046	0.000019
577.318062	0.000162
577.530059	0.000260
577.742039	0.000279
577.954000	0.000421
578.165942	0.000859
578.377867	0.001006
578.589773	0.000904
578.801661	0.000535
579.013531	0.000480
579.225382	0.000254
579.437216	0.000505
579.649031	0.000555
579.860828	0.000348
580.072606	0.000167
580.284367	0.000265
580.496109	0.000261
580.707833	0.000094
580.919539	-0.000124
581.131227	-0.000183
581.342896	-0.000537
581.554547	-0.000580
581.766180	-0.000540
581.977795	-0.000686
582.189391	-0.000786
582.400969	-0.000925
582.612529	-0.000573
582.824071	-0.000496
583.035595	-0.000284
583.247100	-0.000127
583.458587	-0.000133
583.670056	-0.000192
583.881506	-0.000057
584.092939	-0.000087
584.304353	-0.000024
584.515749	-0.000145
584.727127	-0.000088
584.938486	0.000084
585.149828	0.000077
585.361151	-0.000028
585.572456	0.000184
585.783742	0.000128
585.995011	0.000137
586.206261	0.000481
586.417493	0.000600
586.628706	0.000359
586.839902	0.000243
587.051079	0.000177
587.262238	0.000460
587.473379	0.000492
587.684502	0.000769
587.895606	0.000937
588.106692	0.001048
588.317760	0.000813
588.528810	0.000828
588.739841	0.000836
588.950855	0.001032
589.161850	0.000982
589.372827	0.000685
589.583785	0.000332
589.794726	0.000060
590.005648	-0.000131
590.216552	-0.000187
590.427437	-0.000034
590.638305	-0.000091
590.849154	-0.000308
591.059985	-0.000786
591.270798	-0.000549
591.481592	-0.000192
591.692369	-0.000123
591.903127	-0.000098
592.113867	0.000288
592.324588	0.000395
592.535292	0.000643
592.745977	0.000781
592.956644	0.001248
593.167293	0.001124
593.377923	0.001084
593.588536	0.001232
593.799130	0.001364
594.009706	0.001254
594.220263	0.001197
594.430803	0.001163
594.641324	0.001194
594.851827	0.001101
595.062312	0.001129
595.272778	0.001005
595.483227	0.000877
595.693657	0.000744
595.904069	0.000927
596.114462	0.000935
596.324838	0.000632
596.535195	0.000790
596.745534	0.000756
596.955855	0.000827
597.166157	0.001187
597.376441	0.001313
597.586707	0.001225
597.796955	0.001088
598.007185	0.001294
598.217396	0.001773
598.427589	0.001757
598.637764	0.001836
598.847921	0.001903
599.058060	0.001715
599.268180	0.001900
599.478282	0.002237
599.688366	0.002156
599.898431	0.002267
600.108479	0.001944
600.318508	0.001943
600.528519	0.002171
600.738511	0.002222
600.948486	0.002308
601.158442	0.002248
601.368380	0.002078
601.578300	0.001988
601.788202	0.001574
601.998085	0.001663
602.207950	0.001748
602.417797	0.001401
602.627626	0.001395
602.837436	0.001096
603.047228	0.001052
603.257002	0.000757
603.466758	0.000713
603.676496	0.000811
603.886215	0.000748
604.095916	0.000552
604.305599	0.000563
604.515264	0.000516
604.724910	0.000733
604.934538	0.000471
605.144148	0.000585
605.353740	0.000981
605.563314	0.001147
605.772869	0.001093
605.982406	0.001093
606.191925	0.001170
606.401425	0.001258
606.610908	0.001175
606.820372	0.001227
607.029818	0.001278
607.239246	0.000963
607.448655	0.000724
607.658047	0.000779
607.867420	0.000591
608.076775	0.000487
608.286111	0.000324
608.495430	0.000444
608.704730	0.000529
608.914012	0.000470
609.123275	0.000396
609.332521	0.000380
609.541748	0.000438
609.750957	0.000551
609.960148	0.000586
610.169321	0.000417
610.378475	0.000239
610.587611	0.000106
610.796729	-0.000009
611.005829	0.000016
611.214910	-0.000022
611.423974	0.000024
611.633019	0.000067
611.842045	0.000188
612.051054	0.000230
612.260044	0.000341
612.469017	0.000473
612.677970	0.000643
612.886906	0.000674
613.095824	0.000811
613.304723	0.000707
613.513604	0.000513
613.722467	0.000332
613.931311	0.000419
614.140138	0.000440
614.348946	0.000503
614.557736	0.000421
614.766507	0.000528
614.975261	0.000381
615.183996	0.000354
615.392713	0.000392
615.601412	0.000854
615.810092	0.000823
616.018754	0.000674
616.227399	0.000788
616.436024	0.000974
616.644632	0.000830
616.853222	0.001071
617.061793	0.001221
617.270346	0.001209
617.478880	0.001146
617.687397	0.001538
617.895895	0.001661
618.104375	0.001615
618.312837	0.001587
618.521281	0.001763
618.729706	0.001687
618.938113	0.001588
619.146502	0.001716
619.354873	0.001647
619.563226	0.001335
619.771560	0.001338
619.979876	0.001464
620.188174	0.001528
620.396453	0.001685
620.604715	0.001799
620.812958	0.001786
621.021183	0.002027
621.229390	0.001968
621.437578	0.002088
621.645748	0.002084
621.853900	0.001888
622.062034	0.001705
622.270150	0.001499
622.478247	0.001454
622.686326	0.001726
622.894387	0.001527
623.102430	0.001681
623.310454	0.001742
623.518461	0.001743
623.726449	0.001877
623.934418	0.002021
624.142370	0.002061
624.350303	0.002123
624.558218	0.001732
624.766115	0.001746
624.973994	0.001339
625.181855	0.001258
625.389697	0.001199
625.597521	0.001278
625.805327	0.001149
626.013114	0.001143
626.220883	0.001039
626.428634	0.001161
626.636367	0.001106
626.844082	0.001262
627.051778	0.001406
627.259457	0.001457
627.467117	0.001348
627.674758	0.001463
627.882382	0.001502
628.089987	0.001723
628.297574	0.001836
628.505143	0.002016
628.712694	0.002158
628.920226	0.002043
629.127740	0.002201
629.335236	0.002314
629.542714	0.002173
629.750174	0.002230
629.957615	0.002051
630.165038	0.001953
630.372443	0.002060
630.579829	0.002064
630.787198	0.002209
630.994548	0.002102
631.201880	0.002011
631.409194	0.002258
631.616489	0.002253
631.823766	0.002422
632.031025	0.002591
632.238266	0.002510
632.445489	0.002619
632.652693	0.002395
632.859879	0.002409
633.067047	0.002512
633.274197	0.002475
633.481329	0.002359
633.688442	0.002337
633.895537	0.002320
634.102614	0.002346
634.309672	0.002384
634.516713	0.002570
634.723735	0.002722
634.930739	0.002518
635.137724	0.002549
635.344692	0.002695
635.551641	0.002808
635.758572	0.002798
635.965485	0.002973
636.172379	0.003029
636.379256	0.003126
636.586114	0.003266
636.792954	0.003492
636.999775	0.003742
637.206579	0.003972
637.413364	0.003898
637.620131	0.003893
637.826880	0.003952
638.033610	0.004084
638.240323	0.004011
638.447017	0.003769
638.653692	0.003756
638.860350	0.003675
639.066990	0.003538
639.273611	0.003465
639.480214	0.003655
639.686798	0.003648
639.893365	0.003530
640.099913	0.003615
640.306443	0.003733
640.512955	0.003829
640.719449	0.003688
640.925924	0.003765
641.132381	0.004036
641.338820	0.004152
641.545241	0.004178
641.751644	0.004130
641.958028	0.004168
642.164394	0.004288
642.370742	0.004327
642.577071	0.004488
642.783383	0.004433
642.989676	0.004452
643.195951	0.004258
643.402207	0.003915
643.608446	0.004164
643.814666	0.004055
644.020868	0.004077
644.227052	0.004064
644.433218	0.004027
644.639365	0.004200
644.845494	0.004167
645.051605	0.004289
645.257698	0.004760
645.463772	0.004779
645.669828	0.005003
645.875866	0.004959
646.081886	0.005114
646.287888	0.005289
646.493871	0.005190
646.699836	0.005339
646.905783	0.005402
647.111712	0.005262
647.317622	0.005281
647.523514	0.005250
647.729388	0.005378
647.935244	0.005419
648.141082	0.005446
648.346901	0.005603
648.552702	0.005619
648.758485	0.005812
648.964250	0.005636
649.169996	0.005371
649.375724	0.005431
649.581434	0.005381
649.787126	0.005353
649.992800	0.005273
650.198455	0.005215
650.404092	0.005042
650.609711	0.004951
650.815311	0.005109
651.020894	0.005244
651.226458	0.005012
651.432004	0.004887
651.637532	0.004837
651.843041	0.004977
652.048532	0.004971
652.254006	0.005162
652.459460	0.005132
652.664897	0.005096
652.870315	0.005148
653.075716	0.005338
653.281097	0.005660
653.486461	0.005738
653.691807	0.005755
653.897134	0.005872
654.102443	0.005916
654.307734	0.005966
654.513006	0.006067
654.718261	0.006135
654.923497	0.006227
655.128715	0.006052
655.333915	0.006051
655.539096	0.006115
655.744259	0.006320
655.949404	0.006346
656.154531	0.006241
656.359640	0.006376
656.564730	0.006352
656.769802	0.006420
656.974856	0.006601
657.179892	0.006619
657.384909	0.006547
657.589908	0.006530
657.794889	0.006553
657.999852	0.006682
658.204797	0.006521
658.409723	0.006653
658.614631	0.006771
658.819521	0.006831
659.024393	0.006938
659.229246	0.007129
659.434081	0.007034
659.638898	0.007084
659.843697	0.007174
660.048478	0.007388
660.253240	0.007273
660.457984	0.007145
660.662710	0.007031
660.867417	0.007173
661.072107	0.007010
661.276778	0.007085
661.481431	0.007069
661.686066	0.007140
661.890682	0.007224
662.095281	0.007376
662.299861	0.007463
662.504422	0.007526
662.708966	0.007524
662.913491	0.007673
663.117999	0.007607
663.322488	0.007679
663.526958	0.007642
663.731411	0.007547
663.935845	0.007523
664.140261	0.007435
664.344659	0.007454
664.549038	0.007284
664.753400	0.007073
664.957743	0.007106
665.162068	0.007127
665.366375	0.007075
665.570663	0.007215
665.774933	0.007237
665.979185	0.007385
666.183419	0.007492
666.387635	0.007625
666.591832	0.007842
666.796011	0.007944
667.000172	0.007947
667.204315	0.008183
667.408439	0.008206
667.612545	0.008417
667.816634	0.008459
668.020703	0.008425
668.224755	0.008494
668.428788	0.008711
668.632803	0.008720
668.836800	0.008777
669.040779	0.008846
669.244739	0.008980
669.448681	0.009010
669.652605	0.008936
669.856511	0.009118
670.060399	0.009020
670.264268	0.008957
670.468119	0.009015
670.671952	0.009107
670.875767	0.008970
671.079563	0.008856
671.283341	0.008780
671.487101	0.008721
671.690843	0.008555
671.894567	0.008633
672.098272	0.008716
672.301959	0.008857
672.505628	0.008809
672.709278	0.009001
672.912911	0.009161
673.116525	0.009280
673.320121	0.009416
673.523699	0.009555
673.727258	0.009566
673.930799	0.009255
674.134322	0.009188
674.337827	0.009281
674.541314	0.008982
674.744782	0.008714
674.948232	0.008647
675.151664	0.008660
675.355078	0.008597
675.558474	0.008703
675.761851	0.008927
675.965210	0.008763
676.168551	0.008723
676.371873	0.008904
676.575178	0.008969
676.778464	0.008945
676.981732	0.008995
677.184981	0.009092
677.388213	0.009164
677.591426	0.009063
677.794621	0.009136
677.997798	0.008762
678.200956	0.008762
678.404097	0.008831
678.607219	0.008729
678.810323	0.008793
679.013408	0.008851
679.216476	0.008640
679.419525	0.008746
679.622556	0.008741
679.825569	0.009040
680.028563	0.008975
680.231540	0.008921
680.434498	0.008929
680.637438	0.008807
680.840359	0.008614
681.043263	0.008612
681.246148	0.008474
681.449015	0.008378
681.651864	0.008426
681.854694	0.008531
682.057506	0.008437
682.260301	0.008457
682.463076	0.008467
682.665834	0.008430
682.868573	0.008458
683.071295	0.008524
683.273998	0.008650
683.476682	0.008688
683.679349	0.008844
683.881997	0.009072
684.084627	0.009120
684.287239	0.009182
684.489833	0.009496
684.692408	0.009680
684.894965	0.009807
685.097504	0.010021
685.300025	0.010085
685.502527	0.009851
685.705012	0.009937
685.907478	0.010092
686.109925	0.010332
686.312355	0.010155
686.514766	0.010076
686.717159	0.010168
686.919534	0.010114
687.121891	0.010037
687.324230	0.010231
687.526550	0.010178
687.728852	0.009936
687.931136	0.009826
688.133401	0.009924
688.335649	0.010034
688.537878	0.009834
688.740089	0.009703
688.942281	0.009755
689.144456	0.009704
689.346612	0.009654
689.548750	0.009932
689.750870	0.010103
689.952971	0.009939
690.155055	0.009876
690.357120	0.009787
690.559167	0.009867
690.761195	0.009874
690.963206	0.009807
691.165198	0.009748
691.367172	0.009474
691.569128	0.009117
691.771065	0.009160
691.972984	0.008975
692.174885	0.009043
692.376768	0.008977
692.578633	0.008797
692.780479	0.008811
692.982308	0.008891
693.184118	0.009064
693.385909	0.009159
693.587683	0.009199
693.789438	0.009325
693.991175	0.009408
694.192894	0.009367
694.394595	0.009445
694.596277	0.009534
694.797941	0.009628
694.999587	0.009709
695.201215	0.009801
695.402824	0.009799
695.604416	0.009925
695.805989	0.009922
696.007543	0.010083
696.209080	0.010139
696.410598	0.010127
696.612099	0.010160
696.813580	0.010105
697.015044	0.010209
697.216490	0.010406
697.417917	0.010256
697.619326	0.010261
697.820717	0.010235
698.022089	0.010151
698.223444	0.010175
698.424780	0.010174
698.626098	0.010071
698.827397	0.009947
699.028679	0.009813
699.229942	0.010122
699.431187	0.010237
699.632414	0.010252
699.833622	0.010497
700.034813	0.010556
700.235985	0.010646
700.437139	0.010812
700.638274	0.010896
700.839392	0.011051
701.040491	0.010957
701.241572	0.010980
701.442635	0.011117
701.643679	0.011057
701.844706	0.011050
702.045714	0.010960
702.246704	0.011086
702.447675	0.011135
702.648629	0.010971
702.849564	0.010957
703.050481	0.011069
703.251380	0.010939
703.452260	0.010855
703.653122	0.010851
703.853966	0.010816
704.054792	0.010767
704.255600	0.010658
704.456389	0.010756
704.657160	0.010672
704.857913	0.010575
705.058648	0.010765
705.259365	0.010875
705.460063	0.010764
705.660743	0.010717
705.861405	0.010730
706.062048	0.010793
706.262674	0.010925
706.463281	0.011025
706.663870	0.011128
706.864441	0.011151
707.064993	0.011162
707.265527	0.011246
707.466043	0.011353
707.666541	0.011294
707.867021	0.011400
708.067482	0.011337
708.267925	0.011331
708.468350	0.011225
708.668757	0.010989
708.869145	0.011004
709.069516	0.011039
709.269868	0.010983
709.470201	0.010904
709.670517	0.010681
709.870814	0.010562
710.071093	0.010452
710.271354	0.010459
710.471597	0.010461
710.671821	0.010187
710.872028	0.010188
711.072216	0.010123
711.272385	0.010211
711.472537	0.010248
711.672670	0.010216
711.872785	0.010196
712.072882	0.010033
712.272961	0.010025
712.473021	0.010260
712.673063	0.010075
712.873087	0.010143
713.073093	0.010104
713.273081	0.010112
713.473050	0.010010
713.673001	0.009871
713.872934	0.009823
714.072849	0.009708
714.272745	0.009623
714.472623	0.009553
714.672483	0.009366
714.872325	0.009272
715.072148	0.009233
715.271954	0.009352
715.471741	0.009375
715.671509	0.009470
715.871260	0.009569
716.070992	0.009477
716.270707	0.009698
716.470403	0.009775
716.670080	0.009735
716.869740	0.009702
717.069381	0.009685
717.269004	0.009677
717.468609	0.009541
717.668195	0.009600
717.867764	0.009634
718.067314	0.009548
718.266846	0.009554
718.466360	0.009482
718.665855	0.009344
718.865332	0.009224
719.064791	0.009276
719.264232	0.009459
719.463655	0.009413
719.663059	0.009470
719.862445	0.009476
720.061813	0.009389
720.261163	0.009472
720.460494	0.009590
720.659807	0.009665
720.859102	0.009763
721.058379	0.009725
721.257638	0.009520
721.456878	0.009492
721.656100	0.009533
721.855304	0.009449
722.054490	0.009312
722.253657	0.009247
722.452806	0.009141
722.651937	0.008898
722.851050	0.008764
723.050145	0.008715
723.249221	0.008270
723.448279	0.008084
723.647319	0.007829
723.846340	0.007826
724.045344	0.007651
724.244329	0.007483
724.443296	0.007416
724.642245	0.007317
724.841175	0.007152
725.040088	0.007347
725.238982	0.006991
725.437857	0.007091
725.636715	0.006969
725.835554	0.006871
726.034376	0.006761
726.233179	0.006803
726.431963	0.006857
726.630730	0.006891
726.829478	0.006818
727.028208	0.006964
727.226920	0.007080
727.425614	0.007039
727.624289	0.007032
727.822946	0.007214
728.021585	0.007248
728.220206	0.007091
728.418808	0.007058
728.617392	0.006999
728.815958	0.007060
729.014506	0.006776
729.213036	0.006919
729.411547	0.007071
729.610040	0.006918
729.808515	0.006827
730.006972	0.006803
730.205410	0.006979
730.403831	0.007138
730.602233	0.007041
730.800616	0.007281
730.998982	0.007238
731.197329	0.007216
731.395658	0.007134
731.593969	0.006924
731.792262	0.007054
731.990536	0.006822
732.188793	0.006809
732.387031	0.006716
732.585250	0.006624
732.783452	0.006615
732.981635	0.006523
733.179800	0.006829
733.377947	0.007077
733.576076	0.006864
733.774186	0.006917
733.972278	0.006777
734.170352	0.006916
734.368408	0.006910
734.566446	0.006915
734.764465	0.006818
734.962466	0.006651
735.160449	0.006584
735.358413	0.006703
735.556360	0.006731
735.754288	0.006608
735.952198	0.006526
736.150090	0.006417
736.347963	0.006291
736.545818	0.006329
736.743655	0.006384
736.941474	0.006361
737.139275	0.006451
737.337057	0.006491
737.534821	0.006646
737.732567	0.006715
737.930295	0.006828
738.128005	0.006640
738.325696	0.006717
738.523369	0.006515
738.721024	0.006568
738.918660	0.006328
739.116279	0.006249
739.313879	0.006253
739.511461	0.006250
739.709024	0.006223
739.906570	0.006386
740.104097	0.006294
740.301606	0.006311
740.499097	0.006200
740.696569	0.006141
740.894024	0.006001
741.091460	0.006006
741.288878	0.005932
741.486277	0.005985
741.683659	0.006050
741.881022	0.006087
742.078367	0.006242
742.275694	0.006163
742.473002	0.006167
742.670293	0.006240
742.867565	0.006227
743.064819	0.006339
743.262054	0.006310
743.459272	0.006323
743.656471	0.006356
743.853652	0.006246
744.050815	0.006267
744.247959	0.006465
744.445085	0.006512
744.642194	0.006667
744.839283	0.006651
745.036355	0.006637
745.233408	0.006457
745.430444	0.006414
745.627461	0.006461
745.824459	0.006436
746.021440	0.006498
746.218402	0.006534
746.415346	0.006409
746.612272	0.006275
746.809180	0.006395
747.006069	0.006395
747.202940	0.006263
747.399793	0.006076
747.596628	0.006143
747.793444	0.005842
747.990243	0.005714
748.187023	0.005613
748.383784	0.005609
748.580528	0.005449
748.777253	0.005402
748.973960	0.005328
749.170649	0.005256
749.367320	0.005088
749.563973	0.004944
749.760607	0.004882
749.957223	0.004672
750.153821	0.004511
750.350400	0.004168
750.546962	0.003961
750.743505	0.004060
750.940030	0.004221
751.136536	0.004239
751.333025	0.004423
751.529495	0.004289
751.725947	0.004440
751.922381	0.004395
752.118796	0.004704
752.315194	0.004970
752.511573	0.004911
752.707934	0.004794
752.904276	0.004725
753.100601	0.004674
753.296907	0.004726
753.493195	0.004751
753.689465	0.004907
753.885716	0.004892
754.081949	0.004886
754.278164	0.004945
754.474361	0.004943
754.670540	0.004904
754.866700	0.004938
755.062843	0.005006
755.258967	0.005011
755.455072	0.004924
755.651160	0.004836
755.847229	0.004665
756.043280	0.004612
756.239313	0.004508
756.435328	0.004696
756.631324	0.004706
756.827302	0.004568
757.023262	0.004375
757.219204	0.004341
757.415127	0.004198
757.611033	0.004251
757.806920	0.004202
758.002788	0.004325
758.198639	0.004198
758.394471	0.003972
758.590286	0.003948
758.786081	0.003945
758.981859	0.003782
759.177619	0.003549
759.373360	0.003449
759.569083	0.003475
759.764788	0.003185
759.960474	0.002987
760.156143	0.002855
760.351793	0.002729
760.547425	0.002624
760.743038	0.002636
760.938634	0.002733
761.134211	0.002809
761.329770	0.002707
761.525311	0.002686
761.720833	0.002793
761.916338	0.002904
762.111824	0.002975
762.307292	0.002951
762.502741	0.003039
762.698173	0.003161
762.893586	0.002963
763.088981	0.002775
763.284358	0.002764
763.479716	0.002656
763.675057	0.002505
763.870379	0.002272
764.065683	0.002274
764.260968	0.002080
764.456236	0.001901
764.651485	0.001972
764.846716	0.001998
765.041929	0.002023
765.237123	0.002086
765.432299	0.002167
765.627457	0.002517
765.822597	0.002433
766.017719	0.002470
766.212822	0.002440
766.407907	0.002388
766.602974	0.002364
766.798023	0.002285
766.993054	0.002313
767.188066	0.002160
767.383060	0.002020
767.578036	0.002132
767.772993	0.002102
767.967933	0.002128
768.162854	0.002068
768.357757	0.002029
768.552642	0.002075
768.747508	0.001887
768.942356	0.002076
769.137186	0.002026
769.331998	0.001864
769.526792	0.001902
769.721567	0.001767
769.916324	0.001656
770.111063	0.001565
770.305784	0.001472
770.500486	0.001556
770.695171	0.001519
770.889837	0.001598
771.084484	0.001673
771.279114	0.001683
771.473725	0.001830
771.668318	0.001840
771.862893	0.001876
772.057450	0.001999
772.251988	0.001815
772.446509	0.002059
772.641011	0.002188
772.835494	0.002120
773.029960	0.002073
773.224407	0.002138
773.418836	0.002189
773.613247	0.002364
773.807640	0.002331
774.002014	0.002418
774.196370	0.002141
774.390708	0.001833
774.585028	0.001928
774.779330	0.001801
774.973613	0.001708
775.167878	0.001901
775.362125	0.001730
775.556354	0.001730
775.750564	0.001757
775.944756	0.001718
776.138930	0.001860
776.333086	0.001741
776.527223	0.001637
776.721343	0.001713
776.915444	0.001530
777.109526	0.001643
777.303591	0.001819
777.497637	0.001703
777.691666	0.001719
777.885676	0.001685
778.079667	0.001788
778.273641	0.002151
778.467596	0.002257
778.661533	0.002373
778.855452	0.002454
779.049352	0.002463
779.243235	0.002657
779.437099	0.002762
779.630945	0.002882
779.824773	0.003048
780.018582	0.003121
780.212373	0.003160
780.406146	0.003181
780.599901	0.003354
780.793638	0.003465
780.987356	0.003724
781.181056	0.004046
781.374738	0.004199
781.568402	0.004397
781.762047	0.004400
781.955674	0.004480
782.149283	0.004628
782.342874	0.004588
782.536447	0.004518
782.730001	0.004452
782.923537	0.004288
783.117055	0.004205
783.310555	0.004021
783.504036	0.003930
783.697499	0.003819
783.890944	0.003493
784.084371	0.003418
784.277780	0.003347
784.471170	0.003286
784.664542	0.003360
784.857896	0.003176
785.051231	0.002951
785.244549	0.003009
785.437848	0.003083
785.631129	0.003191
785.824392	0.002969
786.017636	0.002691
786.210863	0.002492
786.404071	0.002254
786.597260	0.002218
786.790432	0.002134
786.983585	0.001966
787.176721	0.001758
787.369838	0.001708
787.562936	0.001833
787.756017	0.001990
787.949079	0.002079
788.142123	0.002179
788.335149	0.002384
788.528156	0.002631
788.721146	0.002921
788.914117	0.003152
789.107070	0.003312
789.300005	0.003496
789.492921	0.003573
789.685819	0.003504
789.878699	0.003410
790.071561	0.003556
790.264405	0.003736
790.457230	0.003729
790.650037	0.003566
790.842826	0.003505
791.035597	0.003361
791.228349	0.003342
791.421084	0.003483
791.613800	0.003419
791.806497	0.003072
791.999177	0.002821
792.191838	0.002579
792.384481	0.002472
792.577106	0.002442
792.769713	0.002402
792.962301	0.002445
793.154871	0.002372
793.347423	0.002536
793.539957	0.002556
793.732473	0.002534
793.924970	0.002576
794.117449	0.002534
794.309910	0.002529
794.502353	0.002333
794.694777	0.002191
794.887183	0.002100
795.079571	0.002213
795.271941	0.002265
795.464293	0.002226
795.656626	0.002221
795.848941	0.002215
796.041238	0.002070
796.233516	0.002236
796.425777	0.002384
796.618019	0.002627
796.810243	0.002458
797.002449	0.002411
797.194636	0.002498
797.386805	0.002589
797.578956	0.002725
797.771089	0.002977
797.963204	0.003145
798.155300	0.003315
798.347378	0.003095
798.539438	0.003093
798.731480	0.003267
798.923503	0.003372
799.115509	0.003380
799.307496	0.003489
799.499465	0.003458
799.691415	0.003334
799.883348	0.003296
800.075262	0.003490
800.267158	0.003527
800.459035	0.003498
800.650895	0.003261
800.842736	0.003282
801.034559	0.003192
801.226364	0.003174
801.418150	0.003121
801.609919	0.002904
801.801669	0.002875
801.993401	0.002744
802.185114	0.002773
802.376810	0.002821
802.568487	0.002785
802.760146	0.003029
802.951787	0.002952
803.143409	0.003144
803.335014	0.003291
803.526600	0.003298
803.718168	0.003447
803.909717	0.003667
804.101249	0.003807
804.292762	0.004024
804.484257	0.004136
804.675734	0.004213
804.867192	0.004224
805.058632	0.004207
805.250054	0.004117
805.441458	0.004224
805.632844	0.003865
805.824211	0.003933
806.015561	0.003773
806.206891	0.003544
806.398204	0.003796
806.589499	0.003873
806.780775	0.003979
806.972033	0.004220
807.163273	0.004246
807.354495	0.004577
807.545698	0.004695
807.736883	0.004869
807.928050	0.005142
808.119199	0.005164
808.310329	0.005284
808.501441	0.005391
808.692535	0.005427
808.883611	0.005603
809.074669	0.005769
809.265708	0.005637
809.456729	0.005587
809.647732	0.005342
809.838717	0.005282
810.029683	0.005381
810.220632	0.005483
810.411562	0.005572
810.602474	0.005483
810.793367	0.005533
810.984242	0.005682
811.175100	0.005714
811.365938	0.005910
811.556759	0.006068
811.747562	0.005960
811.938346	0.005824
812.129112	0.005710
812.319860	0.005817
812.510589	0.005672
812.701300	0.005579
812.891994	0.005707
813.082668	0.005573
813.273325	0.005521
813.463964	0.005635
813.654584	0.005841
813.845186	0.005880
814.035769	0.005919
814.226335	0.005884
814.416882	0.006030
814.607411	0.005902
814.797922	0.006032
814.988415	0.006081
815.178889	0.006180
815.369345	0.006158
815.559783	0.006091
815.750203	0.006186
815.940605	0.006315
816.130988	0.006425
816.321353	0.006563
816.511700	0.006762
816.702028	0.006798
816.892339	0.006792
817.082631	0.006988
817.272905	0.007360
817.463161	0.007474
817.653398	0.007591
817.843617	0.007761
818.033819	0.007814
818.224001	0.007763
818.414166	0.007912
818.604312	0.007888
818.794440	0.007725
818.984550	0.007661
819.174642	0.007717
819.364716	0.007543
819.554771	0.007502
819.744808	0.007532
819.934827	0.007457
820.124827	0.007360
820.314810	0.007461
820.504774	0.007467
820.694720	0.007425
820.884647	0.007215
821.074557	0.007434
821.264448	0.007391
821.454321	0.007366
821.644176	0.007666
821.834012	0.007794
822.023831	0.007561
822.213631	0.007515
822.403413	0.007664
822.593176	0.007503
822.782922	0.007334
822.972649	0.007214
823.162358	0.007167
823.352049	0.006862
823.541721	0.006782
823.731376	0.006721
823.921012	0.006870
824.110629	0.006787
824.300229	0.006910
824.489811	0.007150
824.679374	0.007414
824.868919	0.007595
825.058445	0.007822
825.247954	0.007837
825.437444	0.008293
825.626916	0.008443
825.816370	0.008510
826.005806	0.008972
826.195223	0.008873
826.384622	0.008760
826.574003	0.008785
826.763366	0.008863
826.952711	0.009083
827.142037	0.008754
827.331345	0.008830
827.520635	0.008766
827.709906	0.008499
827.899160	0.008525
828.088395	0.008754
828.277612	0.008845
828.466810	0.008856
828.655991	0.008762
828.845153	0.009270
829.034297	0.009130
829.223423	0.009297
829.412531	0.009360
829.601620	0.009618
829.790691	0.009518
829.979744	0.009604
830.168779	0.009843
830.357795	0.010058
830.546793	0.010074
830.735773	0.010309
830.924735	0.010643
831.113679	0.010861
831.302604	0.010955
831.491511	0.011322
831.680400	0.011523
831.869271	0.011600
832.058123	0.011528
832.246957	0.011455
832.435773	0.011602
832.624571	0.011402
832.813351	0.011418
833.002112	0.011445
833.190855	0.011487
833.379580	0.011577
833.568287	0.011480
833.756975	0.011533
833.945645	0.011661
834.134297	0.011469
834.322931	0.011687
834.511547	0.011714
834.700144	0.011696
834.888723	0.011669
835.077284	0.011732
835.265826	0.011982
835.454351	0.012222
835.642857	0.012362
835.831345	0.012629
836.019815	0.012651
836.208266	0.012855
836.396699	0.013010
836.585114	0.013069
836.773511	0.012927
836.961890	0.012941
837.150250	0.012893
837.338592	0.013050
837.526916	0.013178
837.715222	0.013199
837.903510	0.013176
838.091779	0.013518
838.280030	0.013829
838.468263	0.013936
838.656477	0.013955
838.844674	0.014219
839.032852	0.014083
839.221012	0.013931
839.409153	0.014155
839.597277	0.014328
839.785382	0.014072
839.973469	0.013832
840.161538	0.013831
840.349589	0.013838
840.537621	0.013774
840.725635	0.013748
840.913631	0.013882
841.101609	0.013713
841.289568	0.013369
841.477509	0.013155
841.665432	0.013212
841.853337	0.013410
842.041224	0.013585
842.229092	0.013779
842.416942	0.013921
842.604774	0.014199
842.792588	0.014510
842.980383	0.014954
843.168160	0.015332
843.355919	0.015324
843.543660	0.015548
843.731382	0.015632
843.919087	0.015511
844.106773	0.015571
844.294441	0.015396
844.482090	0.015464
844.669722	0.015459
844.857335	0.015690
845.044930	0.015982
845.232507	0.015837
845.420065	0.015778
845.607605	0.015747
845.795127	0.015831
845.982631	0.016146
846.170117	0.016149
846.357584	0.016144
846.545033	0.015987
846.732464	0.015957
846.919877	0.016013
847.107272	0.016005
847.294648	0.016318
847.482006	0.016247
847.669346	0.016267
847.856667	0.016521
848.043971	0.016637
848.231256	0.016772
848.418523	0.017001
848.605771	0.017179
848.793002	0.017540
848.980214	0.017592
849.167408	0.018127
849.354584	0.018244
849.541742	0.018115
849.728881	0.018228
849.916002	0.018410
850.103105	0.018373
850.290190	0.018718
850.477256	0.019010
850.664304	0.019123
850.851334	0.019143
851.038346	0.019072
851.225340	0.019401
851.412315	0.019715
851.599272	0.019826
851.786211	0.019968
851.973132	0.019852
852.160034	0.019504
852.346918	0.019275
852.533784	0.019139
852.720632	0.019095
852.907462	0.019063
853.094273	0.018843
853.281066	0.018663
853.467841	0.018620
853.654598	0.018575
853.841336	0.018848
854.028056	0.019162
854.214758	0.019184
854.401442	0.019391
854.588107	0.019406
854.774755	0.019683
854.961384	0.019778
855.147995	0.019959
855.334587	0.019849
855.521162	0.020031
855.707718	0.020064
855.894256	0.020361
856.080775	0.020338
856.267277	0.020285
856.453760	0.020382
856.640225	0.020688
856.826672	0.020694
857.013101	0.020880
857.199511	0.020884
857.385903	0.021406
857.572277	0.021359
857.758633	0.021703
857.944970	0.022012
858.131290	0.022073
858.317591	0.022194
858.503873	0.022521
858.690138	0.022962
858.876384	0.023164
859.062612	0.023114
859.248822	0.023009
859.435014	0.023232
859.621188	0.023281
859.807343	0.023304
859.993480	0.023380
860.179599	0.023603
860.365699	0.023718
860.551781	0.023737
860.737846	0.023715
860.923891	0.024176
861.109919	0.024113
861.295929	0.024195
861.481920	0.024299
861.667893	0.024299
861.853848	0.024073
862.039784	0.023969
862.225702	0.023763
862.411603	0.023712
862.597484	0.023524
862.783348	0.023409
862.969193	0.023250
863.155021	0.023395
863.340830	0.023408
863.526620	0.023644
863.712393	0.023727
863.898147	0.023786
864.083883	0.024106
864.269601	0.024482
864.455301	0.024843
864.640982	0.025066
864.826645	0.025019
865.012290	0.025374
865.197917	0.025311
865.383526	0.025480
865.569116	0.025668
865.754688	0.025453
865.940242	0.025346
866.125777	0.025514
866.311295	0.025871
866.496794	0.026149
866.682275	0.025982
866.867737	0.025887
867.053182	0.025500
867.238608	0.025371
867.424016	0.025586
867.609406	0.025627
867.794778	0.025340
867.980131	0.025053
868.165466	0.024809
868.350783	0.024933
868.536082	0.024790
868.721362	0.025009
868.906625	0.025162
869.091869	0.024858
869.277094	0.024986
869.462302	0.024922
869.647491	0.024812
869.832662	0.024898
870.017815	0.024646
870.202950	0.024898
870.388066	0.024849
870.573165	0.024731
870.758245	0.025075
870.943306	0.025045
871.128350	0.025132
871.313375	0.025189
871.498382	0.025181
871.683371	0.025304
871.868342	0.025450
872.053294	0.025794
872.238229	0.025958
872.423144	0.026017
872.608042	0.025930
872.792922	0.026227
872.977783	0.026473
873.162626	0.026761
873.347451	0.027007
873.532258	0.026769
873.717046	0.026612
873.901816	0.026779
874.086568	0.026956
874.271302	0.027273
874.456017	0.027001
874.640715	0.027049
874.825394	0.027220
875.010055	0.027067
875.194697	0.027275
875.379322	0.027635
875.563928	0.027379
875.748516	0.027516
875.933085	0.027502
876.117637	0.027655
876.302170	0.027658
876.486685	0.027698
876.671182	0.027798
876.855661	0.028088
877.040121	0.028159
877.224563	0.028860
877.408987	0.028582
877.593393	0.028749
877.777780	0.029126
877.962150	0.029294
878.146501	0.029381
878.330833	0.029815
878.515148	0.029977
878.699444	0.030071
878.883722	0.029881
879.067982	0.029918
879.252224	0.029927
879.436447	0.030037
879.620653	0.030333
879.804840	0.030261
879.989008	0.030296
880.173159	0.030235
880.357291	0.030312
880.541405	0.030421
880.725501	0.030697
880.909579	0.030759
881.093638	0.030801
881.277680	0.030870
881.461703	0.031046
881.645707	0.031178
881.829694	0.031283
882.013662	0.031234
882.197612	0.031542
882.381544	0.031683
882.565458	0.031596
882.749353	0.031373
882.933230	0.031023
883.117089	0.030862
883.300930	0.030571
883.484753	0.030366
883.668557	0.030203
883.852343	0.029785
884.036111	0.029586
884.219861	0.029351
884.403592	0.029111
884.587305	0.028945
884.771000	0.028812
884.954677	0.028781
885.138335	0.028829
885.321976	0.028936
885.505598	0.028703
885.689201	0.028835
885.872787	0.028785
886.056354	0.029017
886.239904	0.029127
886.423434	0.029180
886.606947	0.029103
886.790442	0.029033
886.973918	0.028979
887.157376	0.029159
887.340816	0.028880
887.524237	0.029125
887.707641	0.029114
887.891026	0.029098
888.074393	0.028837
888.257741	0.028943
888.441072	0.029144
888.624384	0.028883
888.807678	0.028965
888.990954	0.028961
889.174211	0.028851
889.357451	0.028785
889.540672	0.028834
889.723875	0.029362
889.907059	0.029330
890.090226	0.029269
890.273374	0.029401
890.456504	0.029266
890.639616	0.029049
890.822709	0.029044
891.005785	0.029310
891.188842	0.029109
891.371881	0.028830
891.554901	0.028955
891.737904	0.028417
891.920888	0.028404
892.103854	0.028033
892.286802	0.028314
892.469731	0.028403
892.652643	0.028082
892.835536	0.027976
893.018410	0.027823
893.201267	0.027884
893.384106	0.028355
893.566926	0.028148
893.749728	0.028625
893.932511	0.028589
894.115277	0.028496
894.298024	0.028382
894.480753	0.028414
894.663464	0.028627
894.846157	0.028071
895.028831	0.027884
895.211487	0.027678
895.394125	0.027447
895.576745	0.027179
895.759346	0.026884
895.941930	0.026862
896.124495	0.026902
896.307041	0.026249
896.489570	0.026506
896.672080	0.026049
896.854573	0.026260
897.037046	0.025988
897.219502	0.026182
897.401940	0.026131
897.584359	0.026077
897.766760	0.025912
897.949143	0.026068
898.131507	0.025902
898.313854	0.026204
898.496182	0.026106
898.678492	0.026214
898.860783	0.026066
899.043057	0.025945
899.225312	0.025914
899.407549	0.025667
899.589768	0.025610
899.771968	0.025381
899.954151	0.025342
900.136315	0.025237
900.318461	0.024980
900.500588	0.025098
900.682698	0.025128
900.864789	0.024994
901.046862	0.025409
901.228917	0.025474
901.410953	0.025356
901.592971	0.025271
901.774972	0.025250
901.956953	0.025409
902.138917	0.025296
902.320862	0.025290
902.502790	0.025560
902.684699	0.025257
902.866589	0.025303
903.048462	0.025536
903.230316	0.025586
903.412152	0.025714
903.593970	0.025958
903.775770	0.025715
903.957551	0.026051
904.139314	0.025683
904.321059	0.025919
904.502786	0.025934
904.684494	0.026038
904.866185	0.025790
905.047857	0.025382
905.229510	0.025174
905.411146	0.025260
905.592763	0.024864
905.774363	0.024720
905.955943	0.024559
906.137506	0.024099
906.319051	0.023822
906.500577	0.023758
906.682085	0.023577
906.863575	0.023396
907.045046	0.023010
907.226500	0.022934
907.407935	0.022814
907.589352	0.022158
907.770750	0.022343
907.952131	0.022155
908.133493	0.022073
908.314837	0.022148
908.496163	0.022222
908.677470	0.022170
908.858760	0.022077
909.040031	0.022103
909.221284	0.022690
909.402518	0.022640
909.583735	0.022633
909.764933	0.022497
909.946113	0.022862
910.127275	0.022886
910.308418	0.023358
910.489544	0.023215
910.670651	0.023329
910.851740	0.023155
911.032810	0.023033
911.213863	0.022966
911.394897	0.022925
911.575913	0.022832
911.756911	0.022614
911.937890	0.022297
912.118851	0.022180
912.299794	0.022172
912.480719	0.022006
912.661626	0.021494
912.842514	0.021222
913.023384	0.021092
913.204236	0.020609
913.385070	0.020269
913.565886	0.019974
913.746683	0.019724
913.927462	0.019157
914.108223	0.018668
914.288965	0.018728
914.469690	0.018773
914.650396	0.018495
914.831084	0.018368
915.011754	0.018395
915.192405	0.018142
915.373038	0.018249
915.553653	0.018145
915.734250	0.017921
915.914829	0.017679
916.095389	0.017131
916.275931	0.016830
916.456455	0.016614
916.636961	0.016199
916.817448	0.016012
916.997917	0.015525
917.178368	0.015115
917.358801	0.014960
917.539216	0.014586
917.719612	0.014265
917.899990	0.014186
918.080350	0.013749
918.260692	0.013575
918.441015	0.013286
918.621320	0.012768
918.801607	0.012882
918.981876	0.012977
919.162127	0.013215
919.342359	0.013319
919.522573	0.013254
919.702769	0.013012
919.882947	0.012821
920.063106	0.012326
920.243247	0.012473
920.423370	0.011815
920.603475	0.011249
920.783562	0.010689
920.963630	0.010480
921.143680	0.010249
921.323712	0.010146
921.503725	0.009738
921.683721	0.009459
921.863698	0.009198
922.043657	0.009165
922.223598	0.009267
922.403520	0.009174
922.583424	0.008680
922.763311	0.008156
922.943178	0.008136
923.123028	0.007863
923.302859	0.008266
923.482673	0.008036
923.662467	0.007825
923.842244	0.007773
924.022003	0.007192
924.201743	0.007112
924.381465	0.006873
924.561169	0.006719
924.740854	0.007018
924.920522	0.006154
925.100171	0.006250
925.279802	0.005964
925.459414	0.005487
925.639009	0.005913
925.818585	0.005728
925.998143	0.005715
926.177683	0.005179
926.357205	0.004371
926.536708	0.004412
926.716193	0.003703
926.895660	0.003638
927.075109	0.002883
927.254539	0.002354
927.433951	0.001867
927.613345	0.001873
927.792721	0.002139
927.972079	0.002008
928.151418	0.002032
928.330739	0.002355
928.510042	0.001882
928.689327	0.002258
928.868593	0.001733
929.047841	0.001291
929.227071	0.000201
929.406283	-0.000117
929.585476	-0.000528
929.764652	-0.001169
929.943809	-0.002163
930.122948	-0.002023
930.302068	-0.002601
930.481171	-0.002574
930.660255	-0.002652
930.839321	-0.002336
931.018369	-0.003110
931.197398	-0.002928
931.376409	-0.002792
931.555402	-0.002803
931.734377	-0.003714
931.913334	-0.003944
932.092272	-0.004039
932.271192	-0.004136
932.450094	-0.004273
932.628978	-0.004108
932.807844	-0.004717
932.986691	-0.005680
933.165520	-0.006105
933.344331	-0.006129
933.523123	-0.006753
933.701898	-0.007787
933.880654	-0.008056
934.059392	-0.009079
934.238111	-0.010184
934.416813	-0.010782
934.595496	-0.011363
934.774161	-0.011735
934.952808	-0.012284
935.131437	-0.012097
935.310047	-0.011997
935.488639	-0.012304
935.667213	-0.012039
935.845769	-0.012083
936.024306	-0.012427
936.202825	-0.012203
936.381326	-0.012525
936.559809	-0.012930
936.738274	-0.013444
936.916720	-0.013646
937.095148	-0.013674
937.273558	-0.014036
937.451950	-0.013804
937.630323	-0.014116
937.808678	-0.014279
937.987015	-0.014424
938.165334	-0.014802
938.343635	-0.015167
938.521917	-0.015616
938.700181	-0.016272
938.878427	-0.016493
939.056655	-0.017281
939.234864	-0.017730
939.413055	-0.018216
939.591228	-0.018773
939.769383	-0.018898
939.947519	-0.018523
940.125638	-0.019060
940.303738	-0.019157
940.481820	-0.019707
940.659883	-0.020028
940.837929	-0.019721
941.015956	-0.019348
941.193965	-0.019459
941.371955	-0.019474
941.549928	-0.020651
941.727882	-0.020584
941.905818	-0.020726
942.083736	-0.020927
942.261636	-0.021075
942.439517	-0.021661
942.617380	-0.022941
942.795225	-0.022770
942.973052	-0.023225
943.150860	-0.023005
943.328651	-0.022953
943.506423	-0.024268
943.684176	-0.024375
943.861912	-0.025165
944.039629	-0.025004
944.217328	-0.025130
944.395009	-0.025833
944.572672	-0.026112
944.750317	-0.026838
944.927943	-0.026600
945.105551	-0.026279
945.283141	-0.026161
945.460712	-0.025813
945.638265	-0.026537
945.815801	-0.025826
945.993317	-0.025452
946.170816	-0.025210
946.348297	-0.024316
946.525759	-0.025373
946.703203	-0.025114
946.880629	-0.025296
947.058036	-0.025792
947.235425	-0.024920
947.412797	-0.024850
947.590149	-0.025429
947.767484	-0.024645
947.944800	-0.026018
948.122099	-0.026094
948.299379	-0.026402
948.476640	-0.026964
948.653884	-0.026635
948.831109	-0.026498
949.008316	-0.027085
949.185505	-0.026893
949.362676	-0.027740
949.539828	-0.026802
949.716962	-0.026079
949.894078	-0.025488
950.071176	-0.024934
950.248256	-0.025229
950.425317	-0.025844
950.602360	-0.026199
950.779385	-0.024896
950.956391	-0.025015
951.133380	-0.024743
951.310350	-0.025207
951.487302	-0.025623
951.664235	-0.025504
951.841151	-0.025489
952.018048	-0.025838
952.194927	-0.025207
952.371788	-0.027207
952.548631	-0.026282
952.725455	-0.027721
952.902261	-0.027498
953.079049	-0.028021
953.255819	-0.028308
953.432570	-0.027319
953.609303	-0.027075
953.786018	-0.026372
953.962715	-0.024155
954.139394	-0.023902
954.316054	-0.022208
954.492696	-0.021481
954.669320	-0.019760
954.845926	-0.019779
955.022513	-0.019680
955.199083	-0.019190
955.375634	-0.020261
955.552166	-0.021107
955.728681	-0.021154
955.905177	-0.021186
956.081655	-0.021460
956.258115	-0.021159
956.434557	-0.019873
956.610980	-0.019994
956.787385	-0.019549
956.963772	-0.018303
957.140141	-0.017436
957.316492	-0.017765
957.492824	-0.018322
957.669138	-0.017878
957.845434	-0.016928
958.021712	-0.016967
958.197971	-0.016375
958.374212	-0.015694
958.550435	-0.016172
958.726640	-0.015740
958.902826	-0.014753
959.078995	-0.014175
959.255145	-0.012178
959.431277	-0.013691
959.607390	-0.013274
959.783486	-0.012321
959.959563	-0.011958
960.135622	-0.011170
960.311662	-0.010484
960.487685	-0.009567
960.663689	-0.008986
960.839675	-0.011270
961.015643	-0.010411
961.191593	-0.010088
961.367524	-0.009635
961.543437	-0.009159
961.719332	-0.008242
961.895209	-0.008398
962.071067	-0.009094
962.246907	-0.007260
962.422730	-0.004624
962.598533	-0.003873
962.774319	-0.002960
962.950086	-0.002844
963.125835	-0.002059
963.301566	-0.001112
963.477279	-0.000149
963.652973	0.000835
963.828650	0.000985
964.004308	-0.001080
964.179947	-0.000517
964.355569	0.001509
964.531172	0.001765
964.706757	0.000780
964.882324	-0.000822
965.057873	-0.000710
965.233403	-0.001523
965.408916	-0.001401
965.584410	0.000252
965.759885	0.000805
965.935343	-0.000591
966.110782	0.000648
966.286203	0.002293
966.461606	0.002062
966.636991	0.001836
966.812357	0.002524
966.987705	0.003275
967.163035	0.002814
967.338347	0.002788
967.513641	0.003741
967.688916	0.003776
967.864173	0.004579
968.039412	0.006884
968.214632	0.008253
968.389835	0.007844
968.565019	0.006900
968.740185	0.006062
968.915333	0.006948
969.090462	0.006234
969.265573	0.006959
969.440667	0.005638
969.615741	0.004490
969.790798	0.002906
969.965836	0.003151
970.140856	0.002785
970.315858	0.004513
970.490842	0.003216
970.665808	0.003356
970.840755	0.003835
971.015684	0.002852
971.190595	0.002925
971.365487	0.003744
971.540362	0.005460
971.715218	0.006187
971.890056	0.005692
972.064875	0.006378
972.239677	0.005716
972.414460	0.004344
972.589225	0.004901
972.763972	0.006113
972.938700	0.006235
973.113411	0.005811
973.288103	0.006862
973.462777	0.006186
973.637432	0.006662
973.812070	0.005590
973.986689	0.004517
974.161290	0.006622
974.335873	0.006387
974.510437	0.004273
974.684984	0.005171
974.859512	0.004295
975.034022	0.005126
975.208513	0.004798
975.382987	0.005921
975.557442	0.007078
975.731879	0.004506
975.906298	0.004949
976.080698	0.006929
976.255080	0.006369
976.429445	0.005288
976.603790	0.005005
976.778118	0.004938
976.952427	0.004057
977.126719	0.003479
977.300992	0.004379
977.475246	0.004299
977.649483	0.004584
977.823701	0.003611
977.997901	0.003964
978.172083	0.004108
978.346247	0.005203
978.520392	0.006471
978.694519	0.006839
978.868628	0.007051
979.042719	0.005736
979.216791	0.006002
979.390845	0.007071
979.564882	0.006788
979.738899	0.005851
979.912899	0.006028
980.086880	0.005669
980.260843	0.006403
980.434788	0.007016
980.608715	0.008069
980.782623	0.006678
980.956514	0.005921
981.130386	0.007459
981.304240	0.008234
981.478075	0.005834
981.651892	0.005985
981.825692	0.005517
981.999472	0.003741
982.173235	0.004425
982.346980	0.005598
982.520706	0.005197
982.694414	0.004504
982.868104	0.005462
983.041775	0.005734
983.215428	0.006837
983.389064	0.005863
983.562680	0.007458
983.736279	0.006262
983.909860	0.006417
984.083422	0.007387
984.256966	0.007206
984.430491	0.005758
984.603999	0.007062
984.777488	0.005776
984.950959	0.006013
985.124412	0.006550
985.297847	0.006855
985.471263	0.006068
985.644661	0.006566
985.818041	0.005928
985.991403	0.006600
986.164747	0.005213
986.338072	0.004714
986.511379	0.006712
986.684668	0.005535
986.857938	0.005701
987.031191	0.006433
987.204425	0.004481
987.377641	0.006703
987.550839	0.006093
987.724018	0.006381
987.897179	0.006768
988.070322	0.005587
988.243447	0.006088
988.416554	0.006422
988.589642	0.005867
988.762712	0.005687
988.935764	0.003038
989.108798	0.003485
989.281813	0.003529
989.454811	0.003147
989.627790	0.002534
989.800751	0.002176
989.973693	0.001432
990.146617	-0.000415
990.319524	0.001283
990.492412	0.002728
990.665281	0.004272
990.838133	0.004711
991.010966	0.005448
991.183781	0.006087
991.356578	0.006002
991.529356	0.006737
991.702117	0.007714
991.874859	0.006714
992.047583	0.004841
992.220288	0.003002
992.392976	0.001282
992.565645	0.001039
992.738296	0.000216
992.910929	-0.000844
993.083543	-0.002371
993.256139	-0.001328
993.428718	-0.002609
993.601277	-0.001548
993.773819	-0.001402
993.946342	0.000153
994.118848	0.001218
994.291335	0.002583
994.463803	0.003708
994.636254	0.004496
994.808686	0.003868
994.981100	0.006620
995.153496	0.008577
995.325874	0.010039
995.498233	0.008878
995.670574	0.008039
995.842897	0.005670
996.015202	0.005870
996.187488	0.005733
996.359757	0.006001
996.532007	0.003953
996.704239	0.002740
996.876452	0.002134
997.048648	0.003378
997.220825	0.003542
997.392984	0.005927
997.565124	0.004977
997.737247	0.004127
997.909351	0.003974
998.081437	0.003965
998.253505	0.003818
998.425554	0.004048
998.597586	0.002937
998.769599	0.001891
998.941594	0.000393
999.113571	0.000231
999.285529	0.001218
999.457469	0.001661
999.629391	0.002320
999.801295	0.001242
999.973181	-0.000185
1000.145048	-0.000284
1000.316897	0.000058
1000.488728	-0.001404
1000.660541	-0.000537
1000.832335	-0.000712
1001.004111	-0.001025
1001.175869	-0.000206
1001.347609	-0.000956
1001.519331	-0.000148
1001.691034	-0.001693
1001.862719	-0.000671
1002.034386	0.001909
1002.206035	0.002036
1002.377665	0.002105
1002.549277	0.000974
1002.720871	0.000239
1002.892447	0.001870
1003.064004	0.001427
1003.235544	0.003603
1003.407065	0.002639
1003.578568	0.001345
1003.750052	0.000623
1003.921519	0.000305
1004.092967	0.001893
1004.264397	0.001616
1004.435809	0.000480
1004.607202	0.000256
1004.778577	0.000336
1004.949934	0.000321
1005.121273	0.000742
1005.292594	0.001804
1005.463896	0.001767
1005.635180	0.000526
1005.806446	-0.001494
1005.977694	-0.001918
1006.148923	-0.001199
1006.320135	-0.002417
1006.491328	-0.003059
1006.662503	-0.004550
1006.833659	-0.005285
1007.004798	-0.005467
1007.175918	-0.005480
1007.347020	-0.002300
1007.518103	-0.001857
1007.689169	-0.000944
1007.860216	0.000470
1008.031245	0.001252
1008.202256	0.002373
1008.373248	0.003004
1008.544223	0.003714
1008.715179	0.003697
1008.886117	0.001408
1009.057036	0.002103
1009.227938	0.000893
1009.398821	0.000151
1009.569686	-0.000565
1009.740533	-0.000521
1009.911361	-0.000474
1010.082172	-0.001919
1010.252964	-0.002568
1010.423738	-0.001235
1010.594493	-0.001740
1010.765231	-0.001164
1010.935950	-0.002204
1011.106651	-0.001402
1011.277334	-0.002182
1011.447998	-0.002665
1011.618645	-0.001485
1011.789273	-0.001857
1011.959882	-0.002018
1012.130474	-0.001727
1012.301048	-0.002387
1012.471603	-0.000839
1012.642140	-0.001225
1012.812658	-0.000494
1012.983159	-0.000602
1013.153641	-0.001651
1013.324105	-0.000608
1013.494551	-0.001778
1013.664979	-0.001694
1013.835388	-0.001256
1014.005779	-0.000670
1014.176152	-0.000342
1014.346507	-0.000430
1014.516843	0.000564
1014.687162	0.001680
1014.857462	0.002256
1015.027744	0.002937
1015.198007	0.002310
1015.368252	0.001414
1015.538480	0.000601
1015.708689	0.002256
1015.878879	0.002257
1016.049052	0.001203
1016.219206	0.001681
1016.389342	0.000952
1016.559460	0.001326
1016.729559	0.001511
1016.899641	0.001116
1017.069704	0.001881
1017.239749	-0.000308
1017.409775	-0.001349
1017.579784	-0.001460
1017.749774	-0.002074
1017.919746	-0.001591
1018.089700	-0.002278
1018.259635	-0.001194
1018.429553	-0.001196
1018.599452	-0.002028
1018.769333	-0.000666
1018.939195	0.000786
1019.109040	0.001039
1019.278866	0.000776
1019.448674	0.000326
1019.618464	0.000177
1019.788235	-0.000957
1019.957989	-0.002217
1020.127724	-0.003133
1020.297441	-0.003125
1020.467139	-0.002366
1020.636820	-0.003451
1020.806482	-0.002985
1020.976126	-0.003063
1021.145752	-0.002866
1021.315359	-0.001949
1021.484948	-0.000240
1021.654519	0.000472
1021.824072	-0.000822
1021.993607	-0.002896
1022.163123	-0.001557
1022.332621	-0.003319
1022.502101	-0.002649
1022.671563	-0.003144
1022.841007	-0.003535
1023.010432	-0.004067
1023.179839	-0.003518
1023.349228	-0.003626
1023.518598	-0.002991
1023.687951	-0.003946
1023.857285	-0.002422
1024.026601	-0.003141
1024.195899	-0.001883
1024.365178	-0.001859
1024.534439	-0.001391
1024.703682	-0.002300
1024.872907	-0.001637
1025.042114	-0.002345
1025.211302	-0.002046
1025.380472	-0.002523
1025.549624	-0.002448
1025.718758	-0.003271
1025.887873	-0.003335
1026.056970	-0.003336
1026.226049	-0.002096
1026.395110	-0.003001
1026.564153	-0.002854
1026.733177	-0.003137
1026.902183	-0.002102
1027.071171	-0.001494
1027.240141	-0.000226
1027.409092	-0.000472
1027.578026	-0.000571
1027.746940	-0.002327
1027.915837	-0.002114
1028.084716	-0.002156
1028.253576	-0.001907
1028.422418	-0.002072
1028.591242	-0.002079
1028.760048	-0.002876
1028.928835	-0.002620
1029.097604	-0.003435
1029.266355	-0.003614
1029.435088	-0.003563
1029.603803	-0.002151
1029.772499	-0.002009
1029.941177	-0.002762
1030.109837	-0.003856
1030.278478	-0.003736
1030.447102	-0.004412
1030.615707	-0.004122
1030.784294	-0.003988
1030.952863	-0.003027
1031.121413	-0.003359
1031.289945	-0.003972
1031.458460	-0.003482
1031.626955	-0.001645
1031.795433	-0.001394
1031.963892	-0.000817
1032.132334	0.000695
1032.300756	0.002406
1032.469161	0.001553
1032.637548	0.000539
1032.805916	0.002493
1032.974266	0.001690
1033.142598	0.001289
1033.310911	0.001828
1033.479207	0.002477
1033.647484	0.001363
1033.815743	-0.000101
1033.983983	-0.000258
1034.152206	-0.000162
1034.320410	-0.001194
1034.488596	-0.002463
1034.656764	-0.002650
1034.824914	-0.004043
1034.993045	-0.004613
1035.161158	-0.005159
1035.329253	-0.004316
1035.497330	-0.005818
1035.665388	-0.004826
1035.833428	-0.005328
1036.001450	-0.004388
1036.169454	-0.006460
1036.337440	-0.004967
1036.505407	-0.005086
1036.673356	-0.004076
1036.841287	-0.002776
1037.009200	-0.001373
1037.177094	-0.001928
1037.344970	-0.002175
1037.512828	-0.002388
1037.680668	-0.001383
1037.848489	-0.002506
1038.016293	-0.002537
1038.184078	-0.003092
1038.351845	-0.004460
1038.519593	-0.004048
1038.687324	-0.003437
1038.855036	-0.003343
1039.022730	-0.003006
1039.190406	-0.003474
1039.358063	-0.004051
1039.525702	-0.003704
1039.693323	-0.004005
1039.860926	-0.003731
1040.028511	-0.004348
1040.196077	-0.003169
1040.363625	-0.002515
1040.531155	-0.002796
1040.698667	-0.000043
1040.866161	0.000496
1041.033636	-0.000210
1041.201093	0.000966
1041.368532	0.001369
1041.535952	0.002888
1041.703355	0.001163
1041.870739	0.000065
1042.038105	0.000427
1042.205452	-0.001419
1042.372782	-0.001707
1042.540093	-0.000266
1042.707386	-0.001461
1042.874661	-0.002718
1043.041918	-0.002444
1043.209156	-0.002326
1043.376376	-0.002037
1043.543578	-0.002593
1043.710762	-0.004258
1043.877927	-0.003193
1044.045074	-0.004515
1044.212203	-0.004067
1044.379314	-0.003012
1044.546407	-0.005069
1044.713481	-0.005306
1044.880537	-0.005019
1045.047575	-0.003664
1045.214595	-0.002387
1045.381596	-0.003161
1045.548579	-0.003018
1045.715544	-0.003104
1045.882491	-0.004490
1046.049420	-0.004939
1046.216330	-0.004612
1046.383222	-0.005865
1046.550096	-0.006615
1046.716951	-0.006773
1046.883789	-0.006103
1047.050608	-0.006489
1047.217409	-0.006717
1047.384192	-0.005980
1047.550956	-0.005304
1047.717703	-0.005072
1047.884431	-0.004627
1048.051140	-0.004331
1048.217832	-0.004013
1048.384505	-0.006360
1048.551161	-0.007380
1048.717798	-0.007151
1048.884416	-0.008291
1049.051017	-0.007780
1049.217599	-0.008654
1049.384163	-0.009286
1049.550709	-0.009465
1049.717237	-0.009437
1049.883746	-0.007365
1050.050237	-0.005950
1050.216710	-0.005913
1050.383165	-0.004453
1050.549601	-0.005861
1050.716019	-0.007348
1050.882420	-0.006520
1051.048801	-0.006328
1051.215165	-0.006538
1051.381510	-0.007088
1051.547837	-0.006975
1051.714146	-0.006398
1051.880437	-0.007280
1052.046709	-0.005813
1052.212964	-0.003924
1052.379200	-0.002096
1052.545417	-0.002843
1052.711617	-0.001682
1052.877798	-0.002016
1053.043961	-0.003621
1053.210106	-0.003321
1053.376233	-0.003325
1053.542341	-0.005564
1053.708432	-0.004879
1053.874504	-0.006900
1054.040557	-0.007723
1054.206593	-0.008473
1054.372610	-0.008635
1054.538609	-0.006859
1054.704590	-0.007658
1054.870553	-0.007962
1055.036497	-0.004431
1055.202424	-0.005233
1055.368331	-0.004623
1055.534221	-0.002519
1055.700093	-0.004051
1055.865946	-0.003271
1056.031781	-0.005145
1056.197598	-0.005625
1056.363397	-0.003680
1056.529177	-0.004349
1056.694939	-0.005577
1056.860683	-0.005942
1057.026409	-0.007321
1057.192116	-0.007888
1057.357806	-0.008561
1057.523477	-0.008435
1057.689130	-0.008313
1057.854764	-0.009662
1058.020381	-0.010404
1058.185979	-0.011127
1058.351559	-0.010768
1058.517120	-0.010940
1058.682664	-0.009508
1058.848189	-0.011448
1059.013696	-0.010001
1059.179185	-0.009508
1059.344656	-0.009724
1059.510108	-0.010369
1059.675542	-0.007929
1059.840958	-0.008309
1060.006356	-0.008707
1060.171735	-0.008741
1060.337096	-0.006585
1060.502439	-0.007256
1060.667764	-0.007414
1060.833071	-0.007060
1060.998359	-0.007527
1061.163629	-0.009485
1061.328881	-0.009234
1061.494115	-0.008656
1061.659330	-0.008426
1061.824527	-0.006483
1061.989706	-0.007311
1062.154867	-0.008127
1062.320010	-0.008393
1062.485134	-0.007976
1062.650240	-0.007916
1062.815328	-0.008919
1062.980398	-0.008190
1063.145449	-0.008294
1063.310482	-0.011453
1063.475497	-0.009743
1063.640494	-0.009296
1063.805473	-0.010228
1063.970433	-0.011228
1064.135375	-0.011051
1064.300299	-0.011145
1064.465204	-0.011688
1064.630092	-0.012064
1064.794961	-0.012175
1064.959812	-0.013189
1065.124645	-0.013713
1065.289459	-0.013334
1065.454256	-0.011128
1065.619034	-0.010581
1065.783793	-0.010704
1065.948535	-0.009973
1066.113258	-0.008379
1066.277964	-0.006490
1066.442651	-0.007327
1066.607319	-0.007139
1066.771970	-0.007361
1066.936602	-0.007872
1067.101216	-0.007675
1067.265812	-0.006619
1067.430389	-0.005954
1067.594949	-0.007378
1067.759490	-0.007854
1067.924013	-0.006941
1068.088518	-0.006717
1068.253004	-0.006489
1068.417472	-0.006892
1068.581922	-0.007309
1068.746354	-0.006446
1068.910768	-0.007410
1069.075163	-0.007248
1069.239540	-0.006683
1069.403899	-0.005809
1069.568240	-0.006274
1069.732562	-0.005962
1069.896866	-0.005949
1070.061152	-0.005967
1070.225420	-0.007656
1070.389670	-0.007800
1070.553901	-0.007102
1070.718114	-0.006696
1070.882309	-0.008715
1071.046486	-0.008856
1071.210644	-0.008446
1071.374784	-0.009519
1071.538906	-0.009386
1071.703010	-0.007896
1071.867096	-0.008091
1072.031163	-0.007988
1072.195212	-0.008970
1072.359243	-0.006802
1072.523256	-0.008114
1072.687250	-0.008922
1072.851226	-0.009142
1073.015184	-0.008763
1073.179124	-0.009871
1073.343045	-0.009658
1073.506949	-0.010037
1073.670834	-0.010038
1073.834701	-0.012010
1073.998549	-0.009156
1074.162380	-0.009508
1074.326192	-0.009543
1074.489986	-0.008124
1074.653761	-0.007211
1074.817519	-0.007934
1074.981258	-0.009033
1075.144979	-0.009191
1075.308682	-0.008467
1075.472367	-0.007433
1075.636033	-0.006324
1075.799681	-0.005645
1075.963311	-0.007294
1076.126923	-0.007677
1076.290516	-0.009181
1076.454092	-0.009581
1076.617649	-0.009412
1076.781187	-0.008405
1076.944708	-0.010843
1077.108210	-0.010870
1077.271695	-0.009605
1077.435160	-0.008733
1077.598608	-0.008854
1077.762038	-0.007423
1077.925449	-0.006026
1078.088842	-0.006965
1078.252217	-0.006936
1078.415573	-0.006235
1078.578912	-0.005716
1078.742232	-0.006493
1078.905534	-0.007590
1079.068817	-0.007215
1079.232083	-0.004922
1079.395330	-0.005659
1079.558559	-0.006534
1079.721770	-0.008056
1079.884962	-0.010525
1080.048136	-0.009758
1080.211293	-0.009626
1080.374430	-0.009952
1080.537550	-0.009763
1080.700651	-0.013029
1080.863735	-0.011841
1081.026800	-0.008372
1081.189846	-0.008061
1081.352875	-0.007009
1081.515885	-0.008759
1081.678877	-0.010108
1081.841851	-0.010442
1082.004807	-0.010993
1082.167744	-0.010686
1082.330663	-0.011067
1082.493564	-0.012867
1082.656447	-0.013358
1082.819312	-0.014592
1082.982158	-0.015400
1083.144986	-0.014334
1083.307796	-0.013510
1083.470587	-0.014048
1083.633361	-0.012351
1083.796116	-0.013277
1083.958853	-0.014634
1084.121571	-0.015295
1084.284272	-0.013790
1084.446954	-0.013171
1084.609618	-0.013190
1084.772264	-0.015093
1084.934892	-0.015602
1085.097501	-0.016059
1085.260092	-0.015598
1085.422665	-0.012599
1085.585220	-0.010072
1085.747756	-0.009515
1085.910274	-0.008763
1086.072774	-0.008627
1086.235256	-0.007864
1086.397720	-0.008969
1086.560165	-0.010025
1086.722592	-0.010358
1086.885001	-0.013188
1087.047392	-0.013254
1087.209764	-0.012629
1087.372119	-0.013262
1087.534455	-0.016345
1087.696772	-0.014991
1087.859072	-0.012944
1088.021353	-0.012281
1088.183616	-0.010546
1088.345861	-0.009207
1088.508088	-0.010132
1088.670296	-0.010415
1088.832486	-0.009344
1088.994658	-0.006715
1089.156812	-0.007533
1089.318948	-0.005760
1089.481065	-0.006315
1089.643164	-0.007960
1089.805245	-0.008755
1089.967308	-0.009610
1090.129352	-0.009207
1090.291378	-0.011326
1090.453386	-0.010323
1090.615376	-0.010124
1090.777347	-0.010968
1090.939301	-0.010882
1091.101236	-0.008057
1091.263153	-0.005425
1091.425051	-0.004621
1091.586932	-0.004608
1091.748794	-0.004150
1091.910638	-0.006316
1092.072463	-0.005568
1092.234271	-0.006782
1092.396060	-0.006716
1092.557831	-0.009885
1092.719584	-0.011793
1092.881319	-0.010731
1093.043035	-0.011489
1093.204733	-0.010552
1093.366413	-0.012713
1093.528075	-0.013254
1093.689718	-0.011156
1093.851343	-0.011380
1094.012950	-0.011661
1094.174539	-0.011447
1094.336110	-0.013465
1094.497662	-0.013657
1094.659196	-0.014782
1094.820712	-0.012543
1094.982210	-0.012220
1095.143689	-0.014564
1095.305151	-0.014463
1095.466594	-0.015314
1095.628018	-0.016481
1095.789425	-0.016021
1095.950813	-0.016526
1096.112183	-0.013985
1096.273535	-0.012587
1096.434869	-0.013516
1096.596184	-0.014964
1096.757482	-0.014021
1096.918761	-0.012682
1097.080021	-0.013541
1097.241264	-0.011737
1097.402488	-0.010347
1097.563694	-0.012682
1097.724882	-0.011656
1097.886052	-0.012520
1098.047203	-0.012919
1098.208336	-0.013708
1098.369451	-0.014989
1098.530548	-0.016143
1098.691627	-0.017651
1098.852687	-0.019546
1099.013729	-0.016839
1099.174753	-0.018490
1099.335758	-0.016062
1099.496746	-0.016875
1099.657715	-0.017964
1099.818666	-0.018122
1099.979599	-0.016640
1100.140513	-0.019263
1100.301409	-0.018941
1100.462287	-0.021174
1100.623147	-0.020363
1100.783989	-0.024059
1100.944812	-0.020884
1101.105617	-0.022079
1101.266404	-0.021202
1101.427173	-0.021576
1101.587923	-0.019967
1101.748656	-0.019965
1101.909370	-0.023272
1102.070066	-0.024268
1102.230743	-0.022528
1102.391403	-0.021677
1102.552044	-0.019499
1102.712667	-0.017827
1102.873271	-0.019168
1103.033858	-0.020756
1103.194426	-0.019202
1103.354976	-0.015347
1103.515508	-0.013490
1103.676021	-0.011350
1103.836517	-0.010433
1103.996994	-0.009361
1104.157453	-0.014137
1104.317893	-0.013569
1104.478316	-0.010114
1104.638720	-0.010503
1104.799106	-0.012713
1104.959474	-0.013441
1105.119823	-0.012896
1105.280155	-0.012472
1105.440468	-0.012335
1105.600763	-0.007704
1105.761039	-0.004438
1105.921298	-0.006342
1106.081538	-0.005659
1106.241760	-0.003933
1106.401964	-0.002477
1106.562149	-0.005206
1106.722316	-0.009741
1106.882465	-0.010611
1107.042596	-0.008699
1107.202709	-0.011404
1107.362803	-0.009765
1107.522879	-0.011616
1107.682937	-0.011850
1107.842977	-0.012044
1108.002999	-0.012057
1108.163002	-0.008780
1108.322987	-0.006970
1108.482954	-0.012096
1108.642902	-0.010171
1108.802833	-0.013574
1108.962745	-0.014214
1109.122639	-0.013538
1109.282515	-0.016278
1109.442372	-0.015620
1109.602211	-0.014992
1109.762032	-0.017220
1109.921835	-0.017909
1110.081620	-0.017050
1110.241386	-0.013975
1110.401134	-0.012756
1110.560864	-0.016484
1110.720576	-0.014563
1110.880269	-0.012216
1111.039945	-0.014788
1111.199602	-0.017054
1111.359240	-0.017607
1111.518861	-0.018936
1111.678463	-0.020866
1111.838047	-0.022841
1111.997613	-0.020939
1112.157161	-0.020859
1112.316690	-0.020891
1112.476202	-0.020660
1112.635695	-0.017270
1112.795169	-0.012981
1112.954626	-0.014140
1113.114064	-0.014489
1113.273484	-0.013523
1113.432886	-0.014313
1113.592270	-0.015935
1113.751635	-0.019104
1113.910983	-0.016529
1114.070312	-0.017619
1114.229622	-0.018936
1114.388915	-0.020644
1114.548189	-0.018519
1114.707445	-0.019119
1114.866683	-0.019159
1115.025903	-0.018515
1115.185104	-0.021190
1115.344287	-0.026717
1115.503452	-0.030272
1115.662599	-0.028232
1115.821727	-0.025440
1115.980838	-0.024559
1116.139930	-0.025863
1116.299004	-0.025752
1116.458059	-0.025054
1116.617097	-0.024719
1116.776116	-0.023628
1116.935117	-0.020532
1117.094099	-0.023087
1117.253064	-0.023850
1117.412010	-0.028084
1117.570938	-0.029076
1117.729848	-0.027009
1117.888740	-0.026779
1118.047613	-0.021513
1118.206468	-0.019566
1118.365305	-0.018269
1118.524124	-0.020110
1118.682924	-0.020253
1118.841707	-0.016190
1119.000471	-0.011870
1119.159216	-0.012495
1119.317944	-0.011048
1119.476653	-0.012028
1119.635344	-0.011895
1119.794017	-0.012791
1119.952672	-0.007893
1120.111308	-0.007273
1120.269927	-0.008088
1120.428527	-0.007994
1120.587108	-0.008827
1120.745672	-0.013288
1120.904217	-0.014237
1121.062744	-0.014206
1121.221253	-0.013195
1121.379744	-0.015819
1121.538216	-0.017348
1121.696671	-0.018766
1121.855107	-0.022582
1122.013524	-0.022972
1122.171924	-0.019813
1122.330305	-0.020005
1122.488668	-0.019716
1122.647013	-0.021302
1122.805340	-0.020769
1122.963648	-0.017992
1123.121938	-0.018712
1123.280210	-0.016107
1123.438464	-0.013830
1123.596700	-0.015682
1123.754917	-0.016351
1123.913116	-0.014511
1124.071297	-0.011797
1124.229459	-0.010078
1124.387604	-0.013040
1124.545730	-0.014524
1124.703838	-0.014074
1124.861928	-0.014619
1125.019999	-0.014224
1125.178052	-0.011891
1125.336088	-0.013906
1125.494104	-0.015068
1125.652103	-0.016122
1125.810083	-0.015589
1125.968045	-0.012861
1126.125989	-0.012226
1126.283915	-0.012056
1126.441823	-0.010403
1126.599712	-0.010710
1126.757583	-0.009600
1126.915436	-0.009348
1127.073270	-0.011044
1127.231087	-0.009584
1127.388885	-0.009487
1127.546665	-0.012545
1127.704426	-0.014884
1127.862170	-0.016397
1128.019895	-0.019959
1128.177602	-0.019857
1128.335291	-0.019953
1128.492961	-0.019593
1128.650614	-0.018192
1128.808248	-0.016560
1128.965864	-0.008657
1129.123461	-0.007481
1129.281041	-0.007025
1129.438602	-0.005746
1129.596145	-0.005854
1129.753670	-0.005745
1129.911176	-0.002173
1130.068665	-0.002248
1130.226135	-0.000685
1130.383587	-0.003995
1130.541020	-0.003938
1130.698436	-0.005743
1130.855833	-0.003805
1131.013212	-0.003815
1131.170573	-0.006953
1131.327915	-0.007084
1131.485239	-0.003849
1131.642545	-0.009293
1131.799833	-0.011801
1131.957103	-0.012217
1132.114354	-0.008894
1132.271588	-0.010292
1132.428803	-0.010763
1132.585999	-0.001649
1132.743178	-0.003631
1132.900338	-0.010245
1133.057480	-0.008015
1133.214604	-0.007129
1133.371710	0.000304
1133.528797	-0.004849
1133.685866	-0.003542
1133.842917	-0.008134
1133.999950	-0.017282
1134.156964	-0.021958
1134.313960	-0.020040
1134.470938	-0.021254
1134.627898	-0.019063
1134.784840	-0.026050
1134.941763	-0.022509
1135.098668	-0.020021
1135.255555	-0.016683
1135.412424	-0.017296
1135.569274	-0.013167
1135.726107	-0.016175
1135.882921	-0.011282
1136.039716	-0.010868
1136.196494	-0.007011
1136.353253	-0.008014
1136.509995	-0.010080
1136.666717	-0.010251
1136.823422	-0.010117
1136.980109	-0.009398
1137.136777	-0.009259
1137.293427	-0.008402
1137.450059	-0.011131
1137.606672	-0.015198
1137.763267	-0.017581
1137.919844	-0.020570
1138.076403	-0.020622
1138.232944	-0.021802
1138.389466	-0.026066
1138.545971	-0.028181
1138.702457	-0.032975
1138.858924	-0.033378
1139.015374	-0.026355
1139.171805	-0.024782
1139.328218	-0.021170
1139.484613	-0.020359
1139.640990	-0.013644
1139.797348	-0.008368
1139.953688	-0.003193
1140.110010	-0.000391
1140.266314	-0.001225
1140.422600	-0.002200
1140.578867	-0.003233
1140.735116	-0.006606
1140.891347	-0.003834
1141.047559	-0.000194
1141.203754	-0.001246
1141.359930	-0.000715
1141.516088	-0.001717
1141.672228	0.001198
1141.828349	-0.002302
1141.984452	0.000363
1142.140537	0.001469
1142.296604	0.001211
1142.452653	-0.004707
1142.608683	-0.005809
1142.764695	-0.006224
1142.920689	-0.006279
1143.076665	-0.009234
1143.232622	-0.008846
1143.388562	-0.006349
1143.544483	-0.005388
1143.700385	-0.013717
1143.856270	-0.013521
1144.012136	-0.009378
1144.167985	-0.010681
1144.323814	-0.012535
1144.479626	-0.012700
1144.635420	-0.008925
1144.791195	-0.008641
1144.946952	-0.010055
1145.102691	-0.009063
1145.258411	-0.011267
1145.414113	-0.014838
1145.569798	-0.012046
1145.725463	-0.014893
1145.881111	-0.012254
1146.036741	-0.018888
1146.192352	-0.023765
1146.347945	-0.023863
1146.503519	-0.019927
1146.659076	-0.016660
1146.814614	-0.013709
1146.970134	-0.013623
1147.125636	-0.008776
1147.281120	-0.012108
1147.436585	-0.010272
1147.592032	-0.009651
1147.747461	-0.008137
1147.902872	-0.008024
1148.058265	-0.014193
1148.213639	-0.019879
1148.368995	-0.021182
1148.524333	-0.023774
1148.679653	-0.021552
1148.834954	-0.019982
1148.990237	-0.018782
1149.145502	-0.018877
1149.300749	-0.016302
1149.455977	-0.008361
1149.611188	-0.003957
1149.766380	-0.003280
1149.921553	-0.000555
1150.076709	0.002691
1150.231846	0.005444
1150.386966	0.007245
1150.542066	0.008704
1150.697149	0.003442
1150.852214	0.002322
1151.007260	0.001194
1151.162288	0.000540
1151.317298	0.001236
1151.472289	-0.002579
1151.627263	-0.001296
1151.782218	-0.005790
1151.937155	-0.001726
1152.092073	0.004475
1152.246974	0.002367
1152.401856	-0.000279
1152.556720	0.007497
1152.711566	0.008848
1152.866393	0.011327
1153.021203	0.010188
1153.175994	0.013517
1153.330767	0.011690
1153.485521	0.007765
1153.640258	0.013964
1153.794976	0.018095
1153.949676	0.008970
1154.104358	0.009144
1154.259021	0.011880
1154.413667	0.004353
1154.568294	0.004441
1154.722903	-0.000413
1154.877493	0.001649
1155.032066	-0.006071
1155.186620	-0.010308
1155.341156	-0.008242
1155.495674	-0.013178
1155.650173	-0.016269
1155.804654	-0.014381
1155.959118	-0.013874
1156.113562	-0.012110
1156.267989	-0.014750
1156.422397	-0.013955
1156.576788	-0.013360
1156.731160	-0.012521
1156.885513	-0.010037
1157.039849	-0.008469
1157.194166	-0.006977
1157.348465	-0.009972
1157.502746	-0.012874
1157.657009	-0.013118
1157.811253	-0.016563
1157.965479	-0.008975
1158.119687	-0.007734
1158.273877	-0.007956
1158.428048	-0.012938
1158.582201	-0.020503
1158.736337	-0.016039
1158.890453	-0.012719
1159.044552	-0.015253
1159.198632	-0.005376
1159.352694	-0.011110
1159.506738	-0.016493
1159.660764	-0.019289
1159.814771	-0.018313
1159.968761	-0.004840
1160.122732	-0.004887
1160.276685	-0.003811
1160.430619	0.003973
1160.584535	0.002712
1160.738434	0.003304
1160.892313	0.005162
1161.046175	0.007664
1161.200019	0.010920
1161.353844	0.004573
1161.507651	0.005015
1161.661440	-0.001817
1161.815210	-0.004250
1161.968962	-0.005839
1162.122697	-0.005162
1162.276412	-0.001680
1162.430110	-0.006334
1162.583789	-0.011508
1162.737451	-0.012682
1162.891094	-0.012129
1163.044718	-0.007490
1163.198325	-0.011946
1163.351913	-0.013067
1163.505483	-0.018076
1163.659035	-0.026670
1163.812569	-0.017784
1163.966084	-0.015574
1164.119581	-0.016563
1164.273060	-0.017627
1164.426521	-0.019332
1164.579964	-0.016356
1164.733388	-0.019821
1164.886794	-0.021103
1165.040182	-0.014889
1165.193551	-0.020571
1165.346903	-0.015075
1165.500236	-0.008200
1165.653551	-0.010109
1165.806848	-0.007457
1165.960126	-0.008301
1166.113386	-0.003501
1166.266628	-0.004305
1166.419852	-0.000029
1166.573058	-0.002426
1166.726245	-0.002799
1166.879414	-0.012374
1167.032565	-0.010176
1167.185698	-0.015606
1167.338812	-0.010560
1167.491909	-0.013862
1167.644987	-0.006156
1167.798046	-0.013851
1167.951088	-0.010693
1168.104111	-0.020342
1168.257117	-0.011404
1168.410103	-0.012326
1168.563072	-0.003269
1168.716023	-0.005030
1168.868955	-0.002567
1169.021869	-0.006072
1169.174765	-0.012045
1169.327642	-0.014904
1169.480501	-0.008683
1169.633343	-0.011981
1169.786165	-0.013219
1169.938970	-0.014751
1170.091757	-0.020218
1170.244525	-0.020173
1170.397275	-0.020063
1170.550007	-0.009907
1170.702720	-0.006682
1170.855415	-0.007476
1171.008092	-0.011306
1171.160751	-0.014031
1171.313392	-0.019285
1171.466014	-0.004789
1171.618619	-0.027620
1171.771205	-0.027620
1171.923772	-0.027620
