sample name	sample
index	426
start time	 03-08-2021  11:54:06 AM
880	0.055923
Peak Time (s)	91.035
Peak Height 	0.05592
calc peak height	90,93
Baseline Time (s)	10.037
Baseline Value 	-0.005696
subtract baseline	10,4
Abs	0.036277
Peak Time (s)	91.535
Peak Height 	0.03628
calc peak height	90,93
Baseline Time (s)	8.537
Baseline Value 	0.004596
subtract baseline	10,3
PK_550	0.021751
Peak Time (s)	90.535
Peak Height 	0.02175
calc peak height	90,93
Baseline Time (s)	10.037
Baseline Value 	3.5302E-4
subtract baseline	10,2
PK_880	0.039179
Peak Time (s)	90.037
Peak Height 	0.03918
calc peak height	90,93
Baseline Time (s)	11.036
Baseline Value 	0.002718
subtract baseline	10,1


Time (s)	A880-A510	A880-A775	A880-A975	A880	I510	I775	I975	I880	
0.034500	0.001468	-0.000223	-0.002250	0.001595	6975.497807	46955.447196	3991.850017	24719.277575
0.538000	-0.003922	-0.000268	-0.004731	0.005454	6889.207724	46561.240427	3975.318533	24526.038055
1.035500	-0.003557	-0.000081	0.002133	0.004678	6899.754699	46658.181809	3995.270738	24564.765630
1.536000	-0.000943	-0.001329	-0.002019	-0.000047	6968.257986	47009.915898	3996.779852	24802.058829
2.037000	0.000509	-0.000216	0.004757	0.000896	6973.040922	47027.142547	4012.270833	24754.456471
2.536500	-0.002530	-0.000291	-0.001805	0.004023	6915.343115	46703.027536	3986.652733	24597.481320
3.037500	0.001605	0.000051	0.001280	-0.001012	7001.456464	47248.719371	4008.083618	24850.830204
3.537000	0.001404	-0.000059	-0.000109	0.000255	6987.556384	47108.302963	4001.030396	24786.822777
4.037000	-0.000028	-0.000835	-0.000625	-0.000117	6977.541390	47067.182086	4000.648870	24805.595588
4.535000	-0.001025	0.000036	-0.000503	0.003750	6931.903642	46763.591130	3990.780285	24611.167613
5.037500	0.000481	0.000244	0.001391	0.000875	6972.985683	47076.077085	4003.362897	24755.552944
5.535000	0.001162	0.000630	-0.001173	0.001129	6977.005752	47089.513332	3995.910195	24742.735348
6.035500	0.001177	-0.000499	0.001351	0.000138	6986.516534	47075.427385	4005.214840	24792.719006
6.536000	-0.001118	-0.000085	-0.004675	0.000255	6963.762706	47105.582856	3989.003480	24786.783642
7.036000	-0.000635	0.000185	-0.004905	-0.000194	6972.546393	47178.898941	3989.577645	24809.482815
7.536500	0.001231	0.000075	0.002398	-0.000203	6990.253937	47168.705203	4008.909104	24809.948045
8.038500	0.001315	0.000003	-0.000322	-0.000712	6995.859425	47213.126397	4003.027504	24835.646920
8.537000	0.000932	0.000050	0.000000	0.000004	6985.462651	47144.991685	4001.983454	24799.465883
9.037500	-0.001339	-0.000097	-0.004358	-0.000491	6968.702761	47180.391463	3991.790372	24824.461646
9.534500	-0.001143	-0.000421	-0.000279	-0.000554	6971.147541	47153.875788	4002.723887	24827.682893
10.037500	-0.000277	0.000000	-0.001439	0.000000	6974.088233	47140.282746	3998.186114	24799.673826
10.535000	0.001705	0.000036	0.001935	0.000175	6991.162509	47126.195865	4006.669025	24790.857853
11.035500	0.000000	0.000078	0.002863	0.000334	6973.553930	47114.222348	4008.717360	24782.841096
11.536000	0.001537	-0.000079	0.000623	-0.000263	6993.713715	47159.026417	4004.344873	24812.964620
12.036000	0.000337	-0.000387	0.002156	-0.000697	6986.466928	47171.883791	4009.579288	24834.883921
12.537000	-0.000756	-0.000176	0.001247	-0.000484	6974.136949	47171.628833	4006.591115	24824.119961
13.036000	-0.001201	0.000802	-0.002422	0.003957	6928.325729	46819.981208	3985.211390	24600.770726
13.536500	0.001215	0.000472	0.007332	-0.000268	6990.715017	47215.757824	4022.313277	24813.224337
14.034500	0.001304	-0.000001	0.001827	-0.000545	6994.181761	47195.735134	4008.298050	24827.220940
14.538000	-0.001789	0.000441	0.003611	0.002914	6932.576091	46889.074356	4003.842541	24653.039128
15.035000	-0.001721	0.000191	-0.004482	0.003359	6929.059346	46818.741062	3981.401259	24630.741290
15.581500	0.002290	0.000680	0.000698	-0.000536	7003.438928	47264.346693	4005.269683	24826.743656
16.035500	-0.000995	-0.000234	0.001678	-0.001423	6980.743452	47261.564971	4010.241278	24871.651833
16.536500	-0.001348	0.000133	-0.005547	0.004810	6919.016140	46666.411672	3974.872094	24558.154962
17.036500	-0.001084	0.000904	-0.006612	0.004212	6927.042048	46804.529339	3973.662379	24588.010282
17.539500	0.000731	0.000251	0.003293	-0.000980	6992.871548	47265.830077	4013.373254	24849.191955
18.037000	-0.000761	0.000511	0.000676	-0.002139	6989.715533	47411.050200	4009.477933	24907.949465
18.537000	-0.000541	0.000206	-0.000295	0.002793	6945.372979	46877.502117	3993.839912	24659.102300
19.037500	0.001373	0.000650	-0.005585	0.001636	6974.218029	47039.954236	3983.017667	24717.234105
19.535000	0.001972	0.000181	0.001364	0.001006	6985.823926	47056.400393	4002.943655	24748.955092
20.035000	0.000434	0.000716	0.000823	0.001530	6966.372016	47057.395578	4000.122645	24722.547368
20.536000	-0.002170	-0.000410	0.000753	0.000272	6953.729628	47070.909188	4003.272060	24785.965300
21.036000	-0.001937	-0.000686	-0.002654	0.000441	6954.329793	47025.600532	3993.820529	24777.414222
21.536500	0.000542	0.000676	-0.001376	0.001267	6969.864354	47080.112209	3995.011154	24735.776106
22.037000	-0.001319	-0.000316	-0.000515	0.000403	6960.492361	47067.105987	3999.565315	24779.346750
22.536500	-0.000523	-0.000052	-0.003100	0.000608	6966.049329	47073.129230	3992.209372	24769.007466
23.037000	-0.002446	-0.000558	-0.003809	0.000847	6945.756883	46997.382641	3989.720691	24756.953770
23.534500	-0.001498	0.000306	0.003169	0.000977	6953.412031	47071.929770	4007.816753	24750.385666
24.037000	-0.000211	0.000716	-0.000778	0.001279	6962.671422	47083.011247	3996.555281	24735.199037
24.534500	-0.000217	0.000137	0.000735	0.000791	6967.203017	47073.733592	4001.846260	24759.776776
25.035500	-0.001825	-0.000009	-0.000179	0.001739	6943.214966	46962.552361	3996.921246	24712.025583
25.535500	-0.000795	0.000439	0.000130	0.000925	6960.499525	47090.773857	3999.889433	24753.000814
26.036000	-0.001005	-0.001011	-0.000490	0.000390	6963.560231	46997.857126	3999.664570	24780.007924
26.536500	-0.001184	-0.000005	-0.001892	0.000675	6959.200774	47071.046738	3995.211453	24765.609560
27.039500	-0.000042	-0.000661	0.001376	0.000267	6973.790349	47045.874481	4004.937440	24786.205496
27.537000	-0.002071	0.000282	0.002248	0.001179	6946.151311	47048.975010	4004.831954	24740.228249
28.037000	0.002445	0.000260	0.001408	-0.001728	7016.247378	47343.206445	4010.335575	24887.079705
28.539500	-0.001504	0.000597	-0.002837	0.005870	6907.718699	46606.312180	3979.148786	24505.264673
29.035000	-0.000192	-0.000258	0.001761	-0.001297	6987.135473	47246.223021	4010.127908	24865.272485
29.535000	-0.000050	-0.000334	0.000405	-0.001407	6989.523186	47249.716112	4006.806597	24870.843419
30.035500	-0.000545	0.000211	0.003159	-0.000872	6979.781816	47250.663434	4012.726361	24843.730575
30.536000	-0.003875	-0.000659	-0.001178	0.004729	6896.332620	46594.786927	3986.446719	24562.182904
31.036000	0.002226	0.000113	0.002136	-0.000922	7006.495582	47245.848513	4010.125653	24846.260594
31.563500	0.002759	0.000898	0.003483	-0.000262	7005.294018	47258.617483	4011.961588	24812.916732
32.036500	-0.002021	0.000108	-0.002127	0.002819	6931.289891	46864.927185	3988.960583	24657.784435
32.537500	-0.002640	0.000446	0.000305	0.005236	6903.076380	46655.016973	3989.000622	24536.894513
33.048000	-0.000066	-0.000675	-0.000673	-0.001909	6994.120396	47266.097285	4005.273367	24896.263834
33.538000	0.001411	0.001062	0.005461	-0.000624	6995.938874	47312.416893	4018.235008	24831.213634
34.035500	-0.000335	-0.000258	0.004517	-0.001253	6985.371838	47241.809415	4017.386989	24863.040953
34.537500	-0.003470	0.000254	-0.001795	0.004607	6901.206566	46699.083525	3985.152776	24568.288854
35.036000	-0.002365	0.000144	0.000206	0.003965	6917.423853	46752.788031	3992.074519	24600.389364
35.536500	0.001066	0.000543	-0.000153	0.002050	6967.431284	46987.078288	3996.171431	24696.416983
36.036500	0.000324	-0.000126	-0.001983	0.001514	6965.487803	46973.460234	3992.762433	24723.340804
36.536500	-0.000069	0.000574	-0.001783	0.002406	6953.419887	46954.054595	3990.946105	24678.526471
37.037000	-0.002187	-0.000006	-0.003306	0.001468	6942.364597	46990.467613	3989.412651	24725.699786
37.537000	-0.000141	-0.000630	0.000285	0.001425	6961.959792	46931.495034	3998.977619	24727.862763
38.034500	-0.000520	0.000248	0.001032	0.001850	6954.403757	46977.387673	3999.829030	24706.477004
38.535000	-0.000652	-0.000528	-0.003720	0.001678	6954.777681	46916.149898	3987.777240	24715.120879
39.035500	-0.003890	0.000104	0.000263	0.002407	6917.731618	46906.366778	3996.326803	24678.482104
39.536000	-0.001126	0.000558	0.000899	0.002073	6946.633340	46986.157151	3998.886714	24695.233676
40.036000	-0.000775	-0.000333	0.005546	0.001620	6954.163879	46941.768845	4012.444761	24718.026158
40.536000	-0.000642	-0.000407	0.000936	0.001512	6956.428960	46945.270743	4000.468643	24723.456735
41.039500	-0.000125	-0.000523	0.002796	0.001024	6965.875856	46982.999603	4006.700199	24748.055226
41.536500	0.000590	-0.000674	0.000583	0.001626	6966.937002	46906.568030	3999.231351	24717.705529
42.037000	-0.000659	0.001315	0.001162	0.002629	6945.803129	47006.705523	3998.112852	24667.347728
42.534500	-0.000194	0.000186	-0.000044	0.001732	6958.572595	46983.066492	3997.296901	24712.386553
43.035000	-0.000563	0.000138	-0.000616	0.001640	6955.969017	46987.580624	3996.030330	24717.022428
43.535000	0.000014	-0.000226	0.002740	0.001794	6959.942395	46934.950186	4004.503928	24709.272576
44.035500	-0.001199	-0.000071	0.002989	0.001447	6951.807541	46985.840706	4006.087578	24726.711008
44.535500	-0.001114	-0.000131	-0.003271	0.001898	6948.383831	46934.039010	3988.378000	24704.045373
45.036000	-0.000281	0.000253	-0.002790	0.002087	6954.417987	46953.855979	3989.140742	24694.526630
45.536500	0.000429	-0.000236	-0.000640	-0.001386	6993.848204	47257.551417	4003.972815	24869.749925
46.036000	0.000940	0.000092	0.001166	-0.000964	6994.705293	47248.003314	4007.653411	24848.426489
46.561500	-0.000203	-0.000122	-0.002795	-0.000953	6983.778910	47225.021819	3997.122458	24847.849305
47.037500	-0.004187	0.000088	-0.001475	0.005154	6889.522406	46627.294167	3984.559986	24540.994173
47.535000	0.000845	0.000108	0.000793	-0.000860	6992.818137	47239.022310	4006.383380	24843.150619
48.035000	0.002813	0.000549	0.001172	-0.000098	7004.249128	47206.230980	4005.364428	24804.610326
48.535000	-0.001267	0.000181	0.002166	0.003131	6935.420635	46840.763205	3999.440447	24642.155052
49.036000	-0.003384	0.000589	-0.000293	0.005109	6897.355178	46682.170703	3987.765293	24543.200555
49.538500	-0.001643	-0.000785	-0.002629	0.001921	6943.209877	46865.524589	3989.999055	24702.884834
50.036500	0.002052	0.000811	-0.002869	0.000070	6995.436340	47215.883948	3994.231130	24796.141849
50.539500	-0.001098	-0.000228	0.002342	0.002948	6938.706939	46817.924278	4000.390113	24651.341916
51.036500	-0.002410	-0.000177	-0.000764	0.004732	6909.881801	46643.106390	3987.520737	24562.052239
51.537000	0.002159	-0.000058	0.003750	-0.002206	7018.083989	47359.625813	4017.885793	24911.337419
52.037000	0.002615	0.000114	0.001600	-0.002246	7022.814453	47381.355041	4012.231913	24913.371046
52.537500	-0.001605	0.001071	0.001188	0.004954	6915.291137	46746.508512	3992.056944	24550.966201
53.035000	0.003463	0.000940	0.000302	0.000007	7009.433804	47235.411774	4002.776406	24799.315117
53.539000	-0.013437	-0.009599	-0.012410	0.157607	5643.019990	33003.394603	3629.160056	18125.900757
54.038500	-0.035650	-0.022839	-0.006341	-0.025556	6882.577011	47417.903869	4054.060994	26128.772738
54.535500	-0.023372	-0.061535	-0.005140	-0.201500	9054.006884	63963.453487	4659.939347	37745.623634
55.036500	-0.025988	-0.042378	0.000433	-0.161948	8482.711381	61162.112738	4523.810980	34709.895880
55.536500	-0.021386	-0.029160	0.007273	-0.119531	8015.485147	57373.694843	4392.240768	31747.261853
56.037000	-0.025291	-0.023973	-0.005358	-0.120702	7983.249492	58177.106437	4352.103749	31825.218117
56.537000	-0.014561	-0.026056	-0.009342	-0.149054	8463.809288	61623.736330	4438.736640	33778.499381
57.037500	0.002665	-0.024205	-0.003163	-0.152219	8732.235922	62306.012936	4473.264484	34004.584630
57.534500	0.008180	-0.016645	0.003160	-0.140279	8646.288536	61709.924108	4452.418885	33160.285266
58.035000	0.013836	-0.010073	0.002985	-0.127767	8555.986586	60910.980667	4406.317311	32300.129596
58.535000	0.012313	-0.002673	0.005690	-0.095990	8137.019958	57744.453506	4305.613729	30223.701124
59.036000	0.016865	0.001776	0.009389	-0.074016	7930.303592	55575.550095	4245.676415	28874.226346
59.536500	0.014731	0.006215	0.012757	-0.041401	7541.947823	52266.584460	4154.850456	26992.958703
60.039000	0.016486	0.008872	0.014014	-0.024604	7383.242045	50685.201340	4109.024923	26077.824035
60.536500	0.020412	0.010275	0.013330	-0.009832	7272.166361	49236.646628	4065.041107	25301.756770
61.037000	0.020824	0.011929	0.015962	0.004526	7133.363690	47900.825893	4032.702614	24572.324472
61.537000	0.020320	0.012957	0.016056	0.014363	7033.285981	46997.301305	4006.491637	24086.345850
62.037500	0.023038	0.014521	0.022641	0.019673	7008.568959	46618.601410	4009.887931	23828.518167
62.535000	0.025090	0.015750	0.021054	0.018998	7034.564820	46810.666694	4007.456038	23861.100603
63.035500	0.024464	0.016562	0.026046	0.016742	7050.196815	47122.014091	4026.918908	23970.441973
63.535500	0.025458	0.015050	0.022749	0.008138	7143.391037	47850.009659	4041.375617	24392.614107
64.035500	0.027527	0.021333	0.027301	0.009622	7149.128692	48349.418947	4049.811723	24319.176136
64.561000	0.029485	0.022675	0.024354	0.015816	7107.688638	47844.529767	4024.844269	24015.460369
65.036500	0.028315	0.022557	0.018610	0.023034	7026.817378	47091.730170	3990.329491	23666.942512
65.536500	0.028324	0.022258	0.021953	0.024056	7017.161187	46957.487188	3996.434096	23618.072321
66.037000	0.028260	0.021506	0.021737	0.025900	6999.024580	46695.030786	3991.016510	23530.194147
66.537000	0.027893	0.022574	0.023634	0.029437	6962.164738	46446.735679	3986.719299	23362.609310
67.040500	0.024746	0.021823	0.022616	0.035465	6876.817912	45772.240087	3968.441804	23080.141808
67.535500	0.027295	0.022155	0.023252	0.033210	6921.279590	46028.406094	3975.904713	23185.351090
68.035500	0.028251	0.021922	0.025635	0.034528	6917.911712	45874.619412	3978.666060	23123.782360
68.536000	0.026497	0.021985	0.025082	0.036179	6886.377163	45717.722185	3972.957114	23046.948919
69.036500	0.024543	0.021293	0.027247	0.039583	6837.251920	45315.864830	3969.763219	22889.455624
69.536000	0.027791	0.020436	0.024347	0.033872	6919.735625	45792.545787	3977.028170	23154.417284
70.036500	0.029591	0.022015	0.022552	0.035075	6925.289333	45829.746311	3969.282077	23098.306565
70.537000	0.028387	0.022290	0.021279	0.036476	6901.100931	45718.581505	3962.418792	23033.183600
71.037500	0.028448	0.022218	0.022246	0.039011	6878.255649	45462.325172	3958.412201	22915.806676
71.534500	0.032069	0.022883	0.028311	0.034031	6958.232962	46019.176395	3986.935607	23147.001028
72.037500	0.032540	0.023175	0.029538	0.033949	6963.429891	46056.285090	3990.363677	23150.828367
72.535000	0.030579	0.023089	0.026228	0.034528	6939.617735	45990.234280	3980.208087	23123.796741
73.035500	0.028391	0.022654	0.023228	0.037822	6888.697038	45621.868658	3963.962161	22970.789072
73.536000	0.032463	0.022791	0.027411	0.032667	6974.773232	46145.535805	3988.148317	23210.755894
74.038500	0.033149	0.023144	0.029709	0.032794	6980.053513	46168.123144	3993.849603	23204.836087
74.536500	0.032149	0.024081	0.031233	0.034137	6957.983597	46127.669856	3994.324738	23142.036338
75.036500	0.032790	0.023474	0.026717	0.036556	6941.325192	45827.618903	3976.213580	23029.461216
75.537000	0.036871	0.023677	0.030876	0.032866	7014.652918	46214.042443	3996.733116	23201.457703
76.037500	0.035389	0.024181	0.033208	0.033366	6995.823604	46214.482229	4001.573611	23178.041227
76.535000	0.037136	0.024371	0.028642	0.033383	7012.255768	46231.707396	3989.500252	23177.272905
77.035000	0.037533	0.024689	0.031064	0.033407	7015.803937	46261.105959	3995.800647	23176.139319
77.535500	0.038004	0.024096	0.037451	0.033075	7023.454885	46234.972281	4013.650345	23191.665915
78.036000	0.039219	0.023780	0.037743	0.033051	7035.297400	46205.960073	4014.497761	23192.805824
78.536000	0.037713	0.023150	0.030627	0.033496	7016.671401	46098.866390	3994.416625	23171.979468
79.036000	0.038278	0.023781	0.032127	0.032940	7027.371049	46217.076577	3999.842026	23198.000682
79.536500	0.039882	0.023215	0.034590	0.033392	7038.373916	46115.599713	4005.171789	23176.831327
80.037000	0.039033	0.022951	0.037440	0.033257	7031.550361	46102.733587	4013.132159	23183.139171
80.537000	0.039984	0.023385	0.032034	0.034251	7031.140864	46047.185122	3996.134163	23136.737639
81.037500	0.038257	0.023472	0.033356	0.034269	7014.492241	46054.061551	3999.579585	23135.904282
81.535000	0.037996	0.022440	0.033812	0.034545	7009.377083	45924.162120	4000.052396	23122.988504
82.035000	0.039460	0.023039	0.028459	0.035189	7017.187571	45919.775028	3984.297166	23093.008468
82.535500	0.039817	0.022712	0.035325	0.036278	7010.218015	45779.731205	3999.473118	23042.360238
83.035500	0.040061	0.022398	0.034794	0.036681	7008.713330	45709.007236	3997.003889	23023.656226
83.539000	0.039022	0.022481	0.034728	0.037127	6994.607514	45673.194149	3995.654140	23002.940540
84.036500	0.039195	0.022668	0.031745	0.038256	6985.560282	45580.537740	3984.867132	22950.673612
84.537000	0.038998	0.023304	0.034959	0.040290	6964.529773	45443.375084	3987.952149	22856.861487
85.036500	0.035651	0.022146	0.030502	0.043457	6903.726743	45021.885240	3968.170567	22711.680772
85.537000	0.037959	0.022981	0.035023	0.041505	6943.383746	45292.915104	3984.943457	22801.021767
86.034500	0.037483	0.022399	0.034243	0.042404	6930.541600	45148.712561	3980.568870	22759.852578
86.535000	0.037898	0.021959	0.034559	0.043770	6921.683899	44973.379996	3977.840952	22697.376076
87.035500	0.035807	0.022263	0.030903	0.048199	6861.451488	44575.619088	3957.058011	22496.203667
87.535500	0.038970	0.021739	0.035102	0.044901	6921.124200	44842.708953	3976.315313	22645.798329
88.036000	0.038878	0.021695	0.037796	0.046425	6906.122856	44691.464782	3979.352098	22576.528567
88.536500	0.037979	0.020912	0.036640	0.047267	6890.014169	44535.511012	3974.173731	22538.388019
89.036500	0.034537	0.020884	0.034158	0.050774	6826.359926	44197.925036	3958.790112	22380.185058
89.537000	0.036804	0.020773	0.039935	0.048191	6870.680394	44433.702999	3980.322059	22496.580126
90.037000	0.039179	0.021676	0.034901	0.050105	6874.915193	44337.070829	3962.398428	22410.269178
90.534500	0.038689	0.021751	0.030134	0.051550	6857.154040	44206.657453	3946.616534	22345.380422
91.035000	0.035575	0.021317	0.031360	0.055923	6789.174828	43751.948229	3938.705671	22150.264144
91.535000	0.037642	0.021102	0.036277	0.051968	6843.762917	44105.214647	3961.152737	22326.633633
92.035500	0.038339	0.020689	0.035537	0.052981	6840.879340	43970.146239	3956.682045	22281.320326
92.535500	0.039138	0.021365	0.034075	0.053876	6840.001402	43949.436275	3950.697351	22241.358571
93.039000	0.041195	0.021469	0.036231	0.055140	6847.240679	43839.941513	3952.958552	22185.039512
93.536500	0.036384	0.021540	0.038609	0.055358	6801.568839	43826.134822	3958.452998	22175.383873
94.036500	0.038225	0.021648	0.036314	0.056601	6806.969529	43719.240579	3949.467513	22120.189532
94.536500	0.039429	0.021319	0.032964	0.056986	6814.382872	43652.252262	3940.063321	22103.141964
95.037500	0.040875	0.021690	0.035757	0.058177	6816.690791	43575.375813	3944.087418	22050.470278
95.537500	0.041481	0.021421	0.034701	0.058503	6819.234980	43519.717466	3940.613215	22036.087221
96.048500	0.037826	0.021122	0.035170	0.059981	6772.946178	43353.815011	3938.083651	21970.950485
96.549000	0.040393	0.022047	0.036341	0.060153	6794.478776	43424.074988	3940.588341	21963.415587
97.035500	0.037973	0.021117	0.036874	0.062096	6755.342242	43156.793630	3937.056300	21878.158243
97.535500	0.038044	0.021102	0.031650	0.060489	6770.346503	43304.745084	3928.050296	21948.656283
98.036500	0.038566	0.020010	0.037460	0.060537	6774.591973	43198.722887	3942.432624	21946.513400
98.536000	0.039965	0.021263	0.037799	0.062083	6773.278499	43171.571191	3939.404929	21878.732212
99.037000	0.037612	0.021391	0.030876	0.066190	6715.796903	42804.351780	3912.112428	21699.866271
