sample name	sample
index	587
start time	 03-16-2021  04:11:13 PM
880	0.053692
Peak Time (s)	182.536
Peak Height 	0.05369
calc peak height	180,183
Baseline Time (s)	9.538
Baseline Value 	-0.003884
subtract baseline	10,4
Abs	0.015524
Peak Time (s)	181.037
Peak Height 	0.01552
calc peak height	180,183
Baseline Time (s)	11.036
Baseline Value 	0.006058
subtract baseline	10,3
PK_550	0.017243
Peak Time (s)	180.537
Peak Height 	0.01724
calc peak height	180,183
Baseline Time (s)	11.036
Baseline Value 	9.3372E-4
subtract baseline	10,2
PK_880	0.022626
Peak Time (s)	181.537
Peak Height 	0.02263
calc peak height	180,183
Baseline Time (s)	11.036
Baseline Value 	0.002223
subtract baseline	10,1


Time (s)	A880-A510	A880-A775	A880-A975	A880	I510	I775	I975	I880	
0.034500	-0.000434	-0.000230	-0.008532	0.001907	5588.669803	33790.995237	3633.999570	18331.395004
0.535500	-0.003326	0.000102	-0.006026	0.004292	5555.814862	33645.194794	3634.219717	18246.648221
1.035500	0.000718	-0.000351	-0.003445	0.002772	5590.465257	33720.921241	3641.732064	18300.610008
1.535500	-0.002658	-0.000243	-0.009314	0.006315	5547.438302	33477.993581	3624.596583	18175.139769
2.036000	-0.000244	0.000834	-0.002343	0.000387	5599.394550	33975.307853	3648.173405	18385.615814
2.536000	0.001705	-0.000477	-0.003777	-0.000522	5617.431649	33946.594494	3647.200517	18418.155868
3.039000	0.000541	-0.000600	-0.002479	-0.002193	5620.642704	34057.464168	3652.719751	18478.140670
3.537000	-0.002254	-0.000657	-0.001957	0.004898	5558.696907	33548.707242	3640.556622	18225.183222
4.034500	0.000163	-0.000621	-0.007019	-0.000143	5605.298020	33909.203722	3640.519423	18404.579336
4.537500	-0.001903	-0.000388	-0.007816	-0.000276	5593.141960	33935.390464	3639.299655	18409.357943
5.034500	-0.000404	-0.000310	-0.006156	0.000064	5600.423679	33916.603086	3641.724404	18397.176073
5.535000	-0.000137	-0.000732	-0.004552	0.000033	5602.298037	33888.685069	3644.739998	18398.294138
6.035000	-0.002065	0.000369	-0.004033	0.000895	5584.793216	33905.745897	3644.105275	18367.468625
6.536000	-0.002907	-0.000605	-0.011620	-0.000017	5585.228949	33901.339304	3631.880830	18400.090524
7.036500	-0.000549	-0.000677	-0.006374	-0.000754	5604.661392	33948.840994	3642.829081	18426.462664
7.536500	0.001483	0.000316	-0.004480	0.000105	5612.059369	33958.393346	3644.738277	18395.698031
8.036500	0.000042	0.000626	-0.002697	0.000287	5601.830238	33967.641740	3647.702712	18389.218874
8.537000	0.000699	-0.000280	0.001054	-0.000279	5609.533955	33943.327612	3655.745639	18409.465603
9.035000	0.001301	0.000516	0.002277	0.000535	5608.195826	33941.995364	3656.511549	18380.348338
9.538000	-0.000160	0.000020	-0.000063	0.000000	5602.360885	33944.786278	3653.135911	18399.472067
10.035000	0.000174	-0.000082	0.000004	0.000165	5603.423117	33925.720009	3652.952963	18393.562487
10.535500	-0.000579	0.000187	-0.006663	-0.000160	5600.734161	33968.184981	3641.205237	18405.211212
11.035500	0.000000	0.000000	0.000000	0.000519	5600.104401	33906.294558	3652.285861	18380.921825
11.535500	-0.001086	-0.000342	-0.001674	-0.000098	5597.153234	33925.935270	3650.317845	18402.982597
12.036000	0.002669	0.001286	0.000829	0.001621	5609.976852	33919.445342	3651.776471	18341.576602
12.539500	-0.001377	0.000056	-0.002913	0.004282	5567.962523	33642.704267	3639.933242	18247.021098
13.036500	-0.000532	0.000207	-0.003156	-0.000792	5605.006955	34014.861610	3648.853280	18427.841951
13.534000	-0.001236	0.000104	-0.001605	-0.000429	5598.293927	33981.482269	3651.061807	18414.823898
14.035000	-0.000752	0.001591	-0.002542	0.003461	5576.970771	33809.958563	3642.125605	18276.137279
14.535500	0.001919	-0.000410	0.001718	0.003869	5591.118486	33638.972862	3649.248181	18261.656558
15.035000	0.002471	0.000430	0.000225	-0.000125	5619.765161	33983.061308	3653.908276	18403.954051
15.535500	0.003206	0.001107	-0.004912	0.000112	5622.922460	34014.601543	3643.930297	18395.471040
16.036000	0.001204	0.000503	-0.001703	-0.000627	5614.924318	34024.211152	3651.247389	18421.917387
16.539500	0.001065	-0.000210	-0.002496	0.003231	5589.763706	33698.371184	3642.634410	18284.307269
17.045000	0.003296	0.001470	-0.002297	-0.001865	5636.065651	34182.704704	3652.448531	18466.351832
17.536500	-0.002079	-0.000095	-0.003054	0.001147	5583.132252	33854.679630	3645.450376	18358.490008
18.037000	-0.000058	0.000155	-0.003232	0.001489	5593.641479	33848.134900	3644.487627	18346.278839
18.537500	-0.000532	0.000666	-0.007910	0.002948	5581.541893	33780.695774	3633.236002	18294.360248
19.035000	-0.001318	0.000700	-0.003944	0.001886	5583.267434	33858.713363	3642.443647	18332.139437
19.535000	0.000747	0.000378	-0.004351	0.001704	5597.344346	33848.706577	3642.028916	18338.604096
20.035500	0.000054	0.000271	-0.000086	0.001497	5594.301378	33855.877460	3650.305141	18346.015303
20.535500	0.002285	0.001266	-0.001715	0.003219	5597.493115	33804.041962	3644.096788	18284.730715
21.036000	0.000203	0.000593	-0.006952	0.001727	5593.789803	33862.420653	3637.213742	18337.801877
21.536500	0.001244	0.000150	-0.006566	0.001365	5602.609607	33856.630579	3638.583631	18350.707039
22.036500	0.000867	0.000558	0.001192	0.001927	5596.704062	33845.640784	3651.883902	18330.688439
22.536500	-0.003048	0.000215	0.000351	0.002662	5567.644431	33768.892088	3648.950659	18304.504124
23.037000	-0.002756	0.000252	-0.003947	0.001852	5574.507414	33829.234178	3642.501347	18333.359090
23.537500	-0.001123	-0.000663	-0.006777	0.001308	5588.102100	33802.741007	3638.300689	18352.736969
24.034500	-0.002984	-0.000693	0.000633	0.001284	5576.618983	33802.325135	3652.038981	18353.584883
24.535500	0.000899	0.000742	-0.004157	0.002152	5595.492517	33842.736472	3641.562268	18322.671652
25.035500	0.000012	0.001082	-0.001561	0.002125	5590.091778	33868.873446	3646.402539	18323.615824
25.535500	-0.000415	0.001040	-0.003868	0.002412	5585.625748	33845.461797	3641.615389	18313.413887
26.038500	0.000454	0.000395	-0.000234	0.001684	5595.637729	33851.351005	3649.682140	18339.337553
26.539500	-0.002350	0.000522	-0.004483	0.002246	5574.577475	33820.353371	3640.788853	18319.301448
27.036500	0.002112	0.001439	-0.004609	0.000500	5613.540091	34010.544483	3643.772671	18381.596442
27.536000	0.000781	0.000483	0.001299	-0.000219	5609.672496	33993.583320	3656.092755	18407.318481
28.037000	0.001326	0.000456	0.001040	0.000539	5608.328833	33937.428681	3654.188894	18380.195318
28.537500	0.000751	0.000197	-0.007461	-0.000140	5608.984484	33967.399013	3639.700856	18404.465811
29.035000	0.000569	0.000754	-0.004020	0.000467	5604.012955	33963.875141	3644.922051	18382.783215
29.535500	-0.000075	0.000349	0.000633	0.001710	5592.154779	33846.253514	3651.245202	18338.414286
30.035500	0.000077	-0.000486	-0.003691	-0.001083	5610.681960	33986.057082	3648.400007	18438.272017
30.538500	-0.000058	0.000716	-0.002593	0.004003	5577.913583	33709.267355	3641.034459	18256.898764
31.035500	-0.000977	-0.000053	0.000003	0.002316	5582.712181	33774.418324	3648.948248	18316.823135
31.536500	0.000647	0.000380	-0.002754	0.001210	5599.830135	33884.087148	3645.888329	18356.242986
32.036500	0.002965	0.000621	-0.001090	0.000271	5620.389930	33968.420877	3650.716344	18389.779186
32.537500	0.000475	0.000714	-0.006400	0.005560	5571.532086	33598.809195	3631.231837	18201.796709
33.037000	0.001960	0.000306	-0.002995	-0.000732	5620.373922	34017.686362	3649.040359	18425.684444
33.535000	-0.001570	0.000604	0.003515	0.003420	5572.124049	33742.652538	3653.431179	18277.575407
34.035000	0.002124	0.000775	-0.001978	0.003439	5595.099819	33753.508317	3643.203686	18276.907045
34.535500	-0.001416	-0.000606	-0.003222	0.003553	5572.257254	33647.478465	3640.705452	18272.866914
35.036000	0.001099	0.000926	0.000401	0.003653	5587.330192	33749.037783	3647.205699	18269.309220
35.539000	0.002597	0.000718	-0.003025	0.003418	5598.199755	33750.885623	3641.314183	18277.637554
36.039000	0.002033	0.000716	-0.000427	0.003614	5593.429616	33736.849975	3645.745420	18270.702073
36.537000	-0.002212	0.000135	-0.007046	0.004086	5563.995025	33662.202357	3632.737198	18253.961842
37.037000	0.000621	0.001202	-0.002782	0.003699	5584.055498	33765.380558	3641.245207	18267.693800
37.537500	0.003409	0.001697	-0.001210	0.003966	5599.867191	33781.596513	3643.649678	18258.220600
38.035000	-0.003326	0.000551	-0.002470	0.002645	5566.025909	33793.998994	3643.761016	18305.114103
38.535000	0.001696	0.001832	-0.001089	0.005473	5579.690113	33684.145947	3641.097719	18204.885115
39.035500	0.001862	0.000027	-0.004196	0.002985	5596.303952	33732.577289	3639.958564	18293.029299
39.535500	0.002846	0.001335	0.002865	0.003536	5599.026852	33786.359743	3652.001782	18273.454392
40.036000	0.002663	0.000866	-0.002960	0.003546	5597.813726	33752.310047	3641.198850	18273.103199
40.536500	0.000876	0.001143	-0.003438	0.004384	5581.367382	33712.487380	3638.781383	18243.380322
41.036000	-0.000787	0.000043	0.003101	0.002894	5580.286325	33740.243018	3653.640653	18296.276232
41.536500	-0.001079	0.001021	0.001443	0.003765	5573.030694	33747.770574	3648.930966	18265.324859
42.040000	0.000613	0.000765	0.004168	0.003143	5587.483210	33773.849100	3655.169976	18287.423262
42.534500	-0.000712	0.001058	0.000728	0.004715	5569.407375	33682.982944	3645.844520	18231.679226
43.034500	-0.001137	-0.000117	0.000436	0.002718	5579.196918	33741.337794	3649.005123	18302.517209
43.535500	0.001838	0.000512	-0.001693	-0.002209	5628.974007	34138.473210	3654.216471	18478.700951
44.035000	-0.000670	0.001181	0.010715	0.001480	5589.861337	33922.020978	3670.678171	18346.605211
44.535500	0.001837	0.001602	0.003302	0.005658	5579.413278	33654.735738	3648.866810	18198.324954
45.036000	0.001198	0.000004	-0.004615	0.000673	5606.678393	33895.573858	3643.440806	18375.400076
45.539000	0.002080	0.002490	0.002062	0.003277	5595.838377	33887.141845	3650.988029	18282.654852
46.036500	0.003072	0.001930	-0.000734	0.001731	5611.826655	33957.580333	3648.664325	18337.645337
46.537500	-0.000817	0.000513	-0.002874	0.004726	5568.685418	33643.646645	3639.191157	18231.292930
47.037000	-0.003053	0.000262	-0.001392	0.004233	5557.874306	33660.814719	3642.821558	18248.760301
47.535000	-0.000461	0.001922	0.005386	0.003920	5575.914912	33800.810695	3655.994481	18259.828407
48.035000	0.002030	0.000757	0.001199	0.000939	5610.245535	33930.318479	3653.739150	18365.905606
48.535500	0.000864	0.001012	-0.002372	0.004811	5578.621507	33672.902677	3639.955638	18228.267962
49.041000	0.002036	0.000922	-0.002151	0.001206	5608.604483	33923.058662	3647.011562	18356.386077
49.536000	0.000134	0.000718	-0.002478	0.001111	5597.223641	33915.282190	3646.581803	18359.786481
50.044500	0.003752	0.001862	0.001197	0.001656	5616.601883	33958.088802	3652.397217	18340.339389
50.536000	-0.002741	-0.001886	-0.006545	0.013824	5501.019012	32840.287822	3616.109075	17912.631034
51.036500	0.002092	-0.005846	0.007042	0.277299	4319.678981	19071.301638	3277.663331	11065.978943
51.537000	-0.010304	-0.015940	-0.009979	-0.065528	5974.214281	37698.952346	3763.871265	20930.293444
52.037500	-0.019004	-0.025483	-0.019582	-0.241775	7436.342840	53985.172624	4194.798968	29975.328332
52.537500	-0.000163	-0.040917	0.000844	-0.319197	8569.817642	61823.704851	4536.515535	35266.907527
53.035000	0.001166	-0.021239	0.002472	-0.258384	7840.044677	56498.224356	4320.702837	31032.410444
53.535000	-0.018834	-0.015084	-0.014132	-0.222206	7236.798407	52917.731282	4151.543863	28780.646900
54.038500	-0.015557	-0.010362	-0.023229	-0.229978	7349.362077	54377.638431	4147.555002	29248.678126
54.536000	-0.011119	-0.004416	-0.017174	-0.228086	7375.707898	54860.506933	4160.126184	29133.989175
55.036000	-0.002976	-0.000698	-0.015363	-0.215186	7326.601184	53773.367659	4126.908497	28364.992211
55.536500	-0.001893	-0.000911	-0.014419	-0.191914	7104.548088	51095.118836	4062.546849	27034.274236
56.036500	-0.002362	-0.000098	-0.013422	-0.157405	6776.748454	47496.582107	3971.944927	25187.692660
56.537000	-0.002378	-0.001147	-0.011875	-0.130912	6545.325589	44755.802609	3908.899530	23866.319260
57.037000	-0.002048	-0.001239	-0.009310	-0.098165	6280.863836	41707.191969	3837.307651	22340.626660
57.534500	-0.001656	-0.001323	-0.013254	-0.082404	6162.217196	40316.559097	3793.182889	21646.306811
58.038000	0.002221	-0.002453	-0.007290	-0.064996	6061.174836	38752.863781	3768.459613	20908.183072
58.535500	-0.002622	-0.002082	-0.005687	-0.042571	5866.879705	36977.310364	3725.114721	19999.897009
59.036000	-0.005831	-0.000844	-0.006800	-0.024074	5720.701638	35649.354944	3686.148341	19285.197298
59.538500	-0.003945	-0.001038	-0.007579	-0.009794	5640.452973	34575.702364	3657.399383	18753.889002
60.036500	-0.008695	-0.000743	-0.012461	0.018232	5438.948063	32615.951176	3597.934502	17760.593613
60.537000	-0.003935	0.001715	-0.007188	0.008896	5523.748431	33434.141539	3623.777035	18084.380016
61.036500	-0.006264	0.000688	-0.014669	0.004827	5534.404994	33648.824612	3617.663496	18227.703770
61.540000	-0.001799	0.011716	-0.010129	-0.002192	5605.840722	34953.731410	3638.571461	18478.088298
62.035000	-0.002231	0.006530	-0.007927	-0.017096	5698.600002	35679.249928	3670.551719	19023.393861
62.535000	-0.004781	0.005899	-0.008835	-0.008247	5625.278106	34971.332696	3652.155518	18697.366119
63.049000	-0.005288	0.005838	-0.004001	-0.004564	5598.815928	34696.066583	3654.306637	18563.658333
63.535500	-0.002432	0.004511	-0.011172	-0.005151	5620.544530	34641.853847	3642.089990	18584.863401
64.038500	-0.001797	0.006549	-0.013865	-0.000802	5597.112867	34473.370117	3629.230977	18428.192687
64.536500	0.001386	0.006087	-0.011146	0.001529	5602.469534	34270.974827	3629.933850	18344.855002
65.036000	-0.003307	0.008107	-0.010336	0.008128	5532.293178	33941.814235	3619.508451	18111.329011
65.537000	-0.000047	0.007102	-0.010176	0.005505	5568.627413	34057.708415	3624.504093	18203.730564
66.034500	-0.002161	0.006466	-0.003954	0.005661	5554.550599	34000.981182	3635.502142	18198.230232
66.537500	-0.002001	0.007475	-0.005245	0.011508	5519.605434	33656.345851	3622.575961	17993.105555
67.037500	-0.001888	0.006295	-0.007785	0.009558	5532.230528	33710.968125	3621.518176	18061.219950
67.535000	-0.005220	0.006072	-0.006979	0.006315	5531.686442	33926.047843	3628.813096	18175.156976
68.043500	-0.001137	0.006549	-0.008574	0.007295	5550.784538	33890.103176	3624.165619	18140.626669
68.536000	-0.003721	0.006722	-0.009929	0.013044	5499.803514	33494.688470	3611.484751	17939.684917
69.038500	-0.001259	0.006419	-0.007914	0.012397	5518.712722	33518.918423	3616.212840	17962.173436
69.536000	0.002314	0.007791	-0.011023	0.010246	5553.871331	33768.345258	3614.506043	18037.144676
70.036500	0.001028	0.007929	-0.004243	0.010716	5543.034971	33744.752407	3625.805385	18020.740990
70.537000	-0.001689	0.007129	-0.006695	0.015398	5497.854203	33357.780022	3613.043372	17858.155586
71.039000	0.000658	0.007908	-0.004104	0.016885	5503.064867	33308.130251	3615.004330	17806.894587
71.537500	0.004253	0.007519	-0.001759	0.012152	5554.070398	33613.825471	3627.696852	17970.666849
72.038000	0.003022	0.007517	-0.001113	0.013026	5541.086549	33551.968356	3627.283841	17940.284395
72.535000	0.000306	0.007218	-0.012025	0.018534	5490.958710	33144.775617	3598.169969	17750.251984
73.036000	-0.000688	0.006763	-0.006216	0.018106	5487.541670	33142.890606	3609.098837	17764.939631
73.536500	0.004948	0.007988	-0.001492	0.014394	5544.522956	33488.752496	3624.134066	17892.870410
74.036500	0.004327	0.007187	0.001683	0.014132	5542.310594	33450.795394	3630.343468	17901.937219
74.536500	0.002605	0.008396	-0.004831	0.021326	5487.981109	33032.573804	3605.867226	17654.832412
75.037000	0.001045	0.008306	-0.005084	0.021602	5476.930958	33007.224574	3604.938888	17645.437811
75.536500	0.007249	0.008579	-0.003090	0.016847	5543.588049	33357.829278	3616.878737	17808.207787
76.034500	0.006913	0.009054	-0.001726	0.018168	5533.397902	33298.506415	3616.953566	17762.792326
76.537500	0.004028	0.008450	-0.003476	0.017828	5517.830781	33280.092263	3614.444969	17774.467852
77.035000	0.002744	0.008254	-0.006197	0.023293	5476.975376	32886.513203	3600.031535	17587.958154
77.538500	0.006978	0.009122	-0.006830	0.019831	5523.615424	33187.087841	3604.981871	17705.841124
78.036000	0.006340	0.008157	-0.002990	0.019387	5522.432980	33150.818232	3612.540885	17721.037828
78.539000	0.007282	0.009089	-0.004039	0.020292	5522.655071	33152.665395	3609.083138	17690.089646
79.038500	0.001234	0.008214	-0.004667	0.026520	5448.680391	32661.765299	3597.076568	17478.930255
79.536500	0.005018	0.009430	-0.002600	0.021621	5500.788175	33083.918045	3609.277275	17644.780219
80.037000	0.002727	0.008652	0.003079	0.022109	5483.994440	32996.005054	3618.497090	17628.163138
80.534000	0.002532	0.009302	-0.005862	0.028540	5444.389959	32597.957730	3591.511425	17411.089927
81.037000	0.004315	0.008824	-0.005478	0.028200	5457.016882	32588.528518	3592.760955	17422.488803
81.537500	0.005825	0.009393	-0.002038	0.024124	5490.526633	32907.828499	3605.857243	17559.810959
82.035500	0.003347	0.009380	0.001552	0.024322	5474.417056	32893.274017	3611.843951	17553.111580
82.535500	0.003984	0.009949	-0.008301	0.031265	5436.855121	32456.166208	3582.659226	17320.071359
83.041500	0.001535	0.009656	-0.003945	0.031804	5419.246393	32399.634076	3589.192299	17302.146706
83.536500	0.006714	0.009699	-0.004642	0.026394	5482.199283	32772.406291	3597.339904	17483.171805
84.039000	0.007832	0.010780	0.002455	0.027333	5483.282563	32782.158376	3608.118805	17451.597193
84.536500	0.004213	0.008924	-0.004672	0.032095	5433.303443	32330.206466	3587.444344	17292.478915
85.040000	0.003846	0.009773	0.000654	0.034401	5417.569174	32231.615438	3592.642318	17216.049842
85.537000	0.010710	0.010148	0.001115	0.028734	5492.188338	32642.628846	3603.300843	17404.597566
86.040000	0.009646	0.010805	0.000051	0.029393	5481.797691	32642.418895	3600.288261	17382.531981
86.535000	0.001811	0.009631	0.002694	0.034538	5404.845806	32212.728321	3595.936654	17211.499096
87.035500	0.005921	0.009922	-0.007599	0.035738	5421.902641	32151.445593	3576.260869	17171.920330
87.536000	0.008399	0.010285	-0.001484	0.030514	5467.588116	32530.303088	3595.669790	17345.109845
88.036000	0.007049	0.010588	-0.001149	0.030599	5459.015750	32545.176760	3596.103680	17342.287289
88.536500	0.006102	0.010125	-0.002473	0.035734	5422.987255	32165.396828	3584.978197	17172.044021
89.036500	0.003545	0.010138	-0.006390	0.037361	5398.493707	32056.827487	3575.561232	17118.520566
89.537000	0.008886	0.010234	-0.000197	0.031588	5464.078288	32453.553092	3596.038009	17309.314952
90.037500	0.005913	0.010248	-0.007428	0.032323	5442.013758	32404.608813	3582.344576	17284.900880
90.534500	0.005013	0.011861	-0.002206	0.038935	5397.878028	32066.814168	3579.980075	17066.924290
91.037500	0.008694	0.011210	-0.007237	0.033374	5452.283107	32398.504509	3580.879787	17250.028078
91.535000	0.009698	0.011248	-0.003784	0.033475	5457.662996	32394.232554	3586.601351	17246.677098
92.035000	0.006771	0.010962	-0.001687	0.033943	5437.497529	32343.055105	3589.397419	17231.184910
92.538500	0.006950	0.011117	0.000200	0.034374	5436.007272	32324.338223	3591.905568	17216.918332
93.036500	0.006829	0.010972	-0.006836	0.040963	5396.643953	31871.575809	3568.761879	17000.763211
93.536500	0.008147	0.011697	-0.000274	0.035611	5435.772730	32279.841864	3588.959553	17176.097267
94.039500	0.009560	0.011273	0.002610	0.035739	5443.378617	32242.572657	3593.710931	17171.879239
94.537000	0.006065	0.011800	0.001535	0.042322	5384.316791	31836.157280	3580.581438	16956.568482
95.037000	0.004297	0.011627	0.000034	0.042826	5371.185112	31791.040629	3577.182218	16940.211508
95.535000	0.011632	0.011497	0.006813	0.037096	5447.624384	32166.136433	3598.649924	17127.240129
96.037000	0.010999	0.012344	-0.000287	0.037240	5443.015959	32213.491729	3586.142674	17122.502491
96.535500	0.011033	0.011720	0.004073	0.037489	5441.732970	32154.610319	3593.214452	17114.309068
97.036000	0.008465	0.011831	0.000534	0.043593	5390.864004	31753.562717	3576.729238	16915.359944
97.536000	0.008424	0.011748	0.005891	0.037964	5423.529562	32124.499122	3595.539430	17098.737112
98.039000	0.009471	0.013113	0.001684	0.039281	5421.942464	32127.781037	3586.021713	17055.624231
98.536500	0.009640	0.012435	0.000707	0.039059	5424.243317	32097.099096	3584.731988	17062.886534
99.039500	0.008837	0.011585	-0.003437	0.045096	5384.303352	31637.585608	3567.534589	16866.802506
99.537000	0.010667	0.011352	0.002409	0.038634	5432.796957	32052.865111	3588.374783	17076.784413
100.037500	0.009270	0.011600	-0.000059	0.038647	5424.492879	32068.685135	3584.127389	17076.377487
100.535000	0.012523	0.012550	0.001425	0.039690	5437.529398	32062.430061	3584.880818	17042.274688
101.035000	0.006211	0.011715	0.009469	0.045133	5368.923983	31643.768246	3589.339563	16865.618834
101.535500	0.010348	0.012307	0.005395	0.039552	5425.502738	32055.355327	3591.935021	17046.760735
102.038500	0.011110	0.012513	0.011181	0.039482	5430.414284	32073.910636	3602.109099	17049.065720
102.536000	0.010104	0.011731	-0.001325	0.039041	5427.078176	32050.986088	3581.297376	17063.472149
103.036500	0.009794	0.012788	0.005260	0.045829	5385.595976	31668.713945	3580.950863	16843.177570
103.536500	0.011408	0.012332	0.008416	0.039617	5431.371968	32052.702366	3597.053880	17044.652711
104.037000	0.010573	0.011984	0.008274	0.039289	5428.380089	32051.322785	3597.376122	17055.361535
104.537500	0.006845	0.012026	0.001668	0.045521	5370.336670	31638.629940	3575.389249	16853.100748
105.040000	0.005397	0.011856	0.000132	0.044086	5370.268091	31722.522089	3575.219142	16899.439834
105.535500	0.010816	0.011983	0.006279	0.039720	5427.269288	32022.324145	3593.171400	17041.271860
106.035000	0.009878	0.012755	-0.001701	0.039994	5420.142168	32055.726979	3579.040014	17032.340260
106.536000	0.006044	0.010764	0.002873	0.045069	5368.328760	31585.125991	3578.190566	16867.685852
107.036000	0.007805	0.011327	-0.001066	0.044909	5379.411916	31632.895182	3571.817822	16872.842094
107.536000	0.009141	0.013175	0.004872	0.040524	5412.708864	32048.337082	3589.359256	17015.051419
108.039000	0.010909	0.012803	0.005017	0.040210	5424.937901	32044.485632	3590.149643	17025.296340
108.537000	0.010402	0.012029	-0.003848	0.039837	5424.150231	32017.590304	3575.673552	17037.468556
109.037000	0.009184	0.012551	0.002832	0.045872	5381.818502	31650.184363	3576.762822	16841.803514
109.537500	0.011176	0.012154	-0.001859	0.040433	5425.196010	31985.974427	3578.027603	17018.015805
110.034500	0.010866	0.012400	0.001027	0.039640	5428.038034	32055.687648	3584.283673	17043.883823
110.535000	0.008638	0.011033	0.004460	0.045705	5379.630795	31560.932641	3579.804943	16847.200524
111.035500	0.008533	0.012585	0.000414	0.044151	5388.021091	31766.638611	3575.585572	16897.341922
111.538000	0.008416	0.012296	0.008692	0.039763	5412.919888	32040.438606	3597.278451	17039.881353
112.036500	0.011101	0.013235	0.001151	0.040346	5425.268690	32064.361563	3583.292831	17020.869492
112.536000	0.007773	0.012618	-0.001621	0.046357	5370.869639	31622.572702	3568.462325	16826.209722
113.042000	0.009347	0.012274	0.003898	0.045721	5383.635992	31641.850477	3578.822811	16846.670472
113.537000	0.012819	0.012269	0.006220	0.040253	5435.952527	32005.809396	3592.149522	17023.895666
114.037500	0.011585	0.012890	0.006712	0.041206	5423.053660	31983.501936	3591.353420	16992.833027
114.537500	0.008015	0.013263	-0.000137	0.046594	5370.898740	31649.528016	3570.548462	16818.575886
115.035000	0.013223	0.013183	0.002186	0.040381	5437.583253	32058.491745	3584.998784	17019.708174
115.535500	0.011659	0.013263	0.003302	0.040477	5427.777750	32057.399495	3586.745466	17016.584238
116.038500	0.012753	0.013333	0.008135	0.040865	5431.942438	32036.030365	3594.399672	17003.926490
116.535000	0.009826	0.013579	0.001940	0.047609	5375.487797	31603.295531	3572.331361	16785.998056
117.039000	0.011141	0.013176	0.002601	0.043264	5408.373865	31865.061162	3580.792032	16926.015197
117.536000	0.010421	0.013506	0.003465	0.040809	5418.544546	32051.415473	3586.455379	17005.754580
118.042000	0.013334	0.012847	0.010293	0.040940	5434.929673	31998.447936	3598.014821	17001.488366
118.537000	0.011810	0.013256	0.005294	0.046912	5391.018257	31628.052703	3579.170443	16808.378914
119.039500	0.012115	0.013048	0.008941	0.042586	5418.056786	31901.765247	3592.818053	16947.995744
119.537500	0.012944	0.013309	0.007292	0.041239	5430.868990	32009.403874	3592.298215	16991.781226
120.035000	0.013548	0.014342	0.005423	0.041455	5433.150623	32064.149049	3588.706200	16984.723917
120.535500	0.012524	0.012928	0.006069	0.041157	5428.870369	31989.304426	3590.329665	16994.431149
121.035000	0.009185	0.013696	0.003273	0.044081	5392.213052	31845.260178	3580.544394	16899.581665
121.535500	0.011768	0.013756	0.004713	0.041782	5420.745050	32002.962855	3586.926314	16974.109098
122.041500	0.011929	0.013218	0.013440	0.041452	5423.632826	31989.055821	3602.614065	16984.850770
122.536500	0.012140	0.013143	0.006467	0.041240	5426.120887	31998.157583	3590.872191	16991.727862
123.041500	0.012854	0.013682	0.006650	0.044780	5409.529183	31797.742155	3585.109831	16877.004710
123.537500	0.015583	0.013689	0.004630	0.041778	5443.288990	31998.745228	3586.792649	16974.250356
124.034500	0.015271	0.013318	0.003351	0.041830	5441.128260	31970.392370	3584.514096	16972.545086
124.535000	0.011607	0.013701	0.006798	0.042303	5416.732293	31964.330180	3589.612143	16957.174787
125.035500	0.012728	0.012994	0.003599	0.044221	5412.068778	31789.177078	3580.862505	16895.070803
125.582000	0.014439	0.013487	0.012651	0.040936	5441.495414	32041.659324	3602.136366	17001.630014
126.035500	0.014114	0.013653	0.009739	0.041299	5437.418822	32028.385108	3596.429227	16989.799994
126.535500	0.014128	0.013813	0.012237	0.042008	5433.311201	31991.618437	3599.540168	16966.749842
127.035500	0.012667	0.014055	0.012425	0.045038	5406.924567	31805.418723	3594.603207	16868.678813
127.536500	0.016155	0.014206	0.001272	0.041954	5445.638609	32021.643299	3580.759721	16968.530976
128.036500	0.016235	0.015099	0.006700	0.042430	5443.281678	32049.528174	3589.225057	16953.057531
128.534500	0.009601	0.014049	0.002857	0.048083	5371.458637	31602.999099	3573.075839	16770.805232
129.035000	0.012402	0.014145	0.002190	0.044572	5408.103404	31842.480287	3577.875984	16883.737237
129.534500	0.012769	0.014196	0.010536	0.042295	5423.610987	31998.045412	3596.083918	16957.456250
130.035500	0.014609	0.014328	0.012294	0.042197	5435.042226	32013.506107	3599.311311	16960.639263
130.535500	0.010274	0.014069	0.005062	0.048807	5371.167473	31556.557982	3575.572421	16747.647512
131.041000	0.014339	0.014244	0.007053	0.044616	5419.194959	31846.097763	3586.079345	16882.294687
131.536000	0.014691	0.014268	0.008130	0.042288	5434.986839	32003.311985	3591.932164	16957.670217
132.039500	0.013671	0.013336	0.009555	0.041595	5433.052350	31987.337602	3595.596459	16980.190799
132.537000	0.011124	0.014266	0.006827	0.049636	5371.288128	31514.888206	3577.153281	16721.164588
133.036500	0.012336	0.014433	0.001037	0.044410	5408.662658	31872.448001	3576.199105	16888.958300
133.537500	0.013473	0.014049	0.008574	0.042543	5426.296337	31971.558522	3592.258244	16949.395424
134.035000	0.015890	0.015013	0.005389	0.042855	5438.724588	32015.271330	3586.246507	16939.285719
134.535500	0.010051	0.012963	0.005944	0.048416	5372.129258	31509.388411	3577.723694	16760.138194
135.038500	0.014238	0.013465	0.010159	0.043393	5425.798398	31875.720797	3593.528810	16921.850625
135.535500	0.015352	0.014605	0.009182	0.043127	5433.932759	31969.680670	3592.299488	16930.449591
136.039000	0.013396	0.013798	0.007614	0.041892	5429.682199	31998.404210	3591.727131	16970.547159
136.536000	0.013509	0.013835	0.013574	0.042445	5427.083759	31963.811036	3601.112611	16952.581355
137.037000	0.015871	0.014925	0.010446	0.044418	5429.375471	31904.804032	3592.253510	16888.700300
137.537000	0.016710	0.015135	0.002864	0.043086	5442.206599	32007.915417	3581.540882	16931.777415
138.037000	0.018245	0.015293	0.012115	0.043391	5449.507983	31998.119442	3596.921644	16921.907869
138.535000	0.015992	0.015554	0.012338	0.043586	5435.004231	32002.597923	3596.971305	16915.616957
139.035000	0.016826	0.014422	-0.001049	0.044265	5435.922338	31881.451600	3572.928059	16893.653794
139.535500	0.017313	0.014755	0.011492	0.042437	5449.641781	32025.977071	3597.496188	16952.821490
140.041500	0.018391	0.015918	0.010620	0.043984	5446.859146	32000.269812	3593.304686	16902.726445
140.535000	0.017093	0.014800	0.011653	0.043131	5444.215646	31982.545368	3596.571980	16930.345604
141.036000	0.014689	0.013970	0.002045	0.042331	5434.720231	31980.551042	3581.433365	16956.286294
141.536500	0.014411	0.015682	0.010505	0.043478	5426.314371	32018.344832	3593.979604	16919.086397
142.037000	0.015299	0.015494	0.012910	0.043328	5432.432125	32015.791865	3598.414077	16923.938913
142.537000	0.016222	0.015069	0.005495	0.042769	5441.200495	32024.803631	3586.574688	16942.061647
143.037500	0.017193	0.015070	0.014182	0.043307	5443.766523	31988.829868	3600.667377	16924.629111
143.535000	0.018430	0.015171	0.009912	0.043272	5451.315739	31997.873218	3593.309936	16925.756984
144.035000	0.017928	0.014897	0.012462	0.043102	5449.340982	31990.919684	3598.026923	16931.262311
144.538500	0.016955	0.015770	0.008611	0.043869	5439.026721	31998.089669	3590.037771	16906.449974
145.036000	0.017738	0.014680	0.011038	0.043126	5448.070592	31974.781549	3595.512611	16930.483914
145.536000	0.015600	0.015063	0.014206	0.043260	5434.611334	31991.491782	3600.792177	16926.143554
146.036500	0.018113	0.016103	0.019447	0.044107	5444.474250	32004.422216	3608.501828	16898.739799
146.537000	0.011327	0.015444	0.005572	0.049668	5372.268837	31590.445609	3574.979475	16720.116308
147.037000	0.016868	0.016135	0.009167	0.044328	5435.795161	31991.732971	3590.202989	16891.594176
147.537500	0.019398	0.015403	0.006384	0.043685	5454.620078	31985.810785	3586.529381	16912.389485
148.035000	0.013628	0.015140	0.008248	0.043592	5421.033299	31974.389279	3589.888855	16915.390991
148.537000	0.015669	0.016055	0.013004	0.043767	5432.028310	32023.992449	3597.814746	16909.743863
149.038500	0.021657	0.015615	0.010727	0.044401	5463.831790	31952.086214	3592.769597	16889.262866
149.535500	0.017181	0.016370	0.010620	0.044097	5439.013628	32023.025444	3593.110016	16899.086418
150.036000	0.017366	0.015736	0.003777	0.043802	5441.856442	32000.305005	3581.876947	16908.615839
150.536000	0.012961	0.015241	0.000753	0.049843	5380.696140	31565.511354	3566.605200	16714.554431
151.036500	0.017465	0.016564	0.006774	0.045676	5431.359468	31930.199863	3583.791703	16848.111456
151.537000	0.017299	0.015223	0.006765	0.043162	5445.257917	32008.770801	3588.080118	16929.337933
152.037000	0.018794	0.015703	0.012517	0.043605	5451.502355	32011.255724	3597.248929	16914.980872
152.534500	0.010979	0.014567	0.002624	0.049239	5372.735351	31560.890526	3570.744096	16733.825765
153.035000	0.018000	0.015998	0.015876	0.044486	5441.560782	31971.997593	3601.567692	16886.514822
153.535500	0.015973	0.015898	0.017169	0.044014	5432.362954	31996.936023	3604.658493	16901.757428
154.035500	0.019032	0.016215	0.009855	0.044097	5449.993915	32012.589090	3591.787757	16899.066927
154.536000	0.012819	0.015569	0.001855	0.049918	5379.444426	31582.209558	3568.319571	16712.150716
155.036500	0.017083	0.015597	0.007855	0.044493	5436.089734	31944.670847	3587.666523	16886.279110
155.536000	0.017329	0.016657	0.005433	0.044631	5436.725176	32006.403340	3583.285309	16881.804679
156.036500	0.017979	0.016556	0.009658	0.045145	5437.538884	31965.285228	3589.643627	16865.249349
156.536500	0.015322	0.015320	0.009624	0.044202	5427.419292	31945.627946	3591.208858	16895.687458
157.037000	0.016858	0.014946	0.016251	0.044012	5437.600694	31933.298268	3603.051863	16901.805407
157.534500	0.015853	0.016076	0.013762	0.044798	5427.032918	31956.344673	3597.340059	16876.436577
158.035000	0.017304	0.016135	0.010582	0.044922	5434.864800	31952.010810	3591.620595	16872.443134
158.538000	0.016113	0.015498	0.014299	0.044222	5431.962844	31956.228803	3599.276229	16895.036541
159.036000	0.014729	0.015715	0.010815	0.045281	5417.579451	31899.886791	3591.401584	16860.842419
159.535500	0.017416	0.015133	0.013953	0.044268	5439.391405	31928.659861	3598.592515	16893.536090
160.036500	0.015579	0.016228	0.011657	0.045212	5422.986020	31938.840324	3592.975456	16863.085561
160.536500	0.013058	0.015365	0.009685	0.044491	5412.419281	31929.332193	3590.816591	16886.350582
161.036500	0.016744	0.015797	0.011213	0.045257	5429.581999	31907.011787	3592.129468	16861.629867
161.537000	0.017205	0.016719	0.008097	0.045332	5431.853058	31963.633532	3586.641477	16859.205010
162.034500	0.018302	0.016809	0.011343	0.045670	5436.337715	31946.989107	3591.640804	16848.300962
162.534500	0.015290	0.015850	0.010440	0.051063	5387.123340	31525.216656	3580.859802	16675.682436
163.041000	0.017861	0.015032	0.010782	0.045034	5437.493428	31870.851475	3591.772369	16868.829336
163.535500	0.015738	0.016722	0.010997	0.045813	5420.384319	31931.672206	3590.799463	16843.713907
164.036000	0.017433	0.016901	0.011679	0.046226	5427.927507	31916.032763	3591.262806	16830.429728
164.536000	0.015003	0.016729	0.011805	0.051342	5383.844792	31564.772298	3582.708888	16666.818849
165.036500	0.018428	0.016038	0.010184	0.045997	5435.149887	31873.683716	3589.082992	16837.778069
165.536500	0.016288	0.016071	0.016101	0.046048	5422.234814	31872.467813	3599.235054	16836.148871
166.037000	0.017912	0.016406	0.014881	0.045714	5433.772725	31917.108698	3597.690927	16846.883952
166.537000	0.016593	0.016140	0.006809	0.051638	5391.343069	31506.431639	3573.743320	16657.396693
167.037000	0.017126	0.015701	0.011351	0.045987	5427.529028	31851.887893	3591.108640	16838.111720
167.535000	0.018539	0.016556	0.013291	0.046324	5433.873716	31886.410040	3593.877268	16827.263234
168.041000	0.017632	0.016449	0.015111	0.046468	5427.676117	31869.673494	3596.781747	16822.638488
168.535500	0.013264	0.015842	0.006030	0.051122	5375.058981	31520.794755	3573.302062	16673.801348
169.035500	0.017654	0.017710	0.010633	0.047775	5420.113215	31866.634434	3586.801358	16780.685517
169.538500	0.017767	0.017185	0.005254	0.046922	5425.791778	31888.513150	3579.084873	16808.040452
170.036500	0.018516	0.016829	0.013959	0.046462	5432.928828	31895.434623	3594.794194	16822.838884
170.537000	0.015964	0.016189	0.003964	0.048508	5405.917030	31716.642841	3574.224170	16757.209903
171.037000	0.018161	0.017532	0.014976	0.047314	5425.806403	31885.494689	3595.079839	16795.457691
171.537500	0.016416	0.016474	0.011445	0.046810	5418.512925	31848.547824	3589.853997	16811.656650
172.037500	0.018283	0.016830	0.019098	0.047153	5427.474531	31849.401870	3602.538479	16800.615949
172.535500	0.013292	0.016010	0.009135	0.052309	5368.375945	31453.690495	3576.535996	16636.094947
173.035500	0.015515	0.016044	0.010865	0.046604	5414.427834	31833.542992	3589.209737	16818.247407
173.535500	0.017967	0.017067	0.012882	0.047290	5424.806870	31856.102626	3591.503007	16796.240662
174.036000	0.019766	0.016839	0.014591	0.047137	5436.321657	31851.034304	3594.720037	16801.142510
174.536000	0.015076	0.016192	0.006237	0.052820	5375.716262	31432.056227	3570.796702	16619.898333
175.036500	0.019727	0.017700	0.015863	0.048230	5429.632988	31835.566084	3595.028680	16766.089102
175.537000	0.019706	0.017323	0.016030	0.047318	5434.896520	31871.300398	3596.901435	16795.337940
176.037500	0.017000	0.017629	0.018139	0.048560	5411.675141	31808.903612	3598.409723	16755.537781
176.537500	0.016720	0.015596	0.007251	0.046970	5419.351633	31779.398096	3582.397474	16806.488440
177.037500	0.017035	0.015623	0.014069	0.046742	5422.545741	31796.338952	3594.498995	16813.816740
177.538000	0.017671	0.016505	0.012011	0.047117	5424.086988	31830.134660	3590.299231	16801.799231
178.035500	0.017730	0.018033	0.014442	0.048677	5415.263380	31827.986250	3591.801132	16751.800986
178.536000	0.016754	0.017007	0.013574	0.047247	5417.924025	31854.912066	3592.769820	16797.596877
179.036000	0.019169	0.017433	0.012878	0.048130	5426.938943	31824.499640	3590.047394	16769.308332
179.536500	0.018860	0.017719	0.010874	0.048195	5424.736413	31839.207876	3586.495797	16767.222693
180.036500	0.016988	0.016610	0.015246	0.047730	5416.470280	31796.307751	3594.827623	16782.128274
180.537000	0.016384	0.017243	0.005887	0.048268	5409.772965	31802.640755	3577.877190	16764.875893
181.037500	0.019615	0.016274	0.015524	0.047773	5431.672470	31771.112862	3595.234694	16780.751636
181.537500	0.022626	0.017075	0.010953	0.048287	5446.453948	31790.172355	3586.472886	16764.271330
182.038000	0.017250	0.017141	0.015362	0.048382	5414.178272	31788.257241	3593.898458	16761.219232
182.535500	0.013764	0.016365	0.002171	0.053692	5363.134696	31386.161464	3562.563820	16592.286635
183.069000	0.019400	0.017548	0.011211	0.048540	5425.888124	31804.873504	3586.482198	16756.190860
183.535500	0.020706	0.018299	0.016017	0.048813	5431.970502	31836.620486	3594.286439	16747.432826
184.036000	0.018465	0.017129	0.014716	0.048815	5418.771528	31758.669419	3592.035016	16747.389031
184.536500	0.014642	0.017023	0.006122	0.054287	5364.762655	31390.296472	3568.149774	16573.496801
185.036500	0.018684	0.017380	0.015504	0.048930	5419.379499	31767.708357	3593.196119	16743.697596
185.537500	0.020374	0.017410	0.008538	0.049121	5428.201181	31757.022868	3580.928623	16737.607531
186.037000	0.022193	0.017088	0.017134	0.048394	5443.246005	31783.884706	3596.948841	16760.833478
