sample name	sample
index	1333
start time	 05-03-2021  11:46:10 AM
880	-0.011432
Peak Time (s)	92.537
Peak Height 	-0.01143
calc peak height	90,93
Baseline Time (s)	10.036
Baseline Value 	-0.00682
subtract baseline	10,4
Abs	0.020258
Peak Time (s)	91.036
Peak Height 	0.02026
calc peak height	90,93
Baseline Time (s)	10.536
Baseline Value 	0.003824
subtract baseline	10,3
PK_550	0.009506
Peak Time (s)	92.037
Peak Height 	0.009506
calc peak height	90,93
Baseline Time (s)	11.036
Baseline Value 	7.992E-5
subtract baseline	10,2
PK_880	0.022536
Peak Time (s)	90.035
Peak Height 	0.02254
calc peak height	90,93
Baseline Time (s)	8.535
Baseline Value 	0.001847
subtract baseline	10,1


Time (s)	A880-A510	A880-A775	A880-A975	A880	I510	I775	I975	I880	
0.035500	-0.001583	-0.000606	0.002599	0.002997	6097.946829	42560.858594	3889.829599	22077.740833
0.535500	-0.001001	-0.000780	0.001557	0.004639	6090.153684	42395.669540	3883.563993	22005.410190
1.035500	-0.001344	0.000697	0.000974	0.007810	6064.448541	42242.295234	3874.869353	21866.539420
1.536000	0.000015	-0.000030	-0.003393	0.003508	6105.960386	42566.758312	3874.718560	22055.203403
2.036500	0.001138	0.000825	-0.003931	0.002376	6122.650018	42748.203110	3876.089207	22105.172832
2.534000	-0.000890	0.001242	0.002702	0.002858	6104.080246	42742.281070	3890.396328	22083.884621
3.034500	-0.003438	-0.000329	0.003926	0.005513	6065.929461	42357.376932	3887.050367	21967.061991
3.534000	0.001353	0.000517	0.000603	0.001024	6134.306015	42843.974403	3889.777166	22165.030841
4.034500	-0.002256	-0.000421	-0.000337	0.000102	6114.354240	42842.438009	3889.732531	22205.934904
4.535000	-0.000738	0.000695	0.001275	0.001071	6118.414379	42855.955574	3891.237513	22162.914644
5.035000	0.000915	0.000435	-0.000390	0.001492	6127.565171	42793.512846	3886.360956	22144.287093
5.536000	0.000887	0.000439	-0.000680	0.000776	6132.681959	42859.544852	3887.355257	22176.027870
6.035500	0.001643	0.000862	-0.000369	0.001221	6134.988395	42857.535365	3887.042638	22156.276236
6.536500	0.000600	0.000526	-0.005786	0.000834	6130.108570	42862.216544	3875.366883	22173.429838
7.034000	0.001705	0.000673	0.001518	0.001424	6133.944592	42821.534539	3890.982216	22147.293471
7.534000	-0.000730	-0.000049	-0.004943	0.000052	6126.037116	42881.199756	3879.124339	22208.161984
8.034500	-0.000241	0.000972	-0.002582	0.000945	6123.042321	42892.974676	3882.531305	22168.531114
8.535000	0.000000	0.000376	0.000367	0.000230	6130.138709	42903.901482	3891.082142	22200.235887
9.034500	0.000219	0.001119	-0.001334	0.001016	6125.927972	42899.947071	3885.270102	22165.370876
9.535000	-0.002058	-0.000094	0.000496	-0.000036	6116.840375	42885.151750	3892.008449	22212.049211
10.035500	0.000917	0.000231	-0.001151	0.000000	6138.683505	42911.694598	3888.067064	22210.460324
10.535500	-0.002167	-0.000732	0.000000	0.002793	6095.150904	42567.931661	3884.238308	22086.761923
11.036000	-0.000745	0.000000	-0.002319	-0.000039	6126.601162	42894.068135	3885.433375	22212.194593
11.536500	0.000819	-0.000597	0.004308	-0.000915	6144.782485	42919.763894	3903.073151	22251.182154
12.033500	0.000790	0.000897	-0.002372	0.000112	6136.903763	42962.704101	3884.956949	22205.493862
12.534000	-0.000777	0.000118	-0.000052	0.002444	6107.972150	42677.344666	3884.930664	22102.182272
13.034500	-0.002385	0.000077	-0.002830	0.000314	6111.829271	42868.733864	3883.421618	22196.520629
13.534500	0.002185	0.000356	0.000914	0.000745	6142.588008	42854.804950	3891.159070	22177.397863
14.035000	0.000203	0.000192	-0.001635	0.002670	6113.541520	42663.434007	3880.724514	22092.181549
14.535500	-0.002656	0.000393	0.000373	0.004418	6079.643469	42522.437096	3881.329250	22015.164523
15.036500	0.002139	0.000930	0.004899	0.001391	6137.422552	42848.166724	3899.014178	22148.772744
15.536000	-0.000742	0.001455	0.002942	0.001299	6116.702377	42904.845306	3894.620053	22152.840760
16.036500	-0.000862	0.000641	0.001971	0.000804	6119.476809	42875.517275	3893.499076	22174.758892
16.536500	-0.003715	0.000213	-0.000325	0.003278	6080.230441	42609.845280	3882.352781	22065.341207
17.034000	-0.002765	-0.000499	-0.002915	0.003060	6088.791443	42564.842448	3876.857130	22074.953984
17.534500	-0.000696	0.000360	0.001604	0.001407	6116.241445	42794.441217	3891.223088	22148.062482
18.034500	-0.000934	-0.000500	0.001575	0.001104	6116.719620	42743.339446	3891.865764	22161.456032
18.535000	-0.000973	-0.000885	-0.001319	0.001404	6114.210659	42680.720515	3884.400824	22148.165116
19.035500	0.001004	0.000236	-0.003441	0.001284	6129.765082	42794.314433	3879.748992	22153.481023
19.535500	0.000209	0.000001	-0.001436	0.001653	6121.129374	42739.000437	3883.549792	22137.163337
20.036000	0.000718	0.000848	-0.002052	0.002068	6121.820845	42778.508051	3881.152844	22118.778242
20.536500	0.001520	0.001449	0.001391	0.003295	6118.663596	42721.216026	3886.309039	22064.587808
21.036500	-0.000015	0.000523	0.004222	0.001486	6120.698236	42802.104418	3897.192892	22144.545458
21.534000	0.000001	0.000204	-0.001869	0.001465	6120.978332	42774.828740	3882.980292	22145.496397
22.034500	0.000085	0.000617	0.002981	0.001753	6119.457046	42786.201686	3893.642879	22132.708970
22.534500	-0.000720	0.001022	-0.002480	0.002822	6105.599408	42725.416020	3878.412756	22085.465809
23.034500	0.000084	0.000517	0.000695	0.001578	6120.755253	42793.181735	3888.696004	22140.485866
23.535000	-0.000281	0.000167	0.001359	0.001423	6119.199529	42775.293648	3890.613084	22147.352007
24.035500	0.000281	0.000355	0.003175	0.001586	6122.155044	42777.536048	3894.491725	22140.112562
24.535500	-0.001367	0.001140	0.001688	0.002509	6103.136842	42764.952217	3888.840031	22099.301663
25.035500	0.000739	0.000168	0.002106	0.000862	6130.936309	42826.849982	3893.680750	22172.215752
25.536000	0.002833	0.000251	-0.002939	0.001243	6143.704491	42799.465996	3881.010692	22155.313176
26.034000	0.000354	0.000207	-0.001346	0.001074	6126.499084	42810.907369	3885.105263	22162.783911
26.534500	0.000164	0.000872	0.006133	0.002049	6117.857744	42782.503350	3900.374996	22119.634154
27.034000	-0.000204	0.001085	0.005590	-0.001175	6139.087370	43098.661035	3906.736757	22262.737417
27.537000	0.002764	0.000487	0.001400	-0.000273	6154.528796	42960.438063	3894.690682	22222.615753
28.035000	0.000749	0.000838	0.001281	0.000616	6132.835965	42910.863293	3892.321000	22183.097392
28.535000	-0.002256	0.000563	0.003020	0.003776	6087.273171	42596.367046	3888.990221	22043.390079
29.035500	-0.002100	0.000337	-0.002200	0.003931	6087.286363	42561.634142	3876.497775	22036.584308
29.536000	0.000238	0.001421	0.003921	0.000984	6126.305749	42930.599531	3897.666461	22166.783341
30.036000	0.001083	0.001142	-0.000073	0.000903	6133.193782	42912.503527	3888.476390	22170.386097
30.538000	-0.000566	0.001149	0.002387	0.002558	6108.684669	42761.234581	3890.358458	22097.112755
31.034000	-0.000561	0.000121	-0.000629	0.003583	6101.162480	42573.695899	3880.940667	22051.927355
31.534000	0.003674	0.001401	0.002088	0.000946	6152.210354	42932.324342	3893.439499	22168.463796
32.034500	0.000011	0.001098	0.001330	0.000557	6127.788250	42940.236240	3892.573595	22185.721384
32.535500	-0.000740	-0.000066	0.003877	-0.000018	6126.482286	42886.054668	3899.928625	22211.267629
33.035000	0.000577	0.000018	0.000637	0.002036	6121.016327	42705.537031	3887.488922	22120.216966
33.535500	0.002202	0.001162	0.004962	-0.001527	6159.717276	43138.275052	3906.078898	22278.422265
34.035500	-0.000097	0.000545	0.001365	0.002072	6115.752647	42750.482972	3889.107051	22118.627086
34.535500	-0.002389	-0.000544	0.003741	0.001657	6101.888982	42688.789097	3895.657183	22136.987969
35.036000	0.001089	0.000929	-0.004813	0.001920	6125.672629	42799.542645	3875.108280	22125.341772
35.533500	-0.000875	0.001524	-0.002686	0.002277	6108.479526	42821.340848	3879.199322	22109.555458
36.034000	-0.000842	0.000675	-0.000910	0.002044	6110.451071	42764.969008	3883.863100	22119.868660
36.534500	0.000095	0.000230	-0.005398	0.003586	6105.976148	42583.339437	3869.926385	22051.763895
37.034500	-0.002210	0.000278	0.001446	0.001992	6100.733022	42733.366022	3889.483620	22122.159002
37.534500	0.000451	-0.000007	0.003663	0.001517	6123.930487	42750.772720	3895.801366	22143.181539
38.035000	-0.001094	-0.000162	0.002618	0.001779	6110.537882	42712.544016	3892.728363	22131.561874
38.535000	0.001160	0.000876	-0.005191	0.002414	6122.529017	42749.431610	3873.096524	22103.475682
39.035500	0.000357	0.000669	0.007824	0.002084	6119.024030	42760.659095	3904.298788	22118.083317
39.536000	0.000634	0.001171	0.001597	0.002450	6118.368973	42773.208355	3888.765116	22101.917353
40.033000	-0.000621	0.000909	0.002189	0.002354	6109.786626	42757.992529	3890.374380	22106.147203
40.533500	-0.000847	0.000698	0.002094	0.002906	6104.048081	42688.137548	3888.859569	22081.767125
41.034000	0.001152	0.000445	-0.000746	0.002213	6123.966210	42728.435487	3883.851980	22112.384452
41.534000	-0.000276	0.000648	-0.000838	0.002332	6112.498261	42736.059450	3883.359184	22107.109843
42.034500	-0.000942	0.000564	0.003603	0.002360	6107.374802	42725.821217	3893.677669	22105.893833
42.535000	-0.001354	0.000936	0.001971	0.003626	6095.002036	42644.054699	3886.891019	22050.005018
43.035000	-0.000970	0.000222	0.002626	0.001728	6111.831988	42752.314297	3892.867967	22133.822766
43.535500	-0.000313	0.000622	-0.005108	0.000753	6123.931278	42878.408531	3877.119726	22177.026788
44.036000	0.000882	0.000524	0.000604	0.000402	6135.424771	42901.629456	3891.232401	22192.585271
44.538000	-0.001364	0.000502	0.000500	0.004102	6091.428274	42561.069386	3882.354657	22029.041497
45.036500	0.001061	0.001064	0.000683	0.000844	6133.467702	42910.705950	3890.384605	22173.000916
45.534000	-0.000856	0.000485	0.001384	0.000123	6124.581493	42923.825825	3893.720341	22205.017954
46.034000	0.002220	0.000836	0.006848	0.000665	6143.440749	42906.130148	3905.352064	22180.915733
46.534500	-0.001802	-0.000764	0.003526	0.002185	6102.316315	42620.486531	3893.907955	22113.617006
47.035000	-0.001180	0.000597	0.001141	0.002985	6101.010154	42671.731857	3886.451190	22078.299038
47.535000	-0.000184	0.000777	-0.000594	0.002299	6113.421211	42750.818369	3884.003220	22108.556181
48.038000	0.001743	0.001725	-0.001007	0.001153	6136.245495	42943.064086	3885.713683	22159.293773
48.535500	0.000269	0.000638	0.002641	0.003262	6109.654310	42650.118958	3889.307282	22066.045816
49.035500	-0.000413	0.000660	0.005643	0.003097	6105.836470	42667.241383	3896.743974	22073.331973
49.536000	0.003459	0.001139	0.002594	-0.002354	6175.392305	43212.628968	3902.420852	22315.318772
50.034000	0.001428	0.001321	0.004551	0.000983	6135.167254	42921.619755	3899.157913	22166.852317
50.534000	0.004829	-0.001879	-0.000239	0.036162	5906.908704	39544.291421	3808.947656	20668.737664
51.034000	0.035748	-0.022248	0.004266	0.322885	4568.551084	21014.289326	3361.772840	12088.297533
51.534500	0.026334	-0.026806	-0.008817	-0.064680	6885.287805	46526.186190	4030.443978	25309.448568
52.034500	0.018892	-0.084034	-0.012119	-0.274351	9248.642835	64833.108355	4734.418491	39208.194114
52.535000	0.013367	-0.097551	-0.019636	-0.292473	9435.475461	65492.302006	4780.428936	40754.702781
53.035500	0.016527	-0.090435	-0.013908	-0.284521	9363.762206	65372.136019	4770.686493	40068.124482
53.535500	0.011771	-0.057415	-0.008260	-0.239820	8668.072080	63716.609410	4607.504621	36434.091024
54.036000	0.001709	-0.037648	-0.015367	-0.211188	8176.395580	62489.609036	4470.493532	34295.385972
54.533500	-0.000412	-0.038619	-0.018067	-0.210513	8142.534584	62264.563767	4458.129552	34246.656711
55.033500	-0.002562	-0.060289	-0.024635	-0.248246	8590.149764	64498.016971	4576.048712	37090.806571
55.534000	0.001775	-0.052323	-0.015716	-0.236817	8497.988771	64009.418526	4566.233851	36203.094273
56.034500	0.001472	-0.031974	-0.015549	-0.199400	8032.317174	61657.911472	4427.073055	33455.054425
56.534000	0.002144	-0.021042	-0.016732	-0.160718	7602.231570	58026.484756	4290.786769	30852.349489
57.035000	-0.000416	-0.016569	-0.014230	-0.142246	7379.958112	56280.829618	4239.606014	29688.953143
57.535500	0.001420	-0.011924	-0.011647	-0.128577	7259.551395	55185.011193	4205.166287	28859.355296
58.035500	0.000599	-0.010622	-0.008779	-0.109091	7060.396004	53044.660099	4155.159546	27720.893535
58.536000	0.003325	-0.007323	-0.010554	-0.097640	6977.652756	52113.860456	4116.708047	27075.345724
59.036500	0.001721	-0.006099	-0.010604	-0.085930	6854.556390	50942.134399	4083.488553	26432.577935
59.533500	0.000821	-0.004871	-0.005168	-0.072011	6721.893857	49561.017586	4060.074607	25690.709580
60.034000	0.002414	-0.003053	-0.008501	-0.063164	6658.599061	48813.410256	4027.249946	25231.432685
60.534500	0.001967	-0.002682	-0.003565	-0.023883	6330.045306	44886.526553	3939.498021	23301.376374
61.034500	0.000060	-0.005966	-0.012456	-0.043994	6476.867560	46541.753361	3967.407601	24267.724786
61.535000	-0.000291	-0.005510	-0.006681	-0.049856	6522.536732	47179.910844	3997.121924	24557.883994
62.035500	-0.002410	0.001661	-0.013417	-0.052921	6530.443171	48233.816053	3987.661684	24711.195601
62.535500	-0.004477	0.002126	-0.011115	-0.060500	6576.801293	49079.504935	4013.309391	25094.921927
63.036000	-0.002139	0.003119	-0.007837	-0.061825	6607.946257	49326.268720	4025.457355	25162.717314
63.535500	-0.003470	0.002891	-0.007682	-0.061726	6595.760897	49291.330645	4025.606943	25157.627672
64.036000	-0.005153	0.003515	-0.010310	-0.060807	6573.684312	49259.968701	4016.234459	25110.641457
64.534000	-0.006410	0.004001	-0.013479	-0.060791	6562.936788	49310.005120	4007.879566	25109.808978
65.034000	-0.004404	0.004660	-0.010356	-0.060509	6577.507686	49350.202406	4015.328808	25095.411972
65.534000	-0.004816	0.005198	-0.008840	-0.060739	6575.965105	49432.292382	4019.929170	25107.168862
66.034500	-0.003555	0.006023	-0.010772	-0.058759	6569.879021	49308.855392	4009.643977	25006.180105
66.534500	-0.007940	0.005850	-0.008985	-0.053437	6488.770946	48726.659224	4000.434301	24737.126333
67.035000	-0.006084	0.005593	-0.008407	-0.056837	6532.461457	49058.769044	4010.807249	24908.648781
67.535500	-0.004298	0.006272	-0.007523	-0.055308	6534.615912	48968.715608	4009.118424	24831.338769
68.035500	-0.001039	0.006091	-0.004015	-0.055597	6564.426848	48980.066617	4019.091290	24845.909888
68.536000	-0.004275	0.006564	-0.011253	-0.051873	6506.166081	48637.075933	3990.529343	24658.645287
69.033500	-0.002397	0.006826	-0.011410	-0.055281	6550.331456	49024.529778	3998.927442	24829.984028
69.534000	-0.002490	0.007449	-0.006807	-0.055227	6549.091205	49084.874175	4010.778554	24827.238811
70.034000	0.000228	0.008266	-0.007748	-0.054114	6562.601848	49053.426721	4005.410853	24771.152067
70.534500	-0.000921	0.008083	-0.006231	-0.049231	6512.084670	48519.227747	3996.670303	24526.759177
71.035000	0.000393	0.008664	-0.001577	-0.050838	6536.467247	48749.200200	4012.985497	24606.900407
71.535000	0.000642	0.008303	-0.005102	-0.050977	6539.710763	48725.805635	4004.131578	24613.828219
72.035500	0.000877	0.008674	-0.005754	-0.049937	6532.974514	48655.453207	3999.734509	24561.941241
72.536000	-0.001432	0.007428	-0.008798	-0.045785	6479.332252	48091.464591	3981.222976	24355.972293
73.036000	0.000968	0.008364	-0.005783	-0.048613	6522.670777	48483.953745	3996.228977	24496.025712
73.536500	0.001587	0.008564	-0.003170	-0.048404	6526.101057	48483.051102	4002.465664	24485.661162
74.034000	0.003671	0.008935	-0.001153	-0.047782	6538.328513	48456.706009	4006.097270	24454.791665
74.534000	0.000152	0.009678	-0.002463	-0.043215	6471.213010	48058.191214	3990.870898	24229.443576
75.034500	0.001908	0.010164	-0.002130	-0.045956	6508.380172	48394.294098	3998.810010	24364.412854
75.534500	0.003324	0.009752	0.002531	-0.046453	6524.309655	48403.207883	4012.259110	24388.978984
76.035000	0.000974	0.008986	-0.002662	-0.047003	6509.323528	48380.653412	4000.144817	24416.194731
76.535500	0.001215	0.008175	-0.003763	-0.047197	6512.936966	48316.169556	3997.792486	24425.774750
77.035500	0.000958	0.008880	0.001354	-0.045633	6497.817189	48226.600620	4007.030789	24348.446391
77.535500	0.001229	0.009188	0.000674	-0.044180	6488.049780	48107.519797	4001.478488	24276.883162
78.036000	-0.000908	0.008593	0.005137	-0.042814	6459.221678	47904.215108	4009.552538	24209.786787
78.533500	-0.003340	0.007404	-0.008517	-0.037904	6399.554845	47277.815625	3961.998432	23970.331122
79.034000	0.003643	0.008599	-0.001676	-0.039394	6468.495150	47552.554446	3983.088140	24042.712242
79.534500	0.004667	0.008053	0.003762	-0.038966	6473.404967	47452.710765	3995.968722	24021.925655
80.034000	0.006010	0.007765	0.004834	-0.037518	6472.539479	47275.440034	3994.997711	23951.669553
80.534500	0.001149	0.006778	0.000597	-0.032935	6395.695452	46711.020311	3972.442904	23730.811537
81.035000	0.004480	0.007522	0.003521	-0.034957	6439.040351	46990.366026	3985.033176	23827.943779
81.535000	0.004034	0.007118	0.002889	-0.034181	6429.100951	46871.011109	3981.435446	23790.635108
82.035500	0.006652	0.007127	0.006613	-0.033445	6444.429430	46797.609770	3989.085520	23755.267120
82.536000	0.008031	0.007311	0.011094	-0.032073	6444.490152	46677.920190	3997.103367	23689.540073
83.033500	0.008436	0.007981	0.007502	-0.030434	6434.427677	46580.597780	3983.647278	23611.277708
83.536500	0.008675	0.008295	0.008447	-0.029420	6428.130224	46510.310263	3983.469666	23562.997578
84.034000	0.011608	0.007627	0.005810	-0.028469	6444.265542	46348.473182	3974.335867	23517.832693
84.535000	0.008163	0.007104	0.008765	-0.023509	6376.327981	45804.431523	3969.262539	23283.817046
85.035000	0.011957	0.008192	0.013732	-0.026156	6428.272223	46174.203058	3988.648480	23408.369708
85.535000	0.011583	0.007000	0.008362	-0.025669	6421.285769	46007.625652	3973.707014	23385.414370
86.035500	0.013045	0.008077	0.012056	-0.023923	6418.985806	45941.493781	3978.653443	23303.289319
86.536000	0.016234	0.008767	0.012385	-0.022252	6431.303827	45844.522314	3975.242568	23224.974919
87.036000	0.014639	0.008186	0.011307	-0.021819	6414.850813	45744.551631	3971.415621	23204.719827
87.536500	0.017713	0.008975	0.015634	-0.020139	6426.156356	45656.988411	3978.128939	23126.387251
88.036500	0.016329	0.008001	0.013830	-0.019969	6413.554285	45544.642346	3973.116169	23118.446389
88.536500	0.015964	0.008629	0.018337	-0.018806	6401.219762	45492.309182	3981.619375	23064.437737
89.034500	0.019105	0.008876	0.014685	-0.017706	6417.710870	45408.884486	3969.558049	23013.461660
89.538000	0.018191	0.009655	0.018772	-0.016580	6401.219218	45374.987300	3977.058536	22961.390195
90.035500	0.022536	0.008994	0.019082	-0.016324	6434.350748	45285.644044	3977.195643	22949.609392
90.535500	0.019128	0.007892	0.017351	-0.015071	6396.623244	45056.984686	3969.638505	22891.895794
91.036000	0.020261	0.008361	0.020258	-0.014736	6403.048912	45069.838471	3976.148443	22876.457574
91.538500	0.021242	0.008484	0.019466	-0.014397	6408.229191	45048.966385	3973.279579	22860.892805
92.037000	0.022039	0.009506	0.015749	-0.013192	6404.934882	45031.244358	3960.881585	22805.606866
92.536500	0.019951	0.008418	0.019496	-0.011432	6374.017494	44756.421382	3965.869860	22725.157069
93.037500	0.023839	0.009269	0.018645	-0.011596	6406.584828	44854.160927	3964.143680	22732.643987
93.534500	0.022653	0.009110	0.019285	-0.011122	6393.205662	44793.203818	3964.560151	22711.021943
94.034500	0.024636	0.009145	0.018730	-0.010426	6403.576051	44729.663072	3961.420962	22679.331009
94.535000	0.021235	0.008551	0.017611	-0.007813	6355.393175	44422.584206	3952.109999	22560.766258
95.035500	0.022888	0.009522	0.021909	-0.008576	6374.675170	44588.344094	3964.757300	22595.323213
95.535500	0.023664	0.008456	0.023883	-0.008589	6380.985271	44487.550017	3969.762169	22595.907347
96.038500	0.025010	0.008840	0.023109	-0.007619	6383.999385	44431.592858	3965.368647	22551.989786
