sample name	sample
index	254
start time	 02-25-2021  10:37:04 AM
880	0.056502
Peak Time (s)	92.537
Peak Height 	0.0565
calc peak height	90,93
Baseline Time (s)	8.537
Baseline Value 	-0.005144
subtract baseline	10,4
Abs	0.033206
Peak Time (s)	92.537
Peak Height 	0.03321
calc peak height	90,93
Baseline Time (s)	10.038
Baseline Value 	0.002255
subtract baseline	10,3
PK_550	0.015356
Peak Time (s)	90.041
Peak Height 	0.01536
calc peak height	90,93
Baseline Time (s)	8.537
Baseline Value 	1.8918E-4
subtract baseline	10,2
PK_880	0.027865
Peak Time (s)	92.036
Peak Height 	0.02786
calc peak height	90,93
Baseline Time (s)	9.035
Baseline Value 	0.003208
subtract baseline	10,1


Time (s)	A880-A510	A880-A775	A880-A975	A880	I510	I775	I975	I880	
0.035000	-0.000554	0.000141	-0.001847	0.001247	6857.251177	46181.722942	3906.365456	24269.138786
0.538500	-0.001502	-0.000222	0.001422	0.004642	6816.811644	45807.955615	3906.032094	24101.777724
1.036000	-0.003112	-0.000301	-0.001726	0.003537	6812.136616	45909.708091	3900.667853	24156.103246
1.536500	-0.001597	-0.000154	-0.003832	0.003744	6824.260017	45903.779661	3894.625011	24145.925047
2.039500	-0.001220	-0.000548	0.003136	-0.000205	6864.616989	46257.964176	3923.434751	24341.120436
2.536500	0.000084	-0.000409	0.003161	-0.000516	6879.780394	46302.953293	3924.330176	24356.552370
3.036500	-0.000076	-0.000417	0.003452	-0.001243	6885.112554	46375.068234	3927.057199	24392.694180
3.537500	-0.001185	-0.000602	-0.002038	0.000781	6855.700740	46154.021907	3907.088004	24292.185777
4.035000	-0.001754	-0.000025	-0.000807	0.000871	6849.544051	46202.651883	3910.096609	24287.724016
4.535500	-0.000710	-0.000010	0.001602	0.000606	6861.792456	46230.649423	3917.183346	24300.891715
5.036000	0.000089	0.000364	0.006185	0.000879	6866.723864	46240.781930	3928.696655	24287.358862
5.535500	-0.000701	-0.000305	-0.001305	-0.000038	6867.909568	46265.610074	3911.185363	24332.817368
6.035500	-0.000198	0.000291	0.004233	0.000778	6864.980734	46243.599577	3923.738057	24292.357509
6.536500	-0.000704	0.000103	0.001877	0.000714	6860.834624	46231.111255	3917.626928	24295.513721
7.037000	-0.000652	0.000497	0.000760	0.000672	6861.706980	46274.689827	3914.770234	24297.579090
7.537000	-0.000709	0.000824	0.005634	0.000661	6861.274606	46308.580347	3927.801677	24298.125020
8.037500	0.000219	0.000150	-0.002737	0.000450	6871.965261	46262.211466	3906.117148	24308.593258
8.537500	-0.001800	0.000000	-0.002466	0.000000	6857.262195	46292.278625	3908.019132	24330.925931
9.035000	0.000000	-0.000059	0.000852	0.000317	6871.153628	46254.653092	3915.957709	24315.179952
9.535000	-0.003233	-0.000134	-0.000353	-0.000633	6849.780570	46342.249584	3915.282120	24362.363555
10.038000	-0.001874	0.000262	0.000000	-0.000548	6861.693738	46373.481924	3915.993617	24358.150010
10.535500	0.000765	-0.000154	0.004074	-0.000133	6882.581359	46290.173044	3925.747627	24337.515512
11.036000	0.000507	0.000932	-0.000441	0.000584	6873.403640	46327.106268	3911.821963	24301.944356
11.536500	0.000774	0.000183	0.001879	0.000011	6881.315317	46309.535415	3919.504262	24330.387547
12.036500	0.000694	0.000355	0.004962	0.000329	6877.557804	46294.814764	3926.889571	24314.585622
12.537000	-0.002426	-0.000284	0.003450	-0.000365	6854.815241	46300.377219	3924.699756	24349.052727
13.037500	0.000670	0.000413	0.000874	-0.001042	6890.247327	46438.244689	3919.630490	24382.702149
13.535000	-0.001182	-0.000431	-0.000066	-0.001573	6877.817099	46406.824260	3918.542786	24409.156859
14.035000	-0.003110	-0.000615	-0.001523	0.001460	6831.426565	46085.030255	3906.656971	24258.595196
14.540000	-0.001608	0.000324	-0.001530	0.002390	6836.744347	46085.935352	3904.191495	24212.654045
15.038500	-0.001769	0.000271	0.000878	-0.001050	6867.381985	46424.733331	3919.663696	24383.089888
15.536000	0.000294	0.000334	0.004848	-0.001030	6886.597080	46429.115863	3930.231625	24382.123155
16.036000	0.001734	0.000732	0.004629	-0.000653	6896.627094	46431.228329	3928.632500	24363.363794
16.537000	0.001475	-0.000392	0.000306	-0.000692	6894.546851	46322.346664	3917.187857	24365.309893
17.037000	0.002602	0.000471	0.000073	-0.002569	6923.011158	46597.718045	3921.566058	24458.807523
17.537000	0.000037	0.000597	0.003539	0.000859	6866.420348	46266.128285	3921.668463	24288.357421
18.037500	0.000017	0.000515	-0.003091	0.001222	6862.832553	46221.587542	3903.160217	24270.383217
18.535000	0.001940	0.000661	0.003552	0.001583	6877.492782	46200.090695	3919.771282	24252.504705
19.035000	-0.002126	0.000307	-0.002190	0.001299	6842.080855	46193.062123	3905.325090	24266.553295
19.535500	-0.001347	0.001115	-0.003139	0.001695	6845.648689	46234.165091	3901.791757	24246.954383
20.036000	-0.002089	0.000336	0.000461	0.001037	6844.873223	46222.093831	3913.012209	24279.516785
20.536000	-0.000406	0.000178	0.000108	0.000985	6861.079986	46211.532946	3912.215796	24282.080707
21.036000	-0.000643	-0.000013	0.003024	0.001195	6856.905318	46171.490770	3919.399757	24271.697324
21.536500	-0.001793	0.000026	-0.002926	0.001070	6847.321066	46187.815088	3903.989543	24277.864605
22.037500	-0.001255	-0.000055	-0.001485	0.000678	6856.013792	46219.018627	3908.817781	24297.325238
22.537500	-0.000200	0.000331	-0.001308	0.000939	6863.448529	46231.435408	3908.594639	24284.369813
23.037500	-0.000712	0.001119	0.002165	0.001606	6852.411866	46243.480759	3916.020591	24251.347870
23.535000	-0.001812	0.000137	-0.002903	0.000812	6849.556008	46224.787332	3904.731250	24290.675672
24.038000	-0.002500	0.000280	0.000039	0.000757	6843.645275	46244.574510	3912.637982	24293.394508
24.536000	-0.001049	-0.000259	0.000299	0.000429	6860.274678	46223.528729	3914.196224	24309.668942
25.036000	-0.002298	-0.000278	-0.000324	0.000721	6845.865938	46192.348977	3911.770270	24295.168607
25.536500	-0.001147	0.000361	-0.001295	0.000911	6854.849976	46237.299129	3908.706064	24285.785525
26.036500	-0.001175	-0.000273	-0.000584	0.000226	6860.987345	46242.337385	3912.393271	24319.691654
26.537000	-0.000838	0.000974	-0.000063	0.001843	6849.019087	46205.303965	3909.494575	24239.633629
27.037000	0.000091	0.000811	0.001022	-0.000796	6882.476069	46453.459031	3919.370752	24370.470916
27.537000	-0.000482	0.000287	0.005664	-0.001561	6884.286197	46477.730165	3933.858274	24408.539815
28.035000	-0.000042	0.000818	0.003183	-0.001049	6883.606436	46479.612027	3925.816603	24383.038480
28.535000	0.000568	0.000950	-0.000007	-0.000995	6888.847783	46487.532530	3917.162535	24380.376674
29.035500	-0.004017	0.000378	-0.003542	0.004502	6794.873698	45881.282484	3893.406138	24108.654877
29.536000	-0.000127	0.000616	-0.000730	-0.000711	6879.629994	46425.400663	3914.489994	24366.248528
30.036000	0.000458	-0.000206	-0.002457	-0.001122	6889.008213	46384.101551	3911.005789	24386.705551
30.536500	-0.001190	0.000507	0.002150	0.001928	6844.947287	46150.324761	3915.128694	24235.477512
31.036500	-0.004485	0.000050	-0.001030	0.004639	6789.300375	45835.266340	3899.603905	24101.922289
31.537000	-0.001159	0.000012	0.002990	-0.000924	6871.928797	46386.083077	3924.966173	24376.840518
32.037500	-0.000058	0.001296	0.000463	-0.000407	6877.418867	46463.169441	3916.848487	24351.155720
32.535000	-0.002432	-0.000068	-0.002307	-0.000090	6852.194568	46294.552097	3908.675561	24335.404723
33.035500	-0.000032	0.000959	0.009401	-0.000705	6880.466529	46459.229788	3941.653202	24365.950522
33.538500	-0.002041	0.000586	-0.000292	0.001467	6841.305241	46204.149440	3909.885345	24258.244544
34.035500	-0.002218	0.000727	-0.003455	0.001627	6838.166965	46202.287115	3901.142093	24250.320975
34.538500	-0.002011	0.000326	-0.003841	0.001213	6843.963416	46203.596329	3901.216026	24270.831484
35.036000	-0.003938	0.000440	0.000350	0.002781	6811.495590	46058.557372	3908.111690	24193.345141
35.536500	-0.000800	0.001315	0.002655	0.002201	6846.035755	46203.642435	3915.745240	24221.980815
36.036500	-0.001425	-0.000000	0.000337	0.001373	6847.927011	46154.970253	3911.795660	24262.887850
36.536500	-0.002256	-0.000124	0.002677	0.001630	6837.787261	46117.029851	3917.318285	24250.188981
37.037000	0.000849	0.000449	-0.003045	0.001663	6866.496734	46170.886335	3902.121143	24248.543423
37.537500	-0.002842	0.000733	0.004188	0.001807	6830.690675	46184.867691	3920.870174	24241.432780
38.035500	-0.002691	-0.000104	-0.004408	0.001252	6837.255774	46156.701949	3899.627642	24268.865504
38.535000	-0.000106	0.000901	0.000479	0.002205	6852.477036	46161.896158	3909.971138	24221.778098
39.035500	-0.002150	0.000384	0.002787	0.003231	6823.894543	46008.187131	3913.362475	24171.192533
39.535500	0.001339	0.000841	0.002631	0.002186	6866.180569	46157.773600	3915.718489	24222.693032
40.036000	-0.001129	0.000906	0.002671	0.002562	6839.602725	46126.806196	3914.828692	24204.153979
40.537000	-0.001407	-0.000044	0.002944	0.001486	6847.039784	46139.337731	3918.409810	24257.287411
41.036500	-0.002964	-0.000148	0.000992	0.002881	6819.588744	45990.051906	3909.542137	24188.434357
41.537000	-0.001775	-0.000703	-0.002786	0.000749	6850.492743	46147.211763	3905.205334	24293.809384
42.037500	-0.003013	-0.000071	0.000806	0.001295	6833.856472	46155.728334	3913.242340	24266.748788
42.535000	-0.000686	0.000476	0.001698	0.002036	6848.642446	46136.340878	3913.642578	24230.116719
43.038000	-0.001626	0.000510	0.001078	0.001809	6841.987325	46162.432038	3912.602280	24241.336828
43.536000	0.002115	0.001044	0.005542	-0.002377	6916.554017	46636.173015	3935.731855	24449.216820
44.035500	-0.000744	-0.000454	0.002960	-0.001673	6882.876129	46414.581048	3926.891448	24414.134303
44.536000	0.001616	0.000100	0.002285	0.000450	6885.109145	46257.277031	3919.415301	24308.613353
45.036000	-0.006126	0.000347	-0.000480	0.005534	6766.040852	45776.043929	3898.703659	24058.045361
45.537000	0.000424	0.000437	0.001945	-0.001014	6887.664895	46437.810194	3922.410394	24381.291218
46.037000	-0.000154	0.001051	0.001122	-0.000553	6877.884888	46453.118874	3918.987504	24358.368455
46.537000	-0.000701	-0.000633	-0.000385	0.000079	6866.815616	46221.036445	3913.310111	24327.016228
47.034500	-0.002728	0.000476	-0.002616	0.003592	6815.187835	45981.347211	3898.193356	24153.389915
47.538000	-0.002310	0.000468	-0.001962	0.001910	6834.674133	46148.131307	3904.318016	24236.340312
48.035500	-0.000107	-0.000154	0.000319	-0.001352	6885.852198	46412.454007	3918.978708	24398.145242
48.535500	-0.004146	0.000234	0.005672	0.000764	6828.264869	46239.304002	3927.626923	24293.049967
49.036000	-0.002865	0.000958	0.001565	0.004946	6801.401740	45894.770130	3905.607517	24086.855082
49.536500	0.004110	0.001627	0.003939	-0.001193	6924.261637	46575.552364	3928.227305	24390.212018
50.036500	0.000310	0.000490	0.005151	-0.003070	6906.015293	46650.190883	3936.546669	24483.821670
50.537000	-0.017944	-0.016613	0.013724	0.162465	5487.086372	31599.049376	3580.568442	17604.435268
51.037000	-0.022763	-0.012671	-0.011986	0.073222	6065.016393	38489.305626	3709.376034	20986.852667
51.534500	-0.036568	-0.033020	-0.018855	-0.148305	8071.373369	59512.126355	4314.446097	33103.887097
52.035000	-0.036911	-0.185592	-0.016524	-0.344717	11082.857751	65535.000000	5214.818516	50446.130683
52.535000	-0.038380	-0.157425	-0.007419	-0.316550	10536.077338	65535.000000	5109.527809	47452.596386
53.035500	-0.036048	-0.141773	-0.007147	-0.300898	10302.222094	65535.000000	5027.877632	45871.169198
53.535500	-0.034831	-0.123911	-0.006161	-0.283036	10019.904719	65535.000000	4941.556825	44134.769501
54.036000	-0.026123	-0.122382	-0.011071	-0.281507	10140.338958	65535.000000	4909.490017	43989.393255
54.536500	-0.014268	-0.117195	-0.006998	-0.276319	10254.000088	65535.000000	4903.990079	43500.070541
55.036500	-0.011142	-0.088970	-0.010371	-0.248094	9835.073679	65535.000000	4753.744098	40937.673583
55.537000	-0.006616	-0.058861	-0.003806	-0.210477	9318.487956	64459.853433	4616.371692	37771.471557
56.034500	-0.006936	-0.039545	-0.001854	-0.180206	8874.702673	62924.101605	4499.367651	35415.389509
56.534500	-0.003400	-0.021463	-0.004332	-0.136846	8341.888202	59524.927112	4325.428826	32314.174361
57.038000	-0.007045	-0.013433	-0.005256	-0.085401	7680.920360	54129.451724	4147.933447	29014.667535
57.535000	-0.001079	-0.010127	-0.002426	-0.061309	7481.140545	51730.972580	4081.758776	27598.818978
58.035500	-0.002356	-0.006010	-0.001751	-0.043965	7284.409429	50263.510847	4032.099151	26627.086946
58.536000	-0.001516	-0.005827	-0.000271	-0.019211	7043.820456	47653.261419	3965.874594	25305.751243
59.036500	-0.000741	-0.003817	0.003355	0.001550	6852.668494	45758.255270	3919.337546	24254.157762
59.536500	-0.001410	-0.002743	0.001654	0.013758	6734.084602	44671.116527	3882.885547	23658.855488
60.036500	-0.002536	-0.002529	0.008409	0.018385	6682.224947	44247.891160	3888.386603	23437.534021
60.537000	-0.002539	-0.002041	0.007246	0.026672	6608.712137	43510.371366	3864.162285	23047.058863
61.035000	-0.002206	-0.001528	0.005625	0.026840	6610.160546	43542.648716	3859.633067	23039.207278
61.537500	0.001388	0.001550	0.005838	0.021380	6690.554916	44351.463883	3874.054315	23295.554719
62.035500	0.003441	0.002388	0.001370	0.018488	6735.176380	44709.727632	3870.028789	23432.626515
62.535500	0.003382	0.003080	0.001744	0.021231	6709.836021	44512.321435	3864.007429	23302.596746
63.041000	0.004231	0.002806	0.008814	0.020130	6727.462585	44591.854544	3884.921265	23354.723103
63.536000	0.006724	0.003636	0.009048	0.016279	6785.339646	45044.655521	3895.523449	23537.986472
64.036500	0.006950	0.003396	0.005755	0.015815	6791.684036	45066.424500	3888.168040	23560.156768
64.536500	0.007110	0.004251	0.008325	0.016758	6784.483545	45057.893976	3892.393883	23515.090631
65.039500	0.005866	0.002841	0.009534	0.017327	6767.854538	44865.733770	3894.058368	23487.925391
65.537000	0.006297	0.004208	0.005707	0.019721	6749.933153	44766.396417	3877.969845	23374.072647
66.034500	0.008968	0.004766	0.010211	0.021178	6761.016952	44679.782221	3885.822561	23305.128988
66.538000	0.006151	0.004696	0.009035	0.024366	6706.531287	44366.701865	3874.594586	23154.965474
67.035000	0.011469	0.005559	0.006312	0.023546	6762.228743	44528.140360	3869.733745	23193.499542
67.535500	0.010976	0.006383	0.006776	0.025245	6742.253252	44444.143547	3866.592904	23113.787983
68.036000	0.014259	0.007089	0.011474	0.027530	6751.327460	44292.981920	3872.740474	23007.039986
68.536500	0.011273	0.008076	0.009134	0.032029	6683.708881	43958.966251	3855.400924	22798.587340
69.036500	0.011990	0.007646	0.016215	0.035187	6661.902016	43620.363776	3865.314815	22653.518432
69.536000	0.013120	0.008853	0.017511	0.032871	6692.723848	43952.829171	3874.521790	22759.816543
70.040000	0.014547	0.008703	0.012979	0.033417	6700.634141	43886.873906	3861.598466	22734.677292
70.537500	0.014708	0.008385	0.017668	0.036823	6671.559243	43536.190448	3864.849372	22578.792979
71.038000	0.013869	0.009917	0.011246	0.040486	6631.570464	43336.878604	3839.555235	22412.493341
71.535000	0.016363	0.009696	0.015065	0.036455	6689.655682	43693.918192	3859.191293	22595.550295
72.035500	0.015958	0.010226	0.016078	0.038526	6667.509331	43549.068018	3856.524759	22501.279469
72.536000	0.015301	0.011705	0.015613	0.042646	6625.137532	43302.182651	3845.042469	22315.085618
73.036000	0.017850	0.010954	0.017061	0.041941	6653.954617	43297.818026	3850.419861	22346.819719
73.536500	0.018516	0.011229	0.016436	0.040578	6672.022843	43450.780343	3852.268947	22408.311623
74.036500	0.020421	0.012359	0.022462	0.041721	6678.841012	43449.618604	3864.585502	22356.716035
74.537000	0.019702	0.013655	0.023290	0.045648	6637.503233	43204.187855	3856.753014	22180.497550
75.037000	0.016923	0.012518	0.014285	0.045893	6610.828005	43075.884364	3833.702572	22169.557497
75.537500	0.019573	0.012103	0.019351	0.043016	6659.713419	43304.719321	3853.464684	22298.418785
76.037500	0.022180	0.012283	0.024252	0.043082	6682.398618	43315.268286	3865.672225	22295.439299
76.535000	0.019426	0.013391	0.017972	0.047068	6622.521256	43047.838301	3839.913626	22117.139657
77.036000	0.020855	0.012815	0.022333	0.046204	6642.789937	43074.530271	3852.947772	22155.654051
77.536000	0.022596	0.013454	0.020846	0.044515	6673.305832	43290.922572	3853.455596	22231.160429
78.036500	0.024259	0.013990	0.022995	0.045294	6681.215236	43268.284696	3856.902223	22196.316621
78.536500	0.024491	0.015479	0.020295	0.046305	6674.247113	43312.785962	3847.592844	22151.148696
79.037000	0.022717	0.015138	0.024073	0.047759	6645.507748	43145.722244	3853.411115	22086.389612
79.537500	0.025482	0.015413	0.020962	0.046630	6680.201918	43276.408632	3848.446802	22136.664003
80.037500	0.023716	0.014873	0.024072	0.046465	6665.904891	43241.513459	3856.665034	22144.033120
80.537500	0.024581	0.014880	0.028372	0.046924	6669.516204	43199.327212	3866.380950	22123.543826
81.035000	0.023324	0.014273	0.022946	0.049567	6634.867045	42898.245625	3846.068255	22006.165544
81.535000	0.025110	0.015637	0.023967	0.047739	6666.963417	43193.973408	3853.194962	22087.273056
82.036000	0.026006	0.014814	0.023846	0.047613	6676.092173	43129.228277	3853.208785	22092.873465
82.536500	0.026368	0.015638	0.027101	0.048172	6674.336097	43153.840905	3859.997465	22068.040223
83.036500	0.024255	0.014647	0.029330	0.050481	6635.016011	42848.426864	3859.794514	21965.732340
83.537000	0.025913	0.015898	0.030379	0.049029	6662.624762	43098.372697	3866.129406	22029.998064
84.037000	0.024107	0.015393	0.026397	0.048927	6647.474550	43061.053923	3856.319037	22034.521620
84.537500	0.026585	0.015475	0.027851	0.049266	6666.512516	43037.307042	3859.131940	22019.529223
85.038000	0.026011	0.015440	0.025279	0.051319	6643.143800	42844.238517	3847.517344	21928.742097
85.537500	0.025734	0.015148	0.031030	0.049304	6658.584139	43003.418499	3867.085097	22017.814177
86.035000	0.028109	0.015278	0.026952	0.050102	6672.643265	42941.709187	3854.758093	21982.504993
86.535500	0.028546	0.014779	0.023713	0.050104	6676.528251	42895.365465	3846.640544	21982.405008
87.036000	0.026056	0.015711	0.032092	0.052771	6630.692327	42735.524045	3860.989357	21864.821456
87.536000	0.027910	0.015356	0.026129	0.050817	6664.489289	42882.922663	3850.900711	21950.928845
88.039500	0.028949	0.015982	0.033658	0.051694	6665.931176	42859.688463	3867.690815	21912.227803
88.536500	0.024491	0.015423	0.027669	0.053907	6606.907444	42604.909161	3847.024325	21814.980622
89.037000	0.027945	0.016329	0.032602	0.053824	6638.087043	42695.584684	3859.617368	21818.615173
89.534500	0.026364	0.014697	0.028846	0.050811	6650.781804	42822.564514	3857.740929	21951.155988
90.040500	0.027571	0.015356	0.031346	0.051837	6652.396323	42788.854592	3861.465627	21905.945163
90.535000	0.027324	0.015020	0.027605	0.054879	6623.289162	42479.141295	3844.442690	21772.439126
91.035000	0.027494	0.014801	0.028093	0.051513	6654.586897	42767.544991	3854.078820	21920.191982
91.536000	0.027432	0.014291	0.028684	0.051337	6655.601697	42736.858271	3856.007847	21927.956184
92.036000	0.027865	0.015075	0.030328	0.052280	6651.069707	42722.294782	3857.775718	21886.438147
92.536500	0.027606	0.015261	0.033206	0.056502	6611.481679	42353.041018	3854.393402	21701.584868
93.091500	0.029087	0.015293	0.029392	0.053296	6652.900438	42648.981535	3852.864234	21841.771602
93.537000	0.029756	0.015474	0.031976	0.053776	6654.586650	42621.565725	3858.157915	21820.720669
94.037500	0.030472	0.015222	0.033582	0.053434	6664.001084	42629.886958	3863.083756	21835.744861
94.534500	0.027589	0.014883	0.031485	0.056022	6615.545227	42362.286391	3851.278019	21722.481971
95.038000	0.028208	0.014230	0.033324	0.054005	6638.816954	42486.762126	3860.984933	21810.683064
95.535000	0.029008	0.015377	0.033097	0.053576	6649.709788	42630.996439	3861.495906	21829.487968
