sample name	sample
index	392
start time	 03-08-2021  09:58:50 AM


Wavelength (nm)	Absorbance
494.344910	0.081512
494.563924	0.081512
494.782919	0.081512
495.001897	0.003360
495.220856	0.020818
495.439797	0.011272
495.658719	0.033152
495.877624	0.021954
496.096510	0.005788
496.315378	0.000000
496.534227	-0.005384
496.753059	-0.003926
496.971872	-0.005421
497.190667	0.013123
497.409444	0.020257
497.628203	0.021642
497.846943	0.023190
498.065665	0.023342
498.284369	0.023574
498.503055	0.024169
498.721723	0.022923
498.940372	0.022542
499.159003	0.023116
499.377616	0.023590
499.596210	0.022521
499.814787	0.021721
500.033345	0.021882
500.251885	0.021680
500.470406	0.020688
500.688910	0.021334
500.907395	0.021635
501.125862	0.021079
501.344311	0.020234
501.562742	0.021340
501.781154	0.022204
501.999548	0.022976
502.217924	0.023499
502.436282	0.024107
502.654621	0.024831
502.872942	0.024536
503.091245	0.024520
503.309530	0.024746
503.527797	0.024683
503.746045	0.023407
503.964275	0.023081
504.182487	0.022618
504.400681	0.022978
504.618856	0.022704
504.837013	0.022841
505.055152	0.022984
505.273273	0.023545
505.491376	0.022230
505.709460	0.023203
505.927526	0.022848
506.145574	0.023341
506.363604	0.022589
506.581615	0.022553
506.799608	0.023647
507.017583	0.024583
507.235540	0.024120
507.453478	0.025227
507.671399	0.024923
507.889301	0.024641
508.107185	0.024250
508.325050	0.024529
508.542898	0.024629
508.760727	0.023932
508.978538	0.022797
509.196330	0.023131
509.414105	0.022280
509.631861	0.022165
509.849599	0.022585
510.067319	0.022738
510.285021	0.022905
510.502704	0.022506
510.720369	0.022058
510.938016	0.022685
511.155645	0.023152
511.373255	0.023549
511.590848	0.023833
511.808422	0.024235
512.025977	0.024298
512.243515	0.024062
512.461034	0.025386
512.678536	0.027051
512.896018	0.027544
513.113483	0.027267
513.330930	0.027266
513.548358	0.027094
513.765768	0.026520
513.983160	0.026254
514.200533	0.026405
514.417889	0.024969
514.635226	0.023108
514.852545	0.022294
515.069845	0.022208
515.287128	0.022433
515.504392	0.022814
515.721638	0.022982
515.938866	0.023390
516.156075	0.023357
516.373267	0.023806
516.590440	0.025329
516.807594	0.025038
517.024731	0.024511
517.241850	0.024790
517.458950	0.024515
517.676032	0.024661
517.893095	0.024587
518.110141	0.024584
518.327168	0.024582
518.544177	0.024207
518.761168	0.024496
518.978141	0.025295
519.195095	0.025280
519.412031	0.025265
519.628949	0.025483
519.845849	0.024925
520.062731	0.024980
520.279594	0.025068
520.496439	0.025264
520.713266	0.025695
520.930074	0.025391
521.146865	0.024994
521.363637	0.025088
521.580391	0.024944
521.797127	0.026211
522.013844	0.026163
522.230543	0.026224
522.447224	0.026055
522.663887	0.025222
522.880532	0.025335
523.097158	0.025337
523.313766	0.025461
523.530356	0.025492
523.746928	0.024866
523.963481	0.025062
524.180017	0.024707
524.396534	0.024518
524.613032	0.025055
524.829513	0.025058
525.045975	0.025299
525.262420	0.025181
525.478845	0.025658
525.695253	0.025928
525.911643	0.025906
526.128014	0.026124
526.344367	0.026387
526.560702	0.026368
526.777018	0.026690
526.993316	0.026693
527.209597	0.027093
527.425858	0.026881
527.642102	0.027274
527.858328	0.027134
528.074535	0.027520
528.290724	0.027771
528.506894	0.028027
528.723047	0.028016
528.939181	0.028013
529.155297	0.028038
529.371395	0.028377
529.587475	0.028539
529.803536	0.028659
530.019579	0.028166
530.235604	0.028080
530.451611	0.028559
530.667600	0.028269
530.883570	0.028455
531.099522	0.028669
531.315456	0.027981
531.531372	0.027262
531.747269	0.027458
531.963148	0.028114
532.179009	0.027632
532.394852	0.027420
532.610676	0.027227
532.826482	0.027435
533.042271	0.026885
533.258040	0.027424
533.473792	0.027621
533.689525	0.027259
533.905240	0.027105
534.120937	0.027699
534.336616	0.027650
534.552277	0.027792
534.767919	0.027876
534.983543	0.028153
535.199149	0.027957
535.414736	0.027561
535.630306	0.028224
535.845857	0.028035
536.061390	0.027897
536.276904	0.027749
536.492401	0.028266
536.707879	0.028058
536.923339	0.028368
537.138781	0.028181
537.354204	0.028902
537.569610	0.028957
537.784997	0.028954
538.000366	0.028775
538.215716	0.029042
538.431049	0.029037
538.646363	0.029178
538.861659	0.029222
539.076937	0.029387
539.292196	0.029735
539.507438	0.029610
539.722661	0.030277
539.937866	0.030631
540.153052	0.030156
540.368221	0.030004
540.583371	0.029838
540.798503	0.029808
541.013617	0.030342
541.228712	0.030215
541.443789	0.030459
541.658848	0.029906
541.873889	0.030126
542.088912	0.030213
542.303916	0.029860
542.518902	0.029778
542.733870	0.029872
542.948820	0.029783
543.163752	0.029430
543.378665	0.029499
543.593560	0.030014
543.808437	0.029537
544.023295	0.029585
544.238136	0.029848
544.452958	0.030162
544.667762	0.029635
544.882548	0.029315
545.097315	0.029373
545.312064	0.029297
545.526795	0.029142
545.741508	0.029454
545.956203	0.029813
546.170879	0.029860
546.385537	0.029870
546.600177	0.030451
546.814799	0.030311
547.029402	0.030308
547.243988	0.030111
547.458555	0.030194
547.673103	0.029979
547.887634	0.030346
548.102146	0.030402
548.316640	0.030668
548.531116	0.030646
548.745574	0.030994
548.960013	0.031052
549.174435	0.030992
549.388838	0.030869
549.603222	0.031391
549.817589	0.031068
550.031937	0.031255
550.246267	0.031085
550.460579	0.030903
550.674873	0.030880
550.889148	0.030889
551.103405	0.031109
551.317644	0.031174
551.531865	0.030961
551.746068	0.031136
551.960252	0.030782
552.174418	0.030823
552.388566	0.030855
552.602696	0.030521
552.816807	0.030695
553.030900	0.030788
553.244975	0.030640
553.459032	0.030804
553.673070	0.030672
553.887091	0.030823
554.101093	0.030584
554.315077	0.030990
554.529042	0.031273
554.742990	0.031261
554.956919	0.031249
555.170830	0.031489
555.384722	0.031202
555.598597	0.030963
555.812453	0.031026
556.026291	0.030984
556.240111	0.030557
556.453913	0.030444
556.667696	0.030341
556.881461	0.030109
557.095208	0.030086
557.308937	0.030111
557.522647	0.030165
557.736339	0.030161
557.950013	0.030565
558.163669	0.030567
558.377307	0.030781
558.590926	0.030938
558.804527	0.031513
559.018110	0.031398
559.231675	0.031644
559.445221	0.031792
559.658749	0.031710
559.872259	0.031690
560.085751	0.031863
560.299225	0.031789
560.512680	0.031608
560.726117	0.031752
560.939536	0.031476
561.152937	0.031098
561.366319	0.031215
561.579683	0.031546
561.793029	0.031547
562.006357	0.031665
562.219667	0.031668
562.432958	0.031557
562.646231	0.031014
562.859486	0.031551
563.072723	0.031714
563.285941	0.031612
563.499141	0.031111
563.712323	0.031134
563.925487	0.031115
564.138632	0.031503
564.351760	0.031715
564.564869	0.031715
564.777960	0.031451
564.991032	0.031588
565.204087	0.031729
565.417123	0.031926
565.630141	0.031889
565.843140	0.031895
566.056122	0.031462
566.269085	0.031596
566.482030	0.031459
566.694957	0.031559
566.907866	0.031464
567.120756	0.031312
567.333628	0.031692
567.546482	0.031625
567.759318	0.031459
567.972135	0.031646
568.184935	0.031506
568.397716	0.031957
568.610478	0.031950
568.823223	0.032195
569.035949	0.032293
569.248657	0.031954
569.461347	0.032087
569.674019	0.032311
569.886672	0.032623
570.099308	0.032397
570.311925	0.032159
570.524523	0.032244
570.737104	0.032142
570.949666	0.032296
571.162210	0.032512
571.374736	0.032489
571.587244	0.032581
571.799733	0.032114
572.012205	0.032612
572.224658	0.032814
572.437092	0.032857
572.649509	0.032860
572.861907	0.032721
573.074287	0.032573
573.286649	0.032632
573.498993	0.032246
573.711318	0.032542
573.923625	0.032204
574.135914	0.032112
574.348185	0.032079
574.560438	0.032129
574.772672	0.032171
574.984888	0.032508
575.197086	0.032620
575.409266	0.032604
575.621427	0.032457
575.833570	0.032593
576.045695	0.032712
576.257802	0.032843
576.469890	0.033043
576.681961	0.033071
576.894013	0.032987
577.106046	0.032952
577.318062	0.033144
577.530059	0.033438
577.742039	0.033444
577.954000	0.033222
578.165942	0.033281
578.377867	0.033097
578.589773	0.033322
578.801661	0.033458
579.013531	0.033495
579.225382	0.033308
579.437216	0.032999
579.649031	0.033193
579.860828	0.033419
580.072606	0.033468
580.284367	0.033418
580.496109	0.033137
580.707833	0.032760
580.919539	0.032514
581.131227	0.032957
581.342896	0.033131
581.554547	0.032938
581.766180	0.032589
581.977795	0.032137
582.189391	0.032466
582.400969	0.032704
582.612529	0.032886
582.824071	0.033049
583.035595	0.032688
583.247100	0.032758
583.458587	0.032907
583.670056	0.032734
583.881506	0.033117
584.092939	0.032629
584.304353	0.032353
584.515749	0.032073
584.727127	0.032061
584.938486	0.032357
585.149828	0.032175
585.361151	0.031894
585.572456	0.032526
585.783742	0.032533
585.995011	0.033044
586.206261	0.033398
586.417493	0.033891
586.628706	0.034005
586.839902	0.033734
587.051079	0.033727
587.262238	0.033791
587.473379	0.033422
587.684502	0.033548
587.895606	0.033319
588.106692	0.033203
588.317760	0.033301
588.528810	0.032909
588.739841	0.033036
588.950855	0.033138
589.161850	0.033379
589.372827	0.033732
589.583785	0.033593
589.794726	0.033635
590.005648	0.033850
590.216552	0.033347
590.427437	0.033722
590.638305	0.034109
590.849154	0.034097
591.059985	0.034099
591.270798	0.033959
591.481592	0.034014
591.692369	0.033940
591.903127	0.033887
592.113867	0.034241
592.324588	0.034254
592.535292	0.034116
592.745977	0.034457
592.956644	0.034565
593.167293	0.034701
593.377923	0.034637
593.588536	0.034917
593.799130	0.034797
594.009706	0.034760
594.220263	0.034660
594.430803	0.034516
594.641324	0.034397
594.851827	0.034638
595.062312	0.034525
595.272778	0.034586
595.483227	0.034589
595.693657	0.034477
595.904069	0.034704
596.114462	0.034849
596.324838	0.034963
596.535195	0.034856
596.745534	0.034543
596.955855	0.034441
597.166157	0.034224
597.376441	0.034089
597.586707	0.034099
597.796955	0.033860
598.007185	0.033561
598.217396	0.033325
598.427589	0.033501
598.637764	0.033520
598.847921	0.033551
599.058060	0.033809
599.268180	0.033816
599.478282	0.033905
599.688366	0.034044
599.898431	0.034467
600.108479	0.034645
600.318508	0.034423
600.528519	0.034339
600.738511	0.034367
600.948486	0.034422
601.158442	0.034305
601.368380	0.034405
601.578300	0.034470
601.788202	0.034369
601.998085	0.034622
602.207950	0.034530
602.417797	0.034689
602.627626	0.034672
602.837436	0.034637
603.047228	0.034746
603.257002	0.034816
603.466758	0.034770
603.676496	0.034780
603.886215	0.034716
604.095916	0.035048
604.305599	0.034929
604.515264	0.034926
604.724910	0.034894
604.934538	0.034894
605.144148	0.034907
605.353740	0.034869
605.563314	0.034892
605.772869	0.034897
605.982406	0.034873
606.191925	0.035239
606.401425	0.035551
606.610908	0.035545
606.820372	0.035613
607.029818	0.035555
607.239246	0.035538
607.448655	0.035579
607.658047	0.035472
607.867420	0.035380
608.076775	0.035176
608.286111	0.034972
608.495430	0.034971
608.704730	0.035029
608.914012	0.035017
609.123275	0.035085
609.332521	0.035190
609.541748	0.035215
609.750957	0.035349
609.960148	0.035296
610.169321	0.035396
610.378475	0.035559
610.587611	0.035570
610.796729	0.035844
611.005829	0.035880
611.214910	0.035721
611.423974	0.035755
611.633019	0.035631
611.842045	0.035550
612.051054	0.035582
612.260044	0.035489
612.469017	0.035477
612.677970	0.035166
612.886906	0.035400
613.095824	0.035330
613.304723	0.035536
613.513604	0.035602
613.722467	0.035582
613.931311	0.035511
614.140138	0.035541
614.348946	0.035604
614.557736	0.035655
614.766507	0.035410
614.975261	0.035526
615.183996	0.035375
615.392713	0.035165
615.601412	0.035302
615.810092	0.035220
616.018754	0.035207
616.227399	0.035261
616.436024	0.035351
616.644632	0.035252
616.853222	0.035257
617.061793	0.035349
617.270346	0.035629
617.478880	0.035717
617.687397	0.035996
617.895895	0.036027
618.104375	0.035766
618.312837	0.035554
618.521281	0.035685
618.729706	0.035820
618.938113	0.035611
619.146502	0.035584
619.354873	0.035793
619.563226	0.035514
619.771560	0.035498
619.979876	0.035618
620.188174	0.035881
620.396453	0.035920
620.604715	0.035874
620.812958	0.035818
621.021183	0.035689
621.229390	0.035413
621.437578	0.035634
621.645748	0.035716
621.853900	0.035730
622.062034	0.035684
622.270150	0.035686
622.478247	0.035648
622.686326	0.035893
622.894387	0.036081
623.102430	0.036378
623.310454	0.036249
623.518461	0.036110
623.726449	0.036049
623.934418	0.036050
624.142370	0.036097
624.350303	0.036219
624.558218	0.036204
624.766115	0.036040
624.973994	0.035933
625.181855	0.036100
625.389697	0.036195
625.597521	0.036276
625.805327	0.036313
626.013114	0.036395
626.220883	0.036294
626.428634	0.036243
626.636367	0.036530
626.844082	0.036702
627.051778	0.036780
627.259457	0.036749
627.467117	0.037104
627.674758	0.037035
627.882382	0.036851
628.089987	0.036930
628.297574	0.036939
628.505143	0.036781
628.712694	0.036458
628.920226	0.036688
629.127740	0.036935
629.335236	0.036545
629.542714	0.036639
629.750174	0.036859
629.957615	0.036875
630.165038	0.037025
630.372443	0.036959
630.579829	0.037058
630.787198	0.036781
630.994548	0.036745
631.201880	0.036855
631.409194	0.036888
631.616489	0.036729
631.823766	0.036543
632.031025	0.036618
632.238266	0.036735
632.445489	0.036428
632.652693	0.036333
632.859879	0.036190
633.067047	0.036287
633.274197	0.036306
633.481329	0.036540
633.688442	0.036473
633.895537	0.036225
634.102614	0.036170
634.309672	0.036554
634.516713	0.036754
634.723735	0.036938
634.930739	0.036690
635.137724	0.036723
635.344692	0.036766
635.551641	0.037056
635.758572	0.037325
635.965485	0.037411
636.172379	0.037418
636.379256	0.037326
636.586114	0.037157
636.792954	0.037430
636.999775	0.037329
637.206579	0.037206
637.413364	0.037159
637.620131	0.037078
637.826880	0.037259
638.033610	0.037077
638.240323	0.037054
638.447017	0.036986
638.653692	0.036930
638.860350	0.036900
639.066990	0.036774
639.273611	0.036903
639.480214	0.037063
639.686798	0.037054
639.893365	0.037117
640.099913	0.037058
640.306443	0.037068
640.512955	0.037016
640.719449	0.036948
640.925924	0.036889
641.132381	0.036907
641.338820	0.036777
641.545241	0.036656
641.751644	0.036598
641.958028	0.036809
642.164394	0.037093
642.370742	0.036935
642.577071	0.037214
642.783383	0.037305
642.989676	0.037198
643.195951	0.037163
643.402207	0.037059
643.608446	0.037036
643.814666	0.036910
644.020868	0.036764
644.227052	0.036892
644.433218	0.036886
644.639365	0.036832
644.845494	0.036909
645.051605	0.036786
645.257698	0.036836
645.463772	0.036998
645.669828	0.037109
645.875866	0.037173
646.081886	0.037191
646.287888	0.037153
646.493871	0.037332
646.699836	0.037235
646.905783	0.037348
647.111712	0.037366
647.317622	0.037399
647.523514	0.037501
647.729388	0.037603
647.935244	0.037599
648.141082	0.037701
648.346901	0.037715
648.552702	0.037646
648.758485	0.037708
648.964250	0.037669
649.169996	0.037617
649.375724	0.037422
649.581434	0.037547
649.787126	0.037668
649.992800	0.037638
650.198455	0.037591
650.404092	0.037788
650.609711	0.037807
650.815311	0.037904
651.020894	0.038137
651.226458	0.038081
651.432004	0.037870
651.637532	0.037773
651.843041	0.037583
652.048532	0.037502
652.254006	0.037461
652.459460	0.037319
652.664897	0.037346
652.870315	0.037271
653.075716	0.037385
653.281097	0.037614
653.486461	0.037824
653.691807	0.037926
653.897134	0.038075
654.102443	0.038020
654.307734	0.038082
654.513006	0.038268
654.718261	0.038216
654.923497	0.038233
655.128715	0.037991
655.333915	0.037969
655.539096	0.037985
655.744259	0.038014
655.949404	0.038140
656.154531	0.038283
656.359640	0.038109
656.564730	0.038242
656.769802	0.038321
656.974856	0.038221
657.179892	0.038195
657.384909	0.038376
657.589908	0.038379
657.794889	0.038447
657.999852	0.038469
658.204797	0.038567
658.409723	0.038565
658.614631	0.038778
658.819521	0.039079
659.024393	0.039049
659.229246	0.038982
659.434081	0.038869
659.638898	0.038887
659.843697	0.039024
660.048478	0.039070
660.253240	0.039058
660.457984	0.038794
660.662710	0.038692
660.867417	0.038777
661.072107	0.038891
661.276778	0.039017
661.481431	0.038945
661.686066	0.038687
661.890682	0.038593
662.095281	0.038634
662.299861	0.038863
662.504422	0.038897
662.708966	0.039044
662.913491	0.038894
663.117999	0.038934
663.322488	0.039054
663.526958	0.039340
663.731411	0.039528
663.935845	0.039563
664.140261	0.039504
664.344659	0.039623
664.549038	0.039494
664.753400	0.039667
664.957743	0.039747
665.162068	0.039928
665.366375	0.039765
665.570663	0.039759
665.774933	0.039759
665.979185	0.039714
666.183419	0.039629
666.387635	0.039633
666.591832	0.039604
666.796011	0.039634
667.000172	0.039473
667.204315	0.039610
667.408439	0.039689
667.612545	0.039677
667.816634	0.039858
668.020703	0.039814
668.224755	0.040005
668.428788	0.039940
668.632803	0.039729
668.836800	0.039758
669.040779	0.039727
669.244739	0.039728
669.448681	0.039842
669.652605	0.039673
669.856511	0.039885
670.060399	0.039946
670.264268	0.040154
670.468119	0.040216
670.671952	0.040187
670.875767	0.040260
671.079563	0.040076
671.283341	0.040084
671.487101	0.040251
671.690843	0.040146
671.894567	0.040008
672.098272	0.039975
672.301959	0.040006
672.505628	0.040110
672.709278	0.040033
672.912911	0.040142
673.116525	0.040201
673.320121	0.040081
673.523699	0.040114
673.727258	0.040009
673.930799	0.039974
674.134322	0.040142
674.337827	0.040004
674.541314	0.040247
674.744782	0.040325
674.948232	0.040237
675.151664	0.040412
675.355078	0.040343
675.558474	0.040511
675.761851	0.040635
675.965210	0.040537
676.168551	0.040815
676.371873	0.040691
676.575178	0.040801
676.778464	0.040920
676.981732	0.040876
677.184981	0.041019
677.388213	0.041066
677.591426	0.040969
677.794621	0.041146
677.997798	0.041111
678.200956	0.041115
678.404097	0.041002
678.607219	0.040973
678.810323	0.040892
679.013408	0.040777
679.216476	0.040667
679.419525	0.040634
679.622556	0.040558
679.825569	0.040524
680.028563	0.040513
680.231540	0.040619
680.434498	0.040482
680.637438	0.040500
680.840359	0.040459
681.043263	0.040467
681.246148	0.040468
681.449015	0.040422
681.651864	0.040314
681.854694	0.040300
682.057506	0.040130
682.260301	0.040113
682.463076	0.040227
682.665834	0.040326
682.868573	0.040467
683.071295	0.040464
683.273998	0.040497
683.476682	0.040631
683.679349	0.040715
683.881997	0.040746
684.084627	0.040881
684.287239	0.040915
684.489833	0.040951
684.692408	0.040953
684.894965	0.041006
685.097504	0.041018
685.300025	0.041026
685.502527	0.040963
685.705012	0.040964
685.907478	0.041092
686.109925	0.040960
686.312355	0.041009
686.514766	0.040853
686.717159	0.040747
686.919534	0.040823
687.121891	0.040860
687.324230	0.040941
687.526550	0.041134
687.728852	0.040980
687.931136	0.041031
688.133401	0.041008
688.335649	0.041087
688.537878	0.041145
688.740089	0.041166
688.942281	0.041155
689.144456	0.041062
689.346612	0.041123
689.548750	0.041155
689.750870	0.041245
689.952971	0.041175
690.155055	0.041353
690.357120	0.041395
690.559167	0.041328
690.761195	0.041231
690.963206	0.041400
691.165198	0.041108
691.367172	0.041176
691.569128	0.041023
691.771065	0.041154
691.972984	0.040964
692.174885	0.041030
692.376768	0.041107
692.578633	0.040958
692.780479	0.040929
692.982308	0.041023
693.184118	0.041097
693.385909	0.041173
693.587683	0.041141
693.789438	0.041110
693.991175	0.041237
694.192894	0.041342
694.394595	0.041540
694.596277	0.041477
694.797941	0.041502
694.999587	0.041417
695.201215	0.041516
695.402824	0.041580
695.604416	0.041733
695.805989	0.041707
696.007543	0.041566
696.209080	0.041486
696.410598	0.041524
696.612099	0.041619
696.813580	0.041564
697.015044	0.041539
697.216490	0.041513
697.417917	0.041344
697.619326	0.041355
697.820717	0.041385
698.022089	0.041410
698.223444	0.041271
698.424780	0.041289
698.626098	0.041247
698.827397	0.041183
699.028679	0.041245
699.229942	0.041370
699.431187	0.041097
699.632414	0.041132
699.833622	0.041184
700.034813	0.041319
700.235985	0.041292
700.437139	0.041361
700.638274	0.041399
700.839392	0.041624
701.040491	0.041906
701.241572	0.042138
701.442635	0.042059
701.643679	0.042124
701.844706	0.042227
702.045714	0.042065
702.246704	0.042080
702.447675	0.042124
702.648629	0.041923
702.849564	0.041752
703.050481	0.041924
703.251380	0.041953
703.452260	0.041910
703.653122	0.041794
703.853966	0.042059
704.054792	0.042039
704.255600	0.041970
704.456389	0.041986
704.657160	0.041850
704.857913	0.041646
705.058648	0.041768
705.259365	0.041707
705.460063	0.041620
705.660743	0.041508
705.861405	0.041489
706.062048	0.041522
706.262674	0.041494
706.463281	0.041569
706.663870	0.041601
706.864441	0.041441
707.064993	0.041530
707.265527	0.041499
707.466043	0.041646
707.666541	0.041731
707.867021	0.041928
708.067482	0.041961
708.267925	0.042068
708.468350	0.042042
708.668757	0.042224
708.869145	0.042396
709.069516	0.042682
709.269868	0.042592
709.470201	0.042608
709.670517	0.042587
709.870814	0.042694
710.071093	0.042628
710.271354	0.042683
710.471597	0.042525
710.671821	0.042334
710.872028	0.042109
711.072216	0.042183
711.272385	0.042286
711.472537	0.042183
711.672670	0.041991
711.872785	0.042030
712.072882	0.041860
712.272961	0.042017
712.473021	0.042084
712.673063	0.042189
712.873087	0.042008
713.073093	0.041960
713.273081	0.041827
713.473050	0.041875
713.673001	0.041877
713.872934	0.042046
714.072849	0.041989
714.272745	0.041847
714.472623	0.041857
714.672483	0.041945
714.872325	0.041902
715.072148	0.042040
715.271954	0.042128
715.471741	0.042106
715.671509	0.042022
715.871260	0.041991
716.070992	0.042066
716.270707	0.042191
716.470403	0.042169
716.670080	0.042257
716.869740	0.042068
717.069381	0.041933
717.269004	0.041990
717.468609	0.042123
717.668195	0.042113
717.867764	0.042234
718.067314	0.042089
718.266846	0.042215
718.466360	0.042090
718.665855	0.042141
718.865332	0.042087
719.064791	0.041993
719.264232	0.041922
719.463655	0.041846
719.663059	0.041577
719.862445	0.041450
720.061813	0.041371
720.261163	0.041310
720.460494	0.041414
720.659807	0.041488
720.859102	0.041378
721.058379	0.041164
721.257638	0.041299
721.456878	0.041401
721.656100	0.041519
721.855304	0.041624
722.054490	0.041762
722.253657	0.041713
722.452806	0.041864
722.651937	0.041961
722.851050	0.042295
723.050145	0.042230
723.249221	0.042235
723.448279	0.042388
723.647319	0.042362
723.846340	0.042423
724.045344	0.042597
724.244329	0.042215
724.443296	0.042135
724.642245	0.041964
724.841175	0.041908
725.040088	0.041913
725.238982	0.041799
725.437857	0.041671
725.636715	0.041658
725.835554	0.041280
726.034376	0.041527
726.233179	0.041616
726.431963	0.041761
726.630730	0.041895
726.829478	0.042039
727.028208	0.042097
727.226920	0.042189
727.425614	0.042190
727.624289	0.042596
727.822946	0.042677
728.021585	0.042764
728.220206	0.042752
728.418808	0.042889
728.617392	0.042837
728.815958	0.042754
729.014506	0.042669
729.213036	0.042600
729.411547	0.042447
729.610040	0.042422
729.808515	0.042239
730.006972	0.042116
730.205410	0.041999
730.403831	0.041970
730.602233	0.042071
730.800616	0.042046
730.998982	0.041919
731.197329	0.041810
731.395658	0.041671
731.593969	0.041695
731.792262	0.041674
731.990536	0.041531
732.188793	0.041579
732.387031	0.041323
732.585250	0.041167
732.783452	0.041249
732.981635	0.041273
733.179800	0.041372
733.377947	0.041335
733.576076	0.041302
733.774186	0.041315
733.972278	0.041109
734.170352	0.041169
734.368408	0.041137
734.566446	0.040912
734.764465	0.040881
734.962466	0.040870
735.160449	0.040872
735.358413	0.040855
735.556360	0.040818
735.754288	0.040706
735.952198	0.040649
736.150090	0.040679
736.347963	0.040645
736.545818	0.040671
736.743655	0.040367
736.941474	0.040317
737.139275	0.040151
737.337057	0.039912
737.534821	0.039753
737.732567	0.039668
737.930295	0.039670
738.128005	0.039728
738.325696	0.039545
738.523369	0.039655
738.721024	0.039523
738.918660	0.039650
739.116279	0.039765
739.313879	0.039937
739.511461	0.040053
739.709024	0.040035
739.906570	0.040086
740.104097	0.040192
740.301606	0.040420
740.499097	0.040526
740.696569	0.040570
740.894024	0.040483
741.091460	0.040321
741.288878	0.040165
741.486277	0.040137
741.683659	0.040231
741.881022	0.040130
742.078367	0.039819
742.275694	0.039798
742.473002	0.039594
742.670293	0.039681
742.867565	0.039780
743.064819	0.039849
743.262054	0.039892
743.459272	0.039668
743.656471	0.039834
743.853652	0.039812
744.050815	0.039795
744.247959	0.039872
744.445085	0.039793
744.642194	0.039816
744.839283	0.039842
745.036355	0.039856
745.233408	0.040009
745.430444	0.039805
745.627461	0.039867
745.824459	0.039777
746.021440	0.039733
746.218402	0.039728
746.415346	0.039655
746.612272	0.039611
746.809180	0.039447
747.006069	0.039405
747.202940	0.039449
747.399793	0.039324
747.596628	0.039409
747.793444	0.039455
747.990243	0.039522
748.187023	0.039714
748.383784	0.039834
748.580528	0.039968
748.777253	0.039877
748.973960	0.039978
749.170649	0.040147
749.367320	0.040102
749.563973	0.039964
749.760607	0.039663
749.957223	0.039577
750.153821	0.039417
750.350400	0.039472
750.546962	0.039470
750.743505	0.039325
750.940030	0.039096
751.136536	0.039081
751.333025	0.039108
751.529495	0.039302
751.725947	0.039161
751.922381	0.039134
752.118796	0.038999
752.315194	0.038926
752.511573	0.038937
752.707934	0.038944
752.904276	0.038999
753.100601	0.039175
753.296907	0.039138
753.493195	0.039122
753.689465	0.039188
753.885716	0.039043
754.081949	0.039189
754.278164	0.039168
754.474361	0.039180
754.670540	0.039147
754.866700	0.039040
755.062843	0.039037
755.258967	0.039225
755.455072	0.038926
755.651160	0.039059
755.847229	0.038850
756.043280	0.038717
756.239313	0.038664
756.435328	0.038574
756.631324	0.038482
756.827302	0.038310
757.023262	0.038081
757.219204	0.038414
757.415127	0.038298
757.611033	0.038270
757.806920	0.038265
758.002788	0.038263
758.198639	0.038257
758.394471	0.038268
758.590286	0.038507
758.786081	0.038638
758.981859	0.038295
759.177619	0.038370
759.373360	0.038415
759.569083	0.038392
759.764788	0.038426
759.960474	0.038556
760.156143	0.038435
760.351793	0.038261
760.547425	0.038169
760.743038	0.038221
760.938634	0.038160
761.134211	0.038059
761.329770	0.038142
761.525311	0.038105
761.720833	0.038037
761.916338	0.037994
762.111824	0.037999
762.307292	0.037930
762.502741	0.037906
762.698173	0.037897
762.893586	0.037899
763.088981	0.037866
763.284358	0.037974
763.479716	0.037829
763.675057	0.037941
763.870379	0.038102
764.065683	0.038361
764.260968	0.038474
764.456236	0.038585
764.651485	0.038504
764.846716	0.038607
765.041929	0.038577
765.237123	0.038474
765.432299	0.038497
765.627457	0.038595
765.822597	0.038437
766.017719	0.038382
766.212822	0.038314
766.407907	0.038285
766.602974	0.038261
766.798023	0.038122
766.993054	0.038284
767.188066	0.038314
767.383060	0.038160
767.578036	0.038017
767.772993	0.038044
767.967933	0.037780
768.162854	0.038130
768.357757	0.037994
768.552642	0.038158
768.747508	0.038179
768.942356	0.038200
769.137186	0.038312
769.331998	0.038483
769.526792	0.038579
769.721567	0.038930
769.916324	0.038871
770.111063	0.039082
770.305784	0.039094
770.500486	0.039098
770.695171	0.039199
770.889837	0.039084
771.084484	0.039157
771.279114	0.039128
771.473725	0.039148
771.668318	0.039112
771.862893	0.039066
772.057450	0.039087
772.251988	0.039030
772.446509	0.038856
772.641011	0.038964
772.835494	0.038977
773.029960	0.038985
773.224407	0.038839
773.418836	0.038745
773.613247	0.038684
773.807640	0.038578
774.002014	0.038642
774.196370	0.038616
774.390708	0.038677
774.585028	0.038568
774.779330	0.038550
774.973613	0.038626
775.167878	0.038724
775.362125	0.038748
775.556354	0.038882
775.750564	0.039022
775.944756	0.039176
776.138930	0.038998
776.333086	0.039110
776.527223	0.039225
776.721343	0.039229
776.915444	0.039446
777.109526	0.039483
777.303591	0.039349
777.497637	0.039176
777.691666	0.039027
777.885676	0.038868
778.079667	0.038716
778.273641	0.038643
778.467596	0.038532
778.661533	0.038110
778.855452	0.038042
779.049352	0.038007
779.243235	0.038044
779.437099	0.038164
779.630945	0.038318
779.824773	0.038599
780.018582	0.038495
780.212373	0.038521
780.406146	0.038561
780.599901	0.038330
780.793638	0.038473
780.987356	0.038472
781.181056	0.038483
781.374738	0.038432
781.568402	0.038231
781.762047	0.038328
781.955674	0.038500
782.149283	0.038549
782.342874	0.038722
782.536447	0.038671
782.730001	0.038713
782.923537	0.038682
783.117055	0.038629
783.310555	0.038588
783.504036	0.038510
783.697499	0.038434
783.890944	0.038481
784.084371	0.038570
784.277780	0.038428
784.471170	0.038256
784.664542	0.038323
784.857896	0.038421
785.051231	0.038398
785.244549	0.038445
785.437848	0.038235
785.631129	0.038374
785.824392	0.038420
786.017636	0.038441
786.210863	0.038489
786.404071	0.038435
786.597260	0.038451
786.790432	0.038553
786.983585	0.038555
787.176721	0.038664
787.369838	0.038468
787.562936	0.038448
787.756017	0.038540
787.949079	0.038716
788.142123	0.038578
788.335149	0.038691
788.528156	0.038759
788.721146	0.038768
788.914117	0.038741
789.107070	0.039016
789.300005	0.038968
789.492921	0.038991
789.685819	0.038809
789.878699	0.038828
790.071561	0.038545
790.264405	0.038522
790.457230	0.038334
790.650037	0.038545
790.842826	0.038328
791.035597	0.038359
791.228349	0.038293
791.421084	0.038218
791.613800	0.038160
791.806497	0.038265
791.999177	0.038136
792.191838	0.038196
792.384481	0.038167
792.577106	0.038310
792.769713	0.038484
792.962301	0.038535
793.154871	0.038670
793.347423	0.038880
793.539957	0.038986
793.732473	0.039062
793.924970	0.039235
794.117449	0.039113
794.309910	0.038952
794.502353	0.038897
794.694777	0.039025
794.887183	0.038957
795.079571	0.038989
795.271941	0.038996
795.464293	0.039130
795.656626	0.039260
795.848941	0.039382
796.041238	0.039676
796.233516	0.039678
796.425777	0.039664
796.618019	0.039815
796.810243	0.039706
797.002449	0.039694
797.194636	0.039650
797.386805	0.039523
797.578956	0.039434
797.771089	0.039205
797.963204	0.038962
798.155300	0.038840
798.347378	0.038945
798.539438	0.039078
798.731480	0.039068
798.923503	0.038932
799.115509	0.038997
799.307496	0.039049
799.499465	0.039159
799.691415	0.039320
799.883348	0.039387
800.075262	0.039242
800.267158	0.038963
800.459035	0.039164
800.650895	0.039302
800.842736	0.039287
801.034559	0.039489
801.226364	0.039443
801.418150	0.039565
801.609919	0.039523
801.801669	0.039589
801.993401	0.039905
802.185114	0.039686
802.376810	0.039421
802.568487	0.039240
802.760146	0.039095
802.951787	0.039124
803.143409	0.039142
803.335014	0.039105
803.526600	0.039095
803.718168	0.038927
803.909717	0.039007
804.101249	0.039167
804.292762	0.039360
804.484257	0.039266
804.675734	0.039467
804.867192	0.039276
805.058632	0.039569
805.250054	0.039650
805.441458	0.039863
805.632844	0.040017
805.824211	0.040060
806.015561	0.040134
806.206891	0.040166
806.398204	0.040144
806.589499	0.040360
806.780775	0.040268
806.972033	0.040278
807.163273	0.040415
807.354495	0.040461
807.545698	0.040537
807.736883	0.040432
807.928050	0.040642
808.119199	0.040579
808.310329	0.040584
808.501441	0.040716
808.692535	0.040729
808.883611	0.040672
809.074669	0.040622
809.265708	0.040773
809.456729	0.040684
809.647732	0.040620
809.838717	0.040680
810.029683	0.040615
810.220632	0.040649
810.411562	0.040706
810.602474	0.040664
810.793367	0.040706
810.984242	0.040637
811.175100	0.040881
811.365938	0.041029
811.556759	0.041084
811.747562	0.041334
811.938346	0.041305
812.129112	0.041474
812.319860	0.041675
812.510589	0.041829
812.701300	0.041891
812.891994	0.041970
813.082668	0.041974
813.273325	0.042054
813.463964	0.042052
813.654584	0.042261
813.845186	0.042239
814.035769	0.042025
814.226335	0.041971
814.416882	0.042157
814.607411	0.042298
814.797922	0.042176
814.988415	0.042023
815.178889	0.042027
815.369345	0.041887
815.559783	0.041852
815.750203	0.042003
815.940605	0.041833
816.130988	0.041745
816.321353	0.041603
816.511700	0.041564
816.702028	0.041636
816.892339	0.041482
817.082631	0.041621
817.272905	0.041566
817.463161	0.041542
817.653398	0.041799
817.843617	0.041754
818.033819	0.042032
818.224001	0.042229
818.414166	0.042285
818.604312	0.042508
818.794440	0.042305
818.984550	0.042452
819.174642	0.042319
819.364716	0.042177
819.554771	0.042109
819.744808	0.041830
819.934827	0.041820
820.124827	0.041771
820.314810	0.041750
820.504774	0.041957
820.694720	0.041793
820.884647	0.041875
821.074557	0.041890
821.264448	0.041869
821.454321	0.041705
821.644176	0.041591
821.834012	0.041696
822.023831	0.041494
822.213631	0.041457
822.403413	0.041479
822.593176	0.041376
822.782922	0.041555
822.972649	0.041813
823.162358	0.042109
823.352049	0.042156
823.541721	0.042241
823.731376	0.042368
823.921012	0.042343
824.110629	0.042333
824.300229	0.042539
824.489811	0.042355
824.679374	0.042178
824.868919	0.042088
825.058445	0.042176
825.247954	0.041917
825.437444	0.041911
825.626916	0.041934
825.816370	0.042239
826.005806	0.042419
826.195223	0.042654
826.384622	0.042861
826.574003	0.043137
826.763366	0.043332
826.952711	0.043455
827.142037	0.043564
827.331345	0.043727
827.520635	0.043771
827.709906	0.043716
827.899160	0.043762
828.088395	0.043814
828.277612	0.043937
828.466810	0.043948
828.655991	0.043964
828.845153	0.044026
829.034297	0.043888
829.223423	0.043916
829.412531	0.043901
829.601620	0.043938
829.790691	0.043798
829.979744	0.043529
830.168779	0.043618
830.357795	0.043678
830.546793	0.043729
830.735773	0.043891
830.924735	0.043709
831.113679	0.043729
831.302604	0.043586
831.491511	0.043637
831.680400	0.043547
831.869271	0.043373
832.058123	0.043497
832.246957	0.043341
832.435773	0.043298
832.624571	0.043501
832.813351	0.043580
833.002112	0.043504
833.190855	0.043645
833.379580	0.043966
833.568287	0.043906
833.756975	0.043780
833.945645	0.043891
834.134297	0.044087
834.322931	0.044209
834.511547	0.044218
834.700144	0.044520
834.888723	0.044502
835.077284	0.044418
835.265826	0.044628
835.454351	0.044903
835.642857	0.044994
835.831345	0.044805
836.019815	0.044725
836.208266	0.044813
836.396699	0.044620
836.585114	0.044759
836.773511	0.044951
836.961890	0.045157
837.150250	0.045308
837.338592	0.045369
837.526916	0.045618
837.715222	0.045715
837.903510	0.045662
838.091779	0.046015
838.280030	0.046069
838.468263	0.046101
838.656477	0.046121
838.844674	0.045973
839.032852	0.046020
839.221012	0.046056
839.409153	0.046157
839.597277	0.046324
839.785382	0.046254
839.973469	0.046270
840.161538	0.046278
840.349589	0.046167
840.537621	0.046203
840.725635	0.046461
840.913631	0.046444
841.101609	0.046298
841.289568	0.046330
841.477509	0.046351
841.665432	0.046395
841.853337	0.046277
842.041224	0.046371
842.229092	0.046712
842.416942	0.046655
842.604774	0.046532
842.792588	0.046505
842.980383	0.046728
843.168160	0.046696
843.355919	0.046859
843.543660	0.047055
843.731382	0.047243
843.919087	0.047117
844.106773	0.047117
844.294441	0.047341
844.482090	0.047540
844.669722	0.047442
844.857335	0.047766
845.044930	0.047729
845.232507	0.047775
845.420065	0.047760
845.607605	0.047813
845.795127	0.047863
845.982631	0.047948
846.170117	0.048135
846.357584	0.048291
846.545033	0.048460
846.732464	0.048655
846.919877	0.048857
847.107272	0.048964
847.294648	0.048955
847.482006	0.049110
847.669346	0.049015
847.856667	0.049103
848.043971	0.049008
848.231256	0.048909
848.418523	0.048785
848.605771	0.048838
848.793002	0.048823
848.980214	0.049140
849.167408	0.049375
849.354584	0.049699
849.541742	0.049688
849.728881	0.049883
849.916002	0.050142
850.103105	0.050541
850.290190	0.050642
850.477256	0.050735
850.664304	0.050765
850.851334	0.050754
851.038346	0.050925
851.225340	0.051261
851.412315	0.051297
851.599272	0.051336
851.786211	0.051194
851.973132	0.051169
852.160034	0.051206
852.346918	0.051366
852.533784	0.051463
852.720632	0.051474
852.907462	0.051315
853.094273	0.051427
853.281066	0.051303
853.467841	0.051463
853.654598	0.051634
853.841336	0.051774
854.028056	0.051542
854.214758	0.051486
854.401442	0.051477
854.588107	0.051447
854.774755	0.051595
854.961384	0.051569
855.147995	0.051519
855.334587	0.051351
855.521162	0.051598
855.707718	0.051928
855.894256	0.052143
856.080775	0.052309
856.267277	0.052642
856.453760	0.052610
856.640225	0.052891
856.826672	0.053036
857.013101	0.053191
857.199511	0.052869
857.385903	0.052868
857.572277	0.052876
857.758633	0.052940
857.944970	0.052800
858.131290	0.052998
858.317591	0.052935
858.503873	0.053068
858.690138	0.053446
858.876384	0.053773
859.062612	0.054024
859.248822	0.054198
859.435014	0.053975
859.621188	0.054166
859.807343	0.054287
859.993480	0.054353
860.179599	0.054466
860.365699	0.054564
860.551781	0.054682
860.737846	0.054434
860.923891	0.054218
861.109919	0.054324
861.295929	0.054606
861.481920	0.054360
861.667893	0.054526
861.853848	0.054330
862.039784	0.053982
862.225702	0.054065
862.411603	0.054406
862.597484	0.054669
862.783348	0.054772
862.969193	0.054669
863.155021	0.055018
863.340830	0.055174
863.526620	0.055350
863.712393	0.055706
863.898147	0.055790
864.083883	0.055807
864.269601	0.055908
864.455301	0.056030
864.640982	0.055793
864.826645	0.055825
865.012290	0.055738
865.197917	0.055710
865.383526	0.055767
865.569116	0.055808
865.754688	0.055886
865.940242	0.055669
866.125777	0.056054
866.311295	0.056171
866.496794	0.056131
866.682275	0.056427
866.867737	0.056535
867.053182	0.056692
867.238608	0.056715
867.424016	0.056555
867.609406	0.056581
867.794778	0.056321
867.980131	0.056679
868.165466	0.056712
868.350783	0.056385
868.536082	0.056591
868.721362	0.056643
868.906625	0.056489
869.091869	0.056552
869.277094	0.057115
869.462302	0.057099
869.647491	0.057039
869.832662	0.057164
870.017815	0.057494
870.202950	0.057506
870.388066	0.057372
870.573165	0.057633
870.758245	0.057662
870.943306	0.057245
871.128350	0.057288
871.313375	0.057338
871.498382	0.057451
871.683371	0.057181
871.868342	0.057455
872.053294	0.057404
872.238229	0.057494
872.423144	0.057521
872.608042	0.057605
872.792922	0.058085
872.977783	0.058058
873.162626	0.057768
873.347451	0.057959
873.532258	0.057795
873.717046	0.057980
873.901816	0.057943
874.086568	0.058031
874.271302	0.058085
874.456017	0.057801
874.640715	0.058006
874.825394	0.058062
875.010055	0.057923
875.194697	0.057758
875.379322	0.057610
875.563928	0.057432
875.748516	0.057281
875.933085	0.057405
876.117637	0.057537
876.302170	0.057238
876.486685	0.057545
876.671182	0.057810
876.855661	0.057882
877.040121	0.057892
877.224563	0.057894
877.408987	0.058207
877.593393	0.058128
877.777780	0.058074
877.962150	0.058230
878.146501	0.058017
878.330833	0.058119
878.515148	0.058138
878.699444	0.058427
878.883722	0.058576
879.067982	0.058617
879.252224	0.058875
879.436447	0.058999
879.620653	0.059124
879.804840	0.059415
879.989008	0.059247
880.173159	0.059318
880.357291	0.059275
880.541405	0.059509
880.725501	0.059362
880.909579	0.059182
881.093638	0.058926
881.277680	0.058917
881.461703	0.059042
881.645707	0.059069
881.829694	0.058917
882.013662	0.058975
882.197612	0.058899
882.381544	0.059062
882.565458	0.059021
882.749353	0.059152
882.933230	0.059172
883.117089	0.058848
883.300930	0.059103
883.484753	0.059380
883.668557	0.059208
883.852343	0.059066
884.036111	0.059018
884.219861	0.058831
884.403592	0.058848
884.587305	0.058885
884.771000	0.059055
884.954677	0.059261
885.138335	0.059027
885.321976	0.059285
885.505598	0.059304
885.689201	0.059447
885.872787	0.059794
886.056354	0.059886
886.239904	0.059927
886.423434	0.059826
886.606947	0.059448
886.790442	0.059795
886.973918	0.059309
887.157376	0.059280
887.340816	0.058840
887.524237	0.058935
887.707641	0.058601
887.891026	0.058371
888.074393	0.058336
888.257741	0.058169
888.441072	0.058147
888.624384	0.058352
888.807678	0.058283
888.990954	0.058491
889.174211	0.058118
889.357451	0.058384
889.540672	0.058634
889.723875	0.058656
889.907059	0.059021
890.090226	0.058526
890.273374	0.058516
890.456504	0.058784
890.639616	0.059003
890.822709	0.059049
891.005785	0.059109
891.188842	0.058872
891.371881	0.058825
891.554901	0.058595
891.737904	0.058763
891.920888	0.058760
892.103854	0.058745
892.286802	0.058625
892.469731	0.058908
892.652643	0.058877
892.835536	0.058935
893.018410	0.058912
893.201267	0.059220
893.384106	0.059531
893.566926	0.059652
893.749728	0.059696
893.932511	0.059699
894.115277	0.059579
894.298024	0.059715
894.480753	0.059815
894.663464	0.059884
894.846157	0.059858
895.028831	0.059707
895.211487	0.059926
895.394125	0.059870
895.576745	0.059645
895.759346	0.059723
895.941930	0.059799
896.124495	0.059570
896.307041	0.059437
896.489570	0.059363
896.672080	0.059119
896.854573	0.058796
897.037046	0.058777
897.219502	0.058983
897.401940	0.058870
897.584359	0.058548
897.766760	0.058719
897.949143	0.058991
898.131507	0.058779
898.313854	0.058989
898.496182	0.059052
898.678492	0.058927
898.860783	0.058684
899.043057	0.058604
899.225312	0.058680
899.407549	0.058461
899.589768	0.058471
899.771968	0.058344
899.954151	0.058403
900.136315	0.058301
900.318461	0.058470
900.500588	0.058265
900.682698	0.058193
900.864789	0.057915
901.046862	0.057845
901.228917	0.057866
901.410953	0.058238
901.592971	0.058047
901.774972	0.057824
901.956953	0.057621
902.138917	0.057833
902.320862	0.057876
902.502790	0.057793
902.684699	0.057768
902.866589	0.057431
903.048462	0.057264
903.230316	0.057171
903.412152	0.057396
903.593970	0.057227
903.775770	0.057261
903.957551	0.057287
904.139314	0.057397
904.321059	0.057361
904.502786	0.057278
904.684494	0.057180
904.866185	0.056991
905.047857	0.056674
905.229510	0.056539
905.411146	0.056293
905.592763	0.056109
905.774363	0.055972
905.955943	0.055877
906.137506	0.055819
906.319051	0.055500
906.500577	0.055595
906.682085	0.055751
906.863575	0.055845
907.045046	0.056247
907.226500	0.056098
907.407935	0.055979
907.589352	0.056263
907.770750	0.056289
907.952131	0.056390
908.133493	0.056296
908.314837	0.056261
908.496163	0.056095
908.677470	0.055931
908.858760	0.055917
909.040031	0.055721
909.221284	0.055348
909.402518	0.055319
909.583735	0.055107
909.764933	0.054959
909.946113	0.054700
910.127275	0.054514
910.308418	0.054217
910.489544	0.054074
910.670651	0.054175
910.851740	0.054110
911.032810	0.054146
911.213863	0.054311
911.394897	0.054468
911.575913	0.054102
911.756911	0.054034
911.937890	0.053867
912.118851	0.053742
912.299794	0.053671
912.480719	0.053640
912.661626	0.053235
912.842514	0.052848
913.023384	0.052577
913.204236	0.052686
913.385070	0.052418
913.565886	0.052098
913.746683	0.052002
913.927462	0.052043
914.108223	0.051352
914.288965	0.051139
914.469690	0.051124
914.650396	0.050852
914.831084	0.050540
915.011754	0.050773
915.192405	0.050985
915.373038	0.050940
915.553653	0.050436
915.734250	0.050478
915.914829	0.050513
916.095389	0.050256
916.275931	0.050254
916.456455	0.050531
916.636961	0.050150
916.817448	0.049648
916.997917	0.049635
917.178368	0.049940
917.358801	0.050235
917.539216	0.049723
917.719612	0.049927
917.899990	0.049419
918.080350	0.048999
918.260692	0.048873
918.441015	0.048891
918.621320	0.049041
918.801607	0.048937
918.981876	0.048937
919.162127	0.049093
919.342359	0.048512
919.522573	0.048494
919.702769	0.048621
919.882947	0.048529
920.063106	0.048237
920.243247	0.047811
920.423370	0.047582
920.603475	0.047372
920.783562	0.046882
920.963630	0.046833
921.143680	0.046914
921.323712	0.046415
921.503725	0.046106
921.683721	0.046357
921.863698	0.045662
922.043657	0.045163
922.223598	0.045355
922.403520	0.045538
922.583424	0.044889
922.763311	0.044781
922.943178	0.044831
923.123028	0.044880
923.302859	0.044499
923.482673	0.044852
923.662467	0.044699
923.842244	0.043717
924.022003	0.043423
924.201743	0.043865
924.381465	0.043424
924.561169	0.042984
924.740854	0.042435
924.920522	0.041781
925.100171	0.041059
925.279802	0.041017
925.459414	0.041104
925.639009	0.040754
925.818585	0.040413
925.998143	0.040474
926.177683	0.040280
926.357205	0.040275
926.536708	0.040311
926.716193	0.040435
926.895660	0.040608
927.075109	0.039451
927.254539	0.039426
927.433951	0.039088
927.613345	0.038461
927.792721	0.038279
927.972079	0.037908
928.151418	0.038129
928.330739	0.037411
928.510042	0.036661
928.689327	0.037335
928.868593	0.037320
929.047841	0.037141
929.227071	0.036968
929.406283	0.036656
929.585476	0.036598
929.764652	0.035859
929.943809	0.036077
930.122948	0.035751
930.302068	0.035185
930.481171	0.034816
930.660255	0.034759
930.839321	0.034856
931.018369	0.034786
931.197398	0.034389
931.376409	0.034163
931.555402	0.034200
931.734377	0.034193
931.913334	0.033781
932.092272	0.033381
932.271192	0.032361
932.450094	0.031913
932.628978	0.031909
932.807844	0.031952
932.986691	0.031802
933.165520	0.030851
933.344331	0.030086
933.523123	0.029548
933.701898	0.029297
933.880654	0.029829
934.059392	0.029161
934.238111	0.028831
934.416813	0.028183
934.595496	0.028149
934.774161	0.027930
934.952808	0.027589
935.131437	0.027921
935.310047	0.027418
935.488639	0.026800
935.667213	0.027078
935.845769	0.026415
936.024306	0.026061
936.202825	0.025653
936.381326	0.025976
936.559809	0.026313
936.738274	0.026117
936.916720	0.025936
937.095148	0.025813
937.273558	0.025417
937.451950	0.025328
937.630323	0.025524
937.808678	0.025176
937.987015	0.024793
938.165334	0.024385
938.343635	0.023856
938.521917	0.023974
938.700181	0.024009
938.878427	0.023706
939.056655	0.023258
939.234864	0.022337
939.413055	0.021953
939.591228	0.021785
939.769383	0.021439
939.947519	0.021375
940.125638	0.021348
940.303738	0.020750
940.481820	0.020254
940.659883	0.020502
940.837929	0.020613
941.015956	0.020409
941.193965	0.020106
941.371955	0.019869
941.549928	0.020469
941.727882	0.020079
941.905818	0.019023
942.083736	0.018842
942.261636	0.018730
942.439517	0.018935
942.617380	0.018995
942.795225	0.018622
942.973052	0.018428
943.150860	0.017347
943.328651	0.016689
943.506423	0.017180
943.684176	0.017113
943.861912	0.016674
944.039629	0.015565
944.217328	0.014854
944.395009	0.013964
944.572672	0.013435
944.750317	0.013068
944.927943	0.012984
945.105551	0.012821
945.283141	0.013256
945.460712	0.013068
945.638265	0.013378
945.815801	0.013395
945.993317	0.013747
946.170816	0.013615
946.348297	0.013525
946.525759	0.013563
946.703203	0.013605
946.880629	0.013707
947.058036	0.013754
947.235425	0.013660
947.412797	0.013308
947.590149	0.013288
947.767484	0.012723
947.944800	0.011900
948.122099	0.011396
948.299379	0.011147
948.476640	0.009863
948.653884	0.008704
948.831109	0.008883
949.008316	0.009948
949.185505	0.009264
949.362676	0.010440
949.539828	0.012528
949.716962	0.012696
949.894078	0.012407
950.071176	0.012327
950.248256	0.012170
950.425317	0.011170
950.602360	0.010084
950.779385	0.011413
950.956391	0.010089
951.133380	0.008377
951.310350	0.007646
951.487302	0.008075
951.664235	0.008637
951.841151	0.008252
952.018048	0.008880
952.194927	0.008347
952.371788	0.006613
952.548631	0.007013
952.725455	0.006793
952.902261	0.007645
953.079049	0.007573
953.255819	0.007664
953.432570	0.008500
953.609303	0.007567
953.786018	0.007950
953.962715	0.008558
954.139394	0.008745
954.316054	0.009699
954.492696	0.010046
954.669320	0.010329
954.845926	0.009174
955.022513	0.008415
955.199083	0.008947
955.375634	0.009714
955.552166	0.009934
955.728681	0.009176
955.905177	0.008061
956.081655	0.006244
956.258115	0.006069
956.434557	0.006476
956.610980	0.005348
956.787385	0.005772
956.963772	0.004763
957.140141	0.005756
957.316492	0.006030
957.492824	0.007022
957.669138	0.008343
957.845434	0.009107
958.021712	0.008499
958.197971	0.009815
958.374212	0.011089
958.550435	0.011145
958.726640	0.010290
958.902826	0.009331
959.078995	0.008098
959.255145	0.007333
959.431277	0.006090
959.607390	0.006221
959.783486	0.008039
959.959563	0.007341
960.135622	0.007984
960.311662	0.007100
960.487685	0.008648
960.663689	0.009571
960.839675	0.010721
961.015643	0.010029
961.191593	0.012093
961.367524	0.012778
961.543437	0.014456
961.719332	0.013429
961.895209	0.014388
962.071067	0.015234
962.246907	0.014543
962.422730	0.013823
962.598533	0.015350
962.774319	0.013516
962.950086	0.012946
963.125835	0.010609
963.301566	0.012303
963.477279	0.012080
963.652973	0.010864
963.828650	0.011734
964.004308	0.011860
964.179947	0.010925
964.355569	0.011237
964.531172	0.009734
964.706757	0.011325
964.882324	0.011467
965.057873	0.012714
965.233403	0.013804
965.408916	0.012987
965.584410	0.011411
965.759885	0.012343
965.935343	0.013681
966.110782	0.013087
966.286203	0.011370
966.461606	0.011025
966.636991	0.010989
966.812357	0.009165
966.987705	0.009008
967.163035	0.010402
967.338347	0.010714
967.513641	0.008620
967.688916	0.009033
967.864173	0.008866
968.039412	0.007672
968.214632	0.007064
968.389835	0.008950
968.565019	0.010099
968.740185	0.011274
968.915333	0.009998
969.090462	0.012086
969.265573	0.012291
969.440667	0.013789
969.615741	0.014694
969.790798	0.014167
969.965836	0.013408
970.140856	0.013405
970.315858	0.012787
970.490842	0.014179
970.665808	0.013489
970.840755	0.016165
971.015684	0.015962
971.190595	0.017295
971.365487	0.018039
971.540362	0.018644
971.715218	0.019327
971.890056	0.020650
972.064875	0.019981
972.239677	0.020274
972.414460	0.018484
972.589225	0.018438
972.763972	0.017689
972.938700	0.016393
973.113411	0.016442
973.288103	0.016504
973.462777	0.016101
973.637432	0.015141
973.812070	0.015253
973.986689	0.015141
974.161290	0.016695
974.335873	0.016969
974.510437	0.017061
974.684984	0.015416
974.859512	0.015005
975.034022	0.014668
975.208513	0.015432
975.382987	0.014239
975.557442	0.015173
975.731879	0.012897
975.906298	0.012421
976.080698	0.013388
976.255080	0.015105
976.429445	0.014319
976.603790	0.013790
976.778118	0.014318
976.952427	0.017572
977.126719	0.017604
977.300992	0.018981
977.475246	0.019295
977.649483	0.019771
977.823701	0.019820
977.997901	0.020504
978.172083	0.020396
978.346247	0.020122
978.520392	0.016976
978.694519	0.015422
978.868628	0.015940
979.042719	0.014661
979.216791	0.015105
979.390845	0.013618
979.564882	0.013728
979.738899	0.013178
979.912899	0.013902
980.086880	0.015127
980.260843	0.014587
980.434788	0.013071
980.608715	0.014160
980.782623	0.013659
980.956514	0.016070
981.130386	0.015823
981.304240	0.016552
981.478075	0.015715
981.651892	0.015883
981.825692	0.016915
981.999472	0.018290
982.173235	0.017848
982.346980	0.017036
982.520706	0.016035
982.694414	0.017023
982.868104	0.016407
983.041775	0.016267
983.215428	0.016073
983.389064	0.016207
983.562680	0.015927
983.736279	0.017515
983.909860	0.018768
984.083422	0.017563
984.256966	0.016167
984.430491	0.016283
984.603999	0.017293
984.777488	0.015994
984.950959	0.017096
985.124412	0.016354
985.297847	0.015006
985.471263	0.013543
985.644661	0.013885
985.818041	0.015476
985.991403	0.016751
986.164747	0.015677
986.338072	0.016696
986.511379	0.015521
986.684668	0.015842
986.857938	0.015362
987.031191	0.016470
987.204425	0.016826
987.377641	0.015271
987.550839	0.014514
987.724018	0.015107
987.897179	0.014485
988.070322	0.014916
988.243447	0.015830
988.416554	0.015555
988.589642	0.014934
988.762712	0.014262
988.935764	0.015310
989.108798	0.015895
989.281813	0.016137
989.454811	0.016640
989.627790	0.017004
989.800751	0.016365
989.973693	0.016296
990.146617	0.016756
990.319524	0.016831
990.492412	0.017493
990.665281	0.017855
990.838133	0.017643
991.010966	0.018258
991.183781	0.017629
991.356578	0.017841
991.529356	0.018193
991.702117	0.017750
991.874859	0.018428
992.047583	0.017500
992.220288	0.016786
992.392976	0.017275
992.565645	0.016946
992.738296	0.017512
992.910929	0.017335
993.083543	0.017493
993.256139	0.017162
993.428718	0.018143
993.601277	0.018048
993.773819	0.018527
993.946342	0.017408
994.118848	0.017477
994.291335	0.017202
994.463803	0.017675
994.636254	0.019694
994.808686	0.021656
994.981100	0.020820
995.153496	0.020682
995.325874	0.022472
995.498233	0.023095
995.670574	0.022594
995.842897	0.022073
996.015202	0.020273
996.187488	0.018673
996.359757	0.017430
996.532007	0.017299
996.704239	0.018587
996.876452	0.016287
997.048648	0.015740
997.220825	0.016099
997.392984	0.016874
997.565124	0.018207
997.737247	0.017557
997.909351	0.017781
998.081437	0.018987
998.253505	0.019460
998.425554	0.019796
998.597586	0.020454
998.769599	0.021575
998.941594	0.022010
999.113571	0.021157
999.285529	0.022277
999.457469	0.022475
999.629391	0.020107
999.801295	0.018226
999.973181	0.019078
1000.145048	0.019545
1000.316897	0.019481
1000.488728	0.019621
1000.660541	0.019968
1000.832335	0.020431
1001.004111	0.021378
1001.175869	0.024138
1001.347609	0.024034
1001.519331	0.021939
1001.691034	0.021267
1001.862719	0.020386
1002.034386	0.018835
1002.206035	0.018701
1002.377665	0.018635
1002.549277	0.016589
1002.720871	0.015493
1002.892447	0.015595
1003.064004	0.015656
1003.235544	0.015916
1003.407065	0.017155
1003.578568	0.018264
1003.750052	0.018630
1003.921519	0.017914
1004.092967	0.019169
1004.264397	0.018411
1004.435809	0.018746
1004.607202	0.019439
1004.778577	0.018218
1004.949934	0.016473
1005.121273	0.015463
1005.292594	0.014924
1005.463896	0.014844
1005.635180	0.014159
1005.806446	0.013773
1005.977694	0.014367
1006.148923	0.013956
1006.320135	0.014924
1006.491328	0.015788
1006.662503	0.016311
1006.833659	0.017461
1007.004798	0.017649
1007.175918	0.016438
1007.347020	0.018124
1007.518103	0.017016
1007.689169	0.018086
1007.860216	0.017106
1008.031245	0.017387
1008.202256	0.016761
1008.373248	0.016346
1008.544223	0.016318
1008.715179	0.019888
1008.886117	0.019853
1009.057036	0.021076
1009.227938	0.020109
1009.398821	0.021049
1009.569686	0.020411
1009.740533	0.021917
1009.911361	0.022092
1010.082172	0.022831
1010.252964	0.020263
1010.423738	0.020624
1010.594493	0.018749
1010.765231	0.020059
1010.935950	0.020903
1011.106651	0.020836
1011.277334	0.020755
1011.447998	0.018943
1011.618645	0.017901
1011.789273	0.017991
1011.959882	0.015345
1012.130474	0.016230
1012.301048	0.015449
1012.471603	0.015644
1012.642140	0.015028
1012.812658	0.014234
1012.983159	0.016264
1013.153641	0.016469
1013.324105	0.016380
1013.494551	0.017715
1013.664979	0.017387
1013.835388	0.018764
1014.005779	0.017961
1014.176152	0.019294
1014.346507	0.019911
1014.516843	0.018801
1014.687162	0.018485
1014.857462	0.018083
1015.027744	0.018075
1015.198007	0.018956
1015.368252	0.018411
1015.538480	0.017611
1015.708689	0.016453
1015.878879	0.015632
1016.049052	0.016090
1016.219206	0.015232
1016.389342	0.016221
1016.559460	0.016359
1016.729559	0.016943
1016.899641	0.016138
1017.069704	0.016806
1017.239749	0.016426
1017.409775	0.016126
1017.579784	0.015132
1017.749774	0.016123
1017.919746	0.015665
1018.089700	0.015019
1018.259635	0.014088
1018.429553	0.013843
1018.599452	0.013781
1018.769333	0.015613
1018.939195	0.016214
1019.109040	0.018035
1019.278866	0.018579
1019.448674	0.018747
1019.618464	0.019234
1019.788235	0.018138
1019.957989	0.017620
1020.127724	0.018845
1020.297441	0.017769
1020.467139	0.017685
1020.636820	0.016071
1020.806482	0.015566
1020.976126	0.016521
1021.145752	0.016586
1021.315359	0.018324
1021.484948	0.018874
1021.654519	0.018484
1021.824072	0.019077
1021.993607	0.019962
1022.163123	0.021005
1022.332621	0.020736
1022.502101	0.019968
1022.671563	0.020974
1022.841007	0.020494
1023.010432	0.020880
1023.179839	0.019095
1023.349228	0.019548
1023.518598	0.018517
1023.687951	0.019402
1023.857285	0.020446
1024.026601	0.019818
1024.195899	0.017492
1024.365178	0.016485
1024.534439	0.016305
1024.703682	0.018596
1024.872907	0.018242
1025.042114	0.019140
1025.211302	0.017767
1025.380472	0.016869
1025.549624	0.018171
1025.718758	0.020290
1025.887873	0.022359
1026.056970	0.023770
1026.226049	0.021497
1026.395110	0.020512
1026.564153	0.019126
1026.733177	0.019443
1026.902183	0.019415
1027.071171	0.018269
1027.240141	0.017253
1027.409092	0.016798
1027.578026	0.015406
1027.746940	0.015521
1027.915837	0.015380
1028.084716	0.015918
1028.253576	0.015819
1028.422418	0.016896
1028.591242	0.015992
1028.760048	0.016517
1028.928835	0.016767
1029.097604	0.015915
1029.266355	0.016534
1029.435088	0.018203
1029.603803	0.017756
1029.772499	0.017809
1029.941177	0.016771
1030.109837	0.018126
1030.278478	0.017763
1030.447102	0.017730
1030.615707	0.019297
1030.784294	0.018738
1030.952863	0.017209
1031.121413	0.018468
1031.289945	0.017988
1031.458460	0.017281
1031.626955	0.018028
1031.795433	0.018159
1031.963892	0.018478
1032.132334	0.018134
1032.300756	0.017980
1032.469161	0.019579
1032.637548	0.018151
1032.805916	0.018635
1032.974266	0.019974
1033.142598	0.020779
1033.310911	0.020647
1033.479207	0.019831
1033.647484	0.019939
1033.815743	0.019447
1033.983983	0.016913
1034.152206	0.017859
1034.320410	0.017025
1034.488596	0.016280
1034.656764	0.014122
1034.824914	0.015028
1034.993045	0.015603
1035.161158	0.014871
1035.329253	0.016337
1035.497330	0.017947
1035.665388	0.017644
1035.833428	0.020089
1036.001450	0.020712
1036.169454	0.022480
1036.337440	0.022255
1036.505407	0.021542
1036.673356	0.022843
1036.841287	0.023329
1037.009200	0.022759
1037.177094	0.022697
1037.344970	0.019957
1037.512828	0.019694
1037.680668	0.018310
1037.848489	0.017016
1038.016293	0.017735
1038.184078	0.016881
1038.351845	0.016295
1038.519593	0.017702
1038.687324	0.017783
1038.855036	0.019822
1039.022730	0.019366
1039.190406	0.018764
1039.358063	0.020090
1039.525702	0.020450
1039.693323	0.020089
1039.860926	0.019738
1040.028511	0.018245
1040.196077	0.018476
1040.363625	0.017619
1040.531155	0.018862
1040.698667	0.019296
1040.866161	0.018768
1041.033636	0.017084
1041.201093	0.016470
1041.368532	0.016055
1041.535952	0.015649
1041.703355	0.015457
1041.870739	0.014504
1042.038105	0.013964
1042.205452	0.013059
1042.372782	0.012415
1042.540093	0.012689
1042.707386	0.013496
1042.874661	0.014105
1043.041918	0.014395
1043.209156	0.013450
1043.376376	0.014803
1043.543578	0.015710
1043.710762	0.016330
1043.877927	0.016900
1044.045074	0.018143
1044.212203	0.019033
1044.379314	0.018533
1044.546407	0.019349
1044.713481	0.020127
1044.880537	0.020293
1045.047575	0.018695
1045.214595	0.018845
1045.381596	0.018842
1045.548579	0.017002
1045.715544	0.016436
1045.882491	0.017350
1046.049420	0.016994
1046.216330	0.017441
1046.383222	0.017191
1046.550096	0.017887
1046.716951	0.019836
1046.883789	0.019722
1047.050608	0.019702
1047.217409	0.020581
1047.384192	0.019844
1047.550956	0.019575
1047.717703	0.019773
1047.884431	0.019228
1048.051140	0.019526
1048.217832	0.016695
1048.384505	0.016905
1048.551161	0.019765
1048.717798	0.018350
1048.884416	0.019188
1049.051017	0.019211
1049.217599	0.018853
1049.384163	0.019300
1049.550709	0.018453
1049.717237	0.019874
1049.883746	0.019310
1050.050237	0.017411
1050.216710	0.017824
1050.383165	0.017875
1050.549601	0.018593
1050.716019	0.017178
1050.882420	0.016931
1051.048801	0.017160
1051.215165	0.017460
1051.381510	0.018515
1051.547837	0.019041
1051.714146	0.019007
1051.880437	0.018451
1052.046709	0.017384
1052.212964	0.019297
1052.379200	0.018699
1052.545417	0.019406
1052.711617	0.019043
1052.877798	0.020546
1053.043961	0.019109
1053.210106	0.019185
1053.376233	0.020186
1053.542341	0.019907
1053.708432	0.018268
1053.874504	0.017240
1054.040557	0.015396
1054.206593	0.016931
1054.372610	0.015590
1054.538609	0.016154
1054.704590	0.014847
1054.870553	0.013205
1055.036497	0.015374
1055.202424	0.015943
1055.368331	0.016992
1055.534221	0.018305
1055.700093	0.016228
1055.865946	0.015087
1056.031781	0.014809
1056.197598	0.015631
1056.363397	0.016006
1056.529177	0.014743
1056.694939	0.015497
1056.860683	0.016038
1057.026409	0.014558
1057.192116	0.014818
1057.357806	0.014717
1057.523477	0.014563
1057.689130	0.014434
1057.854764	0.016163
1058.020381	0.017397
1058.185979	0.015962
1058.351559	0.016210
1058.517120	0.017627
1058.682664	0.017425
1058.848189	0.018385
1059.013696	0.017315
1059.179185	0.017044
1059.344656	0.015906
1059.510108	0.014281
1059.675542	0.016014
1059.840958	0.015572
1060.006356	0.014439
1060.171735	0.014384
1060.337096	0.014204
1060.502439	0.014578
1060.667764	0.016134
1060.833071	0.015825
1060.998359	0.015854
1061.163629	0.014358
1061.328881	0.014696
1061.494115	0.015508
1061.659330	0.014249
1061.824527	0.012887
1061.989706	0.014724
1062.154867	0.013399
1062.320010	0.013811
1062.485134	0.014370
1062.650240	0.013770
1062.815328	0.011957
1062.980398	0.011173
1063.145449	0.013489
1063.310482	0.015016
1063.475497	0.014323
1063.640494	0.014967
1063.805473	0.014802
1063.970433	0.014130
1064.135375	0.015671
1064.300299	0.016667
1064.465204	0.015273
1064.630092	0.014393
1064.794961	0.012339
1064.959812	0.011598
1065.124645	0.010922
1065.289459	0.012977
1065.454256	0.012799
1065.619034	0.011606
1065.783793	0.011234
1065.948535	0.011639
1066.113258	0.011519
1066.277964	0.012484
1066.442651	0.013414
1066.607319	0.013950
1066.771970	0.013466
1066.936602	0.013968
1067.101216	0.015693
1067.265812	0.016350
1067.430389	0.019139
1067.594949	0.019818
1067.759490	0.020754
1067.924013	0.020760
1068.088518	0.019688
1068.253004	0.017984
1068.417472	0.016584
1068.581922	0.015650
1068.746354	0.016048
1068.910768	0.014864
1069.075163	0.014290
1069.239540	0.013594
1069.403899	0.013319
1069.568240	0.015082
1069.732562	0.014993
1069.896866	0.016447
1070.061152	0.015907
1070.225420	0.014633
1070.389670	0.014537
1070.553901	0.015198
1070.718114	0.014497
1070.882309	0.014980
1071.046486	0.015462
1071.210644	0.015094
1071.374784	0.015052
1071.538906	0.016403
1071.703010	0.018482
1071.867096	0.019466
1072.031163	0.018678
1072.195212	0.020365
1072.359243	0.021091
1072.523256	0.019824
1072.687250	0.020434
1072.851226	0.019875
1073.015184	0.018717
1073.179124	0.018012
1073.343045	0.016725
1073.506949	0.018056
1073.670834	0.017457
1073.834701	0.016851
1073.998549	0.016323
1074.162380	0.014616
1074.326192	0.015857
1074.489986	0.016482
1074.653761	0.016551
1074.817519	0.017327
1074.981258	0.015061
1075.144979	0.016332
1075.308682	0.014884
1075.472367	0.015481
1075.636033	0.017373
1075.799681	0.015918
1075.963311	0.015031
1076.126923	0.015385
1076.290516	0.015567
1076.454092	0.016637
1076.617649	0.015267
1076.781187	0.016942
1076.944708	0.016913
1077.108210	0.015842
1077.271695	0.016547
1077.435160	0.016947
1077.598608	0.014765
1077.762038	0.013403
1077.925449	0.012278
1078.088842	0.012582
1078.252217	0.010749
1078.415573	0.009279
1078.578912	0.011473
1078.742232	0.010584
1078.905534	0.010517
1079.068817	0.012287
1079.232083	0.012948
1079.395330	0.014080
1079.558559	0.014050
1079.721770	0.017033
1079.884962	0.016548
1080.048136	0.013428
1080.211293	0.013438
1080.374430	0.013839
1080.537550	0.014004
1080.700651	0.016636
1080.863735	0.017811
1081.026800	0.017308
1081.189846	0.014739
1081.352875	0.017105
1081.515885	0.018612
1081.678877	0.018785
1081.841851	0.019441
1082.004807	0.016926
1082.167744	0.013676
1082.330663	0.012420
1082.493564	0.012516
1082.656447	0.013804
1082.819312	0.012222
1082.982158	0.011931
1083.144986	0.012258
1083.307796	0.011740
1083.470587	0.014123
1083.633361	0.013789
1083.796116	0.013419
1083.958853	0.014455
1084.121571	0.012784
1084.284272	0.014400
1084.446954	0.014187
1084.609618	0.013467
1084.772264	0.015467
1084.934892	0.015887
1085.097501	0.016612
1085.260092	0.017792
1085.422665	0.016521
1085.585220	0.018324
1085.747756	0.018422
1085.910274	0.016902
1086.072774	0.018513
1086.235256	0.015520
1086.397720	0.012437
1086.560165	0.013742
1086.722592	0.013368
1086.885001	0.014483
1087.047392	0.012718
1087.209764	0.011552
1087.372119	0.014030
1087.534455	0.012671
1087.696772	0.015504
1087.859072	0.018946
1088.021353	0.017443
1088.183616	0.018502
1088.345861	0.017720
1088.508088	0.018802
1088.670296	0.019583
1088.832486	0.017497
1088.994658	0.016803
1089.156812	0.014240
1089.318948	0.014752
1089.481065	0.014271
1089.643164	0.014516
1089.805245	0.015223
1089.967308	0.016225
1090.129352	0.014257
1090.291378	0.016032
1090.453386	0.016062
1090.615376	0.017436
1090.777347	0.015954
1090.939301	0.018224
1091.101236	0.014470
1091.263153	0.014777
1091.425051	0.013416
1091.586932	0.016681
1091.748794	0.015677
1091.910638	0.015608
1092.072463	0.015019
1092.234271	0.016240
1092.396060	0.015431
1092.557831	0.015576
1092.719584	0.016538
1092.881319	0.017358
1093.043035	0.015586
1093.204733	0.016033
1093.366413	0.017021
1093.528075	0.017215
1093.689718	0.016415
1093.851343	0.016040
1094.012950	0.019931
1094.174539	0.017857
1094.336110	0.016841
1094.497662	0.015335
1094.659196	0.015052
1094.820712	0.016875
1094.982210	0.015325
1095.143689	0.012753
1095.305151	0.012855
1095.466594	0.010877
1095.628018	0.011646
1095.789425	0.012070
1095.950813	0.014253
1096.112183	0.017515
1096.273535	0.016628
1096.434869	0.017679
1096.596184	0.017007
1096.757482	0.017040
1096.918761	0.016383
1097.080021	0.016753
1097.241264	0.016734
1097.402488	0.016950
1097.563694	0.013053
1097.724882	0.010495
1097.886052	0.009515
1098.047203	0.011525
1098.208336	0.013509
1098.369451	0.013903
1098.530548	0.011869
1098.691627	0.014198
1098.852687	0.014404
1099.013729	0.017176
1099.174753	0.018586
1099.335758	0.018902
1099.496746	0.022119
1099.657715	0.021625
1099.818666	0.022581
1099.979599	0.022634
1100.140513	0.021852
1100.301409	0.021798
1100.462287	0.017959
1100.623147	0.018990
1100.783989	0.021641
1100.944812	0.021247
1101.105617	0.020001
1101.266404	0.020064
1101.427173	0.020816
1101.587923	0.019308
1101.748656	0.016621
1101.909370	0.020538
1102.070066	0.020051
1102.230743	0.017361
1102.391403	0.015547
1102.552044	0.016642
1102.712667	0.016789
1102.873271	0.017793
1103.033858	0.014981
1103.194426	0.017979
1103.354976	0.015597
1103.515508	0.019063
1103.676021	0.019866
1103.836517	0.019741
1103.996994	0.016174
1104.157453	0.015030
1104.317893	0.016648
1104.478316	0.016366
1104.638720	0.017426
1104.799106	0.016186
1104.959474	0.015272
1105.119823	0.016546
1105.280155	0.012560
1105.440468	0.013797
1105.600763	0.015723
1105.761039	0.014398
1105.921298	0.017659
1106.081538	0.016889
1106.241760	0.017180
1106.401964	0.015055
1106.562149	0.012998
1106.722316	0.014107
1106.882465	0.016527
1107.042596	0.014748
1107.202709	0.011533
1107.362803	0.010246
1107.522879	0.008801
1107.682937	0.008964
1107.842977	0.010907
1108.002999	0.012582
1108.163002	0.013428
1108.322987	0.012172
1108.482954	0.013244
1108.642902	0.016183
1108.802833	0.015929
1108.962745	0.014822
1109.122639	0.014062
1109.282515	0.012961
1109.442372	0.013946
1109.602211	0.016267
1109.762032	0.016523
1109.921835	0.015430
1110.081620	0.013655
1110.241386	0.016010
1110.401134	0.016318
1110.560864	0.015074
1110.720576	0.015660
1110.880269	0.010568
1111.039945	0.005844
1111.199602	0.006504
1111.359240	0.008137
1111.518861	0.007323
1111.678463	0.007148
1111.838047	0.005183
1111.997613	0.007165
1112.157161	0.004885
1112.316690	0.004664
1112.476202	0.004397
1112.635695	0.003213
1112.795169	0.002442
1112.954626	0.003986
1113.114064	0.001458
1113.273484	0.003605
1113.432886	0.004964
1113.592270	0.005554
1113.751635	0.006922
1113.910983	0.012092
1114.070312	0.009653
1114.229622	0.008036
1114.388915	0.005605
1114.548189	0.004626
1114.707445	0.007129
1114.866683	0.005707
1115.025903	0.007568
1115.185104	0.011343
1115.344287	0.009714
1115.503452	0.013709
1115.662599	0.013982
1115.821727	0.014442
1115.980838	0.014869
1116.139930	0.009690
1116.299004	0.008453
1116.458059	0.006569
1116.617097	0.005342
1116.776116	0.006819
1116.935117	0.005552
1117.094099	0.006136
1117.253064	0.009591
1117.412010	0.011421
1117.570938	0.013615
1117.729848	0.014831
1117.888740	0.015413
1118.047613	0.014208
1118.206468	0.011447
1118.365305	0.006634
1118.524124	0.009071
1118.682924	0.006322
1118.841707	0.005947
1119.000471	0.008901
1119.159216	0.008547
1119.317944	0.010342
1119.476653	0.009664
1119.635344	0.010778
1119.794017	0.014076
1119.952672	0.011525
1120.111308	0.008928
1120.269927	0.006025
1120.428527	0.004125
1120.587108	0.004524
1120.745672	0.002115
1120.904217	0.005432
1121.062744	0.008329
1121.221253	0.009716
1121.379744	0.012833
1121.538216	0.016623
1121.696671	0.018310
1121.855107	0.019214
1122.013524	0.020321
1122.171924	0.016319
1122.330305	0.013568
1122.488668	0.010382
1122.647013	0.010853
1122.805340	0.006716
1122.963648	0.006400
1123.121938	0.005755
1123.280210	0.005841
1123.438464	0.004383
1123.596700	0.008588
1123.754917	0.008026
1123.913116	0.007893
1124.071297	0.005028
1124.229459	0.005861
1124.387604	0.006514
1124.545730	0.009696
1124.703838	0.006202
1124.861928	0.010157
1125.019999	0.012682
1125.178052	0.013560
1125.336088	0.013450
1125.494104	0.012926
1125.652103	0.013876
1125.810083	0.011810
1125.968045	0.013811
1126.125989	0.016533
1126.283915	0.013058
1126.441823	0.007566
1126.599712	0.006055
1126.757583	0.009136
1126.915436	0.011858
1127.073270	0.010330
1127.231087	0.012757
1127.388885	0.009424
1127.546665	0.011752
1127.704426	0.012877
1127.862170	0.014957
1128.019895	0.019462
1128.177602	0.016480
1128.335291	0.015678
1128.492961	0.016670
1128.650614	0.012247
1128.808248	0.014165
1128.965864	0.008242
1129.123461	0.007741
1129.281041	0.007180
1129.438602	0.006723
1129.596145	0.009566
1129.753670	0.010743
1129.911176	0.011671
1130.068665	0.013814
1130.226135	0.014366
1130.383587	0.022495
1130.541020	0.020017
1130.698436	0.021728
1130.855833	0.018849
1131.013212	0.018274
1131.170573	0.017666
1131.327915	0.018621
1131.485239	0.021753
1131.642545	0.022326
1131.799833	0.017775
1131.957103	0.022888
1132.114354	0.021328
1132.271588	0.020984
1132.428803	0.019055
1132.585999	0.016849
1132.743178	0.010910
1132.900338	0.012828
1133.057480	0.011560
1133.214604	0.009358
1133.371710	0.005328
1133.528797	0.003388
1133.685866	0.004976
1133.842917	0.004350
1133.999950	0.004397
1134.156964	0.005610
1134.313960	0.002432
1134.470938	0.001040
1134.627898	0.003529
1134.784840	0.008504
1134.941763	0.011667
1135.098668	0.010377
1135.255555	0.014979
1135.412424	0.021693
1135.569274	0.026219
1135.726107	0.026517
1135.882921	0.026509
1136.039716	0.020733
1136.196494	0.017215
1136.353253	0.014270
1136.509995	0.014803
1136.666717	0.011076
1136.823422	0.005796
1136.980109	0.002783
1137.136777	-0.002368
1137.293427	-0.001226
1137.450059	0.002360
1137.606672	0.004766
1137.763267	0.010015
1137.919844	0.010595
1138.076403	0.013357
1138.232944	0.016822
1138.389466	0.019283
1138.545971	0.025654
1138.702457	0.025369
1138.858924	0.025912
1139.015374	0.026052
1139.171805	0.023958
1139.328218	0.022301
1139.484613	0.020236
1139.640990	0.016405
1139.797348	0.009442
1139.953688	0.008730
1140.110010	0.006483
1140.266314	0.004228
1140.422600	0.002002
1140.578867	-0.000191
1140.735116	0.002804
1140.891347	-0.004515
1141.047559	-0.001750
1141.203754	0.005311
1141.359930	0.007407
1141.516088	0.008405
1141.672228	0.007577
1141.828349	0.006002
1141.984452	0.006114
1142.140537	0.006735
1142.296604	0.013983
1142.452653	0.013353
1142.608683	0.008434
1142.764695	0.003495
1142.920689	0.006455
1143.076665	0.010830
1143.232622	0.009910
1143.388562	0.008667
1143.544483	0.002366
1143.700385	-0.000771
1143.856270	0.000829
1144.012136	0.005733
1144.167985	0.004285
1144.323814	0.004091
1144.479626	0.000664
1144.635420	-0.000050
1144.791195	0.003591
1144.946952	0.003689
1145.102691	0.007455
1145.258411	0.004506
1145.414113	0.005719
1145.569798	0.008764
1145.725463	0.008333
1145.881111	0.010571
1146.036741	0.014128
1146.192352	0.007047
1146.347945	0.006414
1146.503519	0.004981
1146.659076	0.003330
1146.814614	-0.003729
1146.970134	-0.005940
1147.125636	-0.004627
1147.281120	-0.003094
1147.436585	-0.007335
1147.592032	-0.005901
1147.747461	-0.000152
1147.902872	-0.002954
1148.058265	-0.003834
1148.213639	-0.000446
1148.368995	-0.002401
1148.524333	-0.006159
1148.679653	-0.010960
1148.834954	-0.007824
1148.990237	-0.006101
1149.145502	-0.007416
1149.300749	-0.007896
1149.455977	-0.005387
1149.611188	0.001118
1149.766380	0.004018
1149.921553	0.000746
1150.076709	0.003174
1150.231846	0.005865
1150.386966	0.009583
1150.542066	0.011985
1150.697149	0.019128
1150.852214	0.022158
1151.007260	0.017888
1151.162288	0.018182
1151.317298	0.017789
1151.472289	0.022404
1151.627263	0.022867
1151.782218	0.022145
1151.937155	0.017691
1152.092073	0.015739
1152.246974	0.016548
1152.401856	0.015426
1152.556720	0.017199
1152.711566	0.025374
1152.866393	0.021617
1153.021203	0.017609
1153.175994	0.021814
1153.330767	0.019292
1153.485521	0.017020
1153.640258	0.012779
1153.794976	0.008715
1153.949676	0.009304
1154.104358	0.008918
1154.259021	0.007467
1154.413667	0.004788
1154.568294	0.002117
1154.722903	0.005923
1154.877493	0.003128
1155.032066	0.003232
1155.186620	0.005194
1155.341156	0.001398
1155.495674	-0.006803
1155.650173	-0.008540
1155.804654	-0.007467
1155.959118	-0.010531
1156.113562	-0.010627
1156.267989	-0.006833
1156.422397	-0.006781
1156.576788	-0.007869
1156.731160	-0.003433
1156.885513	-0.002014
1157.039849	-0.002638
1157.194166	0.000289
1157.348465	-0.000550
1157.502746	0.000119
1157.657009	-0.002900
1157.811253	-0.004992
1157.965479	-0.003882
1158.119687	-0.004315
1158.273877	-0.000184
1158.428048	-0.000913
1158.582201	0.000199
1158.736337	0.007575
1158.890453	0.007635
1159.044552	0.012880
1159.198632	0.011786
1159.352694	0.013750
1159.506738	0.011949
1159.660764	0.010052
1159.814771	0.012632
1159.968761	0.010915
1160.122732	0.002322
1160.276685	0.001411
1160.430619	-0.000132
1160.584535	0.002659
1160.738434	0.002307
1160.892313	0.014564
1161.046175	0.016017
1161.200019	0.020595
1161.353844	0.022544
1161.507651	0.027497
1161.661440	0.030776
1161.815210	0.028860
1161.968962	0.029711
1162.122697	0.030028
1162.276412	0.009071
1162.430110	0.008723
1162.583789	0.006201
1162.737451	0.002579
1162.891094	0.003245
1163.044718	-0.005247
1163.198325	-0.001474
1163.351913	-0.000290
1163.505483	-0.006465
1163.659035	-0.002365
1163.812569	-0.002744
1163.966084	-0.005650
1164.119581	-0.000149
1164.273060	-0.007192
1164.426521	-0.003277
1164.579964	-0.007116
1164.733388	-0.010151
1164.886794	-0.006085
1165.040182	0.000128
1165.193551	-0.002167
1165.346903	-0.003759
1165.500236	-0.008516
1165.653551	-0.006591
1165.806848	-0.006301
1165.960126	-0.005362
1166.113386	-0.003849
1166.266628	-0.000816
1166.419852	-0.008805
1166.573058	-0.010534
1166.726245	-0.010997
1166.879414	-0.008081
1167.032565	-0.007181
1167.185698	-0.010111
1167.338812	-0.005110
1167.491909	-0.005488
1167.644987	-0.000264
1167.798046	0.006912
1167.951088	0.013656
1168.104111	0.020809
1168.257117	0.011758
1168.410103	0.015376
1168.563072	0.023402
1168.716023	0.015333
1168.868955	0.015617
1169.021869	-0.004258
1169.174765	0.000077
1169.327642	-0.001229
1169.480501	-0.011259
1169.633343	-0.007236
1169.786165	-0.008017
1169.938970	-0.009823
1170.091757	-0.007665
1170.244525	-0.000586
1170.397275	0.006818
1170.550007	-0.003725
1170.702720	-0.001058
1170.855415	0.007091
1171.008092	0.009589
1171.160751	0.007472
1171.313392	0.005267
1171.466014	0.007634
1171.618619	0.000050
1171.771205	0.000050
1171.923772	0.000050
