sample name	sample
index	771
start time	 03-31-2021  01:14:44 PM


Wavelength (nm)	Absorbance
494.344910	-0.172928
494.563924	-0.172928
494.782919	-0.172928
495.001897	0.061337
495.220856	-0.092980
495.439797	-0.081228
495.658719	-0.051072
495.877624	-0.017000
496.096510	-0.007408
496.315378	0.005540
496.534227	0.001681
496.753059	-0.007463
496.971872	0.007660
497.190667	0.041519
497.409444	0.039663
497.628203	0.039442
497.846943	0.040078
498.065665	0.040593
498.284369	0.040825
498.503055	0.040601
498.721723	0.040943
498.940372	0.041027
499.159003	0.041483
499.377616	0.042220
499.596210	0.041450
499.814787	0.041348
500.033345	0.041188
500.251885	0.041235
500.470406	0.042385
500.688910	0.042551
500.907395	0.042959
501.125862	0.042150
501.344311	0.041850
501.562742	0.041613
501.781154	0.041838
501.999548	0.041207
502.217924	0.042024
502.436282	0.042302
502.654621	0.043092
502.872942	0.042612
503.091245	0.043307
503.309530	0.044989
503.527797	0.046092
503.746045	0.045564
503.964275	0.045904
504.182487	0.045263
504.400681	0.044494
504.618856	0.044806
504.837013	0.044933
505.055152	0.045053
505.273273	0.044454
505.491376	0.043817
505.709460	0.043922
505.927526	0.043590
506.145574	0.042927
506.363604	0.042479
506.581615	0.042559
506.799608	0.042526
507.017583	0.041711
507.235540	0.041160
507.453478	0.041552
507.671399	0.042227
507.889301	0.043066
508.107185	0.043701
508.325050	0.044534
508.542898	0.043411
508.760727	0.043475
508.978538	0.043979
509.196330	0.043777
509.414105	0.044194
509.631861	0.043993
509.849599	0.043214
510.067319	0.043574
510.285021	0.043708
510.502704	0.044647
510.720369	0.045253
510.938016	0.045316
511.155645	0.045820
511.373255	0.045346
511.590848	0.045049
511.808422	0.045536
512.025977	0.044664
512.243515	0.044175
512.461034	0.044099
512.678536	0.044178
512.896018	0.044238
513.113483	0.044841
513.330930	0.045042
513.548358	0.045475
513.765768	0.045357
513.983160	0.045641
514.200533	0.046132
514.417889	0.045966
514.635226	0.046394
514.852545	0.046183
515.069845	0.045429
515.287128	0.045673
515.504392	0.045409
515.721638	0.045885
515.938866	0.045877
516.156075	0.045871
516.373267	0.045747
516.590440	0.045309
516.807594	0.045608
517.024731	0.046122
517.241850	0.045524
517.458950	0.045698
517.676032	0.045598
517.893095	0.046535
518.110141	0.046719
518.327168	0.047209
518.544177	0.046959
518.761168	0.046958
518.978141	0.046251
519.195095	0.047073
519.412031	0.046868
519.628949	0.047076
519.845849	0.046724
520.062731	0.046348
520.279594	0.046434
520.496439	0.046674
520.713266	0.046180
520.930074	0.046709
521.146865	0.046329
521.363637	0.046843
521.580391	0.047287
521.797127	0.047418
522.013844	0.047889
522.230543	0.047602
522.447224	0.047609
522.663887	0.048228
522.880532	0.048222
523.097158	0.049021
523.313766	0.049212
523.530356	0.048088
523.746928	0.047689
523.963481	0.047687
524.180017	0.047966
524.396534	0.048050
524.613032	0.048067
524.829513	0.048317
525.045975	0.048063
525.262420	0.047778
525.478845	0.048031
525.695253	0.048782
525.911643	0.049424
526.128014	0.049068
526.344367	0.048969
526.560702	0.049303
526.777018	0.049335
526.993316	0.049683
527.209597	0.050035
527.425858	0.050580
527.642102	0.051246
527.858328	0.050868
528.074535	0.051603
528.290724	0.052094
528.506894	0.052175
528.723047	0.052118
528.939181	0.052113
529.155297	0.052350
529.371395	0.052455
529.587475	0.052345
529.803536	0.052544
530.019579	0.052110
530.235604	0.052290
530.451611	0.052604
530.667600	0.052690
530.883570	0.052709
531.099522	0.052069
531.315456	0.052209
531.531372	0.051708
531.747269	0.051724
531.963148	0.052303
532.179009	0.052285
532.394852	0.052238
532.610676	0.052385
532.826482	0.052162
533.042271	0.053043
533.258040	0.053105
533.473792	0.053523
533.689525	0.053857
533.905240	0.054003
534.120937	0.054214
534.336616	0.054700
534.552277	0.054904
534.767919	0.055701
534.983543	0.055768
535.199149	0.056112
535.414736	0.056008
535.630306	0.055684
535.845857	0.055832
536.061390	0.055864
536.276904	0.055370
536.492401	0.055908
536.707879	0.055667
536.923339	0.055657
537.138781	0.055669
537.354204	0.056143
537.569610	0.056381
537.784997	0.056609
538.000366	0.056707
538.215716	0.056749
538.431049	0.056893
538.646363	0.057158
538.861659	0.057569
539.076937	0.058018
539.292196	0.058100
539.507438	0.058078
539.722661	0.058101
539.937866	0.058647
540.153052	0.059025
540.368221	0.058568
540.583371	0.058947
540.798503	0.058784
541.013617	0.058652
541.228712	0.058706
541.443789	0.058884
541.658848	0.059210
541.873889	0.059274
542.088912	0.059519
542.303916	0.059927
542.518902	0.059613
542.733870	0.059117
542.948820	0.059024
543.163752	0.059143
543.378665	0.059549
543.593560	0.059366
543.808437	0.059329
544.023295	0.059210
544.238136	0.059436
544.452958	0.059816
544.667762	0.060485
544.882548	0.060671
545.097315	0.060633
545.312064	0.060920
545.526795	0.060805
545.741508	0.060585
545.956203	0.060950
546.170879	0.061003
546.385537	0.061396
546.600177	0.061675
546.814799	0.061989
547.029402	0.062150
547.243988	0.062045
547.458555	0.062460
547.673103	0.062834
547.887634	0.062741
548.102146	0.062769
548.316640	0.062739
548.531116	0.062806
548.745574	0.063042
548.960013	0.062632
549.174435	0.062732
549.388838	0.062726
549.603222	0.062881
549.817589	0.063362
550.031937	0.063598
550.246267	0.063751
550.460579	0.063815
550.674873	0.063824
550.889148	0.064640
551.103405	0.064461
551.317644	0.064391
551.531865	0.064450
551.746068	0.063962
551.960252	0.063842
552.174418	0.063380
552.388566	0.063480
552.602696	0.063761
552.816807	0.063814
553.030900	0.064362
553.244975	0.064774
553.459032	0.064800
553.673070	0.065189
553.887091	0.065368
554.101093	0.065513
554.315077	0.065671
554.529042	0.065483
554.742990	0.065454
554.956919	0.065523
555.170830	0.065723
555.384722	0.065471
555.598597	0.065484
555.812453	0.065358
556.026291	0.065445
556.240111	0.065623
556.453913	0.065721
556.667696	0.065921
556.881461	0.065678
557.095208	0.065641
557.308937	0.065959
557.522647	0.066070
557.736339	0.066673
557.950013	0.067215
558.163669	0.067229
558.377307	0.067287
558.590926	0.067122
558.804527	0.067560
559.018110	0.067197
559.231675	0.067417
559.445221	0.067744
559.658749	0.067764
559.872259	0.067968
560.085751	0.067900
560.299225	0.068277
560.512680	0.068428
560.726117	0.068148
560.939536	0.068346
561.152937	0.068392
561.366319	0.068186
561.579683	0.068155
561.793029	0.067680
562.006357	0.067640
562.219667	0.067132
562.432958	0.067340
562.646231	0.067549
562.859486	0.068034
563.072723	0.068120
563.285941	0.068127
563.499141	0.068193
563.712323	0.068658
563.925487	0.068812
564.138632	0.069230
564.351760	0.069051
564.564869	0.069019
564.777960	0.068642
564.991032	0.068595
565.204087	0.068792
565.417123	0.068726
565.630141	0.068679
565.843140	0.068865
566.056122	0.069014
566.269085	0.069250
566.482030	0.069469
566.694957	0.069818
566.907866	0.070160
567.120756	0.070193
567.333628	0.070605
567.546482	0.071017
567.759318	0.071005
567.972135	0.070923
568.184935	0.070868
568.397716	0.071070
568.610478	0.071440
568.823223	0.071330
569.035949	0.071805
569.248657	0.071763
569.461347	0.071270
569.674019	0.071193
569.886672	0.071344
570.099308	0.071152
570.311925	0.070721
570.524523	0.070509
570.737104	0.070587
570.949666	0.070463
571.162210	0.070572
571.374736	0.070954
571.587244	0.071515
571.799733	0.071507
572.012205	0.071872
572.224658	0.072655
572.437092	0.072411
572.649509	0.072725
572.861907	0.072512
573.074287	0.072543
573.286649	0.072172
573.498993	0.072200
573.711318	0.072282
573.923625	0.072446
574.135914	0.072078
574.348185	0.072549
574.560438	0.072337
574.772672	0.072510
574.984888	0.072553
575.197086	0.073058
575.409266	0.073161
575.621427	0.073276
575.833570	0.073476
576.045695	0.073849
576.257802	0.074050
576.469890	0.074390
576.681961	0.074750
576.894013	0.074839
577.106046	0.074832
577.318062	0.074702
577.530059	0.074884
577.742039	0.074578
577.954000	0.074442
578.165942	0.074244
578.377867	0.074503
578.589773	0.074794
578.801661	0.074684
579.013531	0.074872
579.225382	0.074914
579.437216	0.075069
579.649031	0.075638
579.860828	0.075575
580.072606	0.076013
580.284367	0.075633
580.496109	0.075166
580.707833	0.075505
580.919539	0.075709
581.131227	0.075836
581.342896	0.075836
581.554547	0.075653
581.766180	0.075826
581.977795	0.075560
582.189391	0.075639
582.400969	0.075720
582.612529	0.075408
582.824071	0.075077
583.035595	0.074999
583.247100	0.074834
583.458587	0.074939
583.670056	0.075170
583.881506	0.075168
584.092939	0.075208
584.304353	0.075334
584.515749	0.075494
584.727127	0.075816
584.938486	0.076097
585.149828	0.076435
585.361151	0.076505
585.572456	0.076383
585.783742	0.076774
585.995011	0.076892
586.206261	0.077073
586.417493	0.077102
586.628706	0.076934
586.839902	0.076821
587.051079	0.076716
587.262238	0.076798
587.473379	0.076792
587.684502	0.076681
587.895606	0.076817
588.106692	0.076818
588.317760	0.077101
588.528810	0.077512
588.739841	0.077856
588.950855	0.077991
589.161850	0.077966
589.372827	0.078035
589.583785	0.078055
589.794726	0.078072
590.005648	0.078210
590.216552	0.078324
590.427437	0.078375
590.638305	0.078024
590.849154	0.077846
591.059985	0.078141
591.270798	0.078379
591.481592	0.078431
591.692369	0.078378
591.903127	0.078278
592.113867	0.077934
592.324588	0.077474
592.535292	0.077830
592.745977	0.078113
592.956644	0.078097
593.167293	0.078304
593.377923	0.078158
593.588536	0.077999
593.799130	0.077972
594.009706	0.078306
594.220263	0.078788
594.430803	0.079034
594.641324	0.078992
594.851827	0.079033
595.062312	0.078952
595.272778	0.079314
595.483227	0.079635
595.693657	0.080012
595.904069	0.080029
596.114462	0.079930
596.324838	0.079499
596.535195	0.079774
596.745534	0.079794
596.955855	0.079749
597.166157	0.079694
597.376441	0.079974
597.586707	0.079651
597.796955	0.079752
598.007185	0.079660
598.217396	0.079671
598.427589	0.079657
598.637764	0.079715
598.847921	0.079787
599.058060	0.080142
599.268180	0.079955
599.478282	0.080428
599.688366	0.080349
599.898431	0.080345
600.108479	0.080833
600.318508	0.080636
600.528519	0.080281
600.738511	0.080157
600.948486	0.079860
601.158442	0.080107
601.368380	0.080066
601.578300	0.079926
601.788202	0.080371
601.998085	0.080103
602.207950	0.080363
602.417797	0.080612
602.627626	0.080954
602.837436	0.080998
603.047228	0.080930
603.257002	0.080777
603.466758	0.081041
603.676496	0.080811
603.886215	0.081014
604.095916	0.080833
604.305599	0.081063
604.515264	0.080967
604.724910	0.080959
604.934538	0.080958
605.144148	0.080809
605.353740	0.080939
605.563314	0.080911
605.772869	0.080599
605.982406	0.080693
606.191925	0.080707
606.401425	0.080713
606.610908	0.080798
606.820372	0.080900
607.029818	0.081185
607.239246	0.081293
607.448655	0.081540
607.658047	0.081733
607.867420	0.081822
608.076775	0.081835
608.286111	0.081935
608.495430	0.082068
608.704730	0.082091
608.914012	0.081992
609.123275	0.082089
609.332521	0.082025
609.541748	0.082115
609.750957	0.082170
609.960148	0.082067
610.169321	0.082014
610.378475	0.081836
610.587611	0.081786
610.796729	0.081995
611.005829	0.081717
611.214910	0.081664
611.423974	0.081759
611.633019	0.081718
611.842045	0.081797
612.051054	0.081869
612.260044	0.082195
612.469017	0.082422
612.677970	0.082229
612.886906	0.082484
613.095824	0.082622
613.304723	0.082642
613.513604	0.082890
613.722467	0.083169
613.931311	0.083250
614.140138	0.083307
614.348946	0.083080
614.557736	0.083316
614.766507	0.082901
614.975261	0.082948
615.183996	0.082866
615.392713	0.082991
615.601412	0.083099
615.810092	0.083284
616.018754	0.083089
616.227399	0.083401
616.436024	0.083327
616.644632	0.083799
616.853222	0.083717
617.061793	0.084048
617.270346	0.083790
617.478880	0.083765
617.687397	0.083754
617.895895	0.083921
618.104375	0.084161
618.312837	0.084322
618.521281	0.084352
618.729706	0.084472
618.938113	0.084277
619.146502	0.084503
619.354873	0.084461
619.563226	0.084534
619.771560	0.084760
619.979876	0.084547
620.188174	0.084675
620.396453	0.084681
620.604715	0.085048
620.812958	0.085294
621.021183	0.085268
621.229390	0.085279
621.437578	0.085557
621.645748	0.085456
621.853900	0.085668
622.062034	0.085648
622.270150	0.085964
622.478247	0.086029
622.686326	0.086111
622.894387	0.086227
623.102430	0.086372
623.310454	0.086202
623.518461	0.086171
623.726449	0.086127
623.934418	0.086493
624.142370	0.086268
624.350303	0.086411
624.558218	0.086490
624.766115	0.086761
624.973994	0.086571
625.181855	0.086643
625.389697	0.086775
625.597521	0.086914
625.805327	0.086810
626.013114	0.086918
626.220883	0.086495
626.428634	0.086549
626.636367	0.086520
626.844082	0.086834
627.051778	0.086816
627.259457	0.086939
627.467117	0.087096
627.674758	0.087051
627.882382	0.087200
628.089987	0.087513
628.297574	0.087625
628.505143	0.087515
628.712694	0.087568
628.920226	0.087658
629.127740	0.087848
629.335236	0.087689
629.542714	0.087739
629.750174	0.087728
629.957615	0.087658
630.165038	0.087671
630.372443	0.087752
630.579829	0.087732
630.787198	0.087675
630.994548	0.087585
631.201880	0.087737
631.409194	0.087670
631.616489	0.087639
631.823766	0.087882
632.031025	0.088002
632.238266	0.088189
632.445489	0.088180
632.652693	0.088415
632.859879	0.088392
633.067047	0.088275
633.274197	0.088665
633.481329	0.088906
633.688442	0.088887
633.895537	0.088922
634.102614	0.088784
634.309672	0.088990
634.516713	0.089140
634.723735	0.089114
634.930739	0.089320
635.137724	0.089265
635.344692	0.089237
635.551641	0.089255
635.758572	0.089146
635.965485	0.089379
636.172379	0.089429
636.379256	0.089440
636.586114	0.089656
636.792954	0.089731
636.999775	0.089721
637.206579	0.089950
637.413364	0.090102
637.620131	0.090160
637.826880	0.090279
638.033610	0.090276
638.240323	0.090293
638.447017	0.090467
638.653692	0.090521
638.860350	0.090769
639.066990	0.090810
639.273611	0.090800
639.480214	0.091043
639.686798	0.090921
639.893365	0.091109
640.099913	0.091160
640.306443	0.091008
640.512955	0.091128
640.719449	0.091238
640.925924	0.091235
641.132381	0.091284
641.338820	0.091265
641.545241	0.091342
641.751644	0.091227
641.958028	0.091326
642.164394	0.091337
642.370742	0.091510
642.577071	0.091403
642.783383	0.091657
642.989676	0.091939
643.195951	0.092056
643.402207	0.092244
643.608446	0.092606
643.814666	0.092687
644.020868	0.092885
644.227052	0.092888
644.433218	0.093095
644.639365	0.092881
644.845494	0.092837
645.051605	0.093044
645.257698	0.093240
645.463772	0.093218
645.669828	0.093411
645.875866	0.093396
646.081886	0.093461
646.287888	0.093595
646.493871	0.093544
646.699836	0.093692
646.905783	0.093590
647.111712	0.093764
647.317622	0.093882
647.523514	0.093908
647.729388	0.094111
647.935244	0.094116
648.141082	0.094238
648.346901	0.094690
648.552702	0.094757
648.758485	0.094682
648.964250	0.094556
649.169996	0.094503
649.375724	0.094558
649.581434	0.094611
649.787126	0.094676
649.992800	0.094612
650.198455	0.094570
650.404092	0.094570
650.609711	0.094840
650.815311	0.094793
651.020894	0.094922
651.226458	0.095082
651.432004	0.095267
651.637532	0.095535
651.843041	0.095608
652.048532	0.095646
652.254006	0.095805
652.459460	0.095938
652.664897	0.096167
652.870315	0.096226
653.075716	0.096049
653.281097	0.096225
653.486461	0.096147
653.691807	0.096248
653.897134	0.096354
654.102443	0.096311
654.307734	0.096327
654.513006	0.096360
654.718261	0.096567
654.923497	0.096817
655.128715	0.096731
655.333915	0.096954
655.539096	0.097023
655.744259	0.097241
655.949404	0.097269
656.154531	0.097603
656.359640	0.097795
656.564730	0.098102
656.769802	0.098208
656.974856	0.098405
657.179892	0.098434
657.384909	0.098705
657.589908	0.098819
657.794889	0.098971
657.999852	0.098948
658.204797	0.098752
658.409723	0.098450
658.614631	0.098577
658.819521	0.098521
659.024393	0.098365
659.229246	0.098314
659.434081	0.098263
659.638898	0.098257
659.843697	0.098434
660.048478	0.098874
660.253240	0.099161
660.457984	0.099297
660.662710	0.099609
660.867417	0.100074
661.072107	0.100179
661.276778	0.100355
661.481431	0.100724
661.686066	0.100668
661.890682	0.100707
662.095281	0.100801
662.299861	0.100745
662.504422	0.100627
662.708966	0.100561
662.913491	0.100708
663.117999	0.100771
663.322488	0.100640
663.526958	0.100791
663.731411	0.100838
663.935845	0.100784
664.140261	0.101035
664.344659	0.101363
664.549038	0.101562
664.753400	0.101589
664.957743	0.101604
665.162068	0.102054
665.366375	0.102054
665.570663	0.101989
665.774933	0.102281
665.979185	0.102274
666.183419	0.102272
666.387635	0.102232
666.591832	0.102133
666.796011	0.102137
667.000172	0.102030
667.204315	0.101974
667.408439	0.102302
667.612545	0.102276
667.816634	0.102587
668.020703	0.102651
668.224755	0.102750
668.428788	0.102956
668.632803	0.103183
668.836800	0.103305
669.040779	0.103657
669.244739	0.103542
669.448681	0.103590
669.652605	0.103625
669.856511	0.103848
670.060399	0.103923
670.264268	0.103941
670.468119	0.104130
670.671952	0.104088
670.875767	0.104092
671.079563	0.104293
671.283341	0.104255
671.487101	0.104314
671.690843	0.104309
671.894567	0.104368
672.098272	0.104823
672.301959	0.104835
672.505628	0.104982
672.709278	0.105123
672.912911	0.105262
673.116525	0.105411
673.320121	0.105297
673.523699	0.105388
673.727258	0.105327
673.930799	0.105247
674.134322	0.105129
674.337827	0.105248
674.541314	0.105357
674.744782	0.105534
674.948232	0.105581
675.151664	0.105694
675.355078	0.105634
675.558474	0.105918
675.761851	0.105759
675.965210	0.105944
676.168551	0.105971
676.371873	0.106010
676.575178	0.106119
676.778464	0.106204
676.981732	0.106372
677.184981	0.106452
677.388213	0.106493
677.591426	0.106705
677.794621	0.107104
677.997798	0.107080
678.200956	0.107081
678.404097	0.106949
678.607219	0.107020
678.810323	0.107145
679.013408	0.107329
679.216476	0.107475
679.419525	0.107358
679.622556	0.107035
679.825569	0.107278
680.028563	0.107336
680.231540	0.107389
680.434498	0.107425
680.637438	0.107340
680.840359	0.107161
681.043263	0.107132
681.246148	0.107217
681.449015	0.107507
681.651864	0.107485
681.854694	0.107588
682.057506	0.107711
682.260301	0.108022
682.463076	0.108217
682.665834	0.108627
682.868573	0.108798
683.071295	0.109089
683.273998	0.108971
683.476682	0.109385
683.679349	0.109389
683.881997	0.109437
684.084627	0.109534
684.287239	0.109559
684.489833	0.109724
684.692408	0.109873
684.894965	0.110002
685.097504	0.110497
685.300025	0.110419
685.502527	0.110682
685.705012	0.110984
685.907478	0.111029
686.109925	0.111126
686.312355	0.111192
686.514766	0.111118
686.717159	0.111206
686.919534	0.111009
687.121891	0.111080
687.324230	0.111100
687.526550	0.110971
687.728852	0.110859
687.931136	0.110770
688.133401	0.110795
688.335649	0.111033
688.537878	0.110962
688.740089	0.111148
688.942281	0.111130
689.144456	0.111129
689.346612	0.111291
689.548750	0.111613
689.750870	0.111947
689.952971	0.111938
690.155055	0.111956
690.357120	0.112324
690.559167	0.112438
690.761195	0.112439
690.963206	0.112598
691.165198	0.112619
691.367172	0.112586
691.569128	0.112614
691.771065	0.113002
691.972984	0.113224
692.174885	0.113253
692.376768	0.113253
692.578633	0.113315
692.780479	0.113266
692.982308	0.113418
693.184118	0.113373
693.385909	0.113332
693.587683	0.113214
693.789438	0.113227
693.991175	0.113041
694.192894	0.112995
694.394595	0.113077
694.596277	0.113426
694.797941	0.113557
694.999587	0.113808
695.201215	0.114078
695.402824	0.114243
695.604416	0.114251
695.805989	0.114471
696.007543	0.114710
696.209080	0.114789
696.410598	0.114770
696.612099	0.114867
696.813580	0.114990
697.015044	0.114917
697.216490	0.114939
697.417917	0.115100
697.619326	0.115222
697.820717	0.115251
698.022089	0.115355
698.223444	0.115403
698.424780	0.115400
698.626098	0.115504
698.827397	0.115790
699.028679	0.115859
699.229942	0.115684
699.431187	0.115805
699.632414	0.115913
699.833622	0.115943
700.034813	0.115963
700.235985	0.115994
700.437139	0.115877
700.638274	0.115863
700.839392	0.115922
701.040491	0.116092
701.241572	0.116369
701.442635	0.116365
701.643679	0.116471
701.844706	0.116682
702.045714	0.116843
702.246704	0.117071
702.447675	0.117071
702.648629	0.116966
702.849564	0.117058
703.050481	0.116887
703.251380	0.117014
703.452260	0.116991
703.653122	0.116965
703.853966	0.116857
704.054792	0.116680
704.255600	0.116715
704.456389	0.116766
704.657160	0.116708
704.857913	0.116672
705.058648	0.116474
705.259365	0.116623
705.460063	0.116530
705.660743	0.116740
705.861405	0.116695
706.062048	0.116517
706.262674	0.116586
706.463281	0.116698
706.663870	0.116651
706.864441	0.116639
707.064993	0.116682
707.265527	0.116715
707.466043	0.116714
707.666541	0.116907
707.867021	0.117000
708.067482	0.116958
708.267925	0.117000
708.468350	0.116921
708.668757	0.117167
708.869145	0.117265
709.069516	0.117281
709.269868	0.117154
709.470201	0.117013
709.670517	0.116984
709.870814	0.116987
710.071093	0.116932
710.271354	0.116973
710.471597	0.116876
710.671821	0.116717
710.872028	0.116724
711.072216	0.116747
711.272385	0.116927
711.472537	0.117066
711.672670	0.117141
711.872785	0.117127
712.072882	0.117155
712.272961	0.117031
712.473021	0.117056
712.673063	0.117068
712.873087	0.117101
713.073093	0.117141
713.273081	0.117155
713.473050	0.117031
713.673001	0.116932
713.872934	0.116911
714.072849	0.117059
714.272745	0.117027
714.472623	0.116985
714.672483	0.116972
714.872325	0.116948
715.072148	0.116838
715.271954	0.116894
715.471741	0.116911
715.671509	0.116591
715.871260	0.116438
716.070992	0.116374
716.270707	0.116258
716.470403	0.116049
716.670080	0.115776
716.869740	0.115684
717.069381	0.115610
717.269004	0.115486
717.468609	0.115840
717.668195	0.115914
717.867764	0.115961
718.067314	0.116086
718.266846	0.116042
718.466360	0.116174
718.665855	0.116347
718.865332	0.116311
719.064791	0.116368
719.264232	0.116314
719.463655	0.116358
719.663059	0.116141
719.862445	0.115973
720.061813	0.116145
720.261163	0.116131
720.460494	0.115850
720.659807	0.116009
720.859102	0.115870
721.058379	0.115699
721.257638	0.115328
721.456878	0.115543
721.656100	0.115446
721.855304	0.115188
722.054490	0.115102
722.253657	0.115277
722.452806	0.115038
722.651937	0.115156
722.851050	0.115027
723.050145	0.115365
723.249221	0.115222
723.448279	0.115248
723.647319	0.115323
723.846340	0.115188
724.045344	0.114957
724.244329	0.114859
724.443296	0.114697
724.642245	0.114874
724.841175	0.114676
725.040088	0.114460
725.238982	0.114368
725.437857	0.114097
725.636715	0.114081
725.835554	0.114077
726.034376	0.113741
726.233179	0.113693
726.431963	0.113544
726.630730	0.113443
726.829478	0.113497
727.028208	0.113639
727.226920	0.113753
727.425614	0.113696
727.624289	0.113600
727.822946	0.113713
728.021585	0.113648
728.220206	0.113432
728.418808	0.113343
728.617392	0.113239
728.815958	0.113082
729.014506	0.112910
729.213036	0.112775
729.411547	0.112819
729.610040	0.112960
729.808515	0.113018
730.006972	0.113049
730.205410	0.112997
730.403831	0.113112
730.602233	0.112872
730.800616	0.112751
730.998982	0.112776
731.197329	0.112497
731.395658	0.112264
731.593969	0.112066
731.792262	0.111905
731.990536	0.112043
732.188793	0.111872
732.387031	0.111726
732.585250	0.111774
732.783452	0.111603
732.981635	0.111667
733.179800	0.111549
733.377947	0.111292
733.576076	0.111263
733.774186	0.110601
733.972278	0.110523
734.170352	0.110592
734.368408	0.110506
734.566446	0.110503
734.764465	0.110420
734.962466	0.110474
735.160449	0.110592
735.358413	0.110517
735.556360	0.110623
735.754288	0.110578
735.952198	0.110511
736.150090	0.110271
736.347963	0.110100
736.545818	0.109760
736.743655	0.109655
736.941474	0.109468
737.139275	0.109614
737.337057	0.109573
737.534821	0.109249
737.732567	0.109225
737.930295	0.109346
738.128005	0.109227
738.325696	0.109457
738.523369	0.109167
738.721024	0.108943
738.918660	0.108474
739.116279	0.108430
739.313879	0.108526
739.511461	0.108145
739.709024	0.107912
739.906570	0.107802
740.104097	0.107630
740.301606	0.107789
740.499097	0.108161
740.696569	0.108286
740.894024	0.108335
741.091460	0.108106
741.288878	0.108336
741.486277	0.108387
741.683659	0.108357
741.881022	0.108060
742.078367	0.108077
742.275694	0.107780
742.473002	0.107581
742.670293	0.107780
742.867565	0.107573
743.064819	0.107321
743.262054	0.107145
743.459272	0.107153
743.656471	0.107394
743.853652	0.107042
744.050815	0.107034
744.247959	0.107059
744.445085	0.106448
744.642194	0.106356
744.839283	0.106253
745.036355	0.106314
745.233408	0.106066
745.430444	0.105775
745.627461	0.105480
745.824459	0.105056
746.021440	0.104810
746.218402	0.104638
746.415346	0.104585
746.612272	0.104489
746.809180	0.104207
747.006069	0.104286
747.202940	0.104122
747.399793	0.104298
747.596628	0.104391
747.793444	0.104418
747.990243	0.104467
748.187023	0.104469
748.383784	0.104302
748.580528	0.104332
748.777253	0.104056
748.973960	0.103980
749.170649	0.104103
749.367320	0.103879
749.563973	0.103636
749.760607	0.103531
749.957223	0.103470
750.153821	0.103184
750.350400	0.102844
750.546962	0.102825
750.743505	0.102567
750.940030	0.102092
751.136536	0.102020
751.333025	0.101994
751.529495	0.101849
751.725947	0.101719
751.922381	0.101939
752.118796	0.101885
752.315194	0.101687
752.511573	0.101658
752.707934	0.101630
752.904276	0.101499
753.100601	0.101431
753.296907	0.101442
753.493195	0.101306
753.689465	0.101235
753.885716	0.101346
754.081949	0.101207
754.278164	0.101431
754.474361	0.101334
754.670540	0.101163
754.866700	0.101185
755.062843	0.101151
755.258967	0.101217
755.455072	0.101307
755.651160	0.101339
755.847229	0.101407
756.043280	0.101066
756.239313	0.100962
756.435328	0.101135
756.631324	0.101007
756.827302	0.100749
757.023262	0.100627
757.219204	0.100420
757.415127	0.099970
757.611033	0.099945
757.806920	0.099971
758.002788	0.099838
758.198639	0.099732
758.394471	0.099745
758.590286	0.099738
758.786081	0.099518
758.981859	0.099190
759.177619	0.099462
759.373360	0.099240
759.569083	0.099035
759.764788	0.099006
759.960474	0.098903
760.156143	0.098602
760.351793	0.098334
760.547425	0.098146
760.743038	0.098349
760.938634	0.098087
761.134211	0.097928
761.329770	0.097978
761.525311	0.097961
761.720833	0.097748
761.916338	0.097756
762.111824	0.098032
762.307292	0.098006
762.502741	0.097897
762.698173	0.097658
762.893586	0.097604
763.088981	0.097503
763.284358	0.097568
763.479716	0.097633
763.675057	0.097595
763.870379	0.097383
764.065683	0.097423
764.260968	0.097115
764.456236	0.097414
764.651485	0.097313
764.846716	0.097061
765.041929	0.096805
765.237123	0.096631
765.432299	0.096433
765.627457	0.096291
765.822597	0.096325
766.017719	0.096315
766.212822	0.095976
766.407907	0.096075
766.602974	0.096204
766.798023	0.096113
766.993054	0.096125
767.188066	0.095947
767.383060	0.095942
767.578036	0.095964
767.772993	0.096042
767.967933	0.095964
768.162854	0.095853
768.357757	0.095693
768.552642	0.095571
768.747508	0.095415
768.942356	0.095302
769.137186	0.095331
769.331998	0.094948
769.526792	0.094675
769.721567	0.094782
769.916324	0.094697
770.111063	0.094812
770.305784	0.094818
770.500486	0.094912
770.695171	0.094993
770.889837	0.094860
771.084484	0.094843
771.279114	0.094981
771.473725	0.094792
771.668318	0.094629
771.862893	0.094320
772.057450	0.094159
772.251988	0.094008
772.446509	0.094050
772.641011	0.093950
772.835494	0.093849
773.029960	0.093662
773.224407	0.093492
773.418836	0.093646
773.613247	0.093850
773.807640	0.094043
774.002014	0.093977
774.196370	0.094035
774.390708	0.094089
774.585028	0.094288
774.779330	0.094381
774.973613	0.094554
775.167878	0.094638
775.362125	0.094559
775.556354	0.094523
775.750564	0.094637
775.944756	0.094625
776.138930	0.094483
776.333086	0.094441
776.527223	0.094286
776.721343	0.094307
776.915444	0.094075
777.109526	0.094067
777.303591	0.094019
777.497637	0.094066
777.691666	0.094007
777.885676	0.094215
778.079667	0.094200
778.273641	0.094398
778.467596	0.094238
778.661533	0.094289
778.855452	0.094229
779.049352	0.094198
779.243235	0.094159
779.437099	0.094336
779.630945	0.094451
779.824773	0.094640
780.018582	0.094464
780.212373	0.094509
780.406146	0.094739
780.599901	0.094867
780.793638	0.095008
780.987356	0.095008
781.181056	0.094820
781.374738	0.094837
781.568402	0.094627
781.762047	0.094869
781.955674	0.094942
782.149283	0.094939
782.342874	0.094902
782.536447	0.095070
782.730001	0.095248
782.923537	0.095365
783.117055	0.095268
783.310555	0.095369
783.504036	0.095104
783.697499	0.095151
783.890944	0.095149
784.084371	0.095079
784.277780	0.094879
784.471170	0.094590
784.664542	0.094557
784.857896	0.094397
785.051231	0.094258
785.244549	0.094370
785.437848	0.094094
785.631129	0.094082
785.824392	0.094177
786.017636	0.094270
786.210863	0.094284
786.404071	0.094190
786.597260	0.094118
786.790432	0.094375
786.983585	0.094334
787.176721	0.094626
787.369838	0.094609
787.562936	0.094586
787.756017	0.094504
787.949079	0.094684
788.142123	0.094648
788.335149	0.094738
788.528156	0.094616
788.721146	0.094773
788.914117	0.094744
789.107070	0.094961
789.300005	0.095169
789.492921	0.095230
789.685819	0.095385
789.878699	0.095477
790.071561	0.095427
790.264405	0.095643
790.457230	0.095634
790.650037	0.095927
790.842826	0.095797
791.035597	0.095859
791.228349	0.095956
791.421084	0.095844
791.613800	0.095856
791.806497	0.096120
791.999177	0.095828
792.191838	0.095781
792.384481	0.095467
792.577106	0.095383
792.769713	0.095340
792.962301	0.095487
793.154871	0.095638
793.347423	0.095877
793.539957	0.096063
793.732473	0.096272
793.924970	0.096551
794.117449	0.096779
794.309910	0.096779
794.502353	0.096889
794.694777	0.096849
794.887183	0.096670
795.079571	0.096647
795.271941	0.096746
795.464293	0.097046
795.656626	0.097021
795.848941	0.097243
796.041238	0.097572
796.233516	0.097700
796.425777	0.097820
796.618019	0.098015
796.810243	0.098153
797.002449	0.098277
797.194636	0.098260
797.386805	0.098480
797.578956	0.098524
797.771089	0.098617
797.963204	0.098665
798.155300	0.098641
798.347378	0.098836
798.539438	0.098955
798.731480	0.098894
798.923503	0.099019
799.115509	0.099036
799.307496	0.099023
799.499465	0.099222
799.691415	0.099558
799.883348	0.099514
800.075262	0.099655
800.267158	0.099644
800.459035	0.099664
800.650895	0.099687
800.842736	0.099757
801.034559	0.099865
801.226364	0.099824
801.418150	0.099533
801.609919	0.099914
801.801669	0.100060
801.993401	0.100071
802.185114	0.100264
802.376810	0.100300
802.568487	0.100477
802.760146	0.100710
802.951787	0.100711
803.143409	0.100917
803.335014	0.101245
803.526600	0.101333
803.718168	0.101504
803.909717	0.101569
804.101249	0.101805
804.292762	0.101918
804.484257	0.101933
804.675734	0.102093
804.867192	0.102260
805.058632	0.102003
805.250054	0.102159
805.441458	0.102386
805.632844	0.102542
805.824211	0.102825
806.015561	0.103012
806.206891	0.103202
806.398204	0.103302
806.589499	0.103533
806.780775	0.103942
806.972033	0.103906
807.163273	0.104024
807.354495	0.104252
807.545698	0.104233
807.736883	0.104183
807.928050	0.104419
808.119199	0.104652
808.310329	0.104622
808.501441	0.104637
808.692535	0.104749
808.883611	0.104796
809.074669	0.104928
809.265708	0.104848
809.456729	0.105184
809.647732	0.105151
809.838717	0.105444
810.029683	0.105547
810.220632	0.105592
810.411562	0.105867
810.602474	0.106279
810.793367	0.106543
810.984242	0.106916
811.175100	0.107181
811.365938	0.107429
811.556759	0.107368
811.747562	0.107875
811.938346	0.108274
812.129112	0.108537
812.319860	0.108747
812.510589	0.108668
812.701300	0.109113
812.891994	0.109142
813.082668	0.109334
813.273325	0.109528
813.463964	0.109336
813.654584	0.109411
813.845186	0.109397
814.035769	0.109502
814.226335	0.109587
814.416882	0.109473
814.607411	0.109752
814.797922	0.109810
814.988415	0.110100
815.178889	0.110189
815.369345	0.110105
815.559783	0.110290
815.750203	0.110212
815.940605	0.110443
816.130988	0.110889
816.321353	0.110923
816.511700	0.111023
816.702028	0.111313
816.892339	0.111768
817.082631	0.112130
817.272905	0.112601
817.463161	0.112765
817.653398	0.113167
817.843617	0.113336
818.033819	0.113306
818.224001	0.113640
818.414166	0.113461
818.604312	0.113411
818.794440	0.113348
818.984550	0.113056
819.174642	0.113050
819.364716	0.112952
819.554771	0.112648
819.744808	0.113083
819.934827	0.113132
820.124827	0.113467
820.314810	0.113697
820.504774	0.114019
820.694720	0.114378
820.884647	0.114535
821.074557	0.114717
821.264448	0.114905
821.454321	0.115032
821.644176	0.115030
821.834012	0.115236
822.023831	0.115527
822.213631	0.115631
822.403413	0.115720
822.593176	0.115923
822.782922	0.116225
822.972649	0.116561
823.162358	0.116814
823.352049	0.117144
823.541721	0.117234
823.731376	0.117306
823.921012	0.117503
824.110629	0.117527
824.300229	0.118101
824.489811	0.118369
824.679374	0.118392
824.868919	0.118494
825.058445	0.118707
825.247954	0.118817
825.437444	0.118959
825.626916	0.119185
825.816370	0.119615
826.005806	0.119433
826.195223	0.119571
826.384622	0.119720
826.574003	0.119603
826.763366	0.119771
826.952711	0.119936
827.142037	0.120307
827.331345	0.120533
827.520635	0.120655
827.709906	0.121180
827.899160	0.121249
828.088395	0.121565
828.277612	0.122072
828.466810	0.122428
828.655991	0.122775
828.845153	0.122828
829.034297	0.123142
829.223423	0.123550
829.412531	0.123748
829.601620	0.123976
829.790691	0.124315
829.979744	0.124613
830.168779	0.124686
830.357795	0.124919
830.546793	0.125097
830.735773	0.125087
830.924735	0.125003
831.113679	0.125175
831.302604	0.125542
831.491511	0.125907
831.680400	0.125986
831.869271	0.126158
832.058123	0.126134
832.246957	0.126503
832.435773	0.126860
832.624571	0.127273
832.813351	0.127278
833.002112	0.127060
833.190855	0.126963
833.379580	0.127101
833.568287	0.127447
833.756975	0.127978
833.945645	0.128192
834.134297	0.128451
834.322931	0.128433
834.511547	0.128791
834.700144	0.129198
834.888723	0.129463
835.077284	0.129891
835.265826	0.129999
835.454351	0.130126
835.642857	0.130548
835.831345	0.130817
836.019815	0.131378
836.208266	0.131548
836.396699	0.131995
836.585114	0.132150
836.773511	0.132288
836.961890	0.132576
837.150250	0.132570
837.338592	0.132384
837.526916	0.132301
837.715222	0.132358
837.903510	0.132511
838.091779	0.132526
838.280030	0.132784
838.468263	0.132657
838.656477	0.132782
838.844674	0.133199
839.032852	0.133332
839.221012	0.133794
839.409153	0.134107
839.597277	0.134753
839.785382	0.134965
839.973469	0.135427
840.161538	0.135936
840.349589	0.136410
840.537621	0.136801
840.725635	0.137124
840.913631	0.137218
841.101609	0.137348
841.289568	0.137197
841.477509	0.137803
841.665432	0.138102
841.853337	0.138275
842.041224	0.138591
842.229092	0.138716
842.416942	0.139004
842.604774	0.139432
842.792588	0.139973
842.980383	0.140324
843.168160	0.140278
843.355919	0.140335
843.543660	0.140651
843.731382	0.140776
843.919087	0.141184
844.106773	0.141377
844.294441	0.141725
844.482090	0.142040
844.669722	0.142448
844.857335	0.143012
845.044930	0.143423
845.232507	0.143737
845.420065	0.143763
845.607605	0.143772
845.795127	0.144138
845.982631	0.144343
846.170117	0.144352
846.357584	0.144505
846.545033	0.144655
846.732464	0.144779
846.919877	0.145025
847.107272	0.145735
847.294648	0.145904
847.482006	0.146389
847.669346	0.146562
847.856667	0.146766
848.043971	0.147023
848.231256	0.147203
848.418523	0.147176
848.605771	0.147652
848.793002	0.147840
848.980214	0.148158
849.167408	0.148483
849.354584	0.148840
849.541742	0.148799
849.728881	0.148865
849.916002	0.149152
850.103105	0.149656
850.290190	0.149669
850.477256	0.149608
850.664304	0.149999
850.851334	0.149953
851.038346	0.150084
851.225340	0.150594
851.412315	0.151190
851.599272	0.151549
851.786211	0.151891
851.973132	0.152073
852.160034	0.152516
852.346918	0.152456
852.533784	0.152864
852.720632	0.152934
852.907462	0.153157
853.094273	0.153346
853.281066	0.153239
853.467841	0.153513
853.654598	0.153822
853.841336	0.153840
854.028056	0.154431
854.214758	0.154566
854.401442	0.154874
854.588107	0.155036
854.774755	0.155333
854.961384	0.155616
855.147995	0.155702
855.334587	0.156027
855.521162	0.156255
855.707718	0.156403
855.894256	0.156600
856.080775	0.157068
856.267277	0.157347
856.453760	0.157506
856.640225	0.157807
856.826672	0.158226
857.013101	0.158512
857.199511	0.159017
857.385903	0.159353
857.572277	0.159604
857.758633	0.159918
857.944970	0.160445
858.131290	0.160751
858.317591	0.161081
858.503873	0.161323
858.690138	0.161381
858.876384	0.161407
859.062612	0.161447
859.248822	0.161739
859.435014	0.161802
859.621188	0.161827
859.807343	0.161718
859.993480	0.161877
860.179599	0.161727
860.365699	0.161908
860.551781	0.162133
860.737846	0.162150
860.923891	0.162057
861.109919	0.162089
861.295929	0.162134
861.481920	0.162511
861.667893	0.162533
861.853848	0.162979
862.039784	0.163307
862.225702	0.163584
862.411603	0.163945
862.597484	0.164208
862.783348	0.164094
862.969193	0.164174
863.155021	0.164252
863.340830	0.164555
863.526620	0.164432
863.712393	0.164504
863.898147	0.164604
864.083883	0.164977
864.269601	0.165345
864.455301	0.165922
864.640982	0.166237
864.826645	0.166534
865.012290	0.166591
865.197917	0.167100
865.383526	0.167245
865.569116	0.167284
865.754688	0.167311
865.940242	0.167406
866.125777	0.167629
866.311295	0.168037
866.496794	0.167975
866.682275	0.168399
866.867737	0.168648
867.053182	0.169004
867.238608	0.169197
867.424016	0.169604
867.609406	0.169910
867.794778	0.170137
867.980131	0.170470
868.165466	0.170835
868.350783	0.170821
868.536082	0.170610
868.721362	0.170369
868.906625	0.170647
869.091869	0.170731
869.277094	0.170751
869.462302	0.170615
869.647491	0.170466
869.832662	0.170771
870.017815	0.170868
870.202950	0.171414
870.388066	0.171529
870.573165	0.172018
870.758245	0.172189
870.943306	0.172698
871.128350	0.173453
871.313375	0.173781
871.498382	0.173567
871.683371	0.174182
871.868342	0.174432
872.053294	0.174942
872.238229	0.174688
872.423144	0.174870
872.608042	0.174699
872.792922	0.174736
872.977783	0.175011
873.162626	0.175604
873.347451	0.175795
873.532258	0.175775
873.717046	0.176049
873.901816	0.176385
874.086568	0.176351
874.271302	0.176819
874.456017	0.176706
874.640715	0.176864
874.825394	0.176844
875.010055	0.176684
875.194697	0.176878
875.379322	0.176905
875.563928	0.177141
875.748516	0.177235
875.933085	0.177204
876.117637	0.177222
876.302170	0.177202
876.486685	0.177399
876.671182	0.177684
876.855661	0.177617
877.040121	0.177876
877.224563	0.177664
877.408987	0.177810
877.593393	0.177558
877.777780	0.177672
877.962150	0.178016
878.146501	0.178607
878.330833	0.178751
878.515148	0.179298
878.699444	0.179357
878.883722	0.179956
879.067982	0.180145
879.252224	0.180700
879.436447	0.181327
879.620653	0.181239
879.804840	0.180893
879.989008	0.180828
880.173159	0.180518
880.357291	0.180593
880.541405	0.180135
880.725501	0.180249
880.909579	0.180115
881.093638	0.179649
881.277680	0.179482
881.461703	0.179426
881.645707	0.179382
881.829694	0.179327
882.013662	0.179247
882.197612	0.179675
882.381544	0.179581
882.565458	0.179550
882.749353	0.180029
882.933230	0.180367
883.117089	0.180710
883.300930	0.181035
883.484753	0.181607
883.668557	0.182087
883.852343	0.182207
884.036111	0.182670
884.219861	0.183098
884.403592	0.182834
884.587305	0.182986
884.771000	0.182745
884.954677	0.182537
885.138335	0.182234
885.321976	0.182101
885.505598	0.182164
885.689201	0.181904
885.872787	0.181959
886.056354	0.182268
886.239904	0.182114
886.423434	0.182818
886.606947	0.183305
886.790442	0.183586
886.973918	0.183665
887.157376	0.183794
887.340816	0.184518
887.524237	0.184517
887.707641	0.184471
887.891026	0.184745
888.074393	0.184156
888.257741	0.183849
888.441072	0.183706
888.624384	0.183334
888.807678	0.183142
888.990954	0.182600
889.174211	0.182142
889.357451	0.182238
889.540672	0.182158
889.723875	0.182175
889.907059	0.182125
890.090226	0.181979
890.273374	0.182237
890.456504	0.182253
890.639616	0.182374
890.822709	0.183005
891.005785	0.182747
891.188842	0.182788
891.371881	0.182782
891.554901	0.183121
891.737904	0.182912
891.920888	0.183126
892.103854	0.183433
892.286802	0.183478
892.469731	0.182883
892.652643	0.183378
892.835536	0.183146
893.018410	0.183243
893.201267	0.183165
893.384106	0.183448
893.566926	0.183252
893.749728	0.183234
893.932511	0.183422
894.115277	0.183763
894.298024	0.183595
894.480753	0.183643
894.663464	0.183497
894.846157	0.183117
895.028831	0.183158
895.211487	0.182935
895.394125	0.182609
895.576745	0.182143
895.759346	0.182308
895.941930	0.181755
896.124495	0.182231
896.307041	0.182376
896.489570	0.183100
896.672080	0.182890
896.854573	0.183317
897.037046	0.183335
897.219502	0.183297
897.401940	0.183111
897.584359	0.183311
897.766760	0.182340
897.949143	0.182429
898.131507	0.181538
898.313854	0.181667
898.496182	0.181300
898.678492	0.181341
898.860783	0.181295
899.043057	0.181147
899.225312	0.181068
899.407549	0.181333
899.589768	0.181037
899.771968	0.181167
899.954151	0.181243
900.136315	0.181401
900.318461	0.181224
900.500588	0.181040
900.682698	0.180738
900.864789	0.180723
901.046862	0.180544
901.228917	0.180410
901.410953	0.180225
901.592971	0.179924
901.774972	0.179451
901.956953	0.179071
902.138917	0.178985
902.320862	0.179243
902.502790	0.179159
902.684699	0.179006
902.866589	0.179108
903.048462	0.178760
903.230316	0.178830
903.412152	0.179332
903.593970	0.179243
903.775770	0.179122
903.957551	0.179019
904.139314	0.178795
904.321059	0.178463
904.502786	0.178030
904.684494	0.178162
904.866185	0.177527
905.047857	0.176932
905.229510	0.176952
905.411146	0.176928
905.592763	0.176676
905.774363	0.176630
905.955943	0.177153
906.137506	0.176969
906.319051	0.176623
906.500577	0.176113
906.682085	0.175845
906.863575	0.175448
907.045046	0.175205
907.226500	0.175017
907.407935	0.174833
907.589352	0.173842
907.770750	0.173748
907.952131	0.173826
908.133493	0.174166
908.314837	0.173750
908.496163	0.173867
908.677470	0.173348
908.858760	0.173040
909.040031	0.172611
909.221284	0.172880
909.402518	0.172394
909.583735	0.172129
909.764933	0.172260
909.946113	0.172348
910.127275	0.171642
910.308418	0.171426
910.489544	0.170931
910.670651	0.170698
910.851740	0.170375
911.032810	0.170301
911.213863	0.170021
911.394897	0.169350
911.575913	0.168629
911.756911	0.168499
911.937890	0.168507
912.118851	0.168602
912.299794	0.167955
912.480719	0.167765
912.661626	0.167937
912.842514	0.167806
913.023384	0.167843
913.204236	0.167956
913.385070	0.167608
913.565886	0.167451
913.746683	0.167274
913.927462	0.167775
914.108223	0.167212
914.288965	0.166511
914.469690	0.165900
914.650396	0.165524
914.831084	0.165586
915.011754	0.165478
915.192405	0.164605
915.373038	0.164296
915.553653	0.163869
915.734250	0.163367
915.914829	0.162767
916.095389	0.162883
916.275931	0.162280
916.456455	0.161632
916.636961	0.160958
916.817448	0.161340
916.997917	0.160325
917.178368	0.159989
917.358801	0.160342
917.539216	0.160386
917.719612	0.159593
917.899990	0.159986
918.080350	0.159706
918.260692	0.159989
918.441015	0.159362
918.621320	0.159667
918.801607	0.158924
918.981876	0.158218
919.162127	0.157664
919.342359	0.157484
919.522573	0.157218
919.702769	0.156471
919.882947	0.156029
920.063106	0.155688
920.243247	0.155041
920.423370	0.155556
920.603475	0.155873
920.783562	0.155321
920.963630	0.154953
921.143680	0.154133
921.323712	0.154153
921.503725	0.153740
921.683721	0.153118
921.863698	0.152419
922.043657	0.151729
922.223598	0.150966
922.403520	0.151109
922.583424	0.150687
922.763311	0.149905
922.943178	0.149427
923.123028	0.149023
923.302859	0.148792
923.482673	0.148616
923.662467	0.147835
923.842244	0.147627
924.022003	0.147263
924.201743	0.146773
924.381465	0.146196
924.561169	0.145870
924.740854	0.145912
924.920522	0.146065
925.100171	0.145569
925.279802	0.145341
925.459414	0.144896
925.639009	0.144418
925.818585	0.143948
925.998143	0.143826
926.177683	0.143788
926.357205	0.142756
926.536708	0.141967
926.716193	0.142234
926.895660	0.141755
927.075109	0.140729
927.254539	0.139855
927.433951	0.139847
927.613345	0.140090
927.792721	0.138896
927.972079	0.138449
928.151418	0.137475
928.330739	0.136638
928.510042	0.136662
928.689327	0.136981
928.868593	0.136547
929.047841	0.135568
929.227071	0.134769
929.406283	0.135238
929.585476	0.135135
929.764652	0.134833
929.943809	0.134414
930.122948	0.133860
930.302068	0.132951
930.481171	0.133176
930.660255	0.133148
930.839321	0.132734
931.018369	0.131406
931.197398	0.130685
931.376409	0.130634
931.555402	0.129756
931.734377	0.128817
931.913334	0.127958
932.092272	0.126819
932.271192	0.126624
932.450094	0.125337
932.628978	0.124825
932.807844	0.124319
932.986691	0.123815
933.165520	0.123628
933.344331	0.122763
933.523123	0.122297
933.701898	0.121776
933.880654	0.121043
934.059392	0.120765
934.238111	0.120463
934.416813	0.120214
934.595496	0.119660
934.774161	0.119599
934.952808	0.118963
935.131437	0.119192
935.310047	0.119059
935.488639	0.118081
935.667213	0.117718
935.845769	0.117339
936.024306	0.116282
936.202825	0.115732
936.381326	0.114536
936.559809	0.114543
936.738274	0.113543
936.916720	0.113669
937.095148	0.113319
937.273558	0.112436
937.451950	0.112280
937.630323	0.112132
937.808678	0.111739
937.987015	0.111556
938.165334	0.110765
938.343635	0.110397
938.521917	0.109028
938.700181	0.108822
938.878427	0.108678
939.056655	0.107603
939.234864	0.106791
939.413055	0.106471
939.591228	0.105687
939.769383	0.105508
939.947519	0.104374
940.125638	0.103224
940.303738	0.102752
940.481820	0.102496
940.659883	0.102193
940.837929	0.103230
941.015956	0.101816
941.193965	0.101499
941.371955	0.100943
941.549928	0.100084
941.727882	0.099908
941.905818	0.098583
942.083736	0.097627
942.261636	0.096602
942.439517	0.094612
942.617380	0.093620
942.795225	0.093009
942.973052	0.091970
943.150860	0.091394
943.328651	0.091774
943.506423	0.091835
943.684176	0.091605
943.861912	0.091819
944.039629	0.090594
944.217328	0.090639
944.395009	0.089039
944.572672	0.088810
944.750317	0.089504
944.927943	0.087713
945.105551	0.087199
945.283141	0.086197
945.460712	0.085439
945.638265	0.084554
945.815801	0.084396
945.993317	0.085267
946.170816	0.083525
946.348297	0.083122
946.525759	0.083807
946.703203	0.083070
946.880629	0.082727
947.058036	0.081406
947.235425	0.082001
947.412797	0.080351
947.590149	0.080544
947.767484	0.081293
947.944800	0.079645
948.122099	0.078022
948.299379	0.077936
948.476640	0.077299
948.653884	0.076859
948.831109	0.075240
949.008316	0.074572
949.185505	0.071149
949.362676	0.070972
949.539828	0.070820
949.716962	0.070354
949.894078	0.069051
950.071176	0.068967
950.248256	0.068094
950.425317	0.067024
950.602360	0.068642
950.779385	0.069800
950.956391	0.069600
951.133380	0.068389
951.310350	0.067283
951.487302	0.065956
951.664235	0.063940
951.841151	0.062726
952.018048	0.063332
952.194927	0.061706
952.371788	0.061708
952.548631	0.059779
952.725455	0.058917
952.902261	0.056544
953.079049	0.056207
953.255819	0.057088
953.432570	0.058053
953.609303	0.057761
953.786018	0.057806
953.962715	0.057569
954.139394	0.056386
954.316054	0.057295
954.492696	0.060307
954.669320	0.061264
954.845926	0.061457
955.022513	0.060674
955.199083	0.060574
955.375634	0.057995
955.552166	0.055652
955.728681	0.054082
955.905177	0.052149
956.081655	0.050354
956.258115	0.048295
956.434557	0.046877
956.610980	0.045430
956.787385	0.044361
956.963772	0.044391
957.140141	0.044783
957.316492	0.045403
957.492824	0.044900
957.669138	0.045912
957.845434	0.047249
958.021712	0.047193
958.197971	0.047179
958.374212	0.047255
958.550435	0.047900
958.726640	0.046968
958.902826	0.049117
959.078995	0.050888
959.255145	0.049650
959.431277	0.047534
959.607390	0.047460
959.783486	0.048772
959.959563	0.048612
960.135622	0.047520
960.311662	0.048488
960.487685	0.044552
960.663689	0.043659
960.839675	0.042882
961.015643	0.044242
961.191593	0.041221
961.367524	0.039776
961.543437	0.039503
961.719332	0.040229
961.895209	0.039584
962.071067	0.043907
962.246907	0.043591
962.422730	0.042987
962.598533	0.042954
962.774319	0.044915
962.950086	0.044412
963.125835	0.042871
963.301566	0.042533
963.477279	0.040374
963.652973	0.038427
963.828650	0.038738
964.004308	0.038916
964.179947	0.039249
964.355569	0.038203
964.531172	0.039474
964.706757	0.039874
964.882324	0.040377
965.057873	0.040776
965.233403	0.039292
965.408916	0.037488
965.584410	0.037337
965.759885	0.036941
965.935343	0.038359
966.110782	0.037425
966.286203	0.037875
966.461606	0.038182
966.636991	0.039191
966.812357	0.039680
966.987705	0.040233
967.163035	0.040466
967.338347	0.038855
967.513641	0.037041
967.688916	0.037569
967.864173	0.037044
968.039412	0.037337
968.214632	0.037052
968.389835	0.037223
968.565019	0.037140
968.740185	0.037902
968.915333	0.039476
969.090462	0.041289
969.265573	0.041257
969.440667	0.041300
969.615741	0.040502
969.790798	0.041479
969.965836	0.041159
970.140856	0.040134
970.315858	0.040726
970.490842	0.040440
970.665808	0.040833
970.840755	0.041686
971.015684	0.042063
971.190595	0.040591
971.365487	0.039196
971.540362	0.040979
971.715218	0.042990
971.890056	0.041621
972.064875	0.041504
972.239677	0.039293
972.414460	0.037603
972.589225	0.037456
972.763972	0.039068
972.938700	0.040165
973.113411	0.038032
973.288103	0.037223
973.462777	0.037208
973.637432	0.035582
973.812070	0.036853
973.986689	0.036453
974.161290	0.036564
974.335873	0.036372
974.510437	0.035570
974.684984	0.037731
974.859512	0.036637
975.034022	0.036547
975.208513	0.040257
975.382987	0.039620
975.557442	0.040479
975.731879	0.040524
975.906298	0.040006
976.080698	0.039580
976.255080	0.038021
976.429445	0.037846
976.603790	0.038462
976.778118	0.035722
976.952427	0.035158
977.126719	0.034239
977.300992	0.034565
977.475246	0.034982
977.649483	0.035377
977.823701	0.035350
977.997901	0.036076
978.172083	0.034782
978.346247	0.032933
978.520392	0.034781
978.694519	0.034638
978.868628	0.034023
979.042719	0.033749
979.216791	0.035163
979.390845	0.035198
979.564882	0.035365
979.738899	0.037050
979.912899	0.039110
980.086880	0.038279
980.260843	0.037746
980.434788	0.035366
980.608715	0.035905
980.782623	0.035336
980.956514	0.035385
981.130386	0.034754
981.304240	0.034827
981.478075	0.034100
981.651892	0.032977
981.825692	0.034946
981.999472	0.037519
982.173235	0.036717
982.346980	0.034741
982.520706	0.035420
982.694414	0.037424
982.868104	0.036187
983.041775	0.035105
983.215428	0.036662
983.389064	0.035149
983.562680	0.034933
983.736279	0.036316
983.909860	0.037710
984.083422	0.035944
984.256966	0.034771
984.430491	0.034596
984.603999	0.034541
984.777488	0.033456
984.950959	0.034599
985.124412	0.034511
985.297847	0.032716
985.471263	0.032221
985.644661	0.032306
985.818041	0.033202
985.991403	0.033017
986.164747	0.034644
986.338072	0.035307
986.511379	0.034870
986.684668	0.035291
986.857938	0.037223
987.031191	0.037938
987.204425	0.037965
987.377641	0.034768
987.550839	0.035832
987.724018	0.033725
987.897179	0.033601
988.070322	0.032139
988.243447	0.033418
988.416554	0.031914
988.589642	0.031253
988.762712	0.032260
988.935764	0.032822
989.108798	0.032411
989.281813	0.033012
989.454811	0.033260
989.627790	0.034670
989.800751	0.033145
989.973693	0.031656
990.146617	0.031593
990.319524	0.032468
990.492412	0.034478
990.665281	0.033685
990.838133	0.035919
991.010966	0.035991
991.183781	0.036705
991.356578	0.037534
991.529356	0.037620
991.702117	0.037512
991.874859	0.037579
992.047583	0.036980
992.220288	0.037544
992.392976	0.035948
992.565645	0.034757
992.738296	0.033489
992.910929	0.033477
993.083543	0.034772
993.256139	0.034448
993.428718	0.033513
993.601277	0.035044
993.773819	0.034955
993.946342	0.037600
994.118848	0.039268
994.291335	0.040075
994.463803	0.039521
994.636254	0.038049
994.808686	0.038708
994.981100	0.039730
995.153496	0.039059
995.325874	0.039769
995.498233	0.038479
995.670574	0.036591
995.842897	0.037365
996.015202	0.036977
996.187488	0.039049
996.359757	0.039520
996.532007	0.038230
996.704239	0.038776
996.876452	0.038262
997.048648	0.037163
997.220825	0.037891
997.392984	0.036438
997.565124	0.037316
997.737247	0.036425
997.909351	0.034535
998.081437	0.035138
998.253505	0.033854
998.425554	0.033917
998.597586	0.035535
998.769599	0.035248
998.941594	0.036111
999.113571	0.034506
999.285529	0.035111
999.457469	0.036818
999.629391	0.035421
999.801295	0.035826
999.973181	0.035740
1000.145048	0.034400
1000.316897	0.034024
1000.488728	0.034274
1000.660541	0.034619
1000.832335	0.035323
1001.004111	0.033881
1001.175869	0.034411
1001.347609	0.033528
1001.519331	0.033558
1001.691034	0.034395
1001.862719	0.034759
1002.034386	0.035260
1002.206035	0.035243
1002.377665	0.033306
1002.549277	0.033908
1002.720871	0.034581
1002.892447	0.033763
1003.064004	0.032034
1003.235544	0.031877
1003.407065	0.032960
1003.578568	0.031798
1003.750052	0.031403
1003.921519	0.032548
1004.092967	0.032659
1004.264397	0.032536
1004.435809	0.033167
1004.607202	0.034517
1004.778577	0.034488
1004.949934	0.034257
1005.121273	0.034672
1005.292594	0.037439
1005.463896	0.036958
1005.635180	0.036828
1005.806446	0.036485
1005.977694	0.036444
1006.148923	0.036149
1006.320135	0.033370
1006.491328	0.032599
1006.662503	0.032738
1006.833659	0.030140
1007.004798	0.029657
1007.175918	0.030973
1007.347020	0.030231
1007.518103	0.030924
1007.689169	0.032696
1007.860216	0.036290
1008.031245	0.034488
1008.202256	0.034619
1008.373248	0.034609
1008.544223	0.034578
1008.715179	0.033728
1008.886117	0.034162
1009.057036	0.033505
1009.227938	0.032255
1009.398821	0.030577
1009.569686	0.031434
1009.740533	0.029743
1009.911361	0.029680
1010.082172	0.028752
1010.252964	0.027527
1010.423738	0.027538
1010.594493	0.028117
1010.765231	0.027089
1010.935950	0.026666
1011.106651	0.027949
1011.277334	0.026371
1011.447998	0.026924
1011.618645	0.026840
1011.789273	0.027570
1011.959882	0.027540
1012.130474	0.027562
1012.301048	0.029681
1012.471603	0.029329
1012.642140	0.028396
1012.812658	0.031330
1012.983159	0.030369
1013.153641	0.032640
1013.324105	0.032034
1013.494551	0.032174
1013.664979	0.031958
1013.835388	0.031276
1014.005779	0.032066
1014.176152	0.032178
1014.346507	0.031742
1014.516843	0.032445
1014.687162	0.030766
1014.857462	0.030464
1015.027744	0.030832
1015.198007	0.031292
1015.368252	0.028966
1015.538480	0.028710
1015.708689	0.027461
1015.878879	0.025710
1016.049052	0.025044
1016.219206	0.024697
1016.389342	0.024928
1016.559460	0.022895
1016.729559	0.021520
1016.899641	0.024308
1017.069704	0.024585
1017.239749	0.025019
1017.409775	0.027076
1017.579784	0.026054
1017.749774	0.027115
1017.919746	0.027095
1018.089700	0.028577
1018.259635	0.029268
1018.429553	0.027706
1018.599452	0.026026
1018.769333	0.027078
1018.939195	0.025781
1019.109040	0.027201
1019.278866	0.028145
1019.448674	0.029110
1019.618464	0.028998
1019.788235	0.028959
1019.957989	0.028950
1020.127724	0.030133
1020.297441	0.029365
1020.467139	0.029759
1020.636820	0.030015
1020.806482	0.029005
1020.976126	0.028096
1021.145752	0.027652
1021.315359	0.027513
1021.484948	0.027420
1021.654519	0.026754
1021.824072	0.028971
1021.993607	0.031150
1022.163123	0.032731
1022.332621	0.032021
1022.502101	0.033098
1022.671563	0.034130
1022.841007	0.034816
1023.010432	0.036704
1023.179839	0.036953
1023.349228	0.035970
1023.518598	0.033631
1023.687951	0.032059
1023.857285	0.032915
1024.026601	0.032383
1024.195899	0.030941
1024.365178	0.030971
1024.534439	0.029709
1024.703682	0.030418
1024.872907	0.030185
1025.042114	0.030402
1025.211302	0.030119
1025.380472	0.029028
1025.549624	0.028950
1025.718758	0.029477
1025.887873	0.029384
1026.056970	0.028624
1026.226049	0.029188
1026.395110	0.029197
1026.564153	0.027561
1026.733177	0.026173
1026.902183	0.025685
1027.071171	0.026088
1027.240141	0.025924
1027.409092	0.024121
1027.578026	0.024397
1027.746940	0.023841
1027.915837	0.022783
1028.084716	0.024384
1028.253576	0.025379
1028.422418	0.026297
1028.591242	0.026378
1028.760048	0.027445
1028.928835	0.028250
1029.097604	0.028580
1029.266355	0.027933
1029.435088	0.027444
1029.603803	0.026389
1029.772499	0.026509
1029.941177	0.026667
1030.109837	0.025711
1030.278478	0.023942
1030.447102	0.025833
1030.615707	0.025199
1030.784294	0.025861
1030.952863	0.027493
1031.121413	0.027720
1031.289945	0.026904
1031.458460	0.026697
1031.626955	0.025915
1031.795433	0.026685
1031.963892	0.025117
1032.132334	0.024892
1032.300756	0.025180
1032.469161	0.025247
1032.637548	0.024942
1032.805916	0.027026
1032.974266	0.028478
1033.142598	0.030472
1033.310911	0.029103
1033.479207	0.029852
1033.647484	0.029909
1033.815743	0.029966
1033.983983	0.029520
1034.152206	0.030587
1034.320410	0.029252
1034.488596	0.027666
1034.656764	0.025739
1034.824914	0.026770
1034.993045	0.025270
1035.161158	0.026080
1035.329253	0.025797
1035.497330	0.025379
1035.665388	0.026378
1035.833428	0.025716
1036.001450	0.025300
1036.169454	0.026430
1036.337440	0.026554
1036.505407	0.027040
1036.673356	0.026018
1036.841287	0.024713
1037.009200	0.024662
1037.177094	0.023688
1037.344970	0.024429
1037.512828	0.024071
1037.680668	0.023661
1037.848489	0.024231
1038.016293	0.025401
1038.184078	0.025877
1038.351845	0.026232
1038.519593	0.025932
1038.687324	0.026296
1038.855036	0.025986
1039.022730	0.026333
1039.190406	0.026058
1039.358063	0.026627
1039.525702	0.025502
1039.693323	0.025737
1039.860926	0.028242
1040.028511	0.028015
1040.196077	0.027635
1040.363625	0.026733
1040.531155	0.027277
1040.698667	0.025788
1040.866161	0.024474
1041.033636	0.023546
1041.201093	0.023029
1041.368532	0.021576
1041.535952	0.022031
1041.703355	0.021087
1041.870739	0.023019
1042.038105	0.024063
1042.205452	0.025705
1042.372782	0.026714
1042.540093	0.028166
1042.707386	0.028470
1042.874661	0.028375
1043.041918	0.029251
1043.209156	0.029540
1043.376376	0.029318
1043.543578	0.027294
1043.710762	0.027148
1043.877927	0.026360
1044.045074	0.024769
1044.212203	0.025317
1044.379314	0.025470
1044.546407	0.023902
1044.713481	0.024859
1044.880537	0.024636
1045.047575	0.026847
1045.214595	0.029194
1045.381596	0.028536
1045.548579	0.029954
1045.715544	0.029092
1045.882491	0.027016
1046.049420	0.028108
1046.216330	0.026757
1046.383222	0.027563
1046.550096	0.026804
1046.716951	0.024192
1046.883789	0.024761
1047.050608	0.024875
1047.217409	0.024847
1047.384192	0.025415
1047.550956	0.024297
1047.717703	0.025719
1047.884431	0.022324
1048.051140	0.023234
1048.217832	0.023293
1048.384505	0.023674
1048.551161	0.023732
1048.717798	0.024165
1048.884416	0.024472
1049.051017	0.024715
1049.217599	0.022962
1049.384163	0.025754
1049.550709	0.024392
1049.717237	0.024873
1049.883746	0.025467
1050.050237	0.024753
1050.216710	0.024200
1050.383165	0.024396
1050.549601	0.026529
1050.716019	0.028953
1050.882420	0.029452
1051.048801	0.028274
1051.215165	0.029381
1051.381510	0.028948
1051.547837	0.028722
1051.714146	0.029730
1051.880437	0.030061
1052.046709	0.027769
1052.212964	0.027556
1052.379200	0.025904
1052.545417	0.025313
1052.711617	0.025855
1052.877798	0.025271
1053.043961	0.026234
1053.210106	0.025696
1053.376233	0.026377
1053.542341	0.027790
1053.708432	0.026356
1053.874504	0.026819
1054.040557	0.027963
1054.206593	0.027540
1054.372610	0.027958
1054.538609	0.029956
1054.704590	0.030062
1054.870553	0.029348
1055.036497	0.027633
1055.202424	0.027690
1055.368331	0.027333
1055.534221	0.027639
1055.700093	0.026020
1055.865946	0.025859
1056.031781	0.024237
1056.197598	0.023435
1056.363397	0.023930
1056.529177	0.024052
1056.694939	0.023485
1056.860683	0.023535
1057.026409	0.024013
1057.192116	0.025540
1057.357806	0.027397
1057.523477	0.027452
1057.689130	0.029463
1057.854764	0.029550
1058.020381	0.030269
1058.185979	0.031435
1058.351559	0.031948
1058.517120	0.030857
1058.682664	0.031314
1058.848189	0.030100
1059.013696	0.028994
1059.179185	0.027353
1059.344656	0.027498
1059.510108	0.027852
1059.675542	0.027217
1059.840958	0.027171
1060.006356	0.027916
1060.171735	0.027030
1060.337096	0.027033
1060.502439	0.029463
1060.667764	0.029943
1060.833071	0.027376
1060.998359	0.027778
1061.163629	0.028026
1061.328881	0.028851
1061.494115	0.027644
1061.659330	0.027171
1061.824527	0.025785
1061.989706	0.022710
1062.154867	0.022423
1062.320010	0.024906
1062.485134	0.025665
1062.650240	0.026536
1062.815328	0.024149
1062.980398	0.026178
1063.145449	0.026880
1063.310482	0.028009
1063.475497	0.028783
1063.640494	0.031124
1063.805473	0.030582
1063.970433	0.029806
1064.135375	0.027490
1064.300299	0.030127
1064.465204	0.029556
1064.630092	0.028677
1064.794961	0.027623
1064.959812	0.029478
1065.124645	0.026797
1065.289459	0.026836
1065.454256	0.025458
1065.619034	0.026333
1065.783793	0.024687
1065.948535	0.026167
1066.113258	0.026202
1066.277964	0.026159
1066.442651	0.025305
1066.607319	0.024878
1066.771970	0.025322
1066.936602	0.026699
1067.101216	0.027206
1067.265812	0.027892
1067.430389	0.028075
1067.594949	0.028720
1067.759490	0.029439
1067.924013	0.027069
1068.088518	0.027707
1068.253004	0.027934
1068.417472	0.027584
1068.581922	0.028401
1068.746354	0.029795
1068.910768	0.029043
1069.075163	0.028985
1069.239540	0.028778
1069.403899	0.031187
1069.568240	0.031419
1069.732562	0.032006
1069.896866	0.031915
1070.061152	0.031682
1070.225420	0.030116
1070.389670	0.030154
1070.553901	0.030978
1070.718114	0.031570
1070.882309	0.031314
1071.046486	0.030484
1071.210644	0.027393
1071.374784	0.027533
1071.538906	0.028261
1071.703010	0.029934
1071.867096	0.029711
1072.031163	0.029108
1072.195212	0.031003
1072.359243	0.031021
1072.523256	0.032265
1072.687250	0.034164
1072.851226	0.036262
1073.015184	0.035275
1073.179124	0.034698
1073.343045	0.035362
1073.506949	0.036234
1073.670834	0.034587
1073.834701	0.034839
1073.998549	0.034440
1074.162380	0.033445
1074.326192	0.033095
1074.489986	0.031744
1074.653761	0.031114
1074.817519	0.028616
1074.981258	0.027101
1075.144979	0.025965
1075.308682	0.026757
1075.472367	0.028338
1075.636033	0.030697
1075.799681	0.028393
1075.963311	0.027203
1076.126923	0.026702
1076.290516	0.028995
1076.454092	0.030248
1076.617649	0.031245
1076.781187	0.031832
1076.944708	0.029963
1077.108210	0.027754
1077.271695	0.028508
1077.435160	0.031713
1077.598608	0.032968
1077.762038	0.033088
1077.925449	0.032172
1078.088842	0.031482
1078.252217	0.029672
1078.415573	0.031272
1078.578912	0.031945
1078.742232	0.031001
1078.905534	0.029238
1079.068817	0.029161
1079.232083	0.030544
1079.395330	0.033116
1079.558559	0.032184
1079.721770	0.033090
1079.884962	0.033497
1080.048136	0.034232
1080.211293	0.034378
1080.374430	0.035501
1080.537550	0.035849
1080.700651	0.035707
1080.863735	0.035150
1081.026800	0.037992
1081.189846	0.038232
1081.352875	0.037691
1081.515885	0.037729
1081.678877	0.039053
1081.841851	0.039256
1082.004807	0.036553
1082.167744	0.033386
1082.330663	0.033498
1082.493564	0.032354
1082.656447	0.030421
1082.819312	0.030657
1082.982158	0.032353
1083.144986	0.032662
1083.307796	0.032207
1083.470587	0.034467
1083.633361	0.035617
1083.796116	0.034613
1083.958853	0.035182
1084.121571	0.037250
1084.284272	0.037267
1084.446954	0.035332
1084.609618	0.034889
1084.772264	0.037006
1084.934892	0.038132
1085.097501	0.038516
1085.260092	0.035997
1085.422665	0.035779
1085.585220	0.035553
1085.747756	0.033878
1085.910274	0.033941
1086.072774	0.034123
1086.235256	0.032717
1086.397720	0.032063
1086.560165	0.031398
1086.722592	0.031675
1086.885001	0.032006
1087.047392	0.032026
1087.209764	0.031972
1087.372119	0.032799
1087.534455	0.033583
1087.696772	0.031088
1087.859072	0.032836
1088.021353	0.032656
1088.183616	0.035190
1088.345861	0.036321
1088.508088	0.038113
1088.670296	0.040259
1088.832486	0.039400
1088.994658	0.039006
1089.156812	0.042411
1089.318948	0.040585
1089.481065	0.041079
1089.643164	0.040380
1089.805245	0.038188
1089.967308	0.037864
1090.129352	0.038301
1090.291378	0.037511
1090.453386	0.038634
1090.615376	0.036611
1090.777347	0.036952
1090.939301	0.036579
1091.101236	0.035742
1091.263153	0.036599
1091.425051	0.032904
1091.586932	0.032724
1091.748794	0.034038
1091.910638	0.035976
1092.072463	0.037232
1092.234271	0.036561
1092.396060	0.036970
1092.557831	0.036221
1092.719584	0.035345
1092.881319	0.036062
1093.043035	0.033652
1093.204733	0.033658
1093.366413	0.030371
1093.528075	0.029308
1093.689718	0.028054
1093.851343	0.027583
1094.012950	0.031750
1094.174539	0.033057
1094.336110	0.034781
1094.497662	0.035250
1094.659196	0.034953
1094.820712	0.034204
1094.982210	0.033816
1095.143689	0.036266
1095.305151	0.037777
1095.466594	0.036742
1095.628018	0.035102
1095.789425	0.034839
1095.950813	0.036339
1096.112183	0.036837
1096.273535	0.039063
1096.434869	0.041732
1096.596184	0.039071
1096.757482	0.038804
1096.918761	0.037238
1097.080021	0.039391
1097.241264	0.038950
1097.402488	0.039866
1097.563694	0.039202
1097.724882	0.038775
1097.886052	0.037355
1098.047203	0.037132
1098.208336	0.036074
1098.369451	0.035637
1098.530548	0.034184
1098.691627	0.034933
1098.852687	0.033489
1099.013729	0.034027
1099.174753	0.033045
1099.335758	0.033716
1099.496746	0.034984
1099.657715	0.035728
1099.818666	0.036086
1099.979599	0.040506
1100.140513	0.041022
1100.301409	0.040930
1100.462287	0.041384
1100.623147	0.039217
1100.783989	0.040395
1100.944812	0.041637
1101.105617	0.041454
1101.266404	0.041232
1101.427173	0.038704
1101.587923	0.036802
1101.748656	0.036720
1101.909370	0.036487
1102.070066	0.039133
1102.230743	0.036724
1102.391403	0.034243
1102.552044	0.033237
1102.712667	0.034662
1102.873271	0.033722
1103.033858	0.031688
1103.194426	0.030310
1103.354976	0.031517
1103.515508	0.032664
1103.676021	0.031817
1103.836517	0.035526
1103.996994	0.039178
1104.157453	0.038870
1104.317893	0.037914
1104.478316	0.041426
1104.638720	0.039890
1104.799106	0.035777
1104.959474	0.036016
1105.119823	0.038918
1105.280155	0.036654
1105.440468	0.034030
1105.600763	0.032861
1105.761039	0.032239
1105.921298	0.034850
1106.081538	0.038372
1106.241760	0.039719
1106.401964	0.037719
1106.562149	0.041265
1106.722316	0.040849
1106.882465	0.039943
1107.042596	0.043519
1107.202709	0.043939
1107.362803	0.042775
1107.522879	0.042019
1107.682937	0.041317
1107.842977	0.040440
1108.002999	0.037421
1108.163002	0.035682
1108.322987	0.038882
1108.482954	0.035647
1108.642902	0.037219
1108.802833	0.035593
1108.962745	0.035523
1109.122639	0.036614
1109.282515	0.038299
1109.442372	0.037092
1109.602211	0.041048
1109.762032	0.040785
1109.921835	0.041416
1110.081620	0.043672
1110.241386	0.044308
1110.401134	0.047368
1110.560864	0.050417
1110.720576	0.053447
1110.880269	0.052662
1111.039945	0.051921
1111.199602	0.051397
1111.359240	0.050747
1111.518861	0.047640
1111.678463	0.046689
1111.838047	0.046138
1111.997613	0.044812
1112.157161	0.043049
1112.316690	0.043629
1112.476202	0.045749
1112.635695	0.045491
1112.795169	0.045009
1112.954626	0.045292
1113.114064	0.046490
1113.273484	0.043394
1113.432886	0.040422
1113.592270	0.040880
1113.751635	0.042047
1113.910983	0.039625
1114.070312	0.039871
1114.229622	0.042102
1114.388915	0.042227
1114.548189	0.039831
1114.707445	0.040745
1114.866683	0.043965
1115.025903	0.042985
1115.185104	0.039803
1115.344287	0.043661
1115.503452	0.044146
1115.662599	0.042852
1115.821727	0.045459
1115.980838	0.046899
1116.139930	0.046957
1116.299004	0.045593
1116.458059	0.046242
1116.617097	0.049114
1116.776116	0.042186
1116.935117	0.041929
1117.094099	0.038534
1117.253064	0.036734
1117.412010	0.035742
1117.570938	0.038851
1117.729848	0.040236
1117.888740	0.037124
1118.047613	0.035563
1118.206468	0.039053
1118.365305	0.040650
1118.524124	0.043206
1118.682924	0.041758
1118.841707	0.042287
1119.000471	0.041513
1119.159216	0.041280
1119.317944	0.042357
1119.476653	0.046418
1119.635344	0.043078
1119.794017	0.041748
1119.952672	0.045910
1120.111308	0.043925
1120.269927	0.044838
1120.428527	0.041683
1120.587108	0.041443
1120.745672	0.044559
1120.904217	0.042092
1121.062744	0.044881
1121.221253	0.047361
1121.379744	0.041007
1121.538216	0.047978
1121.696671	0.047248
1121.855107	0.048603
1122.013524	0.049161
1122.171924	0.050661
1122.330305	0.053827
1122.488668	0.052528
1122.647013	0.052361
1122.805340	0.056969
1122.963648	0.052563
1123.121938	0.051913
1123.280210	0.055952
1123.438464	0.054576
1123.596700	0.051429
1123.754917	0.048640
1123.913116	0.051994
1124.071297	0.048696
1124.229459	0.047306
1124.387604	0.051034
1124.545730	0.048626
1124.703838	0.048150
1124.861928	0.049649
1125.019999	0.047402
1125.178052	0.048441
1125.336088	0.048440
1125.494104	0.046614
1125.652103	0.043463
1125.810083	0.039197
1125.968045	0.041591
1126.125989	0.039031
1126.283915	0.035584
1126.441823	0.035806
1126.599712	0.038101
1126.757583	0.036983
1126.915436	0.035510
1127.073270	0.039539
1127.231087	0.044994
1127.388885	0.042239
1127.546665	0.042580
1127.704426	0.044947
1127.862170	0.044160
1128.019895	0.045423
1128.177602	0.042797
1128.335291	0.043490
1128.492961	0.040100
1128.650614	0.034724
1128.808248	0.037535
1128.965864	0.036076
1129.123461	0.037424
1129.281041	0.035349
1129.438602	0.030705
1129.596145	0.028794
1129.753670	0.030447
1129.911176	0.033141
1130.068665	0.037533
1130.226135	0.036162
1130.383587	0.033609
1130.541020	0.032024
1130.698436	0.035828
1130.855833	0.035421
1131.013212	0.038220
1131.170573	0.035250
1131.327915	0.034562
1131.485239	0.028758
1131.642545	0.033171
1131.799833	0.034822
1131.957103	0.038649
1132.114354	0.036918
1132.271588	0.038858
1132.428803	0.038334
1132.585999	0.041723
1132.743178	0.046511
1132.900338	0.050392
1133.057480	0.046453
1133.214604	0.050607
1133.371710	0.050519
1133.528797	0.051255
1133.685866	0.049372
1133.842917	0.049980
1133.999950	0.049546
1134.156964	0.043961
1134.313960	0.040034
1134.470938	0.042620
1134.627898	0.041845
1134.784840	0.038347
1134.941763	0.035855
1135.098668	0.036980
1135.255555	0.036779
1135.412424	0.034223
1135.569274	0.029531
1135.726107	0.033420
1135.882921	0.034230
1136.039716	0.032743
1136.196494	0.035341
1136.353253	0.038455
1136.509995	0.038780
1136.666717	0.038410
1136.823422	0.043751
1136.980109	0.048264
1137.136777	0.046954
1137.293427	0.038624
1137.450059	0.036176
1137.606672	0.032755
1137.763267	0.034125
1137.919844	0.033489
1138.076403	0.036757
1138.232944	0.037440
1138.389466	0.038043
1138.545971	0.040011
1138.702457	0.043106
1138.858924	0.043529
1139.015374	0.042888
1139.171805	0.040458
1139.328218	0.041715
1139.484613	0.040399
1139.640990	0.038208
1139.797348	0.044559
1139.953688	0.043232
1140.110010	0.047994
1140.266314	0.046213
1140.422600	0.049594
1140.578867	0.052792
1140.735116	0.046162
1140.891347	0.047984
1141.047559	0.050666
1141.203754	0.040888
1141.359930	0.037608
1141.516088	0.039597
1141.672228	0.043615
1141.828349	0.040024
1141.984452	0.036889
1142.140537	0.045760
1142.296604	0.043797
1142.452653	0.044905
1142.608683	0.049208
1142.764695	0.052386
1142.920689	0.055833
1143.076665	0.056241
1143.232622	0.062823
1143.388562	0.066785
1143.544483	0.058718
1143.700385	0.062168
1143.856270	0.059152
1144.012136	0.061967
1144.167985	0.064398
1144.323814	0.060688
1144.479626	0.060033
1144.635420	0.052264
1144.791195	0.049247
1144.946952	0.056615
1145.102691	0.054928
1145.258411	0.057979
1145.414113	0.053682
1145.569798	0.053712
1145.725463	0.053727
1145.881111	0.054256
1146.036741	0.055800
1146.192352	0.051475
1146.347945	0.045534
1146.503519	0.043886
1146.659076	0.035673
1146.814614	0.039736
1146.970134	0.037878
1147.125636	0.036348
1147.281120	0.036795
1147.436585	0.040161
1147.592032	0.047713
1147.747461	0.049899
1147.902872	0.049889
1148.058265	0.051815
1148.213639	0.045490
1148.368995	0.045469
1148.524333	0.042609
1148.679653	0.040749
1148.834954	0.036010
1148.990237	0.034673
1149.145502	0.036008
1149.300749	0.034755
1149.455977	0.036246
1149.611188	0.042003
1149.766380	0.038629
1149.921553	0.043361
1150.076709	0.043375
1150.231846	0.048293
1150.386966	0.045124
1150.542066	0.045304
1150.697149	0.047741
1150.852214	0.049338
1151.007260	0.048671
1151.162288	0.047523
1151.317298	0.045057
1151.472289	0.047198
1151.627263	0.048749
1151.782218	0.050914
1151.937155	0.048874
1152.092073	0.048025
1152.246974	0.049560
1152.401856	0.053160
1152.556720	0.063330
1152.711566	0.064561
1152.866393	0.068121
1153.021203	0.068906
1153.175994	0.064829
1153.330767	0.067830
1153.485521	0.068404
1153.640258	0.063155
1153.794976	0.064190
1153.949676	0.058472
1154.104358	0.057341
1154.259021	0.048915
1154.413667	0.049426
1154.568294	0.059738
1154.722903	0.058309
1154.877493	0.053907
1155.032066	0.053626
1155.186620	0.054995
1155.341156	0.053071
1155.495674	0.049516
1155.650173	0.054123
1155.804654	0.048642
1155.959118	0.042277
1156.113562	0.038436
1156.267989	0.041231
1156.422397	0.045433
1156.576788	0.042300
1156.731160	0.039954
1156.885513	0.041535
1157.039849	0.040850
1157.194166	0.041248
1157.348465	0.039656
1157.502746	0.038683
1157.657009	0.038897
1157.811253	0.035092
1157.965479	0.026934
1158.119687	0.029624
1158.273877	0.035636
1158.428048	0.029901
1158.582201	0.030888
1158.736337	0.032414
1158.890453	0.039721
1159.044552	0.033736
1159.198632	0.035467
1159.352694	0.033015
1159.506738	0.026780
1159.660764	0.026458
1159.814771	0.032459
1159.968761	0.035183
1160.122732	0.039986
1160.276685	0.034402
1160.430619	0.046848
1160.584535	0.049686
1160.738434	0.061653
1160.892313	0.067552
1161.046175	0.061362
1161.200019	0.060425
1161.353844	0.060576
1161.507651	0.052369
1161.661440	0.052340
1161.815210	0.044702
1161.968962	0.039359
1162.122697	0.038272
1162.276412	0.038142
1162.430110	0.039628
1162.583789	0.034125
1162.737451	0.034050
1162.891094	0.035550
1163.044718	0.037421
1163.198325	0.032396
1163.351913	0.033802
1163.505483	0.031320
1163.659035	0.036107
1163.812569	0.033185
1163.966084	0.041531
1164.119581	0.033702
1164.273060	0.036346
1164.426521	0.032646
1164.579964	0.041949
1164.733388	0.042209
1164.886794	0.039609
1165.040182	0.034678
1165.193551	0.037899
1165.346903	0.035159
1165.500236	0.037232
1165.653551	0.032231
1165.806848	0.040757
1165.960126	0.042139
1166.113386	0.040845
1166.266628	0.040533
1166.419852	0.043181
1166.573058	0.032060
1166.726245	0.027723
1166.879414	0.035950
1167.032565	0.048405
1167.185698	0.045535
1167.338812	0.040071
1167.491909	0.032027
1167.644987	0.031135
1167.798046	0.036713
1167.951088	0.042980
1168.104111	0.048032
1168.257117	0.041797
1168.410103	0.041532
1168.563072	0.040469
1168.716023	0.045110
1168.868955	0.063979
1169.021869	0.063494
1169.174765	0.059932
1169.327642	0.069051
1169.480501	0.067458
1169.633343	0.061609
1169.786165	0.055574
1169.938970	0.051735
1170.091757	0.047682
1170.244525	0.035367
1170.397275	0.038034
1170.550007	0.040530
1170.702720	0.032814
1170.855415	0.028548
1171.008092	0.035038
1171.160751	0.032172
1171.313392	0.035466
1171.466014	0.001377
1171.618619	0.044107
1171.771205	0.044107
1171.923772	0.044107
