sample name	sample
index	116
start time	 02-15-2021  12:30:14 PM
880	-0.104311
Peak Time (s)	92.035
Peak Height 	-0.1043
calc peak height	90,93
Baseline Time (s)	8.537
Baseline Value 	-0.002273
subtract baseline	10,4
Abs	-0.000718
Peak Time (s)	90.537
Peak Height 	-7.1818E-4
calc peak height	90,93
Baseline Time (s)	11.535
Baseline Value 	-0.002076
subtract baseline	10,3
PK_550	0.000402
Peak Time (s)	90.537
Peak Height 	4.0204E-4
calc peak height	90,93
Baseline Time (s)	8.537
Baseline Value 	5.6234E-4
subtract baseline	10,2
PK_880	-0.006686
Peak Time (s)	92.535
Peak Height 	-0.006686
calc peak height	90,93
Baseline Time (s)	11.036
Baseline Value 	0.003447
subtract baseline	10,1


Time (s)	A880-A510	A880-A775	A880-A975	A880	I510	I775	I975	I880	
0.034000	-0.004731	0.000154	-0.000105	0.004584	4295.187063	16370.926959	3263.149748	9207.292317
0.537500	-0.004349	-0.000554	-0.011859	0.002579	4302.190415	16410.689494	3256.591732	9235.978286
1.035000	-0.011542	-0.001860	0.001907	0.001797	4283.469948	16394.615227	3266.432896	9247.214212
1.535500	-0.005205	-0.000800	0.008679	0.000319	4306.330794	16472.660667	3272.161983	9268.487232
2.035500	-0.006049	-0.000372	-0.005345	0.000409	4303.574642	16483.088616	3262.426529	9267.183779
2.535500	-0.001804	0.000574	0.007220	0.001014	4314.340744	16493.617513	3270.655571	9258.469783
3.036000	-0.000098	0.000216	0.001088	-0.001131	4325.830976	16548.932937	3267.886943	9289.420912
3.536500	-0.001311	-0.000072	0.004411	0.000612	4317.004897	16486.101327	3268.981016	9264.261415
4.036000	-0.004641	0.000475	0.006189	0.000890	4306.309944	16494.414595	3270.023413	9260.259609
4.536500	-0.003261	-0.000930	-0.005362	-0.000502	4314.517923	16494.000499	3263.033521	9280.328563
5.036500	-0.003869	-0.000463	-0.010698	-0.000359	4312.289750	16504.004959	3259.331218	9278.269244
5.534500	-0.005000	-0.000507	-0.001919	0.000047	4307.738342	16490.108674	3265.008233	9272.408874
6.035000	-0.002283	0.000277	-0.009883	0.001063	4312.775484	16482.955516	3258.923991	9257.766166
6.534500	-0.002484	-0.000909	0.005540	0.000555	4313.686230	16462.046278	3269.805452	9265.089838
7.035000	0.000942	0.000474	-0.006426	0.000255	4324.796956	16514.016415	3261.798123	9269.409537
7.536000	-0.000821	0.001063	0.001740	0.001026	4317.229261	16508.381395	3266.848454	9258.300128
8.036500	0.000810	-0.000040	0.008355	-0.000493	4326.640039	16521.217913	3272.503762	9280.196448
8.536500	0.000126	0.000000	0.001572	0.000000	4323.117513	16507.224288	3267.439902	9273.085598
9.039500	-0.000018	-0.000020	0.007476	-0.000660	4324.659057	16527.022343	3272.004425	9282.609397
9.537500	-0.006414	0.000242	-0.006180	0.000124	4303.341484	16510.882414	3262.054023	9271.303770
10.036500	0.000260	0.000644	-0.004418	0.000091	4323.245481	16524.345944	3263.273051	9271.777692
10.535000	-0.003270	0.001244	0.001958	0.000735	4310.820589	16522.962902	3267.199769	9262.491233
11.035500	0.000000	-0.001592	-0.010507	-0.001488	4327.196230	16504.019919	3260.218760	9294.593429
11.535000	0.001811	-0.001536	0.000000	-0.001299	4332.070078	16499.884068	3267.251841	9291.856362
12.035500	-0.000936	-0.000414	-0.008839	0.000862	4317.375362	16467.831592	3259.760374	9260.663112
12.536000	-0.001762	0.000215	0.011623	-0.000741	4319.689950	16536.809254	3274.981409	9283.779833
13.036000	-0.003060	0.000710	-0.004617	-0.002305	4320.485377	16600.771585	3264.771647	9306.435418
13.537000	-0.000414	-0.000665	0.005268	-0.001930	4327.279484	16546.403134	3271.348598	9300.996813
14.034000	-0.000762	0.000534	-0.003039	-0.001290	4324.319127	16563.735106	3265.156839	9291.725842
14.537000	-0.002629	0.000017	0.011677	0.001022	4311.869877	16476.183220	3273.774999	9258.354271
15.037500	-0.005959	-0.001731	0.004312	-0.002254	4311.710188	16523.395437	3270.906514	9305.692879
15.541000	-0.004660	-0.000212	-0.003120	0.000263	4308.106188	16492.560602	3264.039924	9269.297814
16.035500	-0.004434	-0.001002	-0.004965	0.000901	4306.888121	16448.494911	3262.350719	9260.098829
16.535500	-0.005962	0.000538	0.013650	-0.000440	4306.335092	16537.487133	3276.205239	9279.437664
17.036000	-0.001378	0.001457	0.011940	-0.001125	4321.986060	16587.321018	3275.478628	9289.345712
17.536500	-0.005486	-0.000066	0.011307	0.000060	4306.265081	16503.324113	3274.192812	9272.224539
18.036500	-0.003721	-0.000057	0.002727	0.000463	4310.293599	16491.159909	3267.918272	9266.414860
18.539500	-0.006408	-0.000597	0.004415	-0.001015	4306.716377	16520.126779	3270.114319	9287.741152
19.037000	-0.000225	-0.000982	0.004549	-0.000713	4324.200201	16498.905564	3269.997334	9283.377957
19.536500	-0.003442	-0.001578	-0.003824	-0.001688	4317.506640	16510.628939	3264.891850	9297.483456
20.035000	-0.001376	0.000804	0.015223	0.000343	4317.613313	16521.492097	3276.767837	9268.144524
20.535500	-0.004288	-0.001827	0.000420	-0.001649	4314.875245	16501.746374	3267.783626	9296.928468
21.035500	-0.000070	0.000138	-0.006716	-0.000771	4324.835494	16535.348373	3262.296548	9284.214407
21.536000	-0.001172	0.001060	0.014973	0.000493	4317.773001	16524.785382	3276.483000	9265.977185
22.036000	-0.004347	0.001245	0.000579	0.000229	4309.130721	16538.683443	3266.598045	9269.783888
22.536000	-0.002200	-0.000205	0.008505	0.000103	4315.872999	16497.726741	3272.191281	9271.604127
23.036000	-0.002222	-0.001087	0.005343	-0.000875	4318.717789	16500.665495	3270.664213	9285.723313
23.536500	0.000561	0.001254	0.014942	0.000536	4322.813602	16529.421261	3276.429965	9265.352801
24.037500	-0.005470	0.000058	-0.014879	0.000159	4306.019619	16504.114970	3256.193079	9270.792583
24.534500	0.001676	-0.000932	0.000305	-0.001564	4332.461442	16526.777474	3267.645158	9295.693867
25.035000	0.000287	0.001049	0.007778	0.001081	4320.367093	16506.240089	3270.997953	9257.504104
25.535000	-0.002819	-0.000463	0.004513	-0.001046	4317.451253	16525.263474	3270.205088	9288.202649
26.035500	-0.006435	-0.000672	-0.002662	-0.001312	4307.513978	16527.015055	3265.430400	9292.045569
26.535500	0.001019	0.001983	0.006680	0.000607	4323.972230	16549.846860	3270.563013	9264.339204
27.036000	-0.002529	0.001054	0.000075	-0.000043	4315.329506	16541.191677	3266.438766	9273.707515
27.536500	-0.002736	0.000728	0.010938	-0.000631	4316.460762	16549.309716	3274.419569	9282.194796
28.036500	-0.002497	-0.000081	0.000582	-0.002300	4322.149849	16575.997640	3268.345776	9306.358415
28.536000	-0.001377	-0.000534	-0.000600	-0.002682	4326.644783	16573.798253	3267.792044	9311.897730
29.036500	-0.000495	0.000723	0.009391	-0.001372	4325.363127	16572.165599	3273.851187	9292.908431
29.535000	-0.003301	-0.001517	0.012177	0.000558	4311.254791	16443.200342	3274.455408	9265.039452
30.035000	0.000267	0.000030	0.002596	-0.002473	4330.957350	16584.843620	3269.863445	9308.865605
30.535500	-0.000045	-0.000351	-0.001553	-0.002290	4329.468821	16567.310303	3266.863860	9306.208763
31.035500	-0.001114	-0.000812	-0.003527	-0.002800	4327.787452	16568.828973	3265.857078	9313.609529
31.555500	-0.005573	-0.000953	-0.014847	0.003203	4296.769023	16379.352324	3254.199208	9227.047557
32.036000	-0.005654	0.000674	0.006643	0.000631	4304.087502	16508.556445	3270.520409	9263.992555
32.540000	0.002110	0.001065	0.003762	-0.001536	4333.684054	16587.895790	3270.022432	9295.283688
33.042500	0.001019	0.000427	0.006951	-0.002374	4332.922373	16594.114701	3272.839000	9307.429134
33.534500	-0.001304	0.001545	-0.001793	0.002740	4310.706159	16470.321587	3263.255923	9233.673660
34.037500	0.000100	-0.000633	-0.000555	-0.002103	4329.342731	16552.779718	3267.423893	9303.506890
34.538000	-0.001584	0.000099	0.002403	-0.002813	4326.418245	16597.574907	3269.965558	9313.807099
35.035000	-0.002572	0.000754	0.009753	-0.004043	4327.145784	16656.397723	3275.996746	9331.697161
35.535500	-0.008344	-0.000162	0.011171	0.000380	4296.918978	16490.486131	3273.871172	9267.606682
36.035500	0.000528	0.000450	0.012545	0.000491	4322.852634	16505.965063	3274.763001	9266.012288
36.536000	-0.005770	-0.000334	-0.004553	-0.001314	4309.488686	16537.568891	3264.138197	9292.080191
37.036500	-0.003250	-0.001709	0.002229	-0.001849	4318.559139	16511.570712	3269.174481	9299.821954
37.536000	-0.001206	0.000001	0.005645	0.001564	4314.486252	16458.986618	3269.177270	9250.565406
38.036500	-0.002472	0.001120	0.000861	0.000244	4314.645742	16534.324110	3266.782112	9269.565353
38.534000	-0.004526	-0.000516	0.001961	-0.000541	4310.882004	16508.000423	3268.082888	9280.903073
39.035000	-0.001583	0.000159	-0.010886	-0.000167	4318.513881	16517.302943	3259.076144	9275.499357
39.538000	-0.000014	-0.000650	0.004604	-0.001179	4326.227726	16523.599656	3270.360683	9290.118274
40.035500	-0.004211	0.000493	0.006771	0.000180	4309.680094	16516.908000	3270.924399	9270.489941
40.536000	-0.001032	0.001813	0.015010	0.000510	4318.137191	16547.573919	3276.496686	9265.731185
41.036000	-0.002514	-0.000327	-0.000471	-0.000634	4317.131580	16516.704788	3266.469182	9282.235856
41.536500	-0.001552	-0.001075	-0.004167	-0.001393	4322.264921	16517.040276	3264.455481	9293.212729
42.039500	-0.000318	-0.000342	0.003866	-0.000887	4324.439881	16524.069160	3269.643161	9285.891494
42.534000	-0.004231	0.000616	-0.004312	0.000211	4309.530485	16519.767908	3263.263428	9270.048418
43.037000	-0.005904	-0.001011	0.000121	-0.000937	4307.973674	16504.940214	3267.085573	9286.615686
43.537500	-0.000503	-0.000199	0.010936	-0.000721	4323.393805	16523.384871	3274.482382	9283.501496
44.034500	-0.006696	0.000138	-0.003417	0.000395	4301.711153	16499.281482	3263.746756	9267.385680
44.535000	0.000956	0.000523	0.006275	-0.000288	4326.464491	16532.321508	3270.904706	9277.240936
45.035500	-0.002210	-0.000503	0.006263	-0.002526	4323.684722	16569.946034	3272.463189	9309.644270
45.535500	-0.000732	0.001354	-0.002271	-0.002220	4327.197317	16618.180407	3266.322005	9305.199649
46.035500	-0.001459	-0.000569	0.012501	-0.001740	4323.581557	16543.476904	3276.312756	9298.244073
46.566500	0.000054	0.000166	0.009484	-0.002284	4329.745706	16583.179582	3274.560136	9306.121618
47.036500	-0.001602	0.001878	0.014007	-0.001314	4321.879337	16606.296686	3277.080990	9292.071346
47.537000	-0.004454	-0.000413	-0.014367	0.003419	4299.416378	16389.270871	3254.373669	9223.953284
48.037500	-0.001250	-0.000770	-0.009754	0.000410	4317.787823	16470.806198	3259.449253	9267.177584
48.534500	-0.000462	-0.000818	0.002389	-0.003951	4333.211413	16604.452361	3270.748887	9330.352556
49.037500	-0.002682	0.001078	0.019758	-0.000772	4317.041361	16564.537792	3280.814398	9284.231554
49.535000	-0.004306	0.000040	0.004243	0.001194	4306.403424	16471.611557	3268.461780	9255.886728
50.035500	-0.007026	0.000224	0.006022	0.003491	4291.676494	16406.590008	3268.102718	9222.921730
50.536000	-0.002258	0.000105	-0.001402	-0.002221	4322.629950	16579.364241	3266.921561	9305.220133
51.039000	-0.000705	0.002072	0.003872	-0.000414	4321.871630	16584.316199	3269.319267	9279.064245
51.539500	0.002000	0.000386	0.009575	0.002862	4320.163678	16430.864767	3271.008850	9231.920381
52.036500	-0.003246	-0.000716	-0.004146	-0.003327	4322.983863	16588.224962	3265.794420	9321.278193
52.537000	-0.003829	-0.000390	0.005116	-0.004861	4325.828357	16646.192688	3273.297765	9343.614685
53.037500	-0.046616	-0.028415	0.027095	0.328634	3571.579977	8980.216851	3116.853999	5946.991168
53.535000	-0.026554	-0.016534	-0.020370	0.101574	3991.026558	13309.674461	3193.243476	7966.283951
54.035000	-0.002063	-0.007582	-0.008451	-0.162230	4901.805262	22251.279988	3393.251884	12110.977306
54.535500	0.020886	-0.004081	0.009056	-0.195986	5163.653654	23968.650034	3446.565959	12846.816904
55.035500	-0.005057	-0.012641	0.015942	-0.086564	4590.778760	18999.049642	3345.862979	10655.263013
55.536000	-0.015626	-0.013830	0.003255	-0.075006	4512.969589	18538.542891	3325.329327	10454.391619
56.039000	-0.016701	-0.012514	-0.007228	-0.067080	4482.437043	18305.051345	3310.487563	10319.711265
56.536500	-0.012934	-0.010359	-0.001368	-0.098181	4604.323396	19516.801322	3340.937964	10862.608782
57.037000	-0.010600	-0.012318	0.005376	-0.074899	4529.926767	18588.682362	3326.992384	10452.568584
57.537000	-0.011830	-0.009385	-0.001251	-0.067777	4501.250744	18439.808490	3315.795980	10331.463313
58.037000	-0.010471	-0.009687	0.000507	-0.073096	4524.131205	18618.248157	3321.514618	10421.711154
58.537500	0.001267	-0.008848	0.013393	-0.062112	4526.740861	18259.464421	3323.067902	10236.539951
59.035500	0.001083	-0.007058	-0.000345	-0.061779	4524.954893	18310.486742	3311.738367	10230.996244
59.535500	-0.005342	-0.008864	-0.004449	-0.048282	4457.674219	17783.089637	3298.073853	10009.933288
60.036000	-0.008556	-0.008721	0.003346	-0.056965	4475.834345	18084.991690	3310.849396	10151.348848
60.536500	-0.007208	-0.008307	-0.016755	-0.043191	4434.898306	17630.399544	3285.101471	9928.319278
61.036000	-0.004604	-0.008298	0.011635	-0.051546	4470.942018	17913.334042	3313.124713	10062.755563
61.537000	-0.010193	-0.007998	-0.005297	-0.042386	4422.642144	17613.777587	3292.983173	9915.499910
62.037500	-0.007881	-0.009375	0.003332	-0.041584	4427.511890	17541.015839	3298.898737	9902.754146
62.536500	-0.002954	-0.006457	0.004408	-0.051106	4474.977898	17961.298845	3307.080975	10055.622542
63.035000	-0.004541	-0.009836	-0.003133	-0.048558	4461.232171	17759.574441	3299.287476	10014.388440
63.535000	-0.009289	-0.011346	0.003802	-0.054637	4465.639997	17914.819495	3309.373419	10113.157098
64.035500	-0.014844	-0.011713	0.002067	-0.072010	4505.400362	18507.300479	3321.901102	10403.197969
64.535500	-0.010000	-0.009803	-0.015019	-0.074913	4532.056864	18679.231744	3310.520768	10452.801135
65.036000	-0.018328	-0.010046	0.000306	-0.077827	4513.376962	18775.498817	3325.224357	10502.936820
65.553500	-0.009983	-0.009766	-0.009449	-0.080273	4550.838944	18874.345682	3319.258013	10545.275033
66.036000	-0.015009	-0.010463	-0.005285	-0.080794	4535.087628	18867.949469	3323.070915	10554.327437
66.537000	-0.014206	-0.010481	-0.011624	-0.081319	4539.710579	18886.384513	3318.344702	10563.446891
67.037000	-0.010562	-0.010746	-0.014260	-0.082029	4554.981991	18902.585985	3316.793965	10575.817068
67.534000	-0.011332	-0.011407	0.003155	-0.082418	4553.637142	18892.681684	3331.402293	10582.595375
68.037500	-0.013723	-0.010921	-0.009044	-0.081981	4543.710688	18894.463789	3320.972160	10574.969817
68.535500	-0.015548	-0.011514	0.002157	-0.086059	4551.617868	19021.893952	3333.622680	10646.382341
69.035000	-0.014343	-0.009448	0.001764	-0.087593	4561.277715	19154.622585	3334.584982	10673.414388
69.535500	-0.014960	-0.010392	-0.012110	-0.084648	4548.723719	19011.261179	3320.647595	10621.588862
70.036000	-0.012456	-0.009408	-0.003569	-0.091259	4581.053695	19292.347507	3333.179322	10738.392092
70.536500	-0.012547	-0.010409	-0.017553	-0.092783	4586.200128	19311.885660	3322.842436	10765.573309
71.036500	-0.009406	-0.007432	-0.000066	-0.090797	4590.358591	19348.996424	3335.747806	10730.181883
71.537000	-0.010606	-0.008792	-0.008239	-0.088168	4576.614444	19200.246241	3326.706205	10683.567352
72.037000	-0.013199	-0.009105	0.002099	-0.090651	4576.221103	19280.988624	3337.462711	10727.587012
72.534500	-0.012269	-0.008552	-0.001977	-0.092949	4587.796021	19387.698497	3335.951342	10768.543951
73.035500	-0.007192	-0.006022	-0.003650	-0.093000	4606.365150	19484.914008	3334.578819	10769.449377
73.535000	-0.008692	-0.006461	-0.026575	-0.089414	4587.951164	19333.588611	3312.853114	10705.628873
74.035500	-0.009478	-0.005494	-0.009398	-0.096374	4610.335070	19632.994625	3332.578940	10829.993138
74.536000	-0.008620	-0.004189	-0.013783	-0.097500	4617.599793	19725.926354	3329.851333	10850.312363
75.039000	-0.004097	-0.002584	-0.004719	-0.098671	4638.621063	19832.649740	3338.487223	10871.480159
75.536000	-0.010912	-0.005049	-0.008944	-0.098211	4611.806009	19720.177552	3334.508346	10863.151948
76.036500	-0.008364	-0.003763	-0.012278	-0.101147	4631.981753	19882.781228	3334.172505	10916.452141
76.537000	-0.005867	-0.003768	-0.002281	-0.105817	4658.729167	20064.265760	3346.760367	11001.959005
77.037500	-0.008004	-0.003607	-0.017843	-0.107711	4657.814567	20144.812914	3335.016840	11036.901172
77.535000	-0.004583	-0.001309	-0.013956	-0.107838	4671.212904	20240.369039	3338.426889	11039.250561
78.035000	-0.006981	-0.002582	0.002812	-0.108695	4665.381768	20223.942639	3353.781881	11055.114030
78.534500	-0.009594	-0.001831	-0.013625	-0.110995	4664.199127	20344.858669	3341.417161	11097.862574
79.036000	-0.005158	-0.000983	-0.005146	-0.110977	4680.965441	20377.839570	3348.769266	11097.518903
79.536000	-0.005532	-0.001675	-0.007434	-0.112619	4685.808902	20415.745714	3348.202381	11128.168866
80.035500	-0.005607	-0.000931	-0.017378	-0.113166	4687.616559	20467.359048	3340.058169	11138.405905
80.536000	-0.008421	-0.001093	-0.016728	-0.113488	4678.100837	20473.773371	3340.892365	11144.437732
81.036500	-0.009047	-0.000277	-0.004295	-0.113391	4675.349034	20502.572461	3351.644585	11142.610276
81.537500	-0.006864	-0.000923	-0.004361	-0.114801	4689.062646	20533.281391	3352.834762	11169.076443
82.035000	-0.004147	-0.001200	-0.008318	-0.114723	4699.208375	20518.990328	3349.272871	11167.601501
82.535000	-0.009701	-0.001599	-0.013018	-0.115690	4681.617780	20541.842073	3346.007316	11185.809425
83.035500	-0.012727	0.000119	-0.005376	-0.113982	4663.647086	20542.238334	3351.211900	11153.697994
83.535000	-0.009650	-0.002025	-0.018237	-0.112545	4669.851998	20398.819066	3338.791356	11126.792197
84.036000	-0.008709	-0.000901	-0.011449	-0.113999	4678.948933	20501.920216	3345.901073	11154.012397
84.538000	-0.010762	0.000202	-0.007729	-0.112937	4667.122872	20503.586121	3348.222367	11134.116977
85.036000	-0.012413	-0.001005	0.001092	-0.112901	4660.754963	20453.758334	3355.998068	11133.439534
85.536500	-0.011429	-0.000750	-0.003568	-0.109719	4652.494215	20337.086940	3349.049661	11074.119123
86.036500	-0.009322	-0.000464	-0.018852	-0.112080	4669.331924	20442.573824	3337.869180	11118.095043
86.537000	-0.013655	-0.000556	-0.006985	-0.111623	4651.287957	20420.647885	3347.724321	11109.569261
87.034500	-0.006477	-0.000117	-0.013341	-0.110675	4674.793781	20400.333268	3341.386056	11091.899691
87.535000	-0.009127	-0.001160	-0.005769	-0.108948	4658.245557	20290.209204	3346.449314	11059.815000
88.035500	-0.011039	-0.001754	-0.004614	-0.110810	4658.056767	20340.527900	3349.089700	11094.415244
88.536000	-0.009029	-0.000112	-0.007566	-0.109755	4661.651726	20363.896465	3345.586870	11074.790701
89.039000	-0.011205	-0.001707	0.003702	-0.110286	4655.464553	20321.598248	3355.993936	11084.663225
89.536000	-0.012883	-0.001021	-0.008255	-0.106884	4636.495462	20214.079629	3342.502076	11021.626771
90.036500	-0.010427	-0.001049	-0.009617	-0.108223	4650.646586	20265.897402	3342.482470	11046.387309
90.536500	-0.012608	0.000402	-0.000718	-0.106772	4637.098048	20265.890059	3348.964607	11019.561287
91.037000	-0.011388	-0.001008	-0.009665	-0.106281	4639.808546	20190.826495	3340.768770	11010.510625
91.534500	-0.009192	-0.002369	-0.011869	-0.107365	4652.057395	20179.924281	3339.808121	11030.514484
92.035000	-0.012964	-0.001460	-0.003633	-0.104311	4626.673704	20095.682782	3344.274750	10974.291805
92.535500	-0.006686	-0.001621	-0.027433	-0.106151	4656.903771	20161.559055	3325.706498	11008.106191
93.035500	-0.007540	0.000251	-0.017387	-0.104401	4647.147134	20166.347609	3332.611027	10975.934568
93.535500	-0.009665	-0.001368	-0.015770	-0.103142	4634.549856	20053.480257	3332.911252	10952.862214
94.036000	-0.015000	-0.001136	-0.001813	-0.102594	4612.887610	20041.157995	3344.363711	10942.852586
94.536500	-0.012312	-0.001293	-0.015464	-0.103590	4626.419399	20073.983786	3333.546871	10961.074830
95.036500	-0.013681	-0.001903	-0.014980	-0.103403	4620.688463	20042.777867	3333.796471	10957.641997
95.536500	-0.012332	-0.002003	-0.017451	-0.100695	4615.699148	19933.451032	3329.456432	10908.217963
96.042500	-0.007950	-0.001224	-0.003162	-0.100214	4630.058776	19945.019206	3341.142929	10899.472019
96.534500	-0.013444	-0.001381	-0.010478	-0.101340	4613.992136	19982.706739	3335.858784	10919.964657
97.035000	-0.010073	0.000693	-0.010150	-0.098853	4617.231008	19966.657868	3334.033056	10874.781930
97.535000	-0.010505	-0.000380	-0.022490	-0.097018	4608.936021	19853.936179	3322.269029	10841.599658
98.035500	-0.011409	-0.001655	-0.005086	-0.098596	4611.398044	19865.653731	3338.110120	10870.121509
98.571500	-0.012811	-0.000605	-0.007561	-0.098284	4605.147924	19894.199383	3335.740904	10864.486204
99.037000	-0.010104	-0.001241	-0.001301	-0.097617	4612.589133	19843.822532	3340.511063	10852.420021
