sample name	sample
index	1494
start time	 05-18-2021  02:08:29 PM
880	0.163191
Peak Time (s)	92.535
Peak Height 	0.1632
calc peak height	90,93
Baseline Time (s)	9.537
Baseline Value 	-0.005444
subtract baseline	10,4
Abs	0.100833
Peak Time (s)	90.536
Peak Height 	0.1008
calc peak height	90,93
Baseline Time (s)	9.037
Baseline Value 	0.004342
subtract baseline	10,3
PK_550	0.069177
Peak Time (s)	92.038
Peak Height 	0.06918
calc peak height	90,93
Baseline Time (s)	10.037
Baseline Value 	-4.2578E-5
subtract baseline	10,2
PK_880	0.102727
Peak Time (s)	92.535
Peak Height 	0.1027
calc peak height	90,93
Baseline Time (s)	10.037
Baseline Value 	0.001007
subtract baseline	10,1


Time (s)	A880-A510	A880-A775	A880-A975	A880	I510	I775	I975	I880	
0.036500	-0.002489	-0.000180	-0.004026	0.007631	6527.962817	43749.507783	3955.865958	22665.495966
0.537000	-0.001015	-0.000569	-0.005791	0.004674	6564.401600	43991.072635	3958.633020	22800.031303
1.037500	0.000459	0.000646	-0.001666	0.005324	6571.210826	44044.485542	3966.737262	22770.368497
1.537500	0.000090	0.000810	-0.006630	0.003329	6584.705657	44249.047040	3959.810338	22861.564145
2.040000	0.000046	0.000567	-0.000236	0.003084	6586.380357	44249.237215	3975.370897	22872.787920
2.540500	0.000678	-0.000049	-0.001415	0.002143	6599.478735	44280.065439	3974.809436	22915.937707
3.038500	0.003003	0.000524	0.001700	-0.001052	6645.843923	44639.749969	3989.814007	23063.214295
3.536000	-0.000824	0.000214	-0.004880	0.001767	6590.097355	44340.774713	3967.541180	22933.197525
4.038500	0.000029	-0.000296	0.002972	0.000066	6611.419078	44454.312748	3990.183363	23011.547662
4.536500	0.000044	-0.000619	-0.003515	-0.000342	6614.958897	44462.437050	3975.717255	23030.378855
5.037000	-0.000153	-0.000393	0.000233	0.000136	6609.310819	44438.441839	3983.473487	23008.319380
5.537000	0.002122	0.000365	-0.001220	0.000373	6626.402438	44488.146322	3979.458410	22997.376647
6.037500	-0.000052	-0.000348	-0.000597	-0.000674	6616.936273	44520.036475	3983.426683	23045.726142
6.535000	0.000011	0.000374	-0.000667	0.000024	6611.621801	44522.356840	3981.600595	23013.498840
7.035000	-0.000254	0.000008	-0.000982	-0.000278	6611.926305	44516.287254	3981.568732	23027.437121
7.535000	-0.000307	0.000255	0.000103	0.000020	6608.992925	44511.371752	3983.440058	23013.683175
8.041500	0.000816	0.000907	0.001491	0.000383	6615.356536	44538.957210	3985.882245	22996.911088
8.538500	-0.000061	-0.000374	-0.007619	-0.000137	6612.360556	44466.254753	3965.587210	23020.907580
9.036500	0.000495	0.000826	0.000000	0.000924	6608.139296	44479.530636	3981.045812	22971.993619
9.536500	-0.001944	-0.000059	0.001590	0.000000	6595.481838	44483.280736	3987.035601	23014.599010
10.037000	0.000000	0.000000	-0.003702	-0.000206	6613.453619	44508.607846	3974.955942	23024.108038
10.537500	0.001738	0.000270	0.000327	0.000723	6620.241995	44445.705704	3982.302176	22981.269401
11.034500	0.001698	0.000356	0.003015	0.000106	6625.086098	44512.876944	3990.191626	23009.717854
11.535000	-0.000807	-0.000035	-0.003357	-0.000202	6606.664107	44504.911964	3975.760238	23023.931975
12.035500	0.001328	0.000552	-0.001543	-0.000126	6623.928112	44553.807408	3979.875844	23020.427975
12.535500	0.000322	0.000463	0.002342	-0.000187	6615.991732	44551.120939	3989.281017	23023.237081
13.041500	0.000973	0.001150	0.000208	0.001801	6604.799136	44426.762501	3979.457963	22931.636998
13.536000	-0.000811	0.000260	-0.004581	0.000915	6597.304862	44426.411595	3970.243776	22972.408732
14.039000	-0.001139	0.000396	0.001132	0.002411	6582.126141	44296.938967	3980.204403	22903.657052
14.537000	-0.001926	-0.000671	-0.003363	0.002037	6578.692994	44231.071905	3970.469776	22920.801358
15.037000	-0.000408	0.000761	-0.000428	0.000870	6601.043105	44478.522541	3980.157823	22974.470816
15.537500	-0.001099	0.000462	0.000665	0.000679	6596.870166	44468.174719	3983.208877	22983.270788
16.040000	-0.001086	-0.000127	-0.002120	0.000022	6602.461573	44474.740013	3978.157187	23013.585833
16.535000	0.000396	-0.000110	0.000109	0.000521	6610.681262	44428.645260	3982.261759	22990.548795
17.035000	0.002006	-0.000120	0.002939	-0.002701	6651.359240	44736.136391	3996.754909	23139.629170
17.535500	-0.002464	-0.000472	-0.003516	0.002629	6569.330389	44193.714971	3968.720305	22893.619477
18.038500	-0.000442	0.000775	-0.002227	0.001889	6592.266435	44382.692580	3973.493253	22927.613562
18.536500	-0.001818	-0.000897	-0.001001	0.000527	6592.142469	44353.138285	3979.611837	22990.274191
19.036000	0.000463	-0.000315	0.001522	0.001433	6603.613531	44322.313118	3983.454638	22948.566167
19.537000	-0.001186	0.000080	0.001906	0.001599	6588.485848	44344.109417	3983.975527	22940.959766
20.037000	-0.000576	0.000526	-0.003147	0.001747	6592.328838	44372.466158	3971.661674	22934.151558
20.535000	0.001212	0.000033	-0.001947	0.001227	6611.601692	44375.070211	3975.715603	22958.050770
21.035000	0.000974	0.000682	0.001300	0.002187	6601.587685	44345.390597	3981.132587	22913.910275
21.535500	-0.001443	0.000593	-0.004938	0.002354	6580.070651	44321.059697	3966.032892	22906.248317
22.035500	0.000229	-0.000538	-0.002140	0.001329	6602.532029	44310.994189	3975.018600	22953.362219
22.536000	0.000556	0.000160	-0.004531	0.002297	6597.181835	44285.290281	3967.120217	22908.881635
23.036000	0.000366	0.001254	0.004288	0.002463	6594.209077	44373.578641	3987.596392	22901.245814
23.536500	-0.000511	0.000963	-0.000652	0.002577	6585.963942	44335.013442	3975.586895	22896.018015
24.037000	-0.002303	0.000509	-0.005473	0.002293	6573.445076	44318.871480	3964.922208	22909.041422
24.537000	0.000595	0.001036	-0.003423	0.002292	6597.549878	44369.140371	3969.729945	22909.103088
25.037000	-0.001760	0.000011	-0.002658	0.001317	6586.059202	44364.440734	3973.825565	22953.922263
25.537500	-0.000834	0.001087	0.002019	0.002580	6583.252654	44346.532708	3981.907809	22895.862229
26.035000	-0.001328	0.000424	-0.000210	0.001754	6586.011671	44362.127583	3978.579354	22933.814807
26.535500	0.000216	0.000660	-0.000479	0.001771	6598.736324	44382.983280	3977.902784	22933.047270
27.036000	0.001415	0.000155	-0.001004	-0.000517	6627.943290	44553.153754	3982.086023	23038.479748
27.539000	-0.002537	0.000859	-0.005119	0.006497	6536.866467	43953.888041	3955.962045	22716.999145
28.036000	-0.000723	0.000605	-0.002501	0.001150	6596.080718	44436.901160	3974.589978	22961.609456
28.536500	-0.000665	-0.000245	-0.000847	0.000159	6604.834513	44450.366705	3980.851142	23007.255604
29.037000	-0.000750	-0.000313	-0.000325	0.000375	6602.324761	44423.300520	3981.580300	22997.316363
29.537000	-0.000834	0.000615	-0.006958	0.000826	6597.858286	44468.858495	3964.882995	22976.532908
30.037500	0.000230	0.000503	-0.007615	0.000524	6609.265067	44486.908209	3964.050898	22990.415748
30.537500	0.000033	0.001175	0.000662	0.003055	6586.510943	44309.741116	3977.563036	22874.100845
31.035000	-0.001887	-0.000562	-0.003393	0.001949	6579.745592	44249.797485	3970.606367	22924.848494
31.535500	-0.003235	-0.000362	-0.003228	0.005478	6539.497714	43934.822065	3962.727435	22763.365124
32.037500	0.000179	0.000497	-0.004630	0.000458	6609.387748	44492.589720	3971.202394	22993.458404
32.536000	-0.000469	0.000254	-0.002968	0.000299	6605.301175	44484.583321	3975.496145	23000.788965
33.036000	-0.001469	-0.000334	-0.001387	0.000071	6598.855447	44450.177721	3979.776520	23011.302143
33.537000	-0.001169	-0.000093	-0.003441	0.004232	6566.783483	44077.928641	3965.141218	22820.251200
34.042000	-0.000531	0.000189	-0.001359	0.001424	6595.396312	44371.142973	3976.641015	22948.986123
34.537500	-0.000721	-0.000512	0.004096	0.001197	6595.702744	44326.096617	3990.166907	22959.452497
35.035000	0.001179	0.000921	-0.003488	0.002078	6604.209446	44378.511520	3970.078868	22918.917254
35.535000	-0.002273	0.000373	-0.004827	0.003752	6561.626426	44167.471430	3963.023305	22842.186205
36.035000	0.000526	0.000407	0.003169	0.002005	6599.359315	44336.476885	3986.015599	22922.254579
36.535500	-0.001556	-0.000270	-0.005223	0.001234	6588.441628	44345.552079	3967.987240	22957.730891
37.039000	-0.000979	-0.000469	-0.001277	0.001206	6593.471952	44329.157668	3977.349741	22958.996385
37.536500	-0.001948	0.000924	-0.002813	0.003807	6563.861911	44214.520736	3967.607074	22839.686385
38.036500	0.000710	0.000518	-0.001220	0.001922	6601.597172	44355.085918	3975.792325	22926.101440
38.537000	0.000681	0.000259	-0.005111	0.001978	6600.886826	44325.068308	3966.507355	22923.522327
39.037000	0.001035	0.000242	-0.003666	0.001929	6604.252728	44328.150013	3970.011614	22925.770792
39.537500	-0.000462	-0.000095	-0.002537	0.001421	6595.994995	44344.417439	3973.866070	22949.145337
40.037500	-0.000409	0.000373	-0.000458	0.002072	6591.015216	44326.916331	3977.237937	22919.200197
40.535000	-0.000174	-0.000229	0.000480	0.001500	6597.738915	44324.088723	3980.819589	22945.497039
41.035000	0.002040	0.000471	-0.002074	0.002192	6610.457787	44324.879122	3973.139614	22913.684338
41.538500	-0.000071	0.000991	-0.001904	0.001924	6595.062805	44399.901945	3974.173060	22926.012736
42.035500	-0.003207	-0.000625	-0.004042	0.001267	6574.458246	44308.542133	3970.684276	22956.204900
42.536500	-0.000900	0.000788	-0.001380	0.002162	6586.173681	44357.912904	3974.846393	22915.063175
43.036000	-0.000769	0.000952	0.002791	0.002273	6586.347797	44362.930561	3984.478461	22909.985984
43.537000	0.000952	0.000415	0.002720	-0.002607	6641.649442	44778.588765	3995.999225	23135.269403
44.036500	0.001513	0.000819	0.001042	0.000385	6621.184609	44530.348335	3984.808002	22996.816304
44.537500	-0.001746	0.000995	-0.000430	0.001275	6586.514105	44462.130034	3979.191390	22955.829945
45.034000	0.001708	0.000477	0.000428	0.001041	6617.319633	44435.038470	3981.784817	22966.602298
45.535500	-0.003519	0.000130	-0.008687	0.004695	6543.587449	44055.185680	3951.877837	22799.069358
46.035000	0.000264	0.000422	-0.002337	0.000888	6606.507878	44444.472663	3975.594865	22973.659333
46.536000	0.001513	0.001131	-0.001765	0.001447	6612.284220	44458.755596	3975.626728	22947.947405
47.036000	-0.002254	-0.000500	-0.005834	0.001841	6577.594595	44265.909508	3965.136485	22929.812520
47.536500	-0.001459	0.000051	-0.001438	0.002580	6578.065952	44248.020800	3973.724297	22895.878261
48.039000	0.001943	0.000590	0.002089	0.001163	6618.269214	44434.255615	3985.451057	22961.004685
48.537000	0.000106	0.000534	0.003413	0.001106	6603.361350	44434.324262	3988.747046	22963.604703
49.034500	0.002031	0.000655	-0.003728	0.001088	6619.640941	44447.591704	3971.843727	22964.470787
49.534500	-0.005161	-0.000513	-0.006272	0.003217	6542.240229	44134.191717	3960.902844	22866.669703
50.040500	0.003080	0.001009	-0.000260	0.001025	6628.974543	44487.396060	3980.188481	22967.350916
50.535000	-0.000134	-0.000507	-0.000291	0.001829	6595.327338	44266.385897	3978.211290	22930.381554
51.035000	-0.002610	-0.024585	0.022414	0.722471	3659.911765	10432.576119	3155.777035	6768.512304
51.535500	-0.023069	-0.021368	-0.018829	0.059563	5981.625746	37436.000915	3812.530047	20445.820627
52.036000	-0.018482	-0.074433	-0.035108	-0.245521	9109.091033	64517.979199	4627.597549	38248.481637
52.536500	-0.017342	-0.116739	-0.023154	-0.294950	9866.560598	65535.000000	4882.345297	42500.931623
53.036500	-0.019493	-0.076210	-0.023602	-0.248078	9130.952643	64628.555280	4682.823677	38456.800815
53.540000	-0.020451	-0.049957	-0.022822	-0.207591	8570.649334	62641.513472	4531.381114	35298.156815
54.037000	-0.014961	-0.035028	-0.019141	-0.185086	8355.658732	61610.261740	4464.282546	33665.608802
54.535500	-0.014214	-0.031185	-0.020902	-0.175385	8245.861492	60825.125686	4424.828241	32987.593044
55.034500	-0.016438	-0.024875	-0.015512	-0.150001	7921.224493	58340.565937	4358.450121	31283.424077
55.535500	-0.013892	-0.036172	-0.016700	-0.187827	8403.074541	61826.056894	4482.463127	33859.941658
56.035500	-0.005582	-0.022794	-0.001323	-0.146912	8010.468608	58212.259992	4394.921795	31082.749650
56.536000	-0.000583	-0.010427	0.001332	-0.098852	7535.160337	53856.542854	4251.442099	28137.803217
57.036000	0.004315	-0.002448	0.010442	-0.053076	7125.515405	49618.034549	4146.041912	25620.150623
57.536500	0.015391	0.003932	0.017861	-0.010586	6835.889433	45899.082386	4053.218311	23509.154128
58.037000	0.028677	0.010504	0.026674	0.007912	6789.835617	44737.276487	4028.877766	22652.752218
58.537000	0.037868	0.018666	0.030622	0.031952	6661.607591	43239.106356	3980.081790	21592.892039
59.037000	0.046910	0.024874	0.042855	0.052970	6561.334076	41890.243583	3959.446473	20713.129209
59.535000	0.053140	0.032141	0.043519	0.073322	6446.597621	40736.125185	3914.687057	19900.863913
60.034500	0.060491	0.037092	0.058091	0.097541	6314.341274	39098.688373	3893.483222	18982.581701
60.538500	0.065589	0.039482	0.058279	0.110455	6254.784079	38234.575359	3866.226182	18513.479694
61.036000	0.068592	0.044227	0.059106	0.114735	6245.155656	38272.322146	3858.967014	18361.067526
61.536000	0.070996	0.047932	0.063828	0.140855	6071.361426	36498.335573	3815.244969	17462.725582
62.036500	0.075084	0.054591	0.066839	0.137523	6124.720084	37277.791234	3827.983244	17574.350971
62.536500	0.077679	0.057001	0.067068	0.135803	6156.171627	37605.251771	3831.932445	17632.288757
63.037500	0.079229	0.057884	0.060936	0.134424	6177.697160	37785.877349	3822.328470	17678.914599
63.543000	0.081263	0.058787	0.067933	0.134667	6190.926619	37838.725372	3836.006583	17670.678314
64.037500	0.081185	0.058179	0.067169	0.135190	6186.480599	37748.152242	3833.382946	17652.987084
64.535500	0.084617	0.061025	0.072844	0.137631	6193.820521	37780.580490	3839.990107	17570.706462
65.035000	0.085220	0.061912	0.074240	0.140401	6177.805414	37630.194705	3837.179099	17477.899243
65.536000	0.083518	0.061789	0.070313	0.145369	6128.983737	37226.644638	3819.183186	17312.875143
66.041500	0.087298	0.062919	0.072911	0.143758	6168.380851	37443.285892	3827.651914	17366.168209
66.536500	0.086773	0.065198	0.073781	0.145532	6151.520364	37483.419035	3825.825516	17307.501359
67.036500	0.088183	0.065125	0.084523	0.145625	6161.176011	37470.281563	3847.579021	17304.447184
67.537000	0.087061	0.065551	0.077119	0.150051	6120.726646	37154.249379	3823.447416	17159.107576
68.036500	0.087629	0.066068	0.078221	0.147638	6142.391857	37385.379653	3830.548802	17238.142861
68.534500	0.088309	0.065924	0.082376	0.148079	6144.139829	37339.087841	3838.114873	17223.667463
69.035000	0.090814	0.066722	0.082204	0.149573	6151.517746	37284.085566	3834.712038	17174.705285
69.535500	0.093909	0.067062	0.084470	0.148992	6178.524949	37356.903564	3840.533391	17193.737478
70.038000	0.093638	0.068570	0.079838	0.150021	6168.945886	37394.801248	3828.994226	17160.067962
70.536000	0.096265	0.069439	0.086272	0.151139	6180.065851	37375.078486	3839.826387	17123.581336
71.036500	0.094918	0.069129	0.086155	0.151115	6170.314599	37352.500596	3839.635555	17124.378438
71.536500	0.097284	0.069906	0.086846	0.151452	6185.282099	37387.280210	3840.361494	17113.392873
72.036500	0.098593	0.070518	0.089290	0.151778	6192.550280	37409.916896	3844.715872	17102.775251
72.534500	0.096378	0.070121	0.081245	0.151407	6178.920662	37407.905248	3829.038036	17114.864958
73.037500	0.097485	0.070440	0.086137	0.150826	6191.402077	37479.287854	3840.191835	17133.815000
73.535000	0.098140	0.070762	0.083666	0.150265	6200.423813	37549.468344	3836.284344	17152.117951
74.034500	0.098667	0.071189	0.085817	0.150189	6204.901898	37589.460935	3840.843015	17154.599876
74.538500	0.098586	0.071319	0.093830	0.150276	6203.655620	37592.868223	3857.259253	17151.760624
75.040500	0.100091	0.070665	0.086792	0.148663	6226.913216	37669.351267	3845.989966	17204.517865
75.535500	0.097262	0.071746	0.086011	0.151477	6184.935795	37531.304188	3838.600525	17112.599285
76.036500	0.100922	0.072511	0.088848	0.150075	6222.571942	37704.030795	3847.320264	17158.325658
76.536500	0.100447	0.073543	0.089367	0.150644	6214.768915	37741.019134	3847.217033	17139.747714
77.037000	0.102783	0.074061	0.086612	0.151541	6225.519897	37710.700276	3839.701002	17110.513165
77.537500	0.101172	0.073401	0.092006	0.152836	6203.843520	37554.786790	3848.141464	17068.396978
78.037500	0.099546	0.073362	0.093219	0.151451	6202.055873	37662.056860	3853.532610	17113.435499
78.535000	0.100572	0.073313	0.090978	0.151841	6206.780754	37627.066308	3848.072419	17100.738646
79.035500	0.102535	0.074498	0.085900	0.153281	6210.676561	37606.676836	3834.686648	17053.954277
79.536000	0.101325	0.073347	0.089304	0.154390	6193.443732	37427.195914	3839.379276	17018.056895
80.040500	0.102019	0.073172	0.089779	0.152618	6211.772144	37553.941606	3843.993617	17075.482738
80.535500	0.102221	0.073114	0.093879	0.153057	6210.009299	37514.486782	3851.566384	17061.236584
81.036500	0.102349	0.072682	0.091213	0.152337	6216.322119	37537.305274	3847.531993	17084.599994
81.536500	0.099999	0.072234	0.091907	0.152604	6196.858499	37480.563668	3848.417280	17075.942432
82.037000	0.102720	0.072707	0.092432	0.153161	6212.947423	37473.847220	3848.349062	17057.844964
82.537500	0.100733	0.072189	0.094710	0.153888	6192.782203	37375.218252	3851.565937	17034.306118
83.035000	0.103225	0.071628	0.099135	0.153562	6213.728817	37356.665744	3861.488762	17044.870376
83.535500	0.101481	0.071671	0.096974	0.154386	6194.631660	37294.848015	3855.241042	17018.182512
84.038000	0.103052	0.070718	0.100058	0.154226	6207.488332	37232.356874	3862.031599	17023.357702
84.535500	0.100032	0.070051	0.098284	0.154839	6180.553858	37131.590720	3857.027780	17003.518930
85.040500	0.100954	0.069773	0.092278	0.154718	6188.266715	37119.303212	3844.816556	17007.450317
85.536500	0.101341	0.070619	0.096701	0.156787	6175.842910	37023.272090	3849.682062	16940.727032
86.036500	0.099102	0.068784	0.097145	0.155176	6171.229001	37005.826518	3853.952747	16992.663312
86.536500	0.100195	0.069018	0.095382	0.156546	6169.185368	36916.951062	3847.451295	16948.496497
87.037000	0.100798	0.067842	0.095322	0.155976	6177.826857	36869.711636	3848.505484	16966.856326
87.535000	0.100153	0.068374	0.100276	0.157061	6165.086740	36826.577098	3856.549478	16931.911059
88.035000	0.101671	0.068898	0.102343	0.157859	6170.383523	36805.250870	3859.202636	16906.295571
88.535500	0.101016	0.068969	0.096503	0.159198	6155.746665	36706.691702	3844.290176	16863.391930
89.035500	0.102636	0.068250	0.101585	0.158756	6170.883883	36685.224153	3855.744287	16877.536175
89.536000	0.101735	0.068595	0.102979	0.159324	6160.090952	36667.915380	3857.468952	16859.366241
90.036500	0.100376	0.069125	0.098656	0.160483	6141.677163	36619.265940	3846.081561	16822.358316
90.536000	0.100991	0.068709	0.100833	0.161243	6140.620069	36528.346482	3849.010071	16798.133695
91.036500	0.098533	0.067979	0.098852	0.161091	6123.852817	36483.666778	3845.229772	16802.958418
91.537000	0.101930	0.068558	0.095203	0.161594	6144.910699	36489.661347	3836.709369	16786.974145
92.037500	0.101785	0.069177	0.098367	0.163113	6132.791399	36420.319375	3840.074782	16738.729690
92.535000	0.102727	0.068541	0.093790	0.163191	6139.071708	36365.353410	3830.580579	16736.233811
93.035500	0.102031	0.067509	0.094388	0.163298	6133.232172	36278.023559	3831.577738	16732.855122
93.534500	0.101996	0.068700	0.096465	0.165031	6120.396004	36236.471851	3832.274896	16678.045932
95.596500	0.099534	0.066208	0.096010	0.165143	6101.812003	36037.848616	3831.123707	16674.515039
97.258000	0.103299	0.067555	0.101991	0.168387	6105.566996	35893.843920	3836.697647	16572.531603
97.357500	0.100799	0.067473	0.098878	0.167924	6090.915908	35922.752727	3831.299598	16587.034916
97.445500	0.103207	0.067511	0.094163	0.168250	6105.893388	35900.894520	3821.125899	16576.830367
97.542000	0.098566	0.067290	0.098972	0.168210	6072.894817	35887.193957	3830.912443	16578.087827
97.633000	0.102893	0.068834	0.099450	0.169489	6094.717197	35907.323728	3829.288823	16538.078848
97.729500	0.102129	0.068043	0.100558	0.169010	6092.668870	35883.718719	3832.508331	16553.054579
97.828000	0.101743	0.068206	0.100245	0.169101	6089.244370	35889.058351	3831.685703	16550.188344
98.041500	0.102269	0.066996	0.094540	0.168305	6098.740280	35857.791256	3821.773308	16575.115291
98.535000	0.103431	0.068005	0.100742	0.169979	6095.057028	35807.482923	3830.912512	16522.763898
99.040500	0.103457	0.067987	0.098160	0.170638	6090.520739	35756.407978	3824.361932	16502.228093
99.536000	0.103803	0.067155	0.101910	0.170474	6094.179929	35706.067326	3832.281127	16507.338280
