sample name	sample
index	794
start time	 03-31-2021  02:28:26 PM
880	-0.019687
Peak Time (s)	91.036
Peak Height 	-0.01969
calc peak height	90,93
Baseline Time (s)	10.036
Baseline Value 	-0.002037
subtract baseline	10,4
Abs	0.022090
Peak Time (s)	91.536
Peak Height 	0.02209
calc peak height	90,93
Baseline Time (s)	10.536
Baseline Value 	0.001147
subtract baseline	10,3
PK_550	0.016074
Peak Time (s)	91.036
Peak Height 	0.01607
calc peak height	90,93
Baseline Time (s)	11.54
Baseline Value 	3.3952E-5
subtract baseline	10,2
PK_880	0.021470
Peak Time (s)	90.038
Peak Height 	0.02147
calc peak height	90,93
Baseline Time (s)	8.535
Baseline Value 	-5.2591E-4
subtract baseline	10,1


Time (s)	A880-A510	A880-A775	A880-A975	A880	I510	I775	I975	I880	
0.038500	-0.000511	0.000006	0.004621	0.001801	6781.192942	40748.770448	4098.891641	22285.669683
0.536000	-0.000583	-0.000391	-0.004259	0.003357	6767.579629	40580.135508	4075.576795	22217.161743
1.036500	-0.000895	0.000335	0.000036	0.003736	6761.816430	40610.006102	4084.259179	22200.519908
1.537000	-0.001001	0.000231	-0.005903	0.001788	6777.195156	40769.287013	4075.412627	22286.225481
2.036500	0.000562	-0.000098	0.004578	0.001350	6793.971895	40778.699197	4099.812836	22305.554449
2.537500	0.000061	-0.000919	0.000977	0.000610	6795.990625	40771.746870	4093.360598	22338.263104
3.037500	-0.001191	-0.000306	0.003070	-0.001794	6805.683872	41033.756437	4103.521680	22444.815395
3.535000	0.000236	-0.000031	0.000585	-0.000092	6803.362613	40909.649350	4094.057154	22369.305381
4.035500	0.000504	-0.000256	-0.002173	0.000460	6800.975592	40842.177228	4086.640136	22344.870885
4.535500	-0.000292	0.000067	-0.000801	0.000680	6792.429659	40851.099692	4089.216504	22335.166602
5.036000	0.000639	0.000286	-0.001379	0.000149	6804.728461	40916.189595	4089.109073	22358.639512
5.536500	-0.001968	-0.000021	-0.002543	0.004902	6743.217557	40479.079588	4075.955463	22149.426639
6.036500	-0.000547	0.000040	-0.007857	0.000818	6789.124185	40836.724382	4073.243021	22329.028321
6.537000	0.001190	0.000944	-0.000387	0.001647	6796.760162	40843.342374	4087.977733	22292.464594
7.042500	0.000697	0.000133	-0.000967	0.000504	6802.229480	40872.132198	4089.237936	22342.948012
7.540000	0.002141	0.000257	-0.000437	0.000367	6815.575691	40894.817499	4090.732314	22349.002699
8.035000	0.001189	-0.000430	0.001588	-0.000193	6812.257667	40883.782148	4096.545542	22373.789740
8.535000	0.000000	0.000028	0.000402	0.000380	6797.402867	40873.729054	4092.584326	22348.400152
9.036000	0.000936	0.000547	-0.001104	0.000555	6803.811292	40903.589449	4088.815681	22340.678368
9.535500	0.000772	-0.000667	-0.003056	-0.000272	6809.399585	40870.031579	4086.301283	22377.276564
10.036000	-0.000293	-0.000555	0.000032	0.000000	6798.139399	40856.101455	4092.608064	22365.231651
10.536000	-0.000441	-0.000895	0.000000	-0.000438	6800.573259	40864.616068	4093.519051	22384.614884
11.037000	0.002326	0.000054	0.001368	0.000370	6817.105179	40876.905774	4094.781130	22348.857439
11.539500	-0.000019	0.000000	-0.006128	-0.000131	6801.543444	40915.664664	4079.156261	22371.014171
12.037000	0.000986	0.000966	-0.001892	0.000541	6804.356069	40941.245854	4087.085973	22341.300766
12.537500	0.002134	0.000235	-0.003698	0.000461	6814.716528	40884.667340	4083.237163	22344.818063
13.035500	0.002323	0.000441	0.000317	0.001141	6810.574271	40843.602147	4090.686405	22314.791431
13.535500	-0.000940	-0.000428	-0.003422	0.001071	6783.714848	40774.336604	4082.496954	22317.885917
14.035500	0.000612	-0.000281	-0.000606	0.002444	6785.217804	40668.332260	4085.710679	22257.343477
14.536000	0.000092	0.000235	-0.002086	0.003216	6774.390535	40646.224423	4080.697909	22223.353632
15.036000	0.001120	-0.000446	-0.001136	0.000888	6802.556861	40788.649512	4088.000334	22325.963584
15.536500	-0.004335	-0.001379	-0.004322	0.005361	6719.870087	40323.305135	4071.026163	22129.319031
16.039500	0.000002	-0.000323	-0.000013	0.001141	6791.032290	40777.396227	4089.947401	22314.798527
16.537500	0.000888	0.000111	-0.001242	0.000976	6799.865236	40829.214568	4087.567270	22322.065558
17.037500	0.002150	0.000856	0.004497	-0.002479	6839.789538	41195.136722	4108.332636	22475.314384
17.534500	0.000524	-0.000187	0.004791	0.001419	6793.074291	40765.043733	4100.140035	22302.504605
18.037500	-0.000619	0.000117	0.002318	0.001658	6781.476547	40770.637737	4094.018836	22291.948229
18.535500	-0.000662	0.000507	-0.006658	0.001969	6778.523898	40777.545093	4073.348662	22278.266870
19.036000	-0.000155	-0.000147	-0.000796	0.001828	6783.942177	40733.099034	4086.659674	22284.449762
19.535500	0.001266	0.000571	-0.001226	0.002200	6792.744539	40763.032287	4084.869562	22268.071944
20.036000	-0.001563	-0.000238	-0.004389	0.001856	6771.926980	40722.786844	4078.608535	22283.219614
20.536500	-0.002662	-0.000131	-0.002357	0.001854	6762.781228	40732.303966	4083.123862	22283.334644
21.036500	0.001892	0.000114	-0.004361	0.001938	6800.218754	40746.151837	4078.488332	22279.613308
21.536500	-0.000530	0.000032	-0.001846	0.001571	6782.950203	40770.794000	4084.889031	22295.783304
22.037500	-0.000145	0.000195	-0.001312	0.002171	6781.150204	40732.970218	4084.742973	22269.330336
22.535000	0.000347	-0.000181	-0.003066	0.001524	6790.707577	40756.428816	4082.279148	22297.861482
23.038000	-0.001383	-0.000333	-0.003369	0.001575	6775.776689	40738.870303	4081.492359	22295.606249
23.536000	-0.001550	0.000155	0.005536	0.002049	6770.425358	40740.161993	4100.399774	22274.728515
24.035500	-0.002536	-0.000549	0.001808	0.001329	6768.210081	40741.499552	4093.612075	22306.487401
24.539000	-0.000430	-0.000351	-0.005572	0.001303	6786.041987	40760.881954	4077.213256	22307.619214
25.116000	0.001321	-0.000318	-0.000114	0.001851	6796.142161	40716.367871	4088.130470	22283.439143
25.539500	-0.000626	0.000048	0.002267	0.001722	6780.890958	40759.227475	4093.760750	22289.147211
26.040000	-0.001523	-0.000340	-0.001797	0.001608	6774.331887	40735.399514	4084.917279	22294.154252
26.537500	0.000743	0.000402	-0.001744	0.002068	6789.460409	40759.836451	4084.010354	22273.872719
27.038000	0.000296	0.000238	0.001797	-0.001197	6813.195933	41029.241701	4099.285853	22418.317578
27.535500	-0.002982	-0.000187	-0.008091	0.004150	6741.047093	40529.418958	4065.424355	22182.361766
28.048500	0.000574	0.000362	-0.001793	0.001177	6795.533153	40833.585016	4085.886862	22313.204468
28.560000	0.002552	-0.000027	-0.005271	0.000939	6814.211573	40820.511741	4078.686152	22323.709856
29.037000	-0.000042	0.000201	-0.001941	0.001230	6789.903257	40814.959247	4085.436739	22310.827554
29.536500	-0.001639	0.000771	-0.006647	0.003418	6758.273201	40675.024904	4070.187232	22214.479995
30.039000	0.003347	-0.000402	0.002963	0.001090	6819.658361	40774.958197	4096.751711	22317.038812
30.537000	0.002391	0.000309	-0.000774	0.001314	6809.680176	40817.089145	4087.856530	22307.146352
31.039500	0.000386	-0.000543	-0.003168	0.002368	6783.960804	40652.304008	4080.179568	22260.684712
31.537000	-0.000971	-0.000675	-0.006140	0.002349	6772.754572	40642.537989	4073.652123	22261.493370
32.036000	0.000706	-0.000085	0.001891	0.000769	6800.068848	40830.206531	4095.058823	22331.210430
32.535500	0.001198	0.000211	-0.002777	0.001192	6800.660762	40819.244184	4083.662860	22312.547625
33.035500	0.000751	-0.000569	-0.002664	0.000938	6799.035866	40773.647592	4084.479705	22323.763670
33.535500	-0.002910	-0.000202	-0.003463	0.004751	6736.670097	40476.438419	4074.258375	22156.022476
34.038500	0.001919	-0.000495	0.000888	-0.001927	6833.131305	41028.920733	4098.880211	22450.741098
34.537000	0.000711	-0.000418	-0.000179	0.002011	6789.668814	40693.822885	4087.627380	22276.380244
35.036500	-0.001328	-0.000034	-0.004474	0.002097	6771.880190	40719.670934	4077.887640	22272.622904
35.536500	-0.001155	-0.000421	-0.001404	0.002178	6772.653630	40679.235921	4084.524633	22269.054557
36.040000	-0.001768	-0.000782	-0.000935	0.001882	6770.002916	40673.556022	4086.227436	22282.082027
36.535000	-0.001046	-0.000233	-0.004897	0.002157	6773.738195	40697.236325	4076.819336	22269.966208
37.034500	0.000152	0.000176	-0.002484	0.002382	6781.872852	40713.175093	4081.666510	22260.042281
37.535000	-0.002653	-0.000162	-0.004837	0.002228	6759.744733	40697.259872	4076.796046	22266.850580
38.038000	-0.000479	-0.000396	0.000930	0.001629	6782.901091	40728.865807	4090.967247	22293.254753
38.536000	-0.002302	0.000026	-0.000916	0.002737	6758.425874	40669.574511	4084.363925	22244.429922
39.036500	-0.000632	-0.000578	-0.001063	0.001887	6779.458458	40690.776794	4085.932013	22281.855250
39.536500	-0.001919	-0.000094	-0.007553	0.002314	6765.142458	40695.715239	4070.623601	22263.060092
40.036000	0.000128	-0.000250	-0.002933	0.002085	6784.164861	40702.012501	4081.328277	22273.142545
40.540000	0.000165	-0.000219	0.003286	0.002531	6780.739966	40666.144775	4094.232063	22253.490598
41.040500	0.000575	0.000573	0.000480	0.002547	6784.036152	40733.192638	4087.904315	22252.784429
41.534500	-0.003633	-0.001093	0.000168	0.001498	6757.658807	40679.943830	4089.553412	22299.028940
42.035000	-0.000948	-0.000148	-0.001877	0.002387	6772.631693	40684.686589	4083.005001	22259.826273
42.535500	0.000224	-0.000439	0.001099	0.002016	6785.543702	40691.645068	4090.477912	22276.173257
43.035000	-0.001816	-0.000087	-0.000031	0.002070	6768.027764	40717.417641	4087.828437	22273.796976
43.536000	-0.001054	-0.000621	-0.002652	0.001277	6781.034489	40739.788437	4083.750771	22308.791636
44.036000	-0.000724	-0.000059	-0.004419	0.001760	6779.748288	40746.650474	4078.754302	22287.458217
44.536500	0.003798	0.000616	0.003387	-0.001920	6849.062121	41125.258284	4104.528307	22450.425824
45.037000	-0.000053	0.000653	-0.003434	0.001879	6784.374155	40797.972998	4080.673035	22282.210652
45.562000	0.001760	0.000617	0.006511	0.001144	6805.794498	40858.633529	4104.668203	22314.667648
46.034500	0.001758	-0.000430	-0.001681	0.001092	6806.215211	40772.299230	4086.327362	22316.946557
46.534500	-0.000829	0.000477	-0.000887	0.001727	6779.139379	40795.840336	4086.681690	22288.902868
47.037500	-0.000696	-0.000033	0.000711	0.001100	6785.507436	40805.939425	4091.661100	22316.569647
47.536000	0.001141	-0.000214	0.003268	0.000741	6803.965397	40821.391898	4098.227465	22332.430710
48.035500	0.001555	0.000230	-0.001845	0.002925	6789.087622	40670.915970	4081.879892	22236.177605
48.539000	0.000810	0.000418	-0.001473	0.003102	6781.355397	40671.936424	4082.313782	22228.389307
49.036500	0.000864	-0.000688	-0.002777	0.000327	6805.125408	40816.234110	4085.587910	22350.746050
49.537000	-0.001375	0.000167	-0.002494	0.002538	6767.803795	40698.887216	4081.298893	22253.194608
50.039500	-0.000334	-0.000650	-0.000065	0.000931	6789.964622	40767.206335	4090.300369	22324.037854
50.537000	0.002457	0.000157	0.003114	-0.001362	6832.899233	41036.488903	4102.641798	22425.616374
51.040000	0.001295	0.000152	0.001792	-0.000626	6816.806950	40971.947020	4097.981256	22392.946464
51.535500	-0.001949	-0.000367	-0.000399	0.014505	6664.658118	39634.241823	4059.626223	21733.615080
52.035000	-0.049153	0.000270	-0.007300	0.192729	5239.082326	27397.738719	3732.483282	15473.786254
52.536000	-0.053766	-0.008324	-0.016480	-0.051544	6781.940986	44852.207123	4174.564491	24788.343025
53.041500	-0.044734	-0.125628	-0.017908	-0.343858	10425.115589	65535.000000	5183.287332	45579.871915
53.536500	-0.049886	-0.158894	-0.012768	-0.377123	10912.028769	65535.000000	5374.332048	48958.676570
54.036500	-0.032767	-0.137916	-0.009788	-0.356146	10843.328935	65535.000000	5282.700277	46797.947291
54.536500	-0.045117	-0.103112	-0.010413	-0.321341	10051.155368	65535.000000	5113.042430	43435.453136
55.037500	-0.035271	-0.111010	-0.008534	-0.329239	10339.186534	65535.000000	5158.485543	44175.001224
55.535000	-0.028683	-0.080027	-0.011526	-0.297087	9927.886715	65367.352079	4999.790285	41246.534969
56.035500	-0.020063	-0.084704	-0.010438	-0.302934	10157.663883	65535.000000	5030.094783	41763.045460
56.535000	-0.013263	-0.076686	-0.007553	-0.294211	10126.681276	65433.945929	5004.551890	40994.985182
57.035000	-0.013294	-0.040755	-0.005419	-0.240865	9319.125227	62986.766203	4794.595782	36618.903121
57.536000	-0.011625	-0.024459	0.001463	-0.204446	8844.283026	60278.624702	4684.293337	33925.665124
58.036000	-0.009956	-0.016218	-0.006442	-0.179809	8550.648398	58163.079816	4571.148038	32227.633055
58.536000	-0.009176	-0.012243	-0.011300	-0.160805	8328.475585	56292.726231	4493.409191	30982.133227
59.036500	-0.008373	-0.010063	-0.001458	-0.142222	8120.513682	54323.965091	4465.981821	29815.747138
59.537000	-0.006918	-0.007192	-0.005442	-0.123593	7927.561176	52501.266840	4397.539270	28695.532856
60.036500	-0.003864	-0.001001	-0.007522	-0.110051	7813.431259	51673.477983	4352.297283	27910.871138
60.537000	-0.001980	-0.001078	-0.000818	-0.088933	7611.132898	49363.361979	4311.970103	26734.979030
61.035000	-0.007501	-0.002930	-0.007179	-0.083576	7500.640727	48603.097832	4280.160846	26445.699464
61.535000	-0.004645	-0.002177	-0.000993	-0.094556	7641.661985	49846.966515	4327.054391	27042.502639
62.036000	-0.004261	0.000135	-0.004683	-0.087192	7569.952978	49307.228214	4296.643582	26640.557383
62.536000	-0.002491	0.000300	-0.001760	-0.093238	7650.335243	49971.823388	4321.261820	26970.088493
63.036000	0.010599	0.005941	-0.004255	-0.091081	7765.222938	50348.742331	4308.431278	26852.018959
63.536500	0.011072	0.005979	-0.003175	-0.091389	7773.536849	50386.323918	4312.244335	26868.848472
64.037000	0.013198	0.008278	-0.001289	-0.087201	7751.605475	50181.327542	4305.923353	26641.049920
64.562500	0.015371	0.007859	-0.003341	-0.086231	7764.380721	50031.289440	4297.679438	26588.603714
65.043000	0.012896	0.007686	0.005133	-0.082818	7702.164907	49645.988399	4311.518930	26405.032984
65.538000	0.014856	0.008893	-0.002328	-0.077930	7671.540610	49253.846581	4278.031968	26144.632059
66.035000	0.013353	0.009849	-0.001504	-0.073931	7614.544798	48932.092951	4269.576771	25933.752565
66.535500	0.013893	0.008612	-0.006008	-0.072438	7604.749671	48645.265512	4253.770606	25855.492613
67.039000	0.016275	0.009832	0.002067	-0.068312	7586.869889	48342.048826	4264.153401	25640.653518
67.536500	0.014391	0.010322	-0.002722	-0.065350	7537.570877	48085.676238	4243.861671	25487.699182
68.036500	0.014876	0.010865	0.004720	-0.060893	7497.572314	47682.775651	4251.632707	25259.492497
68.536500	0.014504	0.011288	0.003797	-0.057134	7456.355832	47342.180479	4239.466118	25068.827400
69.037000	0.017346	0.011045	0.003538	-0.054124	7454.684542	47012.614507	4231.049307	24917.359768
69.537000	0.015504	0.010342	0.005768	-0.052329	7418.744291	46761.209936	4232.168117	24827.539978
70.035000	0.016163	0.010331	0.003208	-0.050817	7410.350289	46608.680996	4221.760224	24752.143063
70.535000	0.016642	0.012231	0.000841	-0.047243	7380.056880	46441.575841	4206.750764	24574.981582
71.035500	0.014957	0.011643	0.007415	-0.046739	7358.758032	46332.846043	4222.086442	24550.103760
71.538000	0.016303	0.011926	0.004188	-0.045406	7358.884370	46228.697541	4210.545177	24484.490299
72.035500	0.015710	0.011590	0.008292	-0.044589	7345.231233	46114.601433	4218.854092	24444.387858
72.536000	0.015612	0.012064	0.007432	-0.043571	7334.437117	46060.769613	4214.097222	24394.456274
73.035500	0.016049	0.011635	0.009265	-0.042355	7326.932319	45898.674388	4215.657426	24335.034611
73.537000	0.016258	0.012270	0.010931	-0.040915	7315.088916	45819.537943	4216.229784	24264.856145
74.037000	0.016362	0.012331	0.010844	-0.040228	7309.499090	45758.071723	4214.271975	24231.452931
74.537500	0.017356	0.013057	0.007591	-0.038784	7305.185288	45687.720760	4202.469251	24161.445953
75.035000	0.017656	0.013340	0.016178	-0.037822	7298.853792	45621.348414	4221.697187	24114.941214
75.535000	0.016968	0.013120	0.010074	-0.037586	7290.012199	45576.740617	4205.686728	24103.520532
76.036000	0.015256	0.012208	0.012075	-0.037947	7277.137296	45523.084397	4211.624085	24120.974064
76.535500	0.014604	0.012445	0.007203	-0.036630	7258.443509	45417.845164	4196.134378	24057.436107
77.035500	0.017547	0.013062	0.009360	-0.034500	7266.145150	45270.916234	4196.202148	23955.057951
77.536500	0.017328	0.013636	0.011035	-0.034086	7260.149928	45286.467127	4199.340511	23935.238822
78.036500	0.019605	0.014154	0.011791	-0.032392	7265.671817	45172.590235	4197.004258	23854.258193
78.537000	0.018514	0.014326	0.012574	-0.030847	7240.742486	45040.085688	4195.113326	23780.704888
79.036500	0.017372	0.015113	0.013318	-0.028873	7211.451871	44925.725229	4192.061290	23687.064587
79.537500	0.016928	0.014113	0.014556	-0.029438	7212.583770	44884.000979	4196.534529	23713.827712
80.035000	0.016568	0.013786	0.013238	-0.029658	7211.266935	44873.707081	4193.807524	23724.236246
80.535000	0.016845	0.013967	0.009647	-0.029354	7211.018213	44861.926431	4184.195286	23709.846573
81.035500	0.016521	0.013735	0.009145	-0.029083	7205.443803	44813.559835	4182.295780	23696.996792
81.536000	0.017810	0.013669	0.017008	-0.028465	7211.732857	44748.167331	4200.217380	23667.787898
82.036000	0.017406	0.012623	0.010937	-0.028492	7208.200696	44650.619188	4185.246840	23669.042708
82.536500	0.018572	0.014038	0.015059	-0.026808	7203.357877	44624.988083	4191.261727	23589.599619
83.036000	0.017031	0.013602	0.009224	-0.026891	7189.752173	44591.319744	4177.126210	23593.487937
83.537000	0.016815	0.013513	0.012599	-0.026481	7183.927954	44543.836603	4184.390627	23574.214136
84.034500	0.017876	0.013715	0.016846	-0.025794	7187.405025	44497.577201	4193.173850	23541.888195
84.534500	0.016026	0.013457	0.015710	-0.025760	7169.903266	44469.792156	4190.278167	23540.274913
85.035000	0.014147	0.013591	0.017078	-0.024130	7137.508911	44327.831407	4189.632926	23463.865094
85.538500	0.017822	0.014534	0.021268	-0.024056	7170.759762	44410.286626	4199.845924	23460.399053
86.035500	0.017987	0.014703	0.011642	-0.023433	7166.518046	44367.184095	4174.591465	23431.270117
86.536000	0.018143	0.014117	0.019398	-0.023646	7169.927477	44331.809988	4194.177017	23441.215918
87.036000	0.016812	0.013458	0.013263	-0.021675	7139.430060	44083.266461	4174.256072	23349.250595
87.536500	0.019720	0.013696	0.014798	-0.022748	7176.226214	44206.919937	4180.624909	23399.255065
88.037000	0.019602	0.013942	0.022407	-0.022700	7174.688821	44225.700834	4199.304517	23397.031506
88.537500	0.019868	0.014704	0.014053	-0.021547	7166.460732	44188.702716	4175.870672	23343.310213
89.035000	0.020711	0.014737	0.018155	-0.021186	7170.929974	44157.699552	4185.029774	23326.498930
89.535000	0.019340	0.015801	0.014683	-0.020665	7153.429599	44209.103027	4175.257586	23302.322044
90.038000	0.021470	0.015111	0.020337	-0.020983	7176.090242	44173.972215	4189.909190	23317.089107
90.535500	0.018979	0.014412	0.013960	-0.021124	7154.331946	44121.275803	4174.612879	23323.630021
91.036000	0.020115	0.016074	0.018400	-0.019687	7151.560033	44142.532908	4181.952727	23256.971289
91.536000	0.019131	0.014760	0.022090	-0.020750	7152.278975	44118.778758	4193.669125	23306.243990
92.036000	0.020470	0.016022	0.019801	-0.020057	7158.242625	44172.457757	4186.303353	23274.094295
92.537000	0.020027	0.015523	0.021846	-0.020092	7154.476169	44128.760220	4191.436636	23275.725899
93.034500	0.017951	0.015453	0.018755	-0.019840	7133.034581	44098.345030	4183.197971	23264.046012
93.534500	0.018628	0.015165	0.014611	-0.020303	7143.520981	44114.926924	4174.198595	23285.517053
94.035000	0.019415	0.016305	0.021456	-0.019708	7145.296474	44166.340416	4189.523085	23257.933777
94.534500	0.018304	0.016101	0.018162	-0.019118	7129.651584	44091.469827	4179.975692	23230.617319
95.052000	0.019991	0.015428	0.020802	-0.019703	7150.553385	44083.155278	4187.897296	23257.692625
95.549000	0.018611	0.015814	0.014884	-0.019826	7138.973971	44131.039295	4173.700774	23263.377681
96.036000	0.018782	0.016340	0.019336	-0.019029	7133.218084	44105.488227	4182.632602	23226.479067
96.535500	0.018960	0.015922	0.018842	-0.019488	7139.071355	44109.397007	4182.547325	23247.713975
97.037000	0.019226	0.015809	0.019850	-0.019532	7141.924841	44102.858905	4185.132110	23249.765894
97.549500	0.020165	0.014819	0.016937	-0.020009	7154.986163	44054.603932	4179.157418	23271.872058
98.037000	0.018582	0.015287	0.022011	-0.019825	7138.701285	44081.401151	4191.184421	23263.363063
