sample name	sample
index	694
start time	 03-22-2021  12:33:50 PM
880	0.034642
Peak Time (s)	92.541
Peak Height 	0.03464
calc peak height	90,93
Baseline Time (s)	8.539
Baseline Value 	-0.005093
subtract baseline	10,4
Abs	0.004666
Peak Time (s)	90.536
Peak Height 	0.004666
calc peak height	90,93
Baseline Time (s)	11.037
Baseline Value 	0.005899
subtract baseline	10,3
PK_550	0.007418
Peak Time (s)	90.036
Peak Height 	0.007418
calc peak height	90,93
Baseline Time (s)	8.539
Baseline Value 	4.4492E-4
subtract baseline	10,2
PK_880	0.007131
Peak Time (s)	90.536
Peak Height 	0.007131
calc peak height	90,93
Baseline Time (s)	9.036
Baseline Value 	0.003397
subtract baseline	10,1


Time (s)	A880-A510	A880-A775	A880-A975	A880	I510	I775	I975	I880	
0.039000	-0.002894	-0.000320	-0.003912	0.001251	7367.505750	45773.751341	3974.666906	24225.273437
0.537000	-0.003237	0.000048	-0.004159	0.004920	7326.158286	45449.069339	3964.529872	24045.573811
1.037000	-0.005328	-0.000423	-0.007963	0.006558	7288.085023	45243.069464	3950.593225	23965.880001
1.540000	-0.003422	-0.000473	-0.001574	0.001253	7362.031935	45758.481059	3980.760081	24225.192974
2.037500	-0.001204	-0.000470	0.001227	-0.000119	7399.302608	45894.377311	3991.722601	24292.773797
2.535000	-0.000872	-0.000326	0.002909	0.000319	7398.193141	45865.280544	3995.011980	24271.160140
3.036000	-0.005033	-0.000357	-0.007481	0.005296	7303.942616	45372.630808	3955.038663	24027.239430
3.536000	0.001022	-0.000168	-0.001693	-0.000173	7423.125931	45929.621870	3984.181765	24295.438521
4.038500	-0.001900	-0.000674	-0.002318	-0.000949	7400.690837	45956.278318	3984.577871	24333.732722
4.536500	-0.001802	-0.000498	0.001503	-0.000579	7397.858943	45937.091546	3993.667258	24315.459459
5.036500	-0.003256	-0.000562	-0.003972	0.002879	7346.951488	45589.547545	3970.287051	24145.340340
5.536500	-0.000194	0.000105	-0.001103	-0.000573	7414.579603	45996.275028	3986.780528	24315.165334
6.037000	0.000932	0.000477	-0.000822	0.000238	7417.873862	45952.718245	3985.389294	24275.143180
6.537500	0.000837	-0.000190	-0.001280	0.000136	7417.949259	45896.751657	3984.455103	24280.180450
7.035000	-0.000648	-0.000468	-0.003024	-0.000469	7408.747577	45929.179136	3981.468961	24310.018357
7.535500	-0.000454	-0.000319	-0.000335	0.000060	7405.242937	45891.508742	3987.134322	24283.900099
8.035500	-0.000776	-0.000188	-0.001475	-0.000433	7407.034833	45953.266339	3985.433998	24308.230967
8.538500	-0.000935	0.000000	0.003209	0.000000	7400.860012	45929.070425	3996.651971	24286.882022
9.036000	0.000000	-0.000150	0.001329	-0.000807	7419.059566	45994.166333	3993.808875	24326.709737
9.535500	-0.000097	-0.000193	-0.000241	-0.000728	7417.216137	45982.053472	3989.457200	24322.811680
10.035500	0.000899	0.000702	0.001040	0.000231	7417.604734	45975.746926	3990.307561	24275.504264
10.537000	0.001511	0.000775	-0.001669	0.000250	7423.822096	45981.106682	3983.136373	24274.561116
11.037500	-0.000344	-0.000245	0.000000	-0.000151	7408.597178	45919.708761	3988.571845	24294.325505
11.535000	0.000522	0.000938	-0.005051	0.000142	7414.592301	46007.999776	3974.591320	24279.883675
12.035000	-0.003445	0.000478	-0.000640	-0.000071	7375.502260	45983.533964	3986.680378	24290.405605
12.535500	-0.001647	0.000143	-0.005030	0.003814	7353.907605	45566.960921	3965.137535	24099.602893
13.038000	0.000766	0.000379	-0.003087	0.000412	7414.321641	45925.785966	3979.004690	24266.587886
13.536000	0.000565	0.000534	-0.002751	0.000797	7408.194796	45903.002135	3978.877032	24247.617658
14.036000	-0.002469	-0.000320	-0.003541	0.002921	7354.635589	45609.266187	3971.295554	24143.316781
14.536500	-0.002515	0.000217	-0.001272	0.004447	7338.445230	45512.059593	3973.223531	24068.692129
15.037000	0.000553	0.000147	-0.002591	0.000599	7410.137783	45884.335241	3979.809123	24257.350606
15.537000	0.000840	0.000821	-0.002553	0.001096	7407.952546	45901.836349	3978.613920	24232.914338
16.036500	-0.001097	-0.000413	-0.000399	-0.000016	7399.339418	45889.786678	3987.167838	24287.686562
16.535000	-0.002841	0.000269	-0.007502	0.003949	7340.199823	45566.050221	3958.432926	24092.975200
17.035000	0.002051	0.001053	-0.000143	-0.001967	7452.808108	46229.247063	3992.985128	24384.106915
17.538500	-0.001988	-0.000117	-0.004071	0.001048	7379.003294	45813.892779	3974.784407	24235.272029
18.035500	-0.000574	0.000166	-0.001982	0.001798	7385.893303	45767.641122	3978.270109	24198.367847
18.536000	-0.000938	0.000114	-0.002046	0.002373	7376.140469	45705.800926	3976.604574	24170.148340
19.036000	-0.000334	0.000088	-0.002740	0.001587	7390.590120	45780.891755	3976.844551	24208.772891
19.536500	0.001466	0.000208	-0.003325	0.002125	7403.734448	45739.616849	3973.923323	24182.334785
20.036500	-0.000511	0.000664	-0.002482	0.001967	7384.790605	45800.142137	3976.525683	24190.078259
20.537500	-0.002255	0.000218	-0.006247	0.002876	7357.314021	45666.514944	3964.415744	24145.501388
21.037500	-0.002242	0.000654	-0.003810	0.002161	7364.833098	45779.976733	3972.568443	24180.552329
21.535000	-0.000411	0.000633	-0.003511	0.002254	7382.849050	45768.782738	3973.101744	24175.990150
22.038000	0.000627	0.000405	-0.007914	0.002331	7392.846258	45738.700802	3961.528926	24172.208354
22.536000	-0.001463	0.000276	-0.004842	0.003314	7360.967035	45629.171341	3966.910742	24124.050983
23.036000	0.000130	0.000891	0.002386	0.002627	7384.596429	45757.353817	3987.539225	24157.686779
23.536000	0.000892	0.000766	0.001646	0.002876	7389.927157	45720.529285	3984.941581	24145.484631
24.036500	-0.001708	0.000010	-0.005233	0.001971	7372.334339	45735.183779	3969.371640	24189.877626
24.537000	-0.001600	-0.000456	0.000220	0.003335	7359.337446	45555.176992	3980.005446	24123.019880
25.036500	-0.001553	0.000296	-0.000220	0.002239	7371.153329	45736.989815	3981.719972	24176.717077
25.537500	-0.002033	0.000312	-0.001841	0.002663	7361.806979	45696.737304	3976.383084	24155.923662
26.035000	-0.000984	0.001197	0.001324	0.002703	7372.249307	45780.121919	3984.552171	24153.990471
26.537500	-0.001031	0.000659	-0.001313	0.004083	7357.484974	45591.180601	3974.062014	24086.440481
27.035000	0.000712	0.001150	0.002818	-0.000524	7423.553709	46095.214105	3997.003373	24312.721223
27.536000	-0.000674	-0.000311	-0.001199	0.000104	7402.499483	45888.042622	3984.750594	24281.764044
28.036000	0.001224	-0.000061	-0.000351	0.000908	7413.925385	45833.167405	3984.867803	24242.149694
28.536000	-0.000181	0.000918	-0.003824	0.001833	7389.623888	45838.549993	3973.384841	24196.685017
29.037000	0.000429	0.000211	-0.001704	0.001231	7402.240484	45828.157750	3980.475933	24226.251207
29.534500	0.000143	0.000483	-0.005199	0.001940	7391.875925	45784.986663	3969.540232	24191.419344
30.037500	0.000439	0.000913	-0.000044	0.001451	7400.058706	45875.768498	3984.246454	24215.437374
30.537000	0.000556	0.001167	-0.004602	0.004766	7366.829051	45574.037998	3963.785755	24053.094602
31.038000	0.000148	0.000647	0.001105	0.002480	7386.315300	45747.951613	3984.562689	24164.935488
31.535000	0.001706	0.000504	0.002483	0.001642	7411.290136	45816.498297	3990.390651	24206.060309
32.035500	-0.000538	0.000694	-0.001415	0.001272	7391.740200	45871.825147	3981.124927	24224.235597
32.537500	-0.003085	-0.000047	-0.002055	0.005291	7323.911437	45403.445079	3969.005142	24027.487295
33.036000	-0.001600	0.000144	-0.002405	0.004675	7345.507476	45482.503686	3969.693435	24057.518319
33.536500	0.001149	0.001224	0.006445	-0.000555	7428.470789	46105.676809	4006.746263	24314.285654
34.036500	0.000754	0.000463	0.000026	0.003037	7386.818130	45674.785658	3980.277579	24137.601525
34.537000	-0.000002	0.000698	0.002078	0.003336	7375.862942	45668.475285	3984.867803	24122.954243
35.037500	0.000074	0.000901	0.000797	0.004035	7369.414744	45619.704976	3979.685012	24088.787853
35.537500	0.000738	0.001397	-0.001754	0.004148	7375.125768	45657.476940	3972.750049	24083.291370
36.035500	-0.000555	0.001155	0.000656	0.004149	7361.715573	45633.453037	3979.017910	24083.207685
36.534000	-0.002097	0.000528	0.000574	0.004462	7342.584176	45541.079436	3977.988130	24067.919299
37.035500	0.000025	0.000423	0.004466	0.004095	7368.280029	45566.832765	3989.152912	24085.867597
37.535500	-0.000769	0.000929	0.001124	0.003962	7361.445506	45629.626599	3980.731454	24092.356109
38.036000	-0.000620	0.000899	-0.003810	0.004073	7361.835883	45615.791600	3967.617592	24086.932780
38.536500	0.000762	0.001616	0.000642	0.005587	7360.471863	45537.503525	3975.234977	24013.108452
39.036500	-0.000202	0.000594	0.000208	0.003784	7369.151594	45614.256597	3978.803857	24101.080545
39.534500	-0.000583	0.000933	0.000627	0.004516	7357.637646	45575.549215	3977.985961	24065.304449
40.040500	-0.001003	0.000769	-0.001370	0.003932	7359.327910	45616.821356	3974.304315	24093.802173
40.535000	-0.002224	0.001073	-0.002770	0.005463	7330.997993	45496.444173	3966.712922	24019.146267
41.035000	0.003082	0.001385	0.003012	0.004276	7398.153269	45643.558407	3984.852259	24076.999856
41.535500	-0.000419	0.000445	0.000686	0.003758	7367.174466	45602.128062	3980.119350	24102.330903
42.035500	0.002005	0.001110	-0.002748	0.004304	7386.665161	45613.852060	3969.768263	24075.668006
42.539000	0.000338	0.001233	0.003895	0.005344	7358.597652	45523.721590	3984.368173	24024.908632
43.036500	-0.001307	0.000805	-0.003298	0.004041	7355.062725	45609.667648	3969.022338	24088.484701
43.536500	-0.000099	0.001006	0.004928	0.002226	7386.382990	45808.380313	3995.306714	24177.358218
44.037000	0.002858	0.001839	0.002551	0.000207	7438.416266	46091.102571	3994.362161	24276.698255
44.542500	-0.002767	0.000425	-0.000444	0.005433	7325.722010	45435.803802	3972.812862	24020.578553
45.037000	0.000748	0.000741	0.001329	0.003328	7383.740873	45673.518064	3982.925246	24123.375794
45.534500	0.001346	0.001127	0.003056	0.003116	7392.156763	45732.441370	3988.015496	24133.733004
46.035500	0.001268	0.000775	0.002618	0.002568	7397.052943	45751.806139	3988.305272	24160.576775
46.535500	0.000656	0.001809	-0.001925	0.006486	7350.100190	45468.238953	3966.252884	23969.380786
47.036000	0.000716	0.000941	-0.002603	0.004704	7369.124667	45557.833762	3969.106720	24056.115867
47.536000	-0.001223	0.000479	-0.002577	0.004730	7348.824068	45510.004603	3969.104310	24054.844605
48.036500	0.001836	0.000919	0.004213	0.002924	7399.264366	45730.904280	3991.572790	24143.162951
48.537000	-0.000109	0.001034	0.002214	0.006433	7342.757254	45397.535473	3977.124033	23971.923835
49.040000	0.001218	0.000616	0.002109	0.003324	7388.656075	45661.628117	3984.982154	24123.549030
49.534500	0.003950	0.000548	0.002613	-0.000277	7455.009996	46010.851957	3995.806275	24300.559897
50.034500	0.002734	0.001478	0.003935	0.000850	7430.346186	45991.301756	3996.322069	24244.988732
50.535000	-0.013728	-0.005421	0.003415	0.006654	7202.526630	44749.339178	3979.682757	23961.195696
51.035500	-0.075249	-0.019776	-0.014936	0.231537	5111.300459	27026.354343	3493.212468	15435.349229
51.536000	-0.054292	-0.020056	-0.025956	-0.072313	7602.924029	51430.302341	4116.917212	28167.570583
52.036000	-0.075685	-0.105999	-0.031531	-0.269071	9956.654045	65535.000000	4820.189610	42667.531916
52.536000	-0.093012	-0.303155	-0.069524	-0.466227	13590.973467	65535.000000	5694.408014	65535.000000
53.036500	-0.038764	-0.158807	-0.012233	-0.321879	11582.662435	65535.000000	5176.883103	47813.684304
53.539500	-0.057307	-0.140400	-0.011974	-0.303472	10872.171662	65535.000000	5081.455645	45948.421876
54.037000	-0.052589	-0.091066	-0.008833	-0.254096	10090.383702	65528.941033	4855.628596	41318.582676
54.534500	-0.043026	-0.096714	-0.017748	-0.259786	10348.408127	65535.000000	4840.753472	41825.680251
55.038000	-0.020110	-0.108709	-0.011721	-0.271781	10974.245917	65535.000000	4925.304668	42916.698272
55.535500	-0.012064	-0.088653	-0.006217	-0.251726	10753.254659	65535.000000	4856.763776	41109.281429
56.035500	-0.014346	-0.054926	-0.004071	-0.210097	9995.330438	64405.788867	4681.959649	37613.807523
56.536000	-0.016515	-0.028914	-0.003881	-0.164836	9258.337020	61739.494901	4500.905392	34174.894254
57.036000	-0.012786	-0.016405	-0.007520	-0.124037	8735.811562	58029.200357	4339.877496	31367.646010
57.536000	-0.016648	-0.010110	-0.006577	-0.082796	8157.373325	53767.456497	4207.434236	28785.718579
58.039500	-0.013465	-0.007329	-0.004250	-0.060546	7930.337190	51537.611321	4146.355581	27491.274445
58.537500	-0.001203	-0.001163	-0.004889	-0.043290	7872.488935	50311.493028	4093.834614	26532.021485
59.034500	-0.003202	-0.000285	-0.003210	-0.022094	7612.429326	48144.786331	4038.968443	25404.808161
59.534500	-0.010534	-0.001277	-0.005982	-0.001516	7317.347919	45952.743349	3976.482407	24361.803365
60.035500	-0.012301	0.000103	-0.009633	0.009951	7183.918122	44964.392768	3937.781308	23801.647504
60.535000	-0.014268	-0.000308	-0.008777	0.022560	7041.594013	43722.274860	3908.612817	23202.611688
61.036000	-0.012850	-0.000754	-0.007125	0.026656	7015.963378	43297.574604	3902.644131	23011.708740
61.536000	-0.008210	0.002431	-0.005659	0.035615	6974.948730	42764.146236	3884.557779	22600.407501
62.036000	-0.006157	0.004016	-0.005939	0.039253	6960.005391	42576.185163	3875.224507	22435.782604
62.539500	0.000635	0.006167	-0.010701	0.029022	7123.424686	43723.425375	3888.276607	22902.246420
63.036500	0.002475	0.005815	-0.006260	0.024322	7187.937401	44134.159966	3910.462884	23120.249755
63.537000	0.004119	0.006253	-0.002348	0.023459	7212.934421	44257.913583	3922.239168	23160.549583
64.040000	0.003960	0.005918	-0.000326	0.022106	7224.871652	44354.865623	3930.640486	23223.845061
64.537000	0.001511	0.005048	-0.008634	0.026099	7160.791557	43893.372915	3900.329758	23037.567463
65.038000	0.005879	0.006433	-0.003751	0.021405	7251.217918	44471.172635	3923.855197	23256.751852
65.538500	0.002526	0.005193	-0.005097	0.019844	7233.179337	44501.823282	3924.386448	23330.151352
66.035500	0.004017	0.005016	-0.003110	0.019091	7255.780443	44557.027854	3931.216906	23365.673085
66.536000	0.003313	0.006574	-0.006812	0.023674	7202.739531	44267.981893	3910.699246	23150.515377
67.039000	0.002998	0.005550	-0.005148	0.019333	7243.062855	44585.027719	3925.529305	23354.241245
67.536500	0.002799	0.005263	-0.006447	0.019791	7236.462430	44513.653226	3921.169952	23332.657939
68.037000	0.004588	0.006258	-0.004896	0.021324	7239.033744	44462.114837	3921.212556	23260.537017
68.537500	0.003828	0.006289	-0.001550	0.026087	7183.844158	44011.805577	3917.708521	23038.108101
69.035000	0.006104	0.005649	-0.007252	0.023639	7231.016185	44183.346312	3909.704497	23152.144874
69.535000	0.006993	0.006429	-0.001725	0.025251	7223.759764	44104.343608	3919.344759	23077.002352
70.035500	0.006105	0.006591	-0.005551	0.025956	7207.828503	44052.868848	3908.195986	23044.215793
70.535500	0.004481	0.007148	-0.006513	0.030140	7150.228129	43710.590083	3895.676342	22850.752145
71.036000	0.006848	0.008031	-0.006083	0.028068	7194.173884	43989.169715	3901.743456	22946.316313
71.539000	0.007597	0.007563	-0.001344	0.027462	7207.676077	44002.186227	3914.825835	22974.331215
72.036500	0.007904	0.008407	-0.001395	0.028122	7204.165162	44019.657563	3913.078327	22943.832195
72.537000	0.004543	0.007299	-0.005030	0.031338	7139.045613	43612.369041	3896.365461	22795.715216
73.037000	0.008702	0.008187	-0.004619	0.028989	7203.473642	43916.808881	3903.065336	22903.765400
73.537500	0.007165	0.008460	-0.002126	0.029276	7185.315838	43915.533798	3908.453762	22890.541115
74.035000	0.007515	0.008502	0.000775	0.029363	7187.932015	43911.266055	3915.364540	22886.525141
74.535000	0.003662	0.008235	-0.005096	0.031788	7125.989726	43657.909694	3895.118341	22775.063449
75.035000	0.006757	0.009096	-0.000097	0.030218	7171.931582	43886.707059	3911.116990	22847.169301
75.535500	0.009547	0.008486	-0.003657	0.029738	7204.439379	43874.458167	3903.586982	22869.275282
76.039000	0.007928	0.008899	-0.001125	0.029998	7185.726175	43888.887641	3909.137699	22857.293631
76.536500	0.005906	0.008132	-0.003741	0.032871	7137.380597	43546.792843	3895.773944	22725.480316
77.036500	0.010970	0.009418	0.002713	0.031097	7205.064742	43834.123112	3915.865374	22806.740635
77.537000	0.010868	0.008811	-0.002602	0.030309	7211.919967	43851.258208	3904.765505	22842.983039
78.037500	0.008361	0.009245	-0.002945	0.030295	7187.082684	43893.488254	3903.964290	22843.629503
78.534500	0.006444	0.008701	0.002337	0.034546	7126.228171	43443.489288	3906.479136	22649.047729
79.035000	0.008128	0.008188	-0.002151	0.029595	7191.725646	43859.810211	3907.611526	22875.844592
79.535500	0.008262	0.008638	0.000851	0.030374	7185.311094	43828.799685	3913.063455	22839.992394
80.035500	0.009256	0.008631	0.004149	0.030201	7196.920104	43844.467693	3921.631419	22847.957383
80.538500	0.005744	0.008482	-0.001390	0.033418	7130.417514	43528.310356	3900.146741	22700.457539
81.036000	0.010094	0.008066	-0.000605	0.030444	7202.841510	43768.328853	3909.318392	22836.758064
81.536500	0.008692	0.007861	0.000553	0.029492	7198.358236	43838.681592	3914.500201	22880.579076
82.036500	0.008204	0.009234	0.003716	0.030880	7179.716921	43837.239150	3918.879161	22816.737813
82.537000	0.006937	0.008558	-0.003829	0.033860	7137.787674	43494.138602	3893.172858	22680.314736
83.037500	0.008671	0.008241	0.003661	0.030500	7188.114283	43779.465371	3919.680823	22834.176124
83.534500	0.007976	0.007502	-0.000452	0.029816	7188.011069	43774.355080	3911.234044	22865.675054
84.035000	0.008402	0.008724	0.001133	0.030545	7185.004614	43820.843531	3913.336861	22832.136296
84.536000	0.006572	0.007779	-0.005468	0.033321	7139.495378	43471.704432	3890.520147	22704.894759
85.038500	0.008881	0.007934	0.002133	0.030436	7190.848300	43756.722666	3916.067102	22837.151096
85.536000	0.007067	0.007330	-0.002261	0.029551	7181.614651	43783.090226	3907.450974	22877.881594
86.036000	0.007744	0.008125	-0.000615	0.030337	7180.539671	43783.984849	3909.555736	22841.688972
86.536500	0.005679	0.007340	-0.003474	0.032965	7134.231599	43463.978186	3896.194236	22721.190792
87.036500	0.008719	0.008364	0.001738	0.030351	7190.078269	43805.096365	3915.302329	22841.026713
87.537500	0.006870	0.008194	0.002550	0.029893	7176.272362	43832.311051	3918.437387	22862.119072
88.037000	0.008312	0.007820	0.003510	0.029727	7192.246065	43812.681930	3921.222248	22869.779044
88.535000	0.002270	0.007089	-0.003765	0.033963	7091.188636	43347.477630	3893.080213	22675.614698
89.035500	0.007640	0.007555	0.003026	0.029556	7187.259764	43803.831061	3920.447783	22877.650182
89.538500	0.006276	0.007217	0.007324	0.029097	7178.280519	43815.223947	3932.290478	22898.815091
90.036000	0.006254	0.007418	0.000601	0.029359	7175.453417	43809.474906	3914.945143	22886.704541
90.536000	0.007131	0.006942	0.004666	0.029599	7181.770633	43742.075973	3924.408620	22875.656347
91.036500	0.006927	0.006893	0.002787	0.028930	7186.393486	43800.472406	3921.406917	22906.508302
91.537000	0.005419	0.006830	0.003686	0.029222	7168.545275	43766.975071	3922.910849	22893.033595
92.037500	0.004358	0.006568	0.000913	0.028918	7161.071209	43770.980660	3916.803249	22907.077337
92.540500	0.004671	0.006582	-0.001789	0.034642	7107.951244	43237.204206	3896.211140	22644.652257
93.070500	0.003097	0.005422	-0.001191	0.028198	7155.726401	43730.940114	3913.393890	22940.328378
93.535000	0.005812	0.005689	0.002273	0.028379	7180.785626	43738.977421	3921.495499	22931.920628
94.038500	0.002573	0.004650	0.002467	0.027492	7157.520224	43724.629888	3924.179694	22972.948352
94.536000	0.001825	0.005583	-0.002463	0.034186	7084.699626	43186.749113	3895.685362	22665.417695
95.036000	0.005713	0.005795	0.001746	0.028747	7176.157882	43714.345878	3919.280293	22914.940081
95.536500	0.005678	0.005709	0.001925	0.028940	7173.895025	43688.087505	3919.245504	22906.027552
96.037000	0.004683	0.005906	0.003072	0.029280	7160.702029	43674.750684	3921.245538	22890.370765
