sample name	sample
index	426
start time	 03-08-2021  11:55:42 AM


Wavelength (nm)	Absorbance
494.344910	0.265931
494.563924	0.265931
494.782919	0.265931
495.001897	NaN
495.220856	-0.319959
495.439797	-0.908385
495.658719	NaN
495.877624	1.082741
496.096510	NaN
496.315378	0.279096
496.534227	-0.026991
496.753059	-0.064877
496.971872	-0.177149
497.190667	-0.005994
497.409444	0.013533
497.628203	0.010793
497.846943	0.014337
498.065665	0.014518
498.284369	0.016467
498.503055	0.016975
498.721723	0.016608
498.940372	0.016492
499.159003	0.016486
499.377616	0.014808
499.596210	0.015606
499.814787	0.013845
500.033345	0.014131
500.251885	0.013490
500.470406	0.013302
500.688910	0.013480
500.907395	0.014256
501.125862	0.014884
501.344311	0.015445
501.562742	0.016373
501.781154	0.017520
501.999548	0.016402
502.217924	0.016193
502.436282	0.016629
502.654621	0.016410
502.872942	0.015148
503.091245	0.014229
503.309530	0.014317
503.527797	0.013913
503.746045	0.013054
503.964275	0.013315
504.182487	0.013581
504.400681	0.013431
504.618856	0.013301
504.837013	0.013752
505.055152	0.014341
505.273273	0.013948
505.491376	0.013348
505.709460	0.013399
505.927526	0.013086
506.145574	0.012378
506.363604	0.012450
506.581615	0.012118
506.799608	0.013017
507.017583	0.013145
507.235540	0.013088
507.453478	0.012954
507.671399	0.013018
507.889301	0.013166
508.107185	0.013482
508.325050	0.013928
508.542898	0.013632
508.760727	0.012916
508.978538	0.012239
509.196330	0.012253
509.414105	0.012797
509.631861	0.012823
509.849599	0.013836
510.067319	0.013699
510.285021	0.013432
510.502704	0.013747
510.720369	0.013638
510.938016	0.014682
511.155645	0.014278
511.373255	0.013716
511.590848	0.013145
511.808422	0.012177
512.025977	0.012305
512.243515	0.012400
512.461034	0.011944
512.678536	0.011728
512.896018	0.011235
513.113483	0.011451
513.330930	0.011835
513.548358	0.012603
513.765768	0.012570
513.983160	0.012857
514.200533	0.012686
514.417889	0.012957
514.635226	0.012990
514.852545	0.013371
515.069845	0.013387
515.287128	0.013179
515.504392	0.012650
515.721638	0.012950
515.938866	0.012575
516.156075	0.012345
516.373267	0.012778
516.590440	0.013638
516.807594	0.013120
517.024731	0.012996
517.241850	0.013038
517.458950	0.013330
517.676032	0.013324
517.893095	0.013097
518.110141	0.013084
518.327168	0.012882
518.544177	0.012363
518.761168	0.012570
518.978141	0.013095
519.195095	0.012807
519.412031	0.012876
519.628949	0.013294
519.845849	0.013535
520.062731	0.013179
520.279594	0.013476
520.496439	0.013636
520.713266	0.013705
520.930074	0.013621
521.146865	0.014639
521.363637	0.014986
521.580391	0.014264
521.797127	0.013947
522.013844	0.014448
522.230543	0.013882
522.447224	0.013603
522.663887	0.013384
522.880532	0.013198
523.097158	0.012531
523.313766	0.012790
523.530356	0.013221
523.746928	0.013373
523.963481	0.013355
524.180017	0.013516
524.396534	0.013211
524.613032	0.012888
524.829513	0.012532
525.045975	0.012454
525.262420	0.011659
525.478845	0.011949
525.695253	0.012222
525.911643	0.012148
526.128014	0.012078
526.344367	0.012453
526.560702	0.012828
526.777018	0.013600
526.993316	0.013549
527.209597	0.013817
527.425858	0.013458
527.642102	0.013277
527.858328	0.013156
528.074535	0.013346
528.290724	0.013260
528.506894	0.013202
528.723047	0.012787
528.939181	0.013413
529.155297	0.013649
529.371395	0.013509
529.587475	0.013395
529.803536	0.014103
530.019579	0.013995
530.235604	0.014306
530.451611	0.014417
530.667600	0.014605
530.883570	0.014098
531.099522	0.013965
531.315456	0.014034
531.531372	0.014477
531.747269	0.014009
531.963148	0.014243
532.179009	0.013985
532.394852	0.013702
532.610676	0.013679
532.826482	0.013557
533.042271	0.013313
533.258040	0.013422
533.473792	0.013323
533.689525	0.012971
533.905240	0.013140
534.120937	0.013414
534.336616	0.013670
534.552277	0.013989
534.767919	0.013847
534.983543	0.014395
535.199149	0.014611
535.414736	0.014451
535.630306	0.014561
535.845857	0.014548
536.061390	0.014778
536.276904	0.015331
536.492401	0.015016
536.707879	0.015659
536.923339	0.015263
537.138781	0.015180
537.354204	0.015303
537.569610	0.015602
537.784997	0.015602
538.000366	0.015215
538.215716	0.015003
538.431049	0.015317
538.646363	0.015308
538.861659	0.016076
539.076937	0.016053
539.292196	0.016390
539.507438	0.016640
539.722661	0.016592
539.937866	0.016363
540.153052	0.016205
540.368221	0.016203
540.583371	0.016201
540.798503	0.015536
541.013617	0.015709
541.228712	0.015533
541.443789	0.015351
541.658848	0.015407
541.873889	0.015531
542.088912	0.015526
542.303916	0.015523
542.518902	0.015523
542.733870	0.015841
542.948820	0.016014
543.163752	0.015828
543.378665	0.015490
543.593560	0.015868
543.808437	0.016127
544.023295	0.016307
544.238136	0.016135
544.452958	0.016121
544.667762	0.015668
544.882548	0.015596
545.097315	0.015855
545.312064	0.016538
545.526795	0.016230
545.741508	0.016204
545.956203	0.016190
546.170879	0.016549
546.385537	0.016515
546.600177	0.016829
546.814799	0.017102
547.029402	0.017137
547.243988	0.017004
547.458555	0.017131
547.673103	0.017253
547.887634	0.017121
548.102146	0.016866
548.316640	0.016605
548.531116	0.016709
548.745574	0.016168
548.960013	0.016225
549.174435	0.016128
549.388838	0.015655
549.603222	0.015451
549.817589	0.015295
550.031937	0.015243
550.246267	0.015353
550.460579	0.015349
550.674873	0.015542
550.889148	0.015448
551.103405	0.015170
551.317644	0.015542
551.531865	0.015299
551.746068	0.015415
551.960252	0.015450
552.174418	0.015484
552.388566	0.015562
552.602696	0.015700
552.816807	0.015615
553.030900	0.015719
553.244975	0.015661
553.459032	0.015947
553.673070	0.016071
553.887091	0.016022
554.101093	0.016079
554.315077	0.015764
554.529042	0.015798
554.742990	0.015702
554.956919	0.015663
555.170830	0.016057
555.384722	0.016169
555.598597	0.016243
555.812453	0.016470
556.026291	0.016707
556.240111	0.017062
556.453913	0.016769
556.667696	0.016490
556.881461	0.016737
557.095208	0.016380
557.308937	0.016483
557.522647	0.016396
557.736339	0.016587
557.950013	0.016178
558.163669	0.015979
558.377307	0.016108
558.590926	0.016747
558.804527	0.016704
559.018110	0.016591
559.231675	0.016813
559.445221	0.016694
559.658749	0.016177
559.872259	0.016480
560.085751	0.016493
560.299225	0.016522
560.512680	0.016508
560.726117	0.016435
560.939536	0.016569
561.152937	0.016532
561.366319	0.016594
561.579683	0.016927
561.793029	0.016953
562.006357	0.016852
562.219667	0.016793
562.432958	0.016627
562.646231	0.016667
562.859486	0.016716
563.072723	0.016492
563.285941	0.016864
563.499141	0.016984
563.712323	0.016901
563.925487	0.017149
564.138632	0.017201
564.351760	0.017384
564.564869	0.017559
564.777960	0.017641
564.991032	0.017798
565.204087	0.017385
565.417123	0.017292
565.630141	0.017283
565.843140	0.017182
566.056122	0.017705
566.269085	0.017746
566.482030	0.017848
566.694957	0.017708
566.907866	0.017624
567.120756	0.017639
567.333628	0.017379
567.546482	0.017669
567.759318	0.017892
567.972135	0.017262
568.184935	0.017016
568.397716	0.016998
568.610478	0.017078
568.823223	0.017239
569.035949	0.017563
569.248657	0.017721
569.461347	0.017715
569.674019	0.017610
569.886672	0.017805
570.099308	0.017801
570.311925	0.017464
570.524523	0.017610
570.737104	0.017528
570.949666	0.017462
571.162210	0.017606
571.374736	0.017603
571.587244	0.017692
571.799733	0.017860
572.012205	0.018271
572.224658	0.018268
572.437092	0.017876
572.649509	0.017808
572.861907	0.018025
573.074287	0.017828
573.286649	0.017532
573.498993	0.017664
573.711318	0.017532
573.923625	0.017334
574.135914	0.017684
574.348185	0.017889
574.560438	0.018019
574.772672	0.017899
574.984888	0.018015
575.197086	0.018392
575.409266	0.018212
575.621427	0.018029
575.833570	0.017850
576.045695	0.017809
576.257802	0.017875
576.469890	0.017886
576.681961	0.017754
576.894013	0.018031
577.106046	0.017940
577.318062	0.017960
577.530059	0.017926
577.742039	0.018028
577.954000	0.017975
578.165942	0.018087
578.377867	0.018155
578.589773	0.018408
578.801661	0.018335
579.013531	0.018386
579.225382	0.018660
579.437216	0.018828
579.649031	0.019151
579.860828	0.019391
580.072606	0.019484
580.284367	0.019451
580.496109	0.019609
580.707833	0.019972
580.919539	0.020029
581.131227	0.019820
581.342896	0.020229
581.554547	0.020227
581.766180	0.020391
581.977795	0.020549
582.189391	0.020694
582.400969	0.020714
582.612529	0.020480
582.824071	0.020457
583.035595	0.020665
583.247100	0.020376
583.458587	0.020331
583.670056	0.019927
583.881506	0.020053
584.092939	0.020273
584.304353	0.020254
584.515749	0.020439
584.727127	0.020470
584.938486	0.020336
585.149828	0.020721
585.361151	0.020767
585.572456	0.020992
585.783742	0.020894
585.995011	0.020780
586.206261	0.020765
586.417493	0.020552
586.628706	0.020440
586.839902	0.020489
587.051079	0.020440
587.262238	0.020419
587.473379	0.020285
587.684502	0.020307
587.895606	0.020456
588.106692	0.020158
588.317760	0.020253
588.528810	0.020425
588.739841	0.020569
588.950855	0.020511
589.161850	0.020628
589.372827	0.020840
589.583785	0.021007
589.794726	0.020656
590.005648	0.021106
590.216552	0.021495
590.427437	0.021496
590.638305	0.021619
590.849154	0.021391
591.059985	0.021090
591.270798	0.020961
591.481592	0.021024
591.692369	0.021043
591.903127	0.020876
592.113867	0.020551
592.324588	0.020496
592.535292	0.020613
592.745977	0.020863
592.956644	0.021060
593.167293	0.021286
593.377923	0.021105
593.588536	0.021259
593.799130	0.021121
594.009706	0.021172
594.220263	0.021198
594.430803	0.021050
594.641324	0.021271
594.851827	0.021491
595.062312	0.021526
595.272778	0.021489
595.483227	0.021499
595.693657	0.021724
595.904069	0.021880
596.114462	0.022049
596.324838	0.022045
596.535195	0.021835
596.745534	0.021905
596.955855	0.021918
597.166157	0.021918
597.376441	0.022016
597.586707	0.021932
597.796955	0.021915
598.007185	0.021620
598.217396	0.021656
598.427589	0.021745
598.637764	0.021368
598.847921	0.021301
599.058060	0.021304
599.268180	0.021414
599.478282	0.021746
599.688366	0.021658
599.898431	0.021916
600.108479	0.022172
600.318508	0.022337
600.528519	0.022598
600.738511	0.022642
600.948486	0.022852
601.158442	0.022841
601.368380	0.022795
601.578300	0.022981
601.788202	0.022984
601.998085	0.022696
602.207950	0.022750
602.417797	0.023000
602.627626	0.023135
602.837436	0.023139
603.047228	0.022998
603.257002	0.022890
603.466758	0.022868
603.676496	0.022819
603.886215	0.022911
604.095916	0.022972
604.305599	0.022730
604.515264	0.022720
604.724910	0.022676
604.934538	0.022993
605.144148	0.023025
605.353740	0.022860
605.563314	0.023150
605.772869	0.023314
605.982406	0.023152
606.191925	0.023283
606.401425	0.023425
606.610908	0.023475
606.820372	0.023265
607.029818	0.023230
607.239246	0.023423
607.448655	0.023387
607.658047	0.023336
607.867420	0.023501
608.076775	0.023633
608.286111	0.023543
608.495430	0.023679
608.704730	0.023658
608.914012	0.023588
609.123275	0.023474
609.332521	0.023593
609.541748	0.023755
609.750957	0.023860
609.960148	0.023883
610.169321	0.023886
610.378475	0.023981
610.587611	0.024152
610.796729	0.024396
611.005829	0.024508
611.214910	0.024286
611.423974	0.024228
611.633019	0.023905
611.842045	0.023497
612.051054	0.023602
612.260044	0.023515
612.469017	0.023550
612.677970	0.023458
612.886906	0.023530
613.095824	0.023570
613.304723	0.023538
613.513604	0.023728
613.722467	0.024125
613.931311	0.024177
614.140138	0.024187
614.348946	0.024173
614.557736	0.024247
614.766507	0.024218
614.975261	0.024281
615.183996	0.024267
615.392713	0.024295
615.601412	0.024308
615.810092	0.024284
616.018754	0.024234
616.227399	0.024303
616.436024	0.024364
616.644632	0.024452
616.853222	0.024624
617.061793	0.024719
617.270346	0.024732
617.478880	0.024742
617.687397	0.024826
617.895895	0.024834
618.104375	0.024752
618.312837	0.024655
618.521281	0.024709
618.729706	0.024622
618.938113	0.024772
619.146502	0.024744
619.354873	0.024656
619.563226	0.024763
619.771560	0.024929
619.979876	0.024737
620.188174	0.024754
620.396453	0.024579
620.604715	0.024476
620.812958	0.024364
621.021183	0.024471
621.229390	0.024660
621.437578	0.024533
621.645748	0.024511
621.853900	0.024698
622.062034	0.024849
622.270150	0.024792
622.478247	0.024761
622.686326	0.024799
622.894387	0.025051
623.102430	0.025126
623.310454	0.025251
623.518461	0.025436
623.726449	0.025485
623.934418	0.025345
624.142370	0.025398
624.350303	0.025744
624.558218	0.025763
624.766115	0.025605
624.973994	0.025321
625.181855	0.025302
625.389697	0.025407
625.597521	0.025522
625.805327	0.025775
626.013114	0.026167
626.220883	0.025976
626.428634	0.026142
626.636367	0.026275
626.844082	0.026646
627.051778	0.026623
627.259457	0.026503
627.467117	0.026680
627.674758	0.026688
627.882382	0.026750
628.089987	0.027020
628.297574	0.026935
628.505143	0.026762
628.712694	0.026772
628.920226	0.026789
629.127740	0.026876
629.335236	0.026950
629.542714	0.027137
629.750174	0.026813
629.957615	0.026760
630.165038	0.026729
630.372443	0.026791
630.579829	0.026935
630.787198	0.027116
630.994548	0.026869
631.201880	0.026762
631.409194	0.026547
631.616489	0.026540
631.823766	0.026354
632.031025	0.026588
632.238266	0.026560
632.445489	0.026408
632.652693	0.026258
632.859879	0.026272
633.067047	0.026303
633.274197	0.026238
633.481329	0.026449
633.688442	0.026663
633.895537	0.026495
634.102614	0.026717
634.309672	0.026544
634.516713	0.026919
634.723735	0.027000
634.930739	0.026917
635.137724	0.027006
635.344692	0.026987
635.551641	0.026949
635.758572	0.027090
635.965485	0.026911
636.172379	0.027048
636.379256	0.026963
636.586114	0.027077
636.792954	0.027317
636.999775	0.027467
637.206579	0.027628
637.413364	0.027686
637.620131	0.027643
637.826880	0.027748
638.033610	0.027974
638.240323	0.027802
638.447017	0.027832
638.653692	0.027734
638.860350	0.027684
639.066990	0.027610
639.273611	0.027459
639.480214	0.027529
639.686798	0.027735
639.893365	0.027677
640.099913	0.027721
640.306443	0.027762
640.512955	0.027750
640.719449	0.027762
640.925924	0.027568
641.132381	0.027825
641.338820	0.027611
641.545241	0.027564
641.751644	0.027434
641.958028	0.027387
642.164394	0.027274
642.370742	0.027264
642.577071	0.027291
642.783383	0.027375
642.989676	0.027310
643.195951	0.027416
643.402207	0.027450
643.608446	0.027543
643.814666	0.027607
644.020868	0.027659
644.227052	0.027822
644.433218	0.027903
644.639365	0.028064
644.845494	0.028194
645.051605	0.028229
645.257698	0.028253
645.463772	0.028350
645.669828	0.028451
645.875866	0.028596
646.081886	0.028567
646.287888	0.028563
646.493871	0.028547
646.699836	0.028417
646.905783	0.028569
647.111712	0.028662
647.317622	0.028586
647.523514	0.028428
647.729388	0.028450
647.935244	0.028359
648.141082	0.028317
648.346901	0.028466
648.552702	0.028582
648.758485	0.028740
648.964250	0.028496
649.169996	0.028656
649.375724	0.028996
649.581434	0.029251
649.787126	0.029514
649.992800	0.029718
650.198455	0.029861
650.404092	0.030022
650.609711	0.030083
650.815311	0.030287
651.020894	0.030214
651.226458	0.030225
651.432004	0.030070
651.637532	0.030118
651.843041	0.030052
652.048532	0.029940
652.254006	0.029836
652.459460	0.029772
652.664897	0.029680
652.870315	0.029852
653.075716	0.029811
653.281097	0.029820
653.486461	0.029745
653.691807	0.029827
653.897134	0.029918
654.102443	0.029973
654.307734	0.029982
654.513006	0.029999
654.718261	0.029883
654.923497	0.029953
655.128715	0.030106
655.333915	0.030097
655.539096	0.030079
655.744259	0.030108
655.949404	0.030225
656.154531	0.029963
656.359640	0.029874
656.564730	0.030145
656.769802	0.030185
656.974856	0.030221
657.179892	0.030307
657.384909	0.030318
657.589908	0.030053
657.794889	0.029857
657.999852	0.029932
658.204797	0.030174
658.409723	0.029854
658.614631	0.029691
658.819521	0.029532
659.024393	0.029452
659.229246	0.029653
659.434081	0.029922
659.638898	0.030237
659.843697	0.030465
660.048478	0.030518
660.253240	0.030812
660.457984	0.030995
660.662710	0.031148
660.867417	0.031081
661.072107	0.031106
661.276778	0.031138
661.481431	0.030934
661.686066	0.031046
661.890682	0.031186
662.095281	0.031072
662.299861	0.031107
662.504422	0.030834
662.708966	0.031135
662.913491	0.031160
663.117999	0.031160
663.322488	0.031258
663.526958	0.031420
663.731411	0.031370
663.935845	0.031535
664.140261	0.031561
664.344659	0.031787
664.549038	0.031780
664.753400	0.031835
664.957743	0.031817
665.162068	0.031972
665.366375	0.031830
665.570663	0.032003
665.774933	0.032099
665.979185	0.032177
666.183419	0.032308
666.387635	0.032437
666.591832	0.032431
666.796011	0.032697
667.000172	0.032946
667.204315	0.033022
667.408439	0.032950
667.612545	0.032886
667.816634	0.032918
668.020703	0.032926
668.224755	0.032889
668.428788	0.033054
668.632803	0.032911
668.836800	0.032771
669.040779	0.032845
669.244739	0.032927
669.448681	0.033051
669.652605	0.033024
669.856511	0.033001
670.060399	0.032943
670.264268	0.032911
670.468119	0.033021
670.671952	0.033089
670.875767	0.033030
671.079563	0.032997
671.283341	0.032917
671.487101	0.032898
671.690843	0.032935
671.894567	0.032912
672.098272	0.032728
672.301959	0.032703
672.505628	0.032618
672.709278	0.032671
672.912911	0.032756
673.116525	0.032678
673.320121	0.032636
673.523699	0.032766
673.727258	0.032917
673.930799	0.033185
674.134322	0.033255
674.337827	0.033199
674.541314	0.033146
674.744782	0.033188
674.948232	0.033336
675.151664	0.033515
675.355078	0.033402
675.558474	0.033427
675.761851	0.033219
675.965210	0.033391
676.168551	0.033738
676.371873	0.034028
676.575178	0.034016
676.778464	0.034178
676.981732	0.034192
677.184981	0.034299
677.388213	0.034294
677.591426	0.034569
677.794621	0.034504
677.997798	0.034280
678.200956	0.034087
678.404097	0.033975
678.607219	0.033858
678.810323	0.033821
679.013408	0.033745
679.216476	0.033769
679.419525	0.033595
679.622556	0.033605
679.825569	0.033612
680.028563	0.033679
680.231540	0.033652
680.434498	0.033794
680.637438	0.033869
680.840359	0.034088
681.043263	0.034239
681.246148	0.034192
681.449015	0.034209
681.651864	0.034157
681.854694	0.034275
682.057506	0.034541
682.260301	0.034560
682.463076	0.034744
682.665834	0.034766
682.868573	0.034747
683.071295	0.035042
683.273998	0.035185
683.476682	0.035497
683.679349	0.035482
683.881997	0.035496
684.084627	0.035504
684.287239	0.035550
684.489833	0.035569
684.692408	0.035697
684.894965	0.035739
685.097504	0.035772
685.300025	0.035740
685.502527	0.035929
685.705012	0.036024
685.907478	0.036062
686.109925	0.036127
686.312355	0.036284
686.514766	0.036377
686.717159	0.036346
686.919534	0.036276
687.121891	0.036337
687.324230	0.036358
687.526550	0.036226
687.728852	0.036323
687.931136	0.036288
688.133401	0.036177
688.335649	0.036177
688.537878	0.036131
688.740089	0.036229
688.942281	0.036289
689.144456	0.036142
689.346612	0.036235
689.548750	0.036162
689.750870	0.036120
689.952971	0.036204
690.155055	0.036148
690.357120	0.036311
690.559167	0.036328
690.761195	0.036375
690.963206	0.036376
691.165198	0.036360
691.367172	0.036385
691.569128	0.036357
691.771065	0.036447
691.972984	0.036322
692.174885	0.036273
692.376768	0.036234
692.578633	0.036040
692.780479	0.036022
692.982308	0.036045
693.184118	0.036031
693.385909	0.036205
693.587683	0.036022
693.789438	0.036130
693.991175	0.036123
694.192894	0.036150
694.394595	0.036338
694.596277	0.036554
694.797941	0.036598
694.999587	0.036574
695.201215	0.036500
695.402824	0.036612
695.604416	0.036724
695.805989	0.036779
696.007543	0.036721
696.209080	0.036657
696.410598	0.036382
696.612099	0.036494
696.813580	0.036689
697.015044	0.036721
697.216490	0.036726
697.417917	0.036588
697.619326	0.036586
697.820717	0.036587
698.022089	0.036558
698.223444	0.036812
698.424780	0.036900
698.626098	0.036870
698.827397	0.036965
699.028679	0.036899
699.229942	0.036999
699.431187	0.036940
699.632414	0.037150
699.833622	0.037165
700.034813	0.037166
700.235985	0.037030
700.437139	0.037075
700.638274	0.036833
700.839392	0.037099
701.040491	0.037305
701.241572	0.037336
701.442635	0.037413
701.643679	0.037499
701.844706	0.037479
702.045714	0.037535
702.246704	0.037560
702.447675	0.037569
702.648629	0.037515
702.849564	0.037421
703.050481	0.037634
703.251380	0.037535
703.452260	0.037526
703.653122	0.037558
703.853966	0.037591
704.054792	0.037578
704.255600	0.037853
704.456389	0.037931
704.657160	0.037940
704.857913	0.037796
705.058648	0.037838
705.259365	0.037914
705.460063	0.038087
705.660743	0.038018
705.861405	0.038009
706.062048	0.037880
706.262674	0.037693
706.463281	0.037747
706.663870	0.037856
706.864441	0.037817
707.064993	0.037917
707.265527	0.037872
707.466043	0.037980
707.666541	0.038090
707.867021	0.038163
708.067482	0.038391
708.267925	0.038379
708.468350	0.038378
708.668757	0.038422
708.869145	0.038515
709.069516	0.038499
709.269868	0.038602
709.470201	0.038576
709.670517	0.038765
709.870814	0.038812
710.071093	0.038883
710.271354	0.038878
710.471597	0.038828
710.671821	0.038658
710.872028	0.038621
711.072216	0.038632
711.272385	0.038595
711.472537	0.038408
711.672670	0.038240
711.872785	0.038177
712.072882	0.038249
712.272961	0.038133
712.473021	0.038107
712.673063	0.038179
712.873087	0.038169
713.073093	0.038188
713.273081	0.038251
713.473050	0.038149
713.673001	0.038117
713.872934	0.038097
714.072849	0.038327
714.272745	0.038513
714.472623	0.038450
714.672483	0.038433
714.872325	0.038479
715.072148	0.038470
715.271954	0.038587
715.471741	0.038484
715.671509	0.038311
715.871260	0.038144
716.070992	0.037993
716.270707	0.037946
716.470403	0.037827
716.670080	0.037773
716.869740	0.037722
717.069381	0.037753
717.269004	0.037861
717.468609	0.037898
717.668195	0.037962
717.867764	0.037932
718.067314	0.037791
718.266846	0.037837
718.466360	0.037779
718.665855	0.037704
718.865332	0.037644
719.064791	0.037561
719.264232	0.037552
719.463655	0.037568
719.663059	0.037575
719.862445	0.037601
720.061813	0.037512
720.261163	0.037437
720.460494	0.037558
720.659807	0.037498
720.859102	0.037426
721.058379	0.037401
721.257638	0.037324
721.456878	0.037430
721.656100	0.037547
721.855304	0.037533
722.054490	0.037619
722.253657	0.037591
722.452806	0.037703
722.651937	0.037756
722.851050	0.037795
723.050145	0.037748
723.249221	0.037459
723.448279	0.037419
723.647319	0.037366
723.846340	0.037478
724.045344	0.037427
724.244329	0.037363
724.443296	0.037356
724.642245	0.037240
724.841175	0.037401
725.040088	0.037633
725.238982	0.037638
725.437857	0.037755
725.636715	0.037639
725.835554	0.037679
726.034376	0.037689
726.233179	0.037753
726.431963	0.037826
726.630730	0.037676
726.829478	0.037643
727.028208	0.037590
727.226920	0.037559
727.425614	0.037563
727.624289	0.037563
727.822946	0.037525
728.021585	0.037504
728.220206	0.037425
728.418808	0.037563
728.617392	0.037517
728.815958	0.037453
729.014506	0.037450
729.213036	0.037364
729.411547	0.037290
729.610040	0.037226
729.808515	0.037220
730.006972	0.037166
730.205410	0.037049
730.403831	0.037048
730.602233	0.037119
730.800616	0.037135
730.998982	0.036957
731.197329	0.036828
731.395658	0.036789
731.593969	0.036739
731.792262	0.036892
731.990536	0.036911
732.188793	0.036624
732.387031	0.036601
732.585250	0.036520
732.783452	0.036804
732.981635	0.036889
733.179800	0.036882
733.377947	0.036880
733.576076	0.036802
733.774186	0.036691
733.972278	0.036853
734.170352	0.036869
734.368408	0.036883
734.566446	0.036813
734.764465	0.036804
734.962466	0.036802
735.160449	0.036615
735.358413	0.036701
735.556360	0.036731
735.754288	0.036762
735.952198	0.036804
736.150090	0.036918
736.347963	0.036919
736.545818	0.036972
736.743655	0.036984
736.941474	0.037268
737.139275	0.037052
737.337057	0.037053
737.534821	0.036980
737.732567	0.036855
737.930295	0.036687
738.128005	0.036574
738.325696	0.036586
738.523369	0.036492
738.721024	0.036309
738.918660	0.036450
739.116279	0.036339
739.313879	0.036346
739.511461	0.036336
739.709024	0.036409
739.906570	0.036386
740.104097	0.036426
740.301606	0.036611
740.499097	0.036590
740.696569	0.036349
740.894024	0.036342
741.091460	0.036283
741.288878	0.036387
741.486277	0.036256
741.683659	0.036217
741.881022	0.036035
742.078367	0.035943
742.275694	0.035927
742.473002	0.036155
742.670293	0.036292
742.867565	0.036189
743.064819	0.036003
743.262054	0.035944
743.459272	0.035903
743.656471	0.035942
743.853652	0.035660
744.050815	0.035617
744.247959	0.035528
744.445085	0.035432
744.642194	0.035475
744.839283	0.035513
745.036355	0.035449
745.233408	0.035362
745.430444	0.035228
745.627461	0.035331
745.824459	0.035230
746.021440	0.035269
746.218402	0.035082
746.415346	0.035186
746.612272	0.035096
746.809180	0.035047
747.006069	0.034983
747.202940	0.034898
747.399793	0.034758
747.596628	0.034840
747.793444	0.034699
747.990243	0.034699
748.187023	0.034412
748.383784	0.034406
748.580528	0.034446
748.777253	0.034511
748.973960	0.034610
749.170649	0.034665
749.367320	0.034744
749.563973	0.034766
749.760607	0.034930
749.957223	0.035022
750.153821	0.035166
750.350400	0.034973
750.546962	0.034920
750.743505	0.034920
750.940030	0.034951
751.136536	0.034827
751.333025	0.034786
751.529495	0.034675
751.725947	0.034839
751.922381	0.034724
752.118796	0.034836
752.315194	0.034915
752.511573	0.034825
752.707934	0.034929
752.904276	0.034869
753.100601	0.034824
753.296907	0.034871
753.493195	0.034753
753.689465	0.034655
753.885716	0.034643
754.081949	0.034744
754.278164	0.034658
754.474361	0.034607
754.670540	0.034537
754.866700	0.034457
755.062843	0.034337
755.258967	0.034290
755.455072	0.034230
755.651160	0.034286
755.847229	0.034040
756.043280	0.034195
756.239313	0.034145
756.435328	0.034282
756.631324	0.034341
756.827302	0.034538
757.023262	0.034551
757.219204	0.034610
757.415127	0.034641
757.611033	0.034759
757.806920	0.034678
758.002788	0.034683
758.198639	0.034687
758.394471	0.034952
758.590286	0.034885
758.786081	0.034951
758.981859	0.035076
759.177619	0.035029
759.373360	0.034875
759.569083	0.034945
759.764788	0.034971
759.960474	0.034898
760.156143	0.034615
760.351793	0.034580
760.547425	0.034429
760.743038	0.034215
760.938634	0.034370
761.134211	0.034431
761.329770	0.034181
761.525311	0.034236
761.720833	0.034150
761.916338	0.034109
762.111824	0.034061
762.307292	0.034132
762.502741	0.034261
762.698173	0.034148
762.893586	0.034084
763.088981	0.034208
763.284358	0.034107
763.479716	0.034189
763.675057	0.034339
763.870379	0.034198
764.065683	0.034211
764.260968	0.034070
764.456236	0.033893
764.651485	0.034044
764.846716	0.034059
765.041929	0.034029
765.237123	0.034008
765.432299	0.033715
765.627457	0.033806
765.822597	0.033762
766.017719	0.033728
766.212822	0.033836
766.407907	0.033780
766.602974	0.033723
766.798023	0.033753
766.993054	0.033790
767.188066	0.034028
767.383060	0.034035
767.578036	0.034181
767.772993	0.034157
767.967933	0.034245
768.162854	0.034125
768.357757	0.034121
768.552642	0.033944
768.747508	0.033802
768.942356	0.033714
769.137186	0.033550
769.331998	0.033304
769.526792	0.033287
769.721567	0.033047
769.916324	0.032983
770.111063	0.032977
770.305784	0.032947
770.500486	0.032922
770.695171	0.032853
770.889837	0.033039
771.084484	0.033129
771.279114	0.033243
771.473725	0.033359
771.668318	0.033410
771.862893	0.033524
772.057450	0.033581
772.251988	0.033533
772.446509	0.033383
772.641011	0.033416
772.835494	0.033483
773.029960	0.033469
773.224407	0.033302
773.418836	0.033243
773.613247	0.033151
773.807640	0.033172
774.002014	0.033277
774.196370	0.033600
774.390708	0.033517
774.585028	0.033292
774.779330	0.033021
774.973613	0.032793
775.167878	0.032920
775.362125	0.032921
775.556354	0.032929
775.750564	0.032840
775.944756	0.032520
776.138930	0.032528
776.333086	0.032696
776.527223	0.032951
776.721343	0.033328
776.915444	0.033315
777.109526	0.033174
777.303591	0.033134
777.497637	0.033098
777.691666	0.033264
777.885676	0.033079
778.079667	0.032959
778.273641	0.032938
778.467596	0.032941
778.661533	0.032838
778.855452	0.032910
779.049352	0.032752
779.243235	0.032913
779.437099	0.032956
779.630945	0.033030
779.824773	0.032831
780.018582	0.032644
780.212373	0.032480
780.406146	0.032659
780.599901	0.032687
780.793638	0.032771
780.987356	0.032659
781.181056	0.032728
781.374738	0.032692
781.568402	0.032944
781.762047	0.033040
781.955674	0.033165
782.149283	0.033071
782.342874	0.032998
782.536447	0.033107
782.730001	0.033090
782.923537	0.033035
783.117055	0.033243
783.310555	0.033215
783.504036	0.033257
783.697499	0.033205
783.890944	0.032942
784.084371	0.032930
784.277780	0.033001
784.471170	0.033051
784.664542	0.032944
784.857896	0.032730
785.051231	0.032579
785.244549	0.032612
785.437848	0.032645
785.631129	0.032937
785.824392	0.032957
786.017636	0.032876
786.210863	0.032651
786.404071	0.032680
786.597260	0.032703
786.790432	0.032818
786.983585	0.032827
787.176721	0.032919
787.369838	0.032861
787.562936	0.032830
787.756017	0.032866
787.949079	0.033161
788.142123	0.033187
788.335149	0.033144
788.528156	0.033007
788.721146	0.032881
788.914117	0.032858
789.107070	0.032966
789.300005	0.033072
789.492921	0.032860
789.685819	0.032738
789.878699	0.032580
790.071561	0.032736
790.264405	0.032947
790.457230	0.032973
790.650037	0.032814
790.842826	0.032778
791.035597	0.032839
791.228349	0.033034
791.421084	0.033124
791.613800	0.032990
791.806497	0.032888
791.999177	0.032906
792.191838	0.033015
792.384481	0.033147
792.577106	0.032913
792.769713	0.032755
792.962301	0.032761
793.154871	0.032784
793.347423	0.033003
793.539957	0.033035
793.732473	0.032949
793.924970	0.032830
794.117449	0.032863
794.309910	0.033078
794.502353	0.033237
794.694777	0.033283
794.887183	0.033099
795.079571	0.033037
795.271941	0.033007
795.464293	0.033100
795.656626	0.033092
795.848941	0.032997
796.041238	0.032905
796.233516	0.032733
796.425777	0.032567
796.618019	0.032772
796.810243	0.032984
797.002449	0.033242
797.194636	0.033131
797.386805	0.033260
797.578956	0.033387
797.771089	0.033598
797.963204	0.033839
798.155300	0.034087
798.347378	0.034126
798.539438	0.034032
798.731480	0.033896
798.923503	0.034178
799.115509	0.034361
799.307496	0.034417
799.499465	0.034216
799.691415	0.034040
799.883348	0.033992
800.075262	0.033865
800.267158	0.034023
800.459035	0.034086
800.650895	0.034036
800.842736	0.033908
801.034559	0.033816
801.226364	0.033943
801.418150	0.034006
801.609919	0.033867
801.801669	0.033952
801.993401	0.033989
802.185114	0.033986
802.376810	0.033956
802.568487	0.034083
802.760146	0.034155
802.951787	0.034382
803.143409	0.034616
803.335014	0.034721
803.526600	0.034800
803.718168	0.034825
803.909717	0.034794
804.101249	0.034787
804.292762	0.034658
804.484257	0.034703
804.675734	0.034527
804.867192	0.034464
805.058632	0.034392
805.250054	0.034557
805.441458	0.034422
805.632844	0.034598
805.824211	0.034572
806.015561	0.034661
806.206891	0.034535
806.398204	0.034625
806.589499	0.034584
806.780775	0.034823
806.972033	0.034594
807.163273	0.034548
807.354495	0.034428
807.545698	0.034505
807.736883	0.034502
807.928050	0.034726
808.119199	0.034658
808.310329	0.034595
808.501441	0.034508
808.692535	0.034343
808.883611	0.034422
809.074669	0.034382
809.265708	0.034210
809.456729	0.034066
809.647732	0.034084
809.838717	0.033901
810.029683	0.034021
810.220632	0.033992
810.411562	0.034086
810.602474	0.034110
810.793367	0.033920
810.984242	0.034136
811.175100	0.034401
811.365938	0.034268
811.556759	0.034493
811.747562	0.034362
811.938346	0.034336
812.129112	0.034478
812.319860	0.034636
812.510589	0.034918
812.701300	0.034849
812.891994	0.034959
813.082668	0.034975
813.273325	0.034974
813.463964	0.035247
813.654584	0.035426
813.845186	0.035559
814.035769	0.035655
814.226335	0.035731
814.416882	0.035819
814.607411	0.035778
814.797922	0.035908
814.988415	0.035886
815.178889	0.035560
815.369345	0.035545
815.559783	0.035391
815.750203	0.035374
815.940605	0.035568
816.130988	0.035683
816.321353	0.035659
816.511700	0.035563
816.702028	0.035644
816.892339	0.036030
817.082631	0.036092
817.272905	0.036219
817.463161	0.036167
817.653398	0.036072
817.843617	0.035987
818.033819	0.036126
818.224001	0.036167
818.414166	0.036398
818.604312	0.036254
818.794440	0.036309
818.984550	0.036580
819.174642	0.036721
819.364716	0.036633
819.554771	0.036634
819.744808	0.036492
819.934827	0.036505
820.124827	0.036463
820.314810	0.036538
820.504774	0.036445
820.694720	0.036099
820.884647	0.035929
821.074557	0.035820
821.264448	0.035807
821.454321	0.035840
821.644176	0.035995
821.834012	0.035913
822.023831	0.035879
822.213631	0.036053
822.403413	0.036152
822.593176	0.035999
822.782922	0.036021
822.972649	0.035926
823.162358	0.036007
823.352049	0.035930
823.541721	0.035954
823.731376	0.035999
823.921012	0.036106
824.110629	0.036142
824.300229	0.036128
824.489811	0.036247
824.679374	0.036420
824.868919	0.036432
825.058445	0.036524
825.247954	0.036433
825.437444	0.036399
825.626916	0.036295
825.816370	0.036265
826.005806	0.036482
826.195223	0.036349
826.384622	0.036508
826.574003	0.036588
826.763366	0.036618
826.952711	0.036770
827.142037	0.036624
827.331345	0.036567
827.520635	0.036661
827.709906	0.036701
827.899160	0.036882
828.088395	0.037032
828.277612	0.036986
828.466810	0.036988
828.655991	0.037018
828.845153	0.037505
829.034297	0.037532
829.223423	0.037655
829.412531	0.037857
829.601620	0.038001
829.790691	0.037847
829.979744	0.037826
830.168779	0.037822
830.357795	0.037667
830.546793	0.037505
830.735773	0.037626
830.924735	0.037530
831.113679	0.037463
831.302604	0.037465
831.491511	0.037424
831.680400	0.037502
831.869271	0.037574
832.058123	0.037963
832.246957	0.037749
832.435773	0.037753
832.624571	0.038166
832.813351	0.038287
833.002112	0.038418
833.190855	0.038434
833.379580	0.038506
833.568287	0.038628
833.756975	0.038413
833.945645	0.038683
834.134297	0.038851
834.322931	0.038469
834.511547	0.038697
834.700144	0.038682
834.888723	0.038766
835.077284	0.038775
835.265826	0.038841
835.454351	0.039116
835.642857	0.039216
835.831345	0.039391
836.019815	0.039607
836.208266	0.039404
836.396699	0.039376
836.585114	0.039645
836.773511	0.039571
836.961890	0.039418
837.150250	0.039411
837.338592	0.039508
837.526916	0.039381
837.715222	0.039440
837.903510	0.039557
838.091779	0.039851
838.280030	0.039684
838.468263	0.039940
838.656477	0.040209
838.844674	0.040248
839.032852	0.040293
839.221012	0.040362
839.409153	0.040460
839.597277	0.040518
839.785382	0.040623
839.973469	0.040613
840.161538	0.040674
840.349589	0.040705
840.537621	0.040720
840.725635	0.040668
840.913631	0.040670
841.101609	0.040548
841.289568	0.040579
841.477509	0.040692
841.665432	0.041037
841.853337	0.041087
842.041224	0.041019
842.229092	0.041044
842.416942	0.041278
842.604774	0.041372
842.792588	0.041737
842.980383	0.041958
843.168160	0.041865
843.355919	0.041976
843.543660	0.042086
843.731382	0.042339
843.919087	0.042524
844.106773	0.042588
844.294441	0.042724
844.482090	0.042632
844.669722	0.042708
844.857335	0.042934
845.044930	0.042910
845.232507	0.043025
845.420065	0.043164
845.607605	0.043220
845.795127	0.043304
845.982631	0.043061
846.170117	0.043032
846.357584	0.042802
846.545033	0.042704
846.732464	0.042890
846.919877	0.042929
847.107272	0.042961
847.294648	0.043101
847.482006	0.043070
847.669346	0.043665
847.856667	0.044015
848.043971	0.044382
848.231256	0.044337
848.418523	0.044494
848.605771	0.044664
848.793002	0.044714
848.980214	0.044891
849.167408	0.045001
849.354584	0.044830
849.541742	0.044847
849.728881	0.044957
849.916002	0.045180
850.103105	0.045152
850.290190	0.045184
850.477256	0.045195
850.664304	0.045224
850.851334	0.045449
851.038346	0.045568
851.225340	0.045667
851.412315	0.045723
851.599272	0.045866
851.786211	0.045651
851.973132	0.045911
852.160034	0.045970
852.346918	0.046058
852.533784	0.046081
852.720632	0.046031
852.907462	0.046265
853.094273	0.046392
853.281066	0.046593
853.467841	0.046845
853.654598	0.046784
853.841336	0.047001
854.028056	0.047023
854.214758	0.047056
854.401442	0.047277
854.588107	0.047225
854.774755	0.047159
854.961384	0.046850
855.147995	0.046874
855.334587	0.046828
855.521162	0.046604
855.707718	0.046654
855.894256	0.046787
856.080775	0.046723
856.267277	0.046681
856.453760	0.046343
856.640225	0.046390
856.826672	0.046394
857.013101	0.046528
857.199511	0.046889
857.385903	0.047006
857.572277	0.046986
857.758633	0.047079
857.944970	0.046918
858.131290	0.047199
858.317591	0.047214
858.503873	0.047423
858.690138	0.047198
858.876384	0.047006
859.062612	0.046879
859.248822	0.046911
859.435014	0.047053
859.621188	0.047286
859.807343	0.047680
859.993480	0.047999
860.179599	0.048065
860.365699	0.048162
860.551781	0.048429
860.737846	0.048496
860.923891	0.048335
861.109919	0.048413
861.295929	0.048450
861.481920	0.048422
861.667893	0.048421
861.853848	0.048562
862.039784	0.048880
862.225702	0.048819
862.411603	0.049104
862.597484	0.049464
862.783348	0.049374
862.969193	0.049645
863.155021	0.049592
863.340830	0.050061
863.526620	0.050121
863.712393	0.050146
863.898147	0.050367
864.083883	0.050395
864.269601	0.050625
864.455301	0.050913
864.640982	0.050984
864.826645	0.051312
865.012290	0.050862
865.197917	0.051191
865.383526	0.051327
865.569116	0.051546
865.754688	0.051551
865.940242	0.051492
866.125777	0.051463
866.311295	0.051514
866.496794	0.051381
866.682275	0.051721
866.867737	0.051467
867.053182	0.051463
867.238608	0.051232
867.424016	0.051315
867.609406	0.051235
867.794778	0.051129
867.980131	0.051001
868.165466	0.051024
868.350783	0.050972
868.536082	0.051060
868.721362	0.050966
868.906625	0.051080
869.091869	0.051073
869.277094	0.051390
869.462302	0.051642
869.647491	0.051909
869.832662	0.051867
870.017815	0.051970
870.202950	0.051939
870.388066	0.052194
870.573165	0.052112
870.758245	0.052215
870.943306	0.052287
871.128350	0.052231
871.313375	0.052166
871.498382	0.052399
871.683371	0.052517
871.868342	0.052776
872.053294	0.052792
872.238229	0.052889
872.423144	0.052727
872.608042	0.052508
872.792922	0.052764
872.977783	0.053012
873.162626	0.052803
873.347451	0.052538
873.532258	0.052298
873.717046	0.052185
873.901816	0.052316
874.086568	0.052498
874.271302	0.052687
874.456017	0.052581
874.640715	0.052389
874.825394	0.052657
875.010055	0.052886
875.194697	0.052891
875.379322	0.053031
875.563928	0.053229
875.748516	0.053265
875.933085	0.052934
876.117637	0.053095
876.302170	0.053148
876.486685	0.053158
876.671182	0.053226
876.855661	0.053316
877.040121	0.053447
877.224563	0.053194
877.408987	0.053360
877.593393	0.053927
877.777780	0.054018
877.962150	0.054194
878.146501	0.054104
878.330833	0.054289
878.515148	0.054508
878.699444	0.054423
878.883722	0.054457
879.067982	0.054464
879.252224	0.054280
879.436447	0.054413
879.620653	0.054167
879.804840	0.054537
879.989008	0.054272
880.173159	0.054486
880.357291	0.054610
880.541405	0.054950
880.725501	0.055014
880.909579	0.055001
881.093638	0.054793
881.277680	0.054925
881.461703	0.054664
881.645707	0.054903
881.829694	0.054535
882.013662	0.054580
882.197612	0.054336
882.381544	0.054362
882.565458	0.054517
882.749353	0.054647
882.933230	0.054710
883.117089	0.054797
883.300930	0.054618
883.484753	0.054866
883.668557	0.054601
883.852343	0.054692
884.036111	0.054325
884.219861	0.054140
884.403592	0.053997
884.587305	0.054226
884.771000	0.054343
884.954677	0.054425
885.138335	0.053993
885.321976	0.054206
885.505598	0.054312
885.689201	0.054962
885.872787	0.054938
886.056354	0.054976
886.239904	0.054659
886.423434	0.054629
886.606947	0.054424
886.790442	0.054786
886.973918	0.054954
887.157376	0.055288
887.340816	0.054941
887.524237	0.055011
887.707641	0.054929
887.891026	0.055059
888.074393	0.055174
888.257741	0.055389
888.441072	0.055088
888.624384	0.054942
888.807678	0.054471
888.990954	0.054370
889.174211	0.054068
889.357451	0.054244
889.540672	0.054135
889.723875	0.053860
889.907059	0.054061
890.090226	0.054241
890.273374	0.054157
890.456504	0.054210
890.639616	0.054359
890.822709	0.054418
891.005785	0.054118
891.188842	0.054282
891.371881	0.054494
891.554901	0.054305
891.737904	0.054365
891.920888	0.054321
892.103854	0.054373
892.286802	0.054452
892.469731	0.054849
892.652643	0.054933
892.835536	0.054894
893.018410	0.054931
893.201267	0.055117
893.384106	0.054854
893.566926	0.055060
893.749728	0.055275
893.932511	0.055098
894.115277	0.055268
894.298024	0.055382
894.480753	0.055399
894.663464	0.055210
894.846157	0.055137
895.028831	0.055532
895.211487	0.055406
895.394125	0.055241
895.576745	0.055338
895.759346	0.055150
895.941930	0.054988
896.124495	0.054692
896.307041	0.054822
896.489570	0.054671
896.672080	0.054412
896.854573	0.054390
897.037046	0.054407
897.219502	0.054282
897.401940	0.053849
897.584359	0.054205
897.766760	0.054166
897.949143	0.054233
898.131507	0.054026
898.313854	0.053832
898.496182	0.053553
898.678492	0.053226
898.860783	0.053199
899.043057	0.053396
899.225312	0.052932
899.407549	0.052932
899.589768	0.052811
899.771968	0.052619
899.954151	0.052768
900.136315	0.052446
900.318461	0.052405
900.500588	0.052412
900.682698	0.052225
900.864789	0.052303
901.046862	0.051953
901.228917	0.051602
901.410953	0.051929
901.592971	0.051920
901.774972	0.052217
901.956953	0.052275
902.138917	0.052474
902.320862	0.052718
902.502790	0.052850
902.684699	0.053344
902.866589	0.053313
903.048462	0.053236
903.230316	0.053474
903.412152	0.053492
903.593970	0.053399
903.775770	0.052880
903.957551	0.052794
904.139314	0.052496
904.321059	0.052393
904.502786	0.052529
904.684494	0.052506
904.866185	0.051985
905.047857	0.052134
905.229510	0.052225
905.411146	0.052200
905.592763	0.051908
905.774363	0.052053
905.955943	0.051995
906.137506	0.052223
906.319051	0.052332
906.500577	0.052614
906.682085	0.052517
906.863575	0.052363
907.045046	0.052290
907.226500	0.052304
907.407935	0.052270
907.589352	0.051931
907.770750	0.051595
907.952131	0.051336
908.133493	0.051304
908.314837	0.050791
908.496163	0.050875
908.677470	0.050971
908.858760	0.051259
909.040031	0.051182
909.221284	0.051517
909.402518	0.051536
909.583735	0.051328
909.764933	0.050995
909.946113	0.051162
910.127275	0.050664
910.308418	0.050702
910.489544	0.050469
910.670651	0.050285
910.851740	0.050296
911.032810	0.049818
911.213863	0.049727
911.394897	0.049407
911.575913	0.049526
911.756911	0.049629
911.937890	0.049338
912.118851	0.049148
912.299794	0.049216
912.480719	0.049037
912.661626	0.049165
912.842514	0.048915
913.023384	0.049311
913.204236	0.048981
913.385070	0.049118
913.565886	0.049106
913.746683	0.048874
913.927462	0.048288
914.108223	0.047838
914.288965	0.047837
914.469690	0.047906
914.650396	0.047530
914.831084	0.047073
915.011754	0.046617
915.192405	0.046322
915.373038	0.046290
915.553653	0.046363
915.734250	0.046671
915.914829	0.046459
916.095389	0.046628
916.275931	0.046859
916.456455	0.047255
916.636961	0.047335
916.817448	0.047075
916.997917	0.047312
917.178368	0.047490
917.358801	0.046826
917.539216	0.046388
917.719612	0.046071
917.899990	0.045545
918.080350	0.045823
918.260692	0.045572
918.441015	0.045555
918.621320	0.044888
918.801607	0.044289
918.981876	0.044043
919.162127	0.044396
919.342359	0.044300
919.522573	0.044601
919.702769	0.043901
919.882947	0.043905
920.063106	0.043836
920.243247	0.043647
920.423370	0.043559
920.603475	0.043391
920.783562	0.042425
920.963630	0.042179
921.143680	0.041329
921.323712	0.040819
921.503725	0.040599
921.683721	0.040557
921.863698	0.040380
922.043657	0.040398
922.223598	0.040665
922.403520	0.041235
922.583424	0.041000
922.763311	0.041257
922.943178	0.041780
923.123028	0.041839
923.302859	0.041519
923.482673	0.041351
923.662467	0.040989
923.842244	0.040557
924.022003	0.040237
924.201743	0.039659
924.381465	0.038910
924.561169	0.038596
924.740854	0.037967
924.920522	0.037696
925.100171	0.037384
925.279802	0.037066
925.459414	0.036647
925.639009	0.035759
925.818585	0.035883
925.998143	0.035709
926.177683	0.035065
926.357205	0.034924
926.536708	0.034636
926.716193	0.034724
926.895660	0.034638
927.075109	0.034658
927.254539	0.034592
927.433951	0.034360
927.613345	0.034304
927.792721	0.034218
927.972079	0.033659
928.151418	0.033282
928.330739	0.032942
928.510042	0.032708
928.689327	0.032700
928.868593	0.032406
929.047841	0.031876
929.227071	0.031916
929.406283	0.031151
929.585476	0.031038
929.764652	0.030878
929.943809	0.030585
930.122948	0.030044
930.302068	0.029653
930.481171	0.029924
930.660255	0.029808
930.839321	0.029449
931.018369	0.029349
931.197398	0.029477
931.376409	0.029256
931.555402	0.029122
931.734377	0.029122
931.913334	0.029102
932.092272	0.028560
932.271192	0.028173
932.450094	0.027607
932.628978	0.027832
932.807844	0.027343
932.986691	0.027005
933.165520	0.026652
933.344331	0.025904
933.523123	0.025419
933.701898	0.025550
933.880654	0.025661
934.059392	0.025780
934.238111	0.025474
934.416813	0.024965
934.595496	0.024490
934.774161	0.024395
934.952808	0.024576
935.131437	0.024610
935.310047	0.024225
935.488639	0.024132
935.667213	0.024197
935.845769	0.023937
936.024306	0.023601
936.202825	0.023583
936.381326	0.023530
936.559809	0.023778
936.738274	0.022784
936.916720	0.022250
937.095148	0.021762
937.273558	0.021120
937.451950	0.021330
937.630323	0.021453
937.808678	0.021599
937.987015	0.021724
938.165334	0.021554
938.343635	0.021622
938.521917	0.021957
938.700181	0.021716
938.878427	0.021261
939.056655	0.020457
939.234864	0.020485
939.413055	0.020459
939.591228	0.019432
939.769383	0.019053
939.947519	0.018815
940.125638	0.018364
940.303738	0.018208
940.481820	0.018358
940.659883	0.018243
940.837929	0.017770
941.015956	0.017444
941.193965	0.017063
941.371955	0.016575
941.549928	0.016674
941.727882	0.016345
941.905818	0.016474
942.083736	0.015895
942.261636	0.015883
942.439517	0.016352
942.617380	0.016579
942.795225	0.016751
942.973052	0.015687
943.150860	0.014548
943.328651	0.014959
943.506423	0.013803
943.684176	0.014068
943.861912	0.013596
944.039629	0.012911
944.217328	0.011989
944.395009	0.011259
944.572672	0.011150
944.750317	0.011810
944.927943	0.011089
945.105551	0.011677
945.283141	0.011429
945.460712	0.011190
945.638265	0.010655
945.815801	0.010048
945.993317	0.009572
946.170816	0.010236
946.348297	0.009705
946.525759	0.009532
946.703203	0.008846
946.880629	0.008794
947.058036	0.009679
947.235425	0.009933
947.412797	0.009569
947.590149	0.009339
947.767484	0.009201
947.944800	0.008648
948.122099	0.009213
948.299379	0.008768
948.476640	0.008385
948.653884	0.006622
948.831109	0.006668
949.008316	0.006556
949.185505	0.007506
949.362676	0.007624
949.539828	0.008567
949.716962	0.007878
949.894078	0.007682
950.071176	0.006460
950.248256	0.007634
950.425317	0.007546
950.602360	0.007498
950.779385	0.007197
950.956391	0.005786
951.133380	0.006371
951.310350	0.006419
951.487302	0.007573
951.664235	0.008434
951.841151	0.008332
952.018048	0.007727
952.194927	0.009072
952.371788	0.007911
952.548631	0.008996
952.725455	0.007501
952.902261	0.006298
953.079049	0.006291
953.255819	0.006551
953.432570	0.006619
953.609303	0.007082
953.786018	0.006695
953.962715	0.006498
954.139394	0.005275
954.316054	0.006128
954.492696	0.007373
954.669320	0.007989
954.845926	0.008381
955.022513	0.006311
955.199083	0.005123
955.375634	0.003828
955.552166	0.004834
955.728681	0.006558
955.905177	0.006326
956.081655	0.005706
956.258115	0.005059
956.434557	0.004310
956.610980	0.005698
956.787385	0.006425
956.963772	0.007306
957.140141	0.008369
957.316492	0.007656
957.492824	0.007993
957.669138	0.007859
957.845434	0.007148
958.021712	0.007236
958.197971	0.006586
958.374212	0.006055
958.550435	0.005772
958.726640	0.005424
958.902826	0.005672
959.078995	0.004362
959.255145	0.005678
959.431277	0.007273
959.607390	0.006841
959.783486	0.006629
959.959563	0.008882
960.135622	0.010616
960.311662	0.011617
960.487685	0.012550
960.663689	0.013857
960.839675	0.012591
961.015643	0.011291
961.191593	0.011812
961.367524	0.011912
961.543437	0.012055
961.719332	0.010973
961.895209	0.009552
962.071067	0.009281
962.246907	0.009144
962.422730	0.009067
962.598533	0.010210
962.774319	0.010377
962.950086	0.012883
963.125835	0.012683
963.301566	0.012489
963.477279	0.014022
963.652973	0.014546
963.828650	0.016112
964.004308	0.016735
964.179947	0.016488
964.355569	0.016050
964.531172	0.015509
964.706757	0.014763
964.882324	0.016087
965.057873	0.016082
965.233403	0.015385
965.408916	0.015648
965.584410	0.016246
965.759885	0.015281
965.935343	0.015255
966.110782	0.016259
966.286203	0.015029
966.461606	0.014192
966.636991	0.014293
966.812357	0.015334
966.987705	0.014802
967.163035	0.013525
967.338347	0.013268
967.513641	0.013939
967.688916	0.011364
967.864173	0.012350
968.039412	0.011463
968.214632	0.010415
968.389835	0.010560
968.565019	0.009786
968.740185	0.010252
968.915333	0.011273
969.090462	0.012134
969.265573	0.013459
969.440667	0.012834
969.615741	0.013401
969.790798	0.014441
969.965836	0.015299
970.140856	0.015009
970.315858	0.016695
970.490842	0.017565
970.665808	0.016744
970.840755	0.015818
971.015684	0.016434
971.190595	0.018605
971.365487	0.017210
971.540362	0.016524
971.715218	0.016734
971.890056	0.015200
972.064875	0.014388
972.239677	0.015672
972.414460	0.018046
972.589225	0.017669
972.763972	0.015632
972.938700	0.016454
973.113411	0.015300
973.288103	0.016291
973.462777	0.016945
973.637432	0.016250
973.812070	0.014990
973.986689	0.014456
974.161290	0.014916
974.335873	0.016241
974.510437	0.015982
974.684984	0.016555
974.859512	0.014431
975.034022	0.014541
975.208513	0.016148
975.382987	0.016599
975.557442	0.015941
975.731879	0.015864
975.906298	0.015822
976.080698	0.015858
976.255080	0.016090
976.429445	0.017004
976.603790	0.017710
976.778118	0.017526
976.952427	0.017378
977.126719	0.017199
977.300992	0.018008
977.475246	0.016754
977.649483	0.015938
977.823701	0.015275
977.997901	0.015392
978.172083	0.014994
978.346247	0.012618
978.520392	0.013655
978.694519	0.014248
978.868628	0.016140
979.042719	0.017388
979.216791	0.018966
979.390845	0.019628
979.564882	0.020216
979.738899	0.019187
979.912899	0.019601
980.086880	0.017455
980.260843	0.016050
980.434788	0.012266
980.608715	0.012095
980.782623	0.010066
980.956514	0.009656
981.130386	0.011858
981.304240	0.010989
981.478075	0.012683
981.651892	0.012326
981.825692	0.013722
981.999472	0.015847
982.173235	0.015049
982.346980	0.016390
982.520706	0.016166
982.694414	0.012442
982.868104	0.013537
983.041775	0.013729
983.215428	0.016139
983.389064	0.016194
983.562680	0.014945
983.736279	0.015265
983.909860	0.014280
984.083422	0.013961
984.256966	0.014438
984.430491	0.013946
984.603999	0.012462
984.777488	0.011509
984.950959	0.011748
985.124412	0.010930
985.297847	0.012611
985.471263	0.012767
985.644661	0.014769
985.818041	0.013988
985.991403	0.014656
986.164747	0.015310
986.338072	0.015587
986.511379	0.014732
986.684668	0.015270
986.857938	0.012092
987.031191	0.011129
987.204425	0.009991
987.377641	0.012596
987.550839	0.011924
987.724018	0.010183
987.897179	0.009085
988.070322	0.008956
988.243447	0.009907
988.416554	0.011420
988.589642	0.012368
988.762712	0.010857
988.935764	0.010251
989.108798	0.012417
989.281813	0.014120
989.454811	0.015018
989.627790	0.014286
989.800751	0.013711
989.973693	0.013571
990.146617	0.014388
990.319524	0.015082
990.492412	0.013676
990.665281	0.012940
990.838133	0.013513
991.010966	0.012638
991.183781	0.013536
991.356578	0.013471
991.529356	0.013194
991.702117	0.014101
991.874859	0.013860
992.047583	0.014797
992.220288	0.013767
992.392976	0.013592
992.565645	0.014342
992.738296	0.015163
992.910929	0.016618
993.083543	0.016520
993.256139	0.016387
993.428718	0.016842
993.601277	0.016658
993.773819	0.016673
993.946342	0.015142
994.118848	0.015265
994.291335	0.013359
994.463803	0.011561
994.636254	0.011765
994.808686	0.011634
994.981100	0.010179
995.153496	0.009391
995.325874	0.009854
995.498233	0.010586
995.670574	0.011069
995.842897	0.012608
996.015202	0.013620
996.187488	0.014301
996.359757	0.012457
996.532007	0.012569
996.704239	0.012360
996.876452	0.012088
997.048648	0.011003
997.220825	0.010445
997.392984	0.008037
997.565124	0.008064
997.737247	0.007154
997.909351	0.006856
998.081437	0.009435
998.253505	0.010263
998.425554	0.009341
998.597586	0.009846
998.769599	0.010174
998.941594	0.012539
999.113571	0.011860
999.285529	0.012574
999.457469	0.014015
999.629391	0.013871
999.801295	0.013982
999.973181	0.013852
1000.145048	0.015233
1000.316897	0.014968
1000.488728	0.014802
1000.660541	0.014891
1000.832335	0.014633
1001.004111	0.013588
1001.175869	0.012982
1001.347609	0.013177
1001.519331	0.013475
1001.691034	0.011557
1001.862719	0.011613
1002.034386	0.010606
1002.206035	0.010244
1002.377665	0.009926
1002.549277	0.011129
1002.720871	0.009449
1002.892447	0.008496
1003.064004	0.009680
1003.235544	0.009730
1003.407065	0.009732
1003.578568	0.010516
1003.750052	0.010135
1003.921519	0.010460
1004.092967	0.008910
1004.264397	0.009259
1004.435809	0.010563
1004.607202	0.009919
1004.778577	0.010596
1004.949934	0.010420
1005.121273	0.010522
1005.292594	0.009998
1005.463896	0.009848
1005.635180	0.010633
1005.806446	0.011087
1005.977694	0.009345
1006.148923	0.008462
1006.320135	0.009601
1006.491328	0.008916
1006.662503	0.007341
1006.833659	0.008888
1007.004798	0.008632
1007.175918	0.008534
1007.347020	0.008437
1007.518103	0.010527
1007.689169	0.009228
1007.860216	0.008331
1008.031245	0.008217
1008.202256	0.009421
1008.373248	0.008229
1008.544223	0.008145
1008.715179	0.009597
1008.886117	0.008956
1009.057036	0.006832
1009.227938	0.008261
1009.398821	0.007692
1009.569686	0.008481
1009.740533	0.007081
1009.911361	0.008080
1010.082172	0.007153
1010.252964	0.006446
1010.423738	0.007274
1010.594493	0.008640
1010.765231	0.009124
1010.935950	0.009201
1011.106651	0.008423
1011.277334	0.008729
1011.447998	0.009644
1011.618645	0.009966
1011.789273	0.008967
1011.959882	0.007486
1012.130474	0.007842
1012.301048	0.007017
1012.471603	0.008949
1012.642140	0.008160
1012.812658	0.008886
1012.983159	0.006785
1013.153641	0.007068
1013.324105	0.008411
1013.494551	0.009549
1013.664979	0.008787
1013.835388	0.010906
1014.005779	0.008865
1014.176152	0.008872
1014.346507	0.008683
1014.516843	0.010435
1014.687162	0.010435
1014.857462	0.008453
1015.027744	0.008309
1015.198007	0.009873
1015.368252	0.008298
1015.538480	0.009285
1015.708689	0.008951
1015.878879	0.009419
1016.049052	0.007950
1016.219206	0.007658
1016.389342	0.007758
1016.559460	0.007442
1016.729559	0.006254
1016.899641	0.005873
1017.069704	0.005662
1017.239749	0.006304
1017.409775	0.006272
1017.579784	0.007201
1017.749774	0.007350
1017.919746	0.008732
1018.089700	0.009533
1018.259635	0.008677
1018.429553	0.008947
1018.599452	0.008032
1018.769333	0.010204
1018.939195	0.010072
1019.109040	0.009734
1019.278866	0.008867
1019.448674	0.009455
1019.618464	0.008155
1019.788235	0.008619
1019.957989	0.007836
1020.127724	0.007303
1020.297441	0.005556
1020.467139	0.006358
1020.636820	0.006867
1020.806482	0.007881
1020.976126	0.008155
1021.145752	0.009024
1021.315359	0.008250
1021.484948	0.008288
1021.654519	0.009308
1021.824072	0.008447
1021.993607	0.007581
1022.163123	0.006461
1022.332621	0.006931
1022.502101	0.006005
1022.671563	0.006237
1022.841007	0.008163
1023.010432	0.009141
1023.179839	0.007777
1023.349228	0.008674
1023.518598	0.009106
1023.687951	0.009492
1023.857285	0.008929
1024.026601	0.007538
1024.195899	0.007519
1024.365178	0.006083
1024.534439	0.005733
1024.703682	0.006294
1024.872907	0.006589
1025.042114	0.006992
1025.211302	0.006245
1025.380472	0.006774
1025.549624	0.007016
1025.718758	0.007128
1025.887873	0.007395
1026.056970	0.007020
1026.226049	0.006086
1026.395110	0.007543
1026.564153	0.007281
1026.733177	0.007390
1026.902183	0.007191
1027.071171	0.008354
1027.240141	0.010035
1027.409092	0.009160
1027.578026	0.010318
1027.746940	0.012525
1027.915837	0.010584
1028.084716	0.010202
1028.253576	0.009786
1028.422418	0.010036
1028.591242	0.009422
1028.760048	0.007311
1028.928835	0.008838
1029.097604	0.009408
1029.266355	0.010895
1029.435088	0.010829
1029.603803	0.010271
1029.772499	0.011532
1029.941177	0.010891
1030.109837	0.012033
1030.278478	0.010392
1030.447102	0.010494
1030.615707	0.010146
1030.784294	0.007447
1030.952863	0.008935
1031.121413	0.009732
1031.289945	0.009028
1031.458460	0.009142
1031.626955	0.007946
1031.795433	0.011046
1031.963892	0.011365
1032.132334	0.009327
1032.300756	0.009071
1032.469161	0.009080
1032.637548	0.009846
1032.805916	0.010291
1032.974266	0.010714
1033.142598	0.010254
1033.310911	0.010092
1033.479207	0.008863
1033.647484	0.009564
1033.815743	0.011215
1033.983983	0.011141
1034.152206	0.008957
1034.320410	0.008514
1034.488596	0.008393
1034.656764	0.008562
1034.824914	0.007405
1034.993045	0.007803
1035.161158	0.008437
1035.329253	0.007728
1035.497330	0.006178
1035.665388	0.007012
1035.833428	0.006246
1036.001450	0.006546
1036.169454	0.007516
1036.337440	0.006785
1036.505407	0.005601
1036.673356	0.004537
1036.841287	0.003772
1037.009200	0.003931
1037.177094	0.004362
1037.344970	0.005814
1037.512828	0.005775
1037.680668	0.005269
1037.848489	0.005695
1038.016293	0.007317
1038.184078	0.010205
1038.351845	0.009847
1038.519593	0.010406
1038.687324	0.009568
1038.855036	0.008283
1039.022730	0.008288
1039.190406	0.007448
1039.358063	0.006433
1039.525702	0.004202
1039.693323	0.000987
1039.860926	0.003010
1040.028511	0.001833
1040.196077	0.002573
1040.363625	0.003813
1040.531155	0.004040
1040.698667	0.004724
1040.866161	0.005980
1041.033636	0.005900
1041.201093	0.007655
1041.368532	0.006957
1041.535952	0.008182
1041.703355	0.007071
1041.870739	0.007040
1042.038105	0.007239
1042.205452	0.007198
1042.372782	0.007927
1042.540093	0.008779
1042.707386	0.007403
1042.874661	0.008078
1043.041918	0.007262
1043.209156	0.008174
1043.376376	0.007740
1043.543578	0.007239
1043.710762	0.006706
1043.877927	0.005918
1044.045074	0.005922
1044.212203	0.007559
1044.379314	0.005425
1044.546407	0.005684
1044.713481	0.005029
1044.880537	0.004526
1045.047575	0.003694
1045.214595	0.004077
1045.381596	0.003995
1045.548579	0.004574
1045.715544	0.003890
1045.882491	0.004336
1046.049420	0.006128
1046.216330	0.007447
1046.383222	0.008214
1046.550096	0.008226
1046.716951	0.009569
1046.883789	0.009517
1047.050608	0.010108
1047.217409	0.009559
1047.384192	0.010577
1047.550956	0.009469
1047.717703	0.007892
1047.884431	0.007826
1048.051140	0.008581
1048.217832	0.008344
1048.384505	0.008238
1048.551161	0.006890
1048.717798	0.007000
1048.884416	0.006001
1049.051017	0.003764
1049.217599	0.004521
1049.384163	0.004690
1049.550709	0.005478
1049.717237	0.004617
1049.883746	0.005608
1050.050237	0.005790
1050.216710	0.006126
1050.383165	0.006276
1050.549601	0.007593
1050.716019	0.007881
1050.882420	0.006113
1051.048801	0.003709
1051.215165	0.003988
1051.381510	0.002688
1051.547837	0.004855
1051.714146	0.004431
1051.880437	0.004260
1052.046709	0.003584
1052.212964	0.003926
1052.379200	0.006125
1052.545417	0.005697
1052.711617	0.005570
1052.877798	0.005732
1053.043961	0.003928
1053.210106	0.004382
1053.376233	0.003760
1053.542341	0.004986
1053.708432	0.004057
1053.874504	0.003237
1054.040557	0.005913
1054.206593	0.006545
1054.372610	0.006209
1054.538609	0.004631
1054.704590	0.004023
1054.870553	0.005532
1055.036497	0.005094
1055.202424	0.003952
1055.368331	0.004951
1055.534221	0.003176
1055.700093	0.002917
1055.865946	0.003437
1056.031781	0.005638
1056.197598	0.006302
1056.363397	0.005360
1056.529177	0.006544
1056.694939	0.007740
1056.860683	0.006445
1057.026409	0.006467
1057.192116	0.006477
1057.357806	0.005996
1057.523477	0.005743
1057.689130	0.004317
1057.854764	0.005749
1058.020381	0.006011
1058.185979	0.005349
1058.351559	0.005196
1058.517120	0.005651
1058.682664	0.006961
1058.848189	0.008055
1059.013696	0.007675
1059.179185	0.008938
1059.344656	0.007229
1059.510108	0.004358
1059.675542	0.006267
1059.840958	0.007242
1060.006356	0.008313
1060.171735	0.006655
1060.337096	0.006815
1060.502439	0.005886
1060.667764	0.006102
1060.833071	0.007441
1060.998359	0.009210
1061.163629	0.007544
1061.328881	0.008474
1061.494115	0.007102
1061.659330	0.007060
1061.824527	0.006295
1061.989706	0.007290
1062.154867	0.006378
1062.320010	0.006088
1062.485134	0.007213
1062.650240	0.007131
1062.815328	0.005504
1062.980398	0.006989
1063.145449	0.006168
1063.310482	0.006924
1063.475497	0.006334
1063.640494	0.006488
1063.805473	0.005213
1063.970433	0.003887
1064.135375	0.004790
1064.300299	0.004787
1064.465204	0.003099
1064.630092	0.002016
1064.794961	0.002719
1064.959812	0.003123
1065.124645	0.003680
1065.289459	0.005250
1065.454256	0.006314
1065.619034	0.005023
1065.783793	0.005785
1065.948535	0.006085
1066.113258	0.006654
1066.277964	0.005394
1066.442651	0.004737
1066.607319	0.004722
1066.771970	0.004241
1066.936602	0.002235
1067.101216	0.001916
1067.265812	0.001491
1067.430389	0.001680
1067.594949	0.002527
1067.759490	0.002853
1067.924013	0.002908
1068.088518	0.002247
1068.253004	0.002398
1068.417472	0.002420
1068.581922	0.003291
1068.746354	0.001920
1068.910768	0.001411
1069.075163	0.001021
1069.239540	0.000427
1069.403899	0.001083
1069.568240	0.001916
1069.732562	0.001235
1069.896866	0.002314
1070.061152	0.000796
1070.225420	0.000051
1070.389670	-0.000595
1070.553901	0.000378
1070.718114	0.001219
1070.882309	0.000584
1071.046486	-0.000116
1071.210644	0.000513
1071.374784	0.001013
1071.538906	0.001912
1071.703010	0.004012
1071.867096	0.004439
1072.031163	0.004965
1072.195212	0.005110
1072.359243	0.005301
1072.523256	0.005003
1072.687250	0.005056
1072.851226	0.003939
1073.015184	0.003638
1073.179124	0.003645
1073.343045	0.004718
1073.506949	0.004562
1073.670834	0.004913
1073.834701	0.005175
1073.998549	0.004438
1074.162380	0.004033
1074.326192	0.006764
1074.489986	0.007805
1074.653761	0.007537
1074.817519	0.005577
1074.981258	0.003800
1075.144979	0.003091
1075.308682	0.002414
1075.472367	0.003487
1075.636033	0.004943
1075.799681	0.000849
1075.963311	0.000683
1076.126923	0.001096
1076.290516	0.003435
1076.454092	0.003174
1076.617649	0.004032
1076.781187	0.004933
1076.944708	0.003049
1077.108210	0.001131
1077.271695	0.003043
1077.435160	0.002986
1077.598608	0.001352
1077.762038	0.000191
1077.925449	0.001327
1078.088842	0.000961
1078.252217	0.000281
1078.415573	0.002999
1078.578912	0.001595
1078.742232	0.000576
1078.905534	0.000227
1079.068817	0.000459
1079.232083	0.001210
1079.395330	0.001680
1079.558559	0.001079
1079.721770	0.001816
1079.884962	0.002355
1080.048136	0.005345
1080.211293	0.008441
1080.374430	0.010610
1080.537550	0.011687
1080.700651	0.009999
1080.863735	0.008713
1081.026800	0.006236
1081.189846	0.005278
1081.352875	0.004381
1081.515885	0.001599
1081.678877	-0.001897
1081.841851	-0.002706
1082.004807	-0.004331
1082.167744	-0.003013
1082.330663	-0.000444
1082.493564	0.000344
1082.656447	0.000271
1082.819312	0.000339
1082.982158	0.001550
1083.144986	0.001375
1083.307796	0.000477
1083.470587	0.002259
1083.633361	0.001183
1083.796116	-0.000960
1083.958853	0.000062
1084.121571	0.001975
1084.284272	0.000836
1084.446954	0.001898
1084.609618	0.000695
1084.772264	0.000998
1084.934892	0.001402
1085.097501	0.003312
1085.260092	0.001660
1085.422665	0.002374
1085.585220	0.001676
1085.747756	0.001916
1085.910274	0.002121
1086.072774	0.006369
1086.235256	0.005423
1086.397720	0.003390
1086.560165	0.004312
1086.722592	0.006758
1086.885001	0.005532
1087.047392	0.005377
1087.209764	0.004511
1087.372119	0.002069
1087.534455	0.000195
1087.696772	0.000916
1087.859072	0.003417
1088.021353	0.001217
1088.183616	0.000245
1088.345861	0.001191
1088.508088	0.000313
1088.670296	0.001505
1088.832486	0.004301
1088.994658	0.004198
1089.156812	0.003650
1089.318948	0.002551
1089.481065	0.001854
1089.643164	0.002208
1089.805245	0.001955
1089.967308	0.002074
1090.129352	0.002875
1090.291378	0.002811
1090.453386	0.003175
1090.615376	0.001893
1090.777347	0.001295
1090.939301	0.001409
1091.101236	0.002260
1091.263153	0.001942
1091.425051	-0.000065
1091.586932	0.000296
1091.748794	-0.000484
1091.910638	0.001240
1092.072463	0.003455
1092.234271	0.006585
1092.396060	0.008196
1092.557831	0.007528
1092.719584	0.008902
1092.881319	0.009830
1093.043035	0.011347
1093.204733	0.012298
1093.366413	0.009885
1093.528075	0.008825
1093.689718	0.006802
1093.851343	0.006015
1094.012950	0.007100
1094.174539	0.003475
1094.336110	0.006191
1094.497662	0.000326
1094.659196	0.000064
1094.820712	-0.001076
1094.982210	-0.001862
1095.143689	-0.002040
1095.305151	-0.003640
1095.466594	-0.005799
1095.628018	-0.002948
1095.789425	-0.003101
1095.950813	0.002428
1096.112183	0.003389
1096.273535	0.003632
1096.434869	0.002777
1096.596184	0.001600
1096.757482	0.003127
1096.918761	0.003552
1097.080021	0.000669
1097.241264	0.000202
1097.402488	-0.003531
1097.563694	-0.007592
1097.724882	-0.006240
1097.886052	-0.005486
1098.047203	-0.007428
1098.208336	-0.006594
1098.369451	-0.006936
1098.530548	-0.003037
1098.691627	-0.003062
1098.852687	-0.003417
1099.013729	-0.002665
1099.174753	-0.002370
1099.335758	-0.000953
1099.496746	0.005272
1099.657715	0.005371
1099.818666	0.005584
1099.979599	0.002789
1100.140513	0.001372
1100.301409	0.001923
1100.462287	0.000554
1100.623147	0.001045
1100.783989	0.001996
1100.944812	-0.001659
1101.105617	-0.002513
1101.266404	-0.002656
1101.427173	-0.001034
1101.587923	0.000033
1101.748656	0.002788
1101.909370	0.005703
1102.070066	0.002920
1102.230743	0.003011
1102.391403	0.001297
1102.552044	0.000630
1102.712667	0.002402
1102.873271	0.000178
1103.033858	-0.001410
1103.194426	-0.002526
1103.354976	-0.007147
1103.515508	-0.001343
1103.676021	-0.000342
1103.836517	0.002748
1103.996994	0.002557
1104.157453	0.001124
1104.317893	0.004661
1104.478316	0.004420
1104.638720	0.003002
1104.799106	0.006591
1104.959474	0.002624
1105.119823	-0.000193
1105.280155	-0.001683
1105.440468	-0.002412
1105.600763	-0.000245
1105.761039	-0.002826
1105.921298	-0.001611
1106.081538	0.001471
1106.241760	0.002927
1106.401964	0.002675
1106.562149	0.003396
1106.722316	0.003998
1106.882465	0.011006
1107.042596	0.010467
1107.202709	0.011143
1107.362803	0.010330
1107.522879	0.007977
1107.682937	0.008594
1107.842977	0.007660
1108.002999	0.006474
1108.163002	0.008267
1108.322987	0.002963
1108.482954	-0.000813
1108.642902	0.000864
1108.802833	0.002100
1108.962745	0.005120
1109.122639	0.004795
1109.282515	0.008044
1109.442372	0.011008
1109.602211	0.009548
1109.762032	0.006489
1109.921835	0.006697
1110.081620	0.005623
1110.241386	0.004034
1110.401134	0.003938
1110.560864	0.001438
1110.720576	-0.002244
1110.880269	-0.005025
1111.039945	-0.006784
1111.199602	-0.004234
1111.359240	0.002628
1111.518861	-0.001988
1111.678463	-0.001595
1111.838047	-0.002628
1111.997613	-0.003877
1112.157161	-0.004843
1112.316690	-0.001909
1112.476202	-0.001722
1112.635695	-0.001325
1112.795169	-0.002858
1112.954626	0.000483
1113.114064	0.000535
1113.273484	-0.000521
1113.432886	0.003104
1113.592270	0.007756
1113.751635	0.006426
1113.910983	0.009772
1114.070312	0.010674
1114.229622	0.007193
1114.388915	0.006211
1114.548189	0.005116
1114.707445	0.002252
1114.866683	0.002331
1115.025903	0.002631
1115.185104	0.005132
1115.344287	0.002759
1115.503452	0.003404
1115.662599	0.005099
1115.821727	0.006877
1115.980838	0.006488
1116.139930	0.009424
1116.299004	0.009972
1116.458059	0.008612
1116.617097	0.004062
1116.776116	0.000145
1116.935117	-0.002960
1117.094099	-0.003170
1117.253064	0.000784
1117.412010	0.000677
1117.570938	0.000366
1117.729848	-0.002388
1117.888740	-0.005021
1118.047613	-0.004770
1118.206468	-0.002449
1118.365305	0.001200
1118.524124	-0.003438
1118.682924	-0.012799
1118.841707	-0.010146
1119.000471	-0.012397
1119.159216	-0.008988
1119.317944	-0.009942
1119.476653	-0.008576
1119.635344	-0.008242
1119.794017	-0.006715
1119.952672	-0.000882
1120.111308	0.007985
1120.269927	0.006230
1120.428527	0.006443
1120.587108	0.004098
1120.745672	0.007116
1120.904217	0.005586
1121.062744	0.005561
1121.221253	-0.002385
1121.379744	-0.001566
1121.538216	-0.005451
1121.696671	0.000074
1121.855107	0.001541
1122.013524	0.004834
1122.171924	0.007508
1122.330305	0.010173
1122.488668	0.012773
1122.647013	0.014852
1122.805340	0.008680
1122.963648	0.005450
1123.121938	0.002386
1123.280210	0.003088
1123.438464	-0.001625
1123.596700	-0.004553
1123.754917	-0.002433
1123.913116	-0.003517
1124.071297	-0.002741
1124.229459	-0.003124
1124.387604	-0.002300
1124.545730	-0.000704
1124.703838	-0.001473
1124.861928	0.003725
1125.019999	0.006571
1125.178052	0.002439
1125.336088	0.001757
1125.494104	0.002647
1125.652103	0.007952
1125.810083	0.011765
1125.968045	0.009950
1126.125989	0.009871
1126.283915	0.006851
1126.441823	0.004195
1126.599712	0.006171
1126.757583	0.007551
1126.915436	0.008887
1127.073270	0.006589
1127.231087	0.007451
1127.388885	0.007175
1127.546665	0.012837
1127.704426	0.015303
1127.862170	0.011230
1128.019895	0.012628
1128.177602	0.012408
1128.335291	0.007765
1128.492961	0.007349
1128.650614	0.005770
1128.808248	0.003390
1128.965864	0.001369
1129.123461	0.000181
1129.281041	0.004854
1129.438602	0.002073
1129.596145	-0.000644
1129.753670	-0.002066
1129.911176	0.000456
1130.068665	-0.002240
1130.226135	0.001296
1130.383587	-0.001269
1130.541020	-0.000068
1130.698436	-0.001398
1130.855833	-0.002327
1131.013212	-0.002144
1131.170573	0.004429
1131.327915	0.003358
1131.485239	0.008438
1131.642545	0.009601
1131.799833	0.008089
1131.957103	0.007730
1132.114354	0.005400
1132.271588	0.008185
1132.428803	0.010701
1132.585999	0.008759
1132.743178	0.009597
1132.900338	0.001938
1133.057480	-0.001346
1133.214604	-0.000514
1133.371710	-0.003731
1133.528797	0.002330
1133.685866	0.002893
1133.842917	0.000988
1133.999950	0.002138
1134.156964	-0.007950
1134.313960	-0.007436
1134.470938	-0.007513
1134.627898	-0.005977
1134.784840	-0.002710
1134.941763	-0.004401
1135.098668	-0.006046
1135.255555	-0.006061
1135.412424	-0.007517
1135.569274	0.007674
1135.726107	0.013894
1135.882921	0.012732
1136.039716	0.011526
1136.196494	0.008929
1136.353253	0.009880
1136.509995	0.013881
1136.666717	0.017248
1136.823422	0.015416
1136.980109	0.010632
1137.136777	0.012639
1137.293427	0.012258
1137.450059	0.010168
1137.606672	0.011565
1137.763267	0.008934
1137.919844	0.004680
1138.076403	-0.001872
1138.232944	0.004331
1138.389466	0.005851
1138.545971	0.003368
1138.702457	0.005301
1138.858924	0.008968
1139.015374	0.010440
1139.171805	0.007452
1139.328218	0.010362
1139.484613	0.014589
1139.640990	0.010808
1139.797348	0.005062
1139.953688	0.009891
1140.110010	0.006665
1140.266314	-0.000656
1140.422600	-0.004204
1140.578867	-0.001468
1140.735116	-0.001473
1140.891347	0.004057
1141.047559	0.003707
1141.203754	0.004833
1141.359930	-0.001647
1141.516088	0.004516
1141.672228	0.010181
1141.828349	0.013511
1141.984452	0.013234
1142.140537	0.009836
1142.296604	0.005816
1142.452653	0.007355
1142.608683	0.003549
1142.764695	0.006809
1142.920689	0.002693
1143.076665	-0.000458
1143.232622	-0.003889
1143.388562	-0.003466
1143.544483	-0.002162
1143.700385	-0.006767
1143.856270	-0.007124
1144.012136	-0.005353
1144.167985	-0.007765
1144.323814	-0.003336
1144.479626	-0.005332
1144.635420	-0.004878
1144.791195	-0.005533
1144.946952	-0.006416
1145.102691	-0.004106
1145.258411	-0.003112
1145.414113	-0.001435
1145.569798	0.001879
1145.725463	-0.005046
1145.881111	0.001106
1146.036741	-0.000456
1146.192352	0.001443
1146.347945	-0.001863
1146.503519	0.002914
1146.659076	-0.002240
1146.814614	-0.001493
1146.970134	-0.008655
1147.125636	-0.000368
1147.281120	-0.002009
1147.436585	-0.001730
1147.592032	-0.000949
1147.747461	0.003880
1147.902872	-0.005489
1148.058265	-0.010680
1148.213639	-0.009754
1148.368995	-0.006520
1148.524333	-0.003617
1148.679653	0.000746
1148.834954	-0.001327
1148.990237	-0.003888
1149.145502	-0.000371
1149.300749	0.006985
1149.455977	0.014749
1149.611188	0.017297
1149.766380	0.016222
1149.921553	0.008056
1150.076709	0.004573
1150.231846	0.011153
1150.386966	0.008584
1150.542066	0.009333
1150.697149	0.008941
1150.852214	0.007304
1151.007260	0.005473
1151.162288	0.003544
1151.317298	0.007486
1151.472289	0.004021
1151.627263	-0.001508
1151.782218	0.004433
1151.937155	0.002256
1152.092073	0.008406
1152.246974	0.013642
1152.401856	0.012213
1152.556720	0.018905
1152.711566	0.014805
1152.866393	0.018255
1153.021203	0.022520
1153.175994	0.023147
1153.330767	0.027259
1153.485521	0.016887
1153.640258	0.012838
1153.794976	0.010360
1153.949676	0.010156
1154.104358	0.010170
1154.259021	0.008464
1154.413667	0.003740
1154.568294	0.001329
1154.722903	-0.006017
1154.877493	-0.002564
1155.032066	0.001508
1155.186620	0.002843
1155.341156	0.000499
1155.495674	0.001582
1155.650173	0.006772
1155.804654	0.010694
1155.959118	0.017003
1156.113562	0.012658
1156.267989	0.016740
1156.422397	0.017671
1156.576788	0.016448
1156.731160	0.020502
1156.885513	0.017387
1157.039849	0.015199
1157.194166	0.012667
1157.348465	0.001183
1157.502746	0.007293
1157.657009	0.004401
1157.811253	0.003553
1157.965479	0.010587
1158.119687	0.005895
1158.273877	0.009985
1158.428048	0.005162
1158.582201	0.005999
1158.736337	0.007285
1158.890453	0.000089
1159.044552	-0.001064
1159.198632	-0.011724
1159.352694	-0.010938
1159.506738	-0.014312
1159.660764	-0.014865
1159.814771	-0.009091
1159.968761	-0.007823
1160.122732	-0.004444
1160.276685	0.005664
1160.430619	0.001939
1160.584535	0.004298
1160.738434	-0.003938
1160.892313	-0.000576
1161.046175	-0.004944
1161.200019	-0.008940
1161.353844	-0.006080
1161.507651	-0.007570
1161.661440	-0.010086
1161.815210	-0.006358
1161.968962	-0.006180
1162.122697	-0.005132
1162.276412	-0.008898
1162.430110	-0.003029
1162.583789	-0.002785
1162.737451	-0.010827
1162.891094	-0.012548
1163.044718	-0.011905
1163.198325	-0.012054
1163.351913	-0.003593
1163.505483	0.001313
1163.659035	0.000946
1163.812569	0.008065
1163.966084	0.005683
1164.119581	0.016281
1164.273060	0.019895
1164.426521	0.017879
1164.579964	0.014775
1164.733388	0.019111
1164.886794	0.030867
1165.040182	0.036910
1165.193551	0.028512
1165.346903	0.033029
1165.500236	0.031862
1165.653551	0.021511
1165.806848	0.012353
1165.960126	0.019499
1166.113386	0.012190
1166.266628	-0.007513
1166.419852	-0.008328
1166.573058	-0.013508
1166.726245	-0.019450
1166.879414	-0.024106
1167.032565	-0.025175
1167.185698	-0.011581
1167.338812	-0.016518
1167.491909	-0.027056
1167.644987	-0.016541
1167.798046	-0.014381
1167.951088	-0.018159
1168.104111	-0.003294
1168.257117	-0.013884
1168.410103	0.000389
1168.563072	-0.007471
1168.716023	-0.012872
1168.868955	-0.000849
1169.021869	-0.005776
1169.174765	0.003651
1169.327642	0.000218
1169.480501	-0.019945
1169.633343	-0.004210
1169.786165	-0.007797
1169.938970	-0.007267
1170.091757	-0.004373
1170.244525	-0.005101
1170.397275	-0.008435
1170.550007	-0.024432
1170.702720	-0.019996
1170.855415	-0.011667
1171.008092	-0.009291
1171.160751	-0.000433
1171.313392	0.007318
1171.466014	-0.011582
1171.618619	0.073812
1171.771205	0.073812
1171.923772	0.073812
