sample name	sample
index	1140
start time	 04-22-2021  02:59:25 PM
880	0.140863
Peak Time (s)	100.039
Peak Height 	0.1409
calc peak height	100,103
Baseline Time (s)	9.037
Baseline Value 	-0.004965
subtract baseline	10,4
Abs	-0.010172
Peak Time (s)	100.537
Peak Height 	-0.01017
calc peak height	100,103
Baseline Time (s)	8.536
Baseline Value 	0.002602
subtract baseline	10,3
PK_550	0.006184
Peak Time (s)	100.039
Peak Height 	0.006184
calc peak height	100,103
Baseline Time (s)	8.536
Baseline Value 	6.232E-4
subtract baseline	10,2
PK_880	-0.021186
Peak Time (s)	100.039
Peak Height 	-0.02119
calc peak height	100,103
Baseline Time (s)	10.037
Baseline Value 	0.002452
subtract baseline	10,1


Time (s)	A880-A510	A880-A775	A880-A975	A880	I510	I775	I975	I880	
0.036500	0.000025	0.000706	-0.004339	0.003093	6272.147444	43175.282747	3907.223545	22677.422450
0.536500	-0.001104	-0.000450	-0.002329	0.003853	6257.727933	42998.505378	3910.060702	22642.935554
1.040500	-0.001652	-0.000194	-0.007165	0.005754	6239.137311	42847.336152	3894.870101	22556.924483
1.539000	-0.001734	-0.000786	0.003238	0.002124	6266.100936	43126.902529	3926.775668	22721.460974
2.035000	0.000402	0.000394	-0.002199	0.001734	6285.444741	43272.222078	3915.182642	22739.221630
2.535500	0.000193	-0.000502	-0.001274	0.000431	6293.855838	43309.964104	3920.283994	22798.692204
3.036000	-0.004390	-0.001104	-0.003322	0.003824	6233.024300	42941.000217	3907.871713	22644.250891
3.536000	0.001515	-0.000384	-0.003930	0.000483	6303.647259	43316.161920	3914.088035	22796.334873
4.036500	0.001088	0.000192	0.001424	0.000963	6296.655271	43325.036758	3925.270685	22774.404985
4.536500	0.000879	-0.000018	0.003042	0.000691	6297.130828	43330.723725	3929.637698	22786.790353
5.037000	-0.003183	-0.000348	-0.006843	0.004889	6234.096513	42912.617108	3897.529938	22596.016244
5.537500	-0.000698	-0.000310	-0.000688	0.000197	6288.803033	43349.576821	3922.169590	22809.405419
6.037500	-0.000531	0.000045	0.000181	-0.000108	6292.432232	43410.834134	3924.871963	22823.325019
6.535500	0.001103	-0.000252	0.001692	0.000194	6302.693330	43355.158996	3927.663365	22809.515607
7.035500	-0.001641	-0.000566	0.000882	-0.000415	6286.258251	43382.586854	3927.200848	22837.402542
7.536000	-0.000314	-0.000639	-0.003299	-0.000205	6294.848800	43356.320131	3917.100703	22827.767508
8.038500	-0.001118	-0.000798	0.005925	-0.000145	6288.204746	43336.040780	3938.295071	22825.047344
8.536000	-0.000802	0.000000	0.000000	0.000344	6286.879463	43364.700856	3923.414542	22802.681889
9.036500	0.000451	-0.000221	-0.000451	0.000000	6299.166802	43376.065598	3923.166302	22818.395432
9.537000	0.000003	0.000038	-0.002102	-0.000340	6298.337530	43431.823774	3920.155286	22833.970190
10.036500	0.000000	-0.000552	0.005464	-0.000682	6300.942838	43408.717987	3938.471185	22849.601650
10.534500	-0.000910	0.000169	-0.002031	0.004880	6251.389175	42960.949517	3908.404702	22596.397758
11.034500	0.000861	-0.000208	0.006996	-0.000273	6304.438684	43402.694799	3941.101880	22830.892614
11.535500	-0.001017	0.000377	0.000750	0.000069	6287.333478	43425.259817	3925.777614	22815.235346
12.035000	0.001020	0.000053	0.000501	-0.000106	6304.371834	43411.386896	3925.606010	22823.239622
12.535500	-0.000414	-0.001071	0.003706	-0.000976	6300.017615	43387.826016	3935.054614	22863.093267
13.036000	-0.002931	-0.000214	-0.000836	0.005121	6234.236487	42903.518807	3910.569351	22585.486248
13.536500	0.001207	0.000627	0.003891	0.000207	6303.394881	43435.667149	3932.732786	22808.909539
14.036500	0.001247	0.000262	0.000011	0.000025	6305.116469	43418.749181	3924.174960	22817.264978
14.536500	-0.003489	-0.000116	-0.000812	0.004103	6237.722401	43006.248177	3912.943165	22631.588691
15.037000	-0.004068	0.000359	-0.003471	0.006561	6214.819756	42823.962572	3901.350965	22520.515579
15.567000	0.001378	0.000601	0.002220	0.000239	6304.476185	43430.287307	3928.783293	22807.461940
16.035000	0.000505	-0.000571	-0.003028	-0.000853	6306.162940	43422.867362	3919.204639	22857.438739
16.535500	-0.002001	0.000130	0.000219	0.005477	6238.580083	42902.432251	3912.160438	22569.395728
17.038500	-0.002544	-0.001090	-0.001113	0.005143	6237.005633	42821.164443	3909.890974	22584.530284
17.536000	0.000572	-0.000563	-0.003125	-0.000588	6304.636713	43399.017264	3918.377208	22845.329273
18.036500	0.001587	-0.000212	0.005227	-0.003153	6332.398037	43671.039659	3943.708302	22963.153617
18.539000	-0.000458	-0.000058	0.001391	0.002599	6272.226942	43150.348308	3921.427057	22699.867685
19.037000	0.000605	-0.000061	0.000264	0.001038	6292.357131	43294.575297	3922.424148	22770.956572
19.536500	0.001438	0.000312	0.002417	0.001530	6294.982845	43283.602037	3926.254022	22748.536578
20.040000	-0.001972	-0.000392	0.000410	0.000789	6274.491924	43286.963383	3923.332122	22782.336583
20.534500	-0.003718	-0.001356	-0.001885	0.001832	6253.215607	43101.288764	3915.676487	22734.783624
21.035500	-0.001757	0.000171	0.003125	0.000977	6274.691485	43321.711814	3929.168348	22773.734157
21.535500	0.000041	-0.000360	0.006556	0.000933	6288.824575	43276.506722	3937.249902	22775.740021
22.035500	-0.001218	-0.000632	0.001930	0.000607	6281.655854	43281.583138	3927.259822	22790.627377
22.536000	-0.002565	0.000089	0.003055	0.002334	6258.171423	43188.477934	3925.870706	22711.929026
23.036000	-0.000817	0.000048	-0.000729	0.000987	6281.824732	43309.438367	3920.257399	22773.284422
23.539500	-0.001992	-0.000088	0.001626	0.000599	6275.789588	43332.790635	3926.574611	22790.990569
24.037500	-0.003246	-0.000530	0.003117	0.000410	6267.650386	43309.338794	3930.465061	22799.645068
24.537000	0.001135	0.000128	0.001497	0.003284	6279.172189	43104.171560	3920.094436	22668.708125
25.037500	-0.001390	-0.000454	-0.002636	0.000447	6281.563954	43312.912599	3917.124665	22797.942594
25.535500	-0.000757	0.000114	-0.001244	0.000945	6282.603804	43319.445995	3919.173913	22775.206242
26.035000	-0.001405	-0.000319	0.001295	0.000576	6280.462096	43313.425316	3925.864680	22792.040415
26.535500	-0.004057	0.000192	0.002688	0.003103	6241.000109	43126.858327	3923.249995	22676.965978
27.036000	-0.000035	0.000043	0.000671	0.000911	6288.406481	43315.967296	3923.651059	22776.743812
27.536000	-0.000519	-0.001246	-0.000994	0.000018	6291.551230	43279.240964	3921.875304	22817.565901
28.036500	0.000667	0.000074	0.008370	-0.001037	6308.833763	43500.014755	3946.122310	22865.872923
28.536500	-0.002511	-0.000584	0.000663	0.005310	6235.992513	42852.275385	3913.553995	22576.963896
29.037000	0.000619	-0.000712	-0.002014	-0.000755	6306.290759	43400.666653	3921.308954	22852.965386
29.539500	-0.000116	-0.000481	0.000661	-0.000714	6300.293216	43418.292512	3927.379733	22851.076866
30.034500	0.002000	-0.000223	-0.001559	-0.000396	6314.192703	43412.690178	3921.529238	22836.518142
30.535500	-0.002635	-0.000224	0.000401	0.005550	6233.236114	42863.275195	3912.408901	22566.116312
31.035000	-0.003089	0.000166	0.000838	0.004739	6235.942116	42973.619500	3915.255817	22602.799813
31.547000	0.001524	0.000383	0.005550	0.000021	6307.292664	43430.400888	3937.032923	22817.457011
32.036000	-0.001605	0.000422	0.002822	0.002519	6264.074300	43202.052446	3924.903068	22703.472609
32.536500	0.000452	-0.000336	0.001090	0.000506	6295.272329	43318.415177	3925.552664	22795.259914
33.036000	-0.004746	-0.000591	-0.001052	0.003799	6230.517463	42990.382743	3913.087347	22645.348656
33.537000	-0.001258	0.000112	-0.000250	-0.000024	6286.204198	43409.344377	3923.686364	22819.508692
34.040000	-0.000951	0.000700	-0.002228	0.000021	6288.204153	43459.816810	3919.036340	22817.416280
34.534500	0.000497	0.000112	0.003138	-0.000132	6300.533785	43419.296469	3931.771534	22824.434301
35.035000	-0.001866	-0.000470	-0.000314	0.002997	6258.445591	43075.556713	3916.605876	22681.778580
35.535000	-0.000028	0.000011	-0.000889	0.001553	6283.527792	43253.485383	3918.593808	22747.456112
36.035500	-0.000285	-0.000230	-0.001665	0.001239	6283.976914	43260.299520	3917.537072	22761.813264
36.535500	-0.001627	-0.000412	-0.002621	0.001351	6272.831010	43233.070497	3915.092941	22756.688154
37.036000	-0.001064	-0.000555	-0.002254	0.003120	6263.621176	43056.338539	3911.896499	22676.177178
37.536000	-0.000256	-0.000232	0.002105	0.001644	6281.079998	43222.489122	3925.268517	22743.312354
38.036500	0.001446	0.000302	0.001392	0.002029	6291.201270	43236.334174	3922.738195	22725.770324
38.537000	-0.001554	0.000201	0.000604	0.002071	6267.882852	43223.139188	3920.830806	22723.883486
39.036500	0.000449	-0.000375	0.003150	0.002198	6282.245642	43158.092572	3926.403162	22718.099675
39.537000	-0.002858	-0.000306	0.003553	0.000795	6267.672323	43294.354598	3930.583543	22782.050278
40.035000	-0.003073	-0.000604	-0.003395	0.000643	6267.189306	43280.875430	3914.942819	22788.997338
40.535000	-0.001958	-0.000357	-0.002455	0.002704	6259.966877	43112.912969	3912.385077	22695.059658
41.035500	-0.000385	0.000539	-0.000056	0.001530	6280.976092	43304.572213	3920.557177	22748.536456
41.536000	-0.001828	-0.000455	-0.001022	0.000480	6277.952690	43309.789420	3920.748542	22796.427975
42.036000	-0.002128	-0.000596	0.002222	0.000050	6278.954595	43336.576935	3929.223862	22816.092403
42.536500	-0.004254	-0.000659	0.003658	0.001812	6249.292576	43167.554194	3928.471190	22735.682764
43.037000	-0.002132	-0.000289	0.004140	0.000256	6277.345806	43345.925104	3933.197781	22806.668955
43.540000	-0.000230	0.000075	0.005264	0.000223	6292.194528	43382.801968	3935.890755	22808.177258
44.037500	0.001265	-0.000545	0.000539	0.000404	6302.329634	43308.477112	3924.517032	22799.929241
44.535000	-0.001159	-0.000559	0.002720	0.002343	6268.828135	43127.741963	3925.076393	22711.513431
45.035500	0.001389	0.001152	0.003576	-0.002938	6329.176211	43778.750522	3939.332356	22953.233417
45.535500	-0.001701	-0.000519	0.001656	-0.001504	6294.172052	43488.357737	3931.516013	22887.322548
46.036000	-0.001490	0.000279	0.003773	-0.000464	6287.795545	43465.803962	3934.019205	22839.626735
46.536500	-0.002177	-0.000685	-0.001186	0.003239	6254.234558	43033.440212	3914.060011	22670.790937
47.036500	-0.000597	-0.000175	0.002183	-0.000369	6293.932223	43414.697943	3930.105775	22835.291905
47.539000	-0.000006	-0.000569	0.008940	-0.000915	6302.692441	43428.854899	3947.179872	22860.290264
48.037000	0.000154	-0.000158	0.000698	-0.000604	6301.531194	43438.137809	3927.211813	22846.053550
48.539500	-0.002252	-0.000278	0.001698	0.004661	6242.865871	42939.963795	3917.401462	22606.320486
49.037500	-0.000048	-0.000337	0.003497	0.002265	6277.919685	43155.357634	3927.048024	22715.034548
49.537500	-0.000414	0.000677	-0.001365	0.000471	6288.876998	43415.750825	3919.982409	22796.856653
50.040500	0.002297	-0.000657	0.002170	-0.001051	6321.571657	43433.268615	3931.658164	22866.530905
50.536000	-0.003773	-0.000091	-0.000621	0.004148	6235.236712	43004.349506	3913.275098	22629.548114
51.036500	0.000424	0.001018	0.001998	0.002209	6281.975427	43286.064676	3923.720861	22717.619887
51.536500	0.003022	-0.000036	0.003317	-0.003478	6346.132895	43718.030078	3939.990972	22978.145319
52.036000	0.002681	0.000853	0.003961	0.010095	6239.069770	42546.223656	3910.166498	22361.895618
52.536500	0.007175	-0.007724	0.000865	0.068004	5858.506257	36934.143471	3780.832819	19938.761293
53.036500	0.009935	-0.008739	-0.026127	0.355907	4458.775533	20451.629553	3338.574445	11705.495315
53.537500	-0.014932	-0.017356	-0.042291	-0.049511	6572.906968	46500.365826	3940.986168	25217.515376
54.037500	-0.018272	-0.048564	-0.034588	-0.214844	8210.470514	62236.865827	4439.146793	35533.602555
54.535000	-0.025586	-0.054240	-0.028236	-0.228656	8289.761000	63356.931710	4511.188640	36586.517056
55.035500	-0.013974	-0.032988	-0.011300	-0.195514	8031.535384	61727.228413	4453.025876	34115.204182
55.536000	-0.003024	-0.028511	-0.001877	-0.184545	8031.303312	60855.883653	4447.589131	33337.907914
56.036000	-0.001815	-0.017638	-0.004766	-0.147773	7631.858903	57507.237788	4314.551807	30870.969036
56.536500	-0.005065	-0.011903	-0.006371	-0.117690	7286.000085	54535.906542	4216.650454	29002.412023
57.036000	-0.003293	-0.009311	-0.009825	-0.095210	7084.138395	52229.559736	4141.677533	27688.257498
57.536500	0.000966	-0.008804	-0.005572	-0.085281	7030.533338	51173.220178	4125.858216	27129.134251
58.034500	-0.001496	-0.006239	-0.008631	-0.069848	6865.838909	49767.121154	4075.727054	26285.031823
58.536500	-0.003760	-0.005172	-0.008332	-0.047755	6652.303485	47557.286602	4019.317823	25127.653770
59.034500	-0.008919	-0.004084	-0.015596	-0.026736	6435.771833	45559.095532	3950.212680	24079.909136
59.535000	-0.008759	-0.002800	-0.015952	-0.018397	6370.749273	44873.498963	3929.858206	23678.081761
60.035000	-0.008108	-0.002791	-0.010593	-0.018349	6375.510617	44869.713065	3942.244116	23675.804631
60.541000	-0.007700	-0.003281	-0.010780	-0.012951	6336.379272	44306.003577	3929.222675	23419.780193
61.035500	-0.009013	-0.000869	-0.010655	0.006366	6179.310593	42729.422891	3885.734650	22529.293318
61.536500	-0.006276	-0.001709	-0.008369	-0.003256	6272.511634	43540.782876	3912.491321	22967.919560
62.036500	-0.009762	-0.003851	-0.014299	-0.003931	6251.078346	43404.140445	3900.594901	22999.051534
62.540000	-0.007298	-0.004781	-0.023306	-0.041187	6567.152613	46928.153152	3966.277379	24794.772910
63.037000	-0.009841	0.000806	-0.008068	0.028390	6013.818268	40911.256680	3843.609319	21561.180018
63.534500	-0.011824	-0.002725	-0.007251	0.030021	5988.438085	40463.462117	3841.888028	21491.448186
64.035500	-0.012678	-0.004872	-0.010700	0.027787	5998.099710	40470.860785	3839.319321	21587.031791
64.538500	-0.015056	-0.006558	-0.016146	0.033574	5941.344962	39831.767809	3815.928596	21340.354760
65.036000	-0.011461	-0.007526	-0.016838	0.031085	5983.531331	39960.998974	3819.629557	21446.046053
65.536000	-0.012941	-0.008263	-0.010233	0.051795	5832.464396	38180.478090	3790.984812	20584.770088
66.036500	-0.012260	-0.006856	-0.013220	0.072568	5702.179694	36646.679388	3744.787443	19761.174740
66.536500	-0.015249	-0.009412	-0.014912	0.085151	5605.274748	35494.319089	3718.224548	19281.135416
67.039500	-0.021575	-0.011102	-0.019029	0.091230	5530.518526	34918.335239	3699.777016	19054.118726
67.537500	-0.015361	-0.006276	-0.013870	0.164941	5159.176013	30238.192779	3586.392635	16540.367319
68.037000	-0.010526	-0.002392	-0.013144	0.187072	5072.951446	29117.887008	3554.500288	15865.197823
68.535000	-0.018194	-0.002553	-0.016628	0.184218	5049.556347	29280.223019	3553.585393	15950.338090
69.038000	-0.015945	0.002125	-0.019234	0.190420	5030.537205	29188.223872	3540.929623	15766.023134
69.536500	-0.016283	0.001779	-0.002097	0.198567	4990.299654	28681.259543	3553.848816	15527.864308
70.039000	-0.019656	-0.000288	-0.015889	0.199112	4971.979148	28527.339998	3533.372710	15512.093637
70.536500	-0.023845	0.000638	-0.024252	0.209526	4905.148040	27975.899269	3507.556410	15214.480475
71.039000	-0.018035	0.002766	-0.009958	0.208542	4935.959744	28155.405368	3528.476545	15242.279217
71.536500	-0.020055	0.002036	-0.018268	0.209749	4921.263546	28043.531096	3515.358241	15208.163664
72.036500	-0.020585	0.002453	-0.016253	0.210240	4916.636296	28039.286681	3517.440247	15194.332409
72.534500	-0.018498	0.003739	-0.014773	0.209223	4930.736875	28172.352359	3520.866062	15223.033270
73.037500	-0.021796	0.002451	-0.016375	0.205815	4931.242423	28295.469131	3523.356103	15319.717374
73.534500	-0.020360	0.003781	-0.023401	0.200115	4964.049536	28708.103400	3521.526710	15483.106379
74.035000	-0.017468	0.003691	-0.017552	0.193144	5010.298021	29118.560420	3539.450410	15685.905550
74.535500	-0.022679	0.003570	-0.012766	0.185746	5020.695635	29559.692056	3556.982824	15904.693386
75.035000	-0.022812	0.002817	-0.016444	0.178829	5053.285301	29939.182239	3561.725940	16112.651235
75.536000	-0.020728	0.003761	-0.016301	0.173300	5090.464717	30343.586280	3570.119374	16281.286331
76.037000	-0.023742	0.005369	-0.015072	0.168479	5099.390551	30751.279504	3579.193664	16430.107921
76.539000	-0.025490	0.002823	-0.022836	0.168983	5088.278986	30557.125850	3566.824279	16414.470747
77.037500	-0.021688	0.003276	-0.017444	0.160868	5147.744528	31105.996695	3587.154258	16668.402986
77.534500	-0.023463	0.003533	-0.015015	0.158114	5152.700986	31301.421090	3595.124251	16755.667369
78.035000	-0.022761	0.004079	-0.017943	0.156404	5164.964214	31448.778838	3593.243681	16810.126030
78.535500	-0.020387	0.004333	-0.010584	0.154080	5189.049549	31618.121852	3608.348557	16884.488139
79.035500	-0.022086	0.003319	-0.024072	0.152466	5188.608678	31657.652629	3589.871572	16936.358001
79.535500	-0.020516	0.003911	-0.013277	0.150392	5207.464228	31834.063070	3609.919589	17003.310621
80.036000	-0.020394	0.004975	-0.015197	0.149706	5211.671851	31950.435579	3607.972212	17025.534817
80.536500	-0.025728	0.004298	-0.021000	0.154408	5160.019762	31594.146838	3591.607219	16873.955615
81.039500	-0.021514	0.004475	-0.014659	0.148646	5211.356131	31987.780538	3610.495097	17059.919955
81.536500	-0.021036	0.003893	-0.021922	0.146765	5223.667680	32074.587124	3602.031861	17121.162247
82.037500	-0.021104	0.003458	-0.025028	0.146100	5226.798644	32089.960349	3598.227377	17142.884100
82.535000	-0.023518	0.003262	-0.025170	0.151922	5184.038989	31689.768478	3589.021229	16953.887306
83.035000	-0.021865	0.003613	-0.019584	0.146812	5219.087418	32052.705351	3605.621776	17119.618628
83.535000	-0.023785	0.003174	-0.019855	0.145597	5215.409947	32104.658715	3607.107892	17159.335285
84.035500	-0.024279	0.004271	-0.016124	0.146071	5210.365838	32146.430591	3612.255153	17143.823399
84.536000	-0.025085	0.003639	-0.024980	0.145591	5208.670930	32136.175165	3599.093505	17159.514448
85.036500	-0.025472	0.003619	-0.019715	0.146343	5202.761531	32084.501460	3606.153182	17134.951205
85.536500	-0.027059	0.003001	-0.020131	0.145630	5198.234531	32090.853178	3606.620432	17158.256805
86.039500	-0.025664	0.003079	-0.022058	0.145767	5204.750073	32086.874981	3603.380801	17153.760440
86.537000	-0.025435	0.003252	-0.027228	0.146485	5202.211813	32050.436713	3594.220855	17130.296259
87.040500	-0.028732	0.002757	-0.020917	0.146722	5183.967593	32001.541342	3603.671714	17122.565150
87.534500	-0.028341	0.003448	-0.026913	0.147281	5183.104378	32010.299669	3593.478924	17104.333909
88.035000	-0.026337	0.003862	-0.025105	0.147720	5191.159933	32008.655718	3595.595856	17090.038003
88.535500	-0.029005	0.003980	-0.025818	0.148561	5173.133506	31960.436140	3593.194467	17062.689537
89.038500	-0.027113	0.003257	-0.023636	0.148863	5181.288124	31892.190520	3596.100530	17052.890081
89.535500	-0.025436	0.005595	-0.022859	0.150579	5181.081053	31933.587467	3594.646327	16997.256141
90.036500	-0.025554	0.005359	-0.019899	0.150074	5183.074536	31951.555021	3600.025441	17013.625266
90.536500	-0.028463	0.004135	-0.025929	0.155714	5139.558635	31497.642129	3582.081980	16832.160782
91.036500	-0.026613	0.004090	-0.030278	0.150460	5175.658525	31841.443335	3583.455708	17001.121141
91.537000	-0.025490	0.004413	-0.024896	0.150796	5179.690156	31840.512421	3591.171453	16990.241281
92.035000	-0.021232	0.005629	-0.017414	0.152158	5194.604443	31830.823856	3600.649268	16946.275459
92.535000	-0.026324	0.003577	-0.027442	0.155892	5149.462015	31449.461900	3579.521087	16826.472174
93.035000	-0.022080	0.004324	-0.021619	0.149912	5201.841941	31893.357368	3597.601450	17018.848345
93.535000	-0.023047	0.004044	-0.021006	0.149397	5199.497856	31909.045188	3599.355120	17035.555909
94.036000	-0.022864	0.004916	-0.017917	0.149697	5198.894875	31947.126730	3603.710703	17025.826750
94.536000	-0.024087	0.004251	-0.020772	0.154675	5167.019111	31573.547289	3591.548538	16865.404568
95.036000	-0.021215	0.004500	-0.020980	0.148132	5215.592511	32023.756608	3601.368219	17076.635998
95.539500	-0.020636	0.004804	-0.016317	0.147749	5220.617795	32069.689091	3609.292302	17089.099758
96.036500	-0.021148	0.004032	-0.021670	0.146247	5225.796097	32118.592500	3603.236240	17138.080648
96.534500	-0.025494	0.002841	-0.023196	0.150330	5182.066850	31767.247203	3594.511320	17005.333120
97.035000	-0.019720	0.004911	-0.018117	0.145547	5236.971252	32224.581445	3609.927094	17160.951369
97.535000	-0.019812	0.005151	-0.016851	0.144835	5240.237348	32288.723660	3613.063581	17184.289994
98.035500	-0.019761	0.004865	-0.016468	0.143398	5248.094478	32366.387506	3615.958817	17231.439663
98.535500	-0.024080	0.004560	-0.028639	0.148213	5200.281079	32022.368256	3589.389001	17073.993385
99.036000	-0.021844	0.004908	-0.020782	0.142070	5244.106820	32459.255934	3611.213135	17275.186041
99.536000	-0.021927	0.005801	-0.016452	0.141531	5246.512567	32556.521635	3618.968919	17292.976836
100.039000	-0.021186	0.006184	-0.020151	0.140863	5253.973392	32628.093060	3614.131213	17315.054000
100.536500	-0.022852	0.004311	-0.010172	0.138968	5255.190865	32629.625298	3633.281153	17377.876523
101.037500	-0.022913	0.004457	-0.017549	0.137310	5263.681115	32752.869677	3623.992586	17433.051641
101.534500	-0.023135	0.004953	-0.012739	0.136072	5269.093119	32871.849096	3633.817603	17474.382786
102.035000	-0.023412	0.005366	-0.014133	0.135356	5271.439378	32949.584335	3632.709019	17498.344924
102.535500	-0.022149	0.004720	-0.015867	0.134992	5280.153152	32930.227768	3630.476600	17510.557597
103.035500	-0.022221	0.004678	-0.020119	0.132425	5293.575649	33104.680047	3627.737046	17596.873180
103.536000	-0.024675	0.005242	-0.019057	0.130973	5288.171946	33244.680619	3631.826056	17645.912422
104.036000	-0.023557	0.005168	-0.014464	0.130053	5299.166018	33303.604987	3640.878709	17677.077909
104.536000	-0.023398	0.004063	-0.020250	0.130346	5298.443617	33206.276169	3630.903588	17667.136049
105.036500	-0.024050	0.004300	-0.014542	0.126729	5314.526068	33475.463924	3646.262264	17790.218941
105.537000	-0.022284	0.003795	-0.017480	0.125405	5331.409826	33532.978571	3643.580479	17835.543528
106.037500	-0.022818	0.004386	-0.020250	0.124519	5333.338287	33636.924612	3640.463306	17865.928091
106.534500	-0.025783	0.003821	-0.019490	0.125640	5311.024887	33518.256767	3639.867279	17827.491334
107.035000	-0.024350	0.005239	-0.017379	0.123489	5330.579418	33770.007520	3646.934100	17901.332357
107.535500	-0.026028	0.004005	-0.014250	0.120467	5337.964450	33896.954428	3657.256113	18005.750640
108.036000	-0.025175	0.003647	-0.020066	0.119525	5347.846486	33938.494124	3649.065904	18038.433152
108.536000	-0.027000	0.004755	-0.021040	0.125264	5306.461571	33610.434352	3637.931935	17840.371260
109.036000	-0.030209	0.002993	-0.025190	0.117411	5331.780142	34042.647644	3644.051034	18112.041228
109.621500	-0.025493	0.003939	-0.017645	0.115369	5369.125323	34256.918195	3660.140452	18183.508291
110.057000	-0.023344	0.003721	-0.019408	0.115010	5383.132718	34266.984985	3657.761682	18196.088579
110.537500	-0.030286	0.002669	-0.023102	0.118260	5326.711477	33958.909963	3646.111092	18082.447909
111.034000	-0.027190	0.004111	-0.019192	0.112665	5374.738518	34464.481930	3662.106436	18278.642758
111.534500	-0.025517	0.004216	-0.015409	0.111952	5388.096390	34523.811458	3669.794984	18303.828094
112.035000	-0.024145	0.005039	-0.016606	0.111032	5400.989772	34650.469936	3669.318042	18336.369975
112.535000	-0.032682	0.002574	-0.021682	0.114156	5336.076503	34245.956398	3655.364647	18226.106550
