sample name	sample
index	677
start time	 03-22-2021  11:36:01 AM
880	0.351987
Peak Time (s)	181.035
Peak Height 	0.352
calc peak height	180,183
Baseline Time (s)	8.534
Baseline Value 	-4.9195E-4
subtract baseline	10,4
Abs	0.212276
Peak Time (s)	182.036
Peak Height 	0.2123
calc peak height	180,183
Baseline Time (s)	10.036
Baseline Value 	0.003413
subtract baseline	10,3
PK_550	0.122874
Peak Time (s)	180.537
Peak Height 	0.1229
calc peak height	180,183
Baseline Time (s)	9.034
Baseline Value 	0.00112
subtract baseline	10,2
PK_880	0.203889
Peak Time (s)	182.536
Peak Height 	0.2039
calc peak height	180,183
Baseline Time (s)	10.536
Baseline Value 	0.002062
subtract baseline	10,1


Time (s)	A880-A510	A880-A775	A880-A975	A880	I510	I775	I975	I880	
0.035500	-0.005003	-0.000886	-0.007776	0.005237	7279.934110	45217.721003	3927.919420	23864.704924
0.535500	-0.000845	0.000127	-0.008032	0.003906	7336.735401	45446.989484	3930.758074	23929.334505
1.036000	-0.003939	-0.001273	-0.004738	0.001644	7328.068121	45531.577494	3945.538677	24039.604070
1.538500	-0.001430	-0.000488	-0.000310	-0.000552	7377.240005	45825.569993	3963.413628	24147.239117
2.036500	-0.003850	-0.000613	-0.007084	0.005287	7291.287925	45239.493828	3929.612824	23862.263791
2.536500	-0.000313	-0.000451	-0.004316	-0.000104	7384.272310	45784.974926	3951.365813	24125.267414
3.037000	0.000172	-0.000500	0.000715	-0.002984	7419.820802	46065.764840	3972.854709	24267.108192
3.537500	0.001665	0.000116	0.003355	-0.000739	7411.855073	45903.980712	3973.936387	24156.453653
4.035000	-0.002411	-0.000168	-0.006866	0.001671	7343.707329	45637.759177	3939.785784	24038.325827
4.535000	0.001301	0.000200	0.000750	-0.000495	7405.416015	45888.124269	3966.145143	24144.456025
5.035500	0.001378	-0.000288	-0.000249	-0.000408	7405.323572	45831.207466	3963.189728	24140.203285
5.535500	-0.000895	0.000090	0.000916	-0.000566	7383.010962	45884.258995	3966.793913	24147.956901
6.038500	-0.000052	-0.000421	-0.003651	-0.000361	7389.724335	45813.333553	3953.851051	24137.870141
6.536000	0.000087	-0.000188	-0.002849	-0.000887	7396.735147	45888.483049	3957.438401	24163.722005
7.036500	0.000684	0.000059	0.000336	-0.000480	7398.742514	45872.687635	3964.976827	24143.731084
7.536500	-0.000804	-0.000612	-0.001372	-0.000974	7388.255471	45855.041561	3961.675880	24167.984613
8.037000	-0.000442	-0.000710	0.001355	-0.001149	7393.923362	45862.702877	3969.582457	24176.601657
8.534500	0.000935	0.000668	-0.003435	0.000000	7396.325304	45885.409016	3953.458629	24120.149345
9.034500	0.000145	0.000000	-0.001143	-0.000324	7391.416080	45851.337713	3960.534022	24136.050658
9.535000	-0.001723	-0.000538	0.001392	-0.000700	7375.710418	45835.255078	3968.455696	24154.525219
10.035500	0.001193	0.000687	0.000000	0.000699	7391.676315	45818.067339	3960.858743	24085.860616
10.535500	0.000000	0.000572	-0.000289	0.000705	7379.053691	45806.079686	3960.057149	24085.561466
11.036000	-0.000711	-0.000339	0.002744	-0.000080	7379.844473	45793.716389	3970.458655	24124.093938
11.536000	-0.000678	-0.000207	0.003110	0.000090	7378.396805	45789.898502	3970.995466	24115.754056
12.036500	-0.001741	-0.000758	-0.000971	0.003140	7335.374148	45435.262575	3951.637343	23966.589392
12.536500	0.000098	0.000395	-0.001724	0.000339	7383.939643	45824.853734	3957.163721	24103.525649
13.037500	0.000790	0.000866	0.001032	-0.001239	7407.884214	46028.029699	3968.945789	24181.044269
13.537500	0.001780	0.000177	0.003654	0.000393	7401.092677	45797.857184	3971.652964	24100.848774
14.035000	-0.000104	0.000183	-0.001433	0.001051	7374.329452	45733.484932	3956.024634	24068.620205
14.537500	0.001004	0.000053	-0.004286	0.003714	7358.036175	45458.604734	3941.216454	23938.682546
15.038000	0.000961	0.000885	0.003052	0.002101	7374.485533	45699.071623	3965.342499	24017.272122
15.600500	0.001174	0.000407	0.005226	0.000948	7388.846347	45765.740401	3974.439254	24073.657299
16.038500	-0.001153	0.000052	-0.006347	0.005300	7319.043568	45303.113054	3931.526307	23861.636490
16.536000	0.002414	0.000373	0.000365	0.001264	7398.603824	45731.272434	3960.318988	24058.231712
17.037500	0.000237	0.000637	-0.001292	0.001672	7371.389056	45716.955919	3954.731226	24038.257303
17.537000	0.002929	-0.000047	0.001103	-0.000455	7422.236233	45859.709722	3966.998946	24142.495010
18.037000	0.001506	0.000314	0.001499	0.002988	7370.904903	45555.527129	3958.719415	23974.034831
18.540000	0.000657	0.000856	-0.000519	0.003586	7355.742140	45550.020742	3951.653800	23944.876865
19.035000	0.001636	0.000980	-0.001205	0.003253	7369.490981	45595.053896	3950.706147	23961.127805
19.538500	0.001301	0.000367	0.002345	0.003015	7368.455923	45558.033678	3960.935826	23972.681717
20.035500	0.000848	0.000821	-0.001227	0.003694	7356.601452	45535.898301	3949.459474	23939.615704
20.536000	0.000539	0.000413	0.003905	0.003233	7358.207672	45541.236303	3964.586815	23962.096432
21.036000	0.000323	0.000292	0.005047	0.003314	7355.093210	45521.307968	3967.477024	23958.137099
21.536000	0.001284	0.000656	0.000334	0.003775	7360.322403	45511.741756	3953.441725	23935.674029
22.039500	0.002184	0.001021	0.004369	0.004978	7357.151220	45429.526279	3961.103815	23877.261718
22.537000	0.002312	0.001095	0.003786	0.004008	7368.653952	45532.067195	3962.156282	23924.379202
23.037500	0.001622	0.000856	0.000217	0.004065	7360.826567	45502.960669	3952.348547	23921.614073
23.534500	0.002732	0.000893	0.002830	0.004351	7369.457482	45478.451093	3958.630007	23907.681901
24.038000	0.001024	0.000647	0.001316	0.004651	7348.452121	45424.916730	3953.728885	23893.122635
24.535500	0.002423	0.001435	0.003531	0.004834	7361.163631	45484.231115	3959.222505	23884.234922
25.036000	0.000728	0.000618	-0.001305	0.004187	7350.201674	45467.567519	3947.926468	23915.670560
25.536000	0.000888	0.001185	-0.002079	0.004827	7345.190620	45460.431774	3944.138956	23884.579494
26.036000	0.002037	0.001158	0.006448	0.004535	7360.252292	45486.413235	3967.969131	23898.755893
26.536500	0.001350	0.000833	0.000808	0.004278	7355.756617	45479.760032	3953.365244	23911.258666
27.036500	0.002802	0.001428	0.004848	0.004874	7364.701968	45479.600637	3962.684538	23882.273997
27.537000	0.000268	0.001256	-0.001103	0.004646	7340.620882	45485.196380	3947.238330	23893.384034
28.037000	0.000378	0.002175	0.002261	0.008160	7305.271259	45231.128338	3946.834340	23723.418683
28.538000	0.002987	0.001084	0.002484	0.003233	7383.888802	45607.234068	3960.724854	23962.092010
29.065000	0.002590	0.001735	0.004765	0.003991	7371.751764	45596.724874	3964.864955	23925.212376
29.535500	0.002734	0.001342	0.002627	0.003433	7379.124394	45612.924093	3960.569483	23952.337013
30.035500	0.000581	0.000741	0.000331	0.008044	7308.579402	45102.773248	3941.981228	23729.022253
30.536000	0.002663	0.001582	0.006383	0.004374	7368.490361	45543.829626	3968.229696	23906.555229
31.036500	0.002616	0.001332	0.001205	0.003952	7372.425794	45560.777221	3955.316288	23927.073132
31.537000	0.002733	0.001210	-0.000285	0.004784	7364.935472	45467.071574	3949.062542	23886.665949
32.038000	-0.000710	0.001579	0.001588	0.008501	7290.523330	45139.878867	3944.121673	23707.039690
32.545000	0.003401	0.001244	0.001698	0.003958	7380.612231	45551.531611	3956.630284	23926.771521
33.043500	0.004999	0.001992	-0.001515	0.004566	7391.040527	45565.444101	3946.348309	23897.272741
33.535000	0.002476	0.001510	0.002415	0.003746	7373.122552	45598.572806	3959.144062	23937.094438
34.035000	0.000655	0.001840	-0.000937	0.008837	7301.146542	45132.550109	3936.494373	23690.874901
34.536000	0.003024	0.001969	0.006570	0.002935	7387.410636	45723.771758	3972.675892	23976.581278
35.036000	0.001860	0.001167	0.000583	0.006783	7334.938020	45267.198562	3946.028546	23789.866846
35.536500	-0.000161	0.001290	0.002063	0.006469	7317.205475	45309.915416	3950.844770	23805.038162
36.036500	0.000038	0.001198	0.004578	0.008292	7300.389753	45123.058531	3952.706026	23717.062615
36.536500	0.002530	0.000867	0.006192	0.007315	7336.374768	45186.074255	3959.709741	23764.186958
37.037000	0.001617	0.001455	-0.002386	0.007660	7323.290472	45209.730004	3935.770689	23747.531314
37.540500	0.000743	0.001339	0.002042	0.007382	7317.104583	45225.529629	3948.334365	23760.934098
38.035500	0.000308	0.001179	0.000030	0.008738	7298.572757	45077.811618	3939.326417	23695.603336
38.535000	0.001239	0.002145	0.005026	0.008186	7313.921048	45225.717789	3954.201765	23722.201321
39.035500	0.004168	0.002564	0.002243	0.008339	7342.768716	45251.601526	3946.304810	23714.802059
39.536000	0.004454	0.001749	0.002880	0.008118	7348.063968	45193.694335	3948.607995	23725.476108
40.038000	0.003672	0.001924	0.002056	0.008789	7332.920327	45145.364911	3944.600423	23693.150686
40.536500	0.002084	0.001789	0.001780	0.008256	7321.950119	45184.110178	3945.287287	23718.797061
41.036500	0.001412	0.001082	0.003268	0.007810	7319.607319	45158.649437	3950.476395	23740.284676
41.537000	0.003080	0.001654	0.006519	0.008227	7332.606139	45173.854862	3958.124283	23720.219638
42.040000	0.002013	0.002402	0.003859	0.009664	7306.633104	45106.764023	3947.088966	23651.151356
42.535000	0.002617	0.002095	0.004738	0.008695	7322.927270	45171.197085	3952.050801	23697.676824
43.035000	0.002291	0.002153	0.001567	0.008712	7319.367688	45175.200605	3943.498157	23696.871413
43.535500	0.001698	0.002372	0.001865	0.009007	7310.164128	45167.758889	3943.507177	23682.678080
44.035500	0.003670	0.001905	0.005724	0.009439	7326.137782	45080.256368	3952.702497	23661.909755
44.536000	0.004343	0.001779	0.003976	0.007927	7348.899959	45215.318148	3952.069426	23734.685351
45.036000	0.003581	0.001833	0.005687	0.003272	7389.730758	45677.113348	3969.339175	23960.170642
45.536500	0.003506	0.002117	0.007300	0.007330	7346.392678	45306.594811	3962.676276	23763.446910
46.047500	0.000575	0.002119	-0.000952	0.010785	7280.229721	44970.259619	3931.287982	23597.382144
46.540000	0.004800	0.002115	0.001805	0.006792	7365.553622	45359.047287	3949.282087	23789.443316
47.037500	0.006366	0.002012	0.002610	0.006087	7389.414890	45418.041931	3953.346757	23823.540608
47.534500	0.003535	0.001831	0.003540	0.006663	7353.659130	45343.835325	3954.299883	23795.662693
48.035500	0.000656	0.001532	0.001104	0.009492	7294.385836	45038.819962	3940.179772	23659.377207
48.535500	0.001341	0.001727	0.001782	0.008519	7311.528691	45152.562637	3944.591111	23706.178211
49.036000	0.002778	0.002198	0.003041	0.008846	7323.039576	45166.519384	3947.087469	23690.430972
49.538500	0.004929	0.002204	0.005383	0.007216	7362.462777	45326.169585	3957.785069	23768.942735
50.036500	0.000838	0.001881	0.002839	0.009216	7299.114570	45099.601490	3945.554307	23672.632265
50.539000	0.004365	0.001748	0.004796	0.005961	7369.700918	45404.383721	3959.595011	23829.600320
51.039500	0.004215	0.002387	0.003546	0.003400	7395.066130	45719.231296	3963.154715	23953.968556
51.537000	0.003140	0.001753	0.005642	0.006878	7347.291368	45315.139928	3959.402595	23785.272275
52.037500	0.002640	0.001640	0.001690	0.018305	7224.499803	44201.654335	3918.456925	23240.515683
52.535000	0.018783	0.004313	0.015381	0.002081	7565.724899	46040.661925	3999.460432	24018.252152
53.038000	-0.039485	-0.010239	0.008533	0.159445	5706.259547	31921.600949	3616.308548	17571.048628
53.535500	-0.037807	-0.019180	-0.023220	-0.090573	7977.140581	53496.882403	4160.750837	29062.414994
54.036000	-0.044745	-0.141636	-0.023376	-0.305639	11151.432482	65535.000000	5043.170638	45887.686532
54.536000	-0.037743	-0.156456	-0.010939	-0.320459	11581.043320	65535.000000	5189.597331	47383.151079
55.036500	-0.053977	-0.148241	-0.015614	-0.312243	11101.133196	65535.000000	5119.202550	46547.797543
55.539500	-0.042937	-0.114852	-0.012876	-0.278854	10685.482320	65535.000000	4959.970619	43311.030695
56.037000	-0.024038	-0.097686	-0.014858	-0.261688	10716.956245	65535.000000	4866.056095	41741.314617
56.534500	-0.015216	-0.103882	-0.017115	-0.267884	10995.011005	65535.000000	4885.035568	42300.759393
57.034500	-0.001124	-0.096759	-0.008089	-0.260761	11127.339933	65535.000000	4894.271013	41658.300683
57.535000	-0.005400	-0.067785	-0.009056	-0.229429	10472.928939	65195.466134	4742.909751	38954.078266
58.036000	-0.008641	-0.035954	-0.006565	-0.181184	9616.756801	62883.125511	4546.888483	35153.660011
58.535000	-0.003880	-0.019008	-0.001709	-0.139005	9055.207016	59494.466822	4401.590565	32159.849972
59.036000	-0.000898	-0.009203	0.001026	-0.099959	8557.885550	55806.111017	4271.726461	29636.020321
59.536500	-0.002889	-0.006908	0.004665	-0.068875	8136.717579	52409.423279	4180.527083	27782.924931
60.038500	0.001091	-0.001116	0.011117	-0.046412	7914.949471	50543.046589	4129.928222	26523.956657
60.537000	0.005631	0.003087	0.013238	-0.016419	7624.599764	47793.188932	4046.168395	24941.314988
61.037000	0.008522	0.005996	0.016395	0.016227	7306.079235	44818.842009	3963.215721	23338.524083
61.535000	0.010439	0.008584	0.021239	0.039165	7093.836632	42897.568074	3915.033123	22282.250269
62.035500	0.016154	0.012302	0.024727	0.060360	6943.980847	41317.936005	3869.785283	21354.628952
62.535500	0.021282	0.016333	0.032734	0.078117	6825.624580	40121.092147	3845.648497	20611.584263
63.035500	0.031755	0.019980	0.037554	0.086780	6842.377306	39693.142552	3836.283363	20259.978389
63.536000	0.036739	0.023164	0.038098	0.088085	6876.644489	39852.818369	3834.437737	20207.589037
64.036000	0.038582	0.024348	0.038104	0.090637	6870.020297	39736.532725	3828.289787	20105.660981
64.539500	0.041348	0.026035	0.042285	0.089207	6909.390187	40002.203842	3841.889302	20162.706844
65.045500	0.043183	0.026587	0.046760	0.085669	6960.371953	40353.718843	3861.615215	20304.655191
65.542500	0.041373	0.026784	0.044745	0.090712	6895.460956	39937.579397	3844.221871	20102.666754
66.040000	0.045119	0.027967	0.044576	0.092158	6917.129478	39915.162073	3840.280349	20045.179245
66.537500	0.049899	0.029390	0.051864	0.089181	6991.073228	40292.529426	3865.578083	20163.735992
67.035500	0.052085	0.030564	0.056665	0.090738	6997.120526	40259.515694	3873.698868	20101.618834
67.535000	0.048429	0.029855	0.053356	0.095861	6913.419990	39760.504736	3852.717262	19898.819937
68.036000	0.050393	0.032451	0.056920	0.099770	6895.097854	39649.081255	3851.867212	19745.659814
68.536000	0.056638	0.033767	0.056664	0.099476	6957.014401	39785.789476	3851.961354	19757.158254
69.039000	0.059003	0.033517	0.061144	0.101922	6956.240912	39557.177744	3856.981561	19661.948258
69.536500	0.055978	0.034128	0.055973	0.108360	6866.968634	39067.960033	3828.641258	19413.948550
70.037000	0.058109	0.036709	0.061925	0.112501	6848.254688	38938.117163	3833.012626	19256.348259
70.534500	0.063051	0.036284	0.063584	0.109376	6923.885293	39163.208135	3844.647878	19375.137740
71.037000	0.064973	0.037872	0.072774	0.111850	6918.664944	39089.156328	3861.202068	19281.020721
71.535000	0.064973	0.040051	0.072594	0.118293	6858.225017	38735.101856	3844.877854	19038.448764
72.035500	0.066521	0.040429	0.065500	0.121975	6838.394491	38463.140271	3818.840220	18901.405786
72.535500	0.071706	0.042163	0.068059	0.120176	6903.631138	38753.975752	3829.291680	18968.203821
73.035500	0.073539	0.042309	0.075097	0.121570	6907.769590	38651.014240	3842.984064	18916.422425
73.539000	0.073033	0.042953	0.073757	0.128769	6835.795310	38114.703038	3822.339211	18651.610959
74.036500	0.073497	0.044392	0.076918	0.132403	6806.534142	37936.846347	3821.204187	18519.562206
74.536500	0.079236	0.046956	0.078793	0.131273	6870.190015	38236.596529	3828.418564	18560.515204
75.037000	0.079510	0.046792	0.083898	0.133049	6856.177235	38078.889768	3836.465932	18496.213140
75.536000	0.077024	0.047258	0.077065	0.140617	6763.685601	37507.428748	3802.088726	18225.188308
76.035000	0.081129	0.048821	0.080948	0.142809	6781.115371	37457.241632	3806.066242	18147.556736
76.535000	0.084795	0.049591	0.085557	0.140497	6836.102778	37703.778236	3822.508939	18229.451757
77.035500	0.086246	0.049561	0.084887	0.142672	6829.398842	37527.269302	3815.718898	18152.406365
77.538000	0.087050	0.051212	0.089023	0.144737	6817.767549	37494.264267	3820.660077	18079.634228
78.039000	0.085782	0.050375	0.085547	0.151572	6743.758530	36887.490773	3796.299236	17841.132571
78.536000	0.088512	0.051308	0.088483	0.149610	6786.440910	37115.264444	3807.800306	17909.220671
79.036500	0.090832	0.052686	0.093026	0.151571	6789.720742	37069.189540	3813.912417	17841.168576
79.537000	0.094159	0.053842	0.091545	0.153582	6801.793549	37001.987867	3805.654524	17771.736498
80.037000	0.092475	0.054346	0.090929	0.155524	6768.638749	36889.064210	3799.643992	17704.959703
80.537000	0.094649	0.056137	0.098171	0.158452	6761.781547	36800.104050	3809.800030	17604.871285
81.035000	0.097738	0.057891	0.099677	0.161624	6761.031379	36689.369050	3805.866769	17497.190519
81.534500	0.093856	0.056163	0.094825	0.167427	6673.984161	36107.592434	3781.063999	17302.187858
82.035000	0.099522	0.058700	0.101033	0.165290	6743.960067	36467.500885	3800.435963	17373.688940
82.538500	0.100921	0.060048	0.104810	0.167944	6732.620432	36366.566566	3803.072286	17284.950845
83.036000	0.104011	0.061041	0.102627	0.170767	6735.023758	36225.587270	3791.374066	17191.136284
83.536500	0.096656	0.060474	0.097122	0.177837	6606.945686	35643.817282	3762.584467	16958.898769
84.036500	0.101043	0.061254	0.102579	0.179417	6631.533703	35583.466055	3771.370100	16907.491457
84.539500	0.104183	0.062679	0.103882	0.177267	6678.316986	35853.998638	3779.264730	16977.469855
85.037500	0.106801	0.062325	0.106103	0.178489	6690.753291	35734.501008	3781.559653	16937.659981
85.535000	0.104629	0.064367	0.107152	0.187710	6590.391187	35195.377085	3762.938950	16640.820434
86.035000	0.106270	0.064011	0.108424	0.188331	6599.269935	35122.666389	3764.409436	16621.051355
86.535000	0.110700	0.066180	0.116162	0.186551	6653.775215	35417.479041	3786.166625	16677.782609
87.038500	0.111602	0.067134	0.115481	0.188447	6644.996963	35346.872919	3780.228306	16617.351526
87.536000	0.109219	0.067284	0.115887	0.196129	6557.241129	34788.121834	3763.651204	16375.215197
88.036000	0.109662	0.067779	0.113387	0.197316	6550.828653	34737.244900	3755.356715	16338.186697
88.536500	0.112048	0.067241	0.119866	0.192725	6611.346052	35036.275143	3780.473085	16481.993638
89.037000	0.115456	0.069307	0.119810	0.196281	6610.053873	34926.039182	3772.208204	16370.481859
89.537000	0.112215	0.069230	0.120313	0.202974	6524.214593	34429.890312	3758.201531	16163.044767
90.037500	0.112745	0.069893	0.119764	0.204941	6511.953688	34335.183143	3752.564487	16102.691419
90.535000	0.117877	0.071427	0.122486	0.202338	6578.398619	34636.535656	3764.531602	16182.614503
91.035000	0.120946	0.073090	0.124082	0.204473	6586.510004	34601.976961	3763.313333	16117.024779
91.538500	0.114721	0.072411	0.126508	0.211094	6476.567503	34072.765761	3753.886074	15915.666799
92.035500	0.117838	0.073117	0.124305	0.212968	6487.053706	33988.892069	3744.809081	15859.203474
92.535500	0.121568	0.074117	0.125301	0.210035	6543.849710	34272.190436	3753.556843	15947.673488
93.036500	0.124038	0.075094	0.129498	0.212005	6548.144045	34200.425596	3758.547976	15888.192626
93.536500	0.120892	0.074593	0.127444	0.219010	6461.876987	33663.188698	3738.398466	15678.883107
94.036500	0.121702	0.075068	0.127537	0.220326	6457.634184	33603.618678	3735.711345	15639.965331
94.540000	0.125398	0.076739	0.131954	0.218313	6505.846556	33865.621195	3749.930263	15699.579570
95.037500	0.128723	0.077282	0.129208	0.219758	6521.856525	33801.245775	3740.636291	15656.735432
95.535000	0.127994	0.077286	0.131158	0.221237	6503.058289	33696.329854	3741.676949	15613.060588
96.038000	0.127455	0.078315	0.136659	0.229096	6432.414776	33214.992143	3736.483934	15383.418005
96.535500	0.130708	0.078702	0.135281	0.225677	6488.428397	33482.241732	3740.978673	15482.817814
97.036000	0.130024	0.081119	0.134783	0.228291	6460.622457	33468.310473	3734.134168	15406.732778
97.536000	0.134318	0.082222	0.143627	0.230526	6477.955880	33388.653089	3748.727090	15342.082950
98.036500	0.130563	0.080018	0.140465	0.235798	6402.591192	32867.446806	3730.143655	15190.839720
98.537000	0.135995	0.082051	0.141857	0.233131	6470.134325	33194.102937	3739.042279	15267.116643
99.037000	0.135036	0.082205	0.141321	0.234963	6446.715707	33077.016567	3733.841293	15214.662342
99.537000	0.137816	0.083231	0.149274	0.236841	6454.277324	33017.803422	3747.243676	15161.138679
100.034500	0.132454	0.084137	0.145332	0.243903	6351.616542	32593.222863	3723.104480	14961.877412
100.538000	0.136728	0.083844	0.148408	0.240109	6417.940570	32833.944527	3738.100944	15068.508845
101.035500	0.137644	0.085432	0.145379	0.242213	6408.096381	32798.325093	3726.874106	15009.249978
101.536000	0.137678	0.085260	0.145076	0.247830	6362.191828	32401.785727	3714.088716	14852.461353
102.036000	0.142768	0.085713	0.146741	0.245015	6427.367357	32624.993575	3723.747913	14930.782314
102.536000	0.140073	0.086095	0.151665	0.246522	6392.575506	32547.950883	3731.183711	14888.791171
103.036500	0.143252	0.087487	0.149660	0.249144	6397.174939	32463.958043	3721.131196	14816.082235
103.536500	0.142954	0.087167	0.152592	0.250093	6386.897190	32377.587140	3725.424724	14789.866216
104.037000	0.145464	0.089305	0.158558	0.253134	6382.527457	32316.195098	3731.796418	14706.243303
104.537500	0.144720	0.088814	0.150443	0.253928	6369.920594	32229.184329	3712.522212	14684.518410
105.037500	0.148024	0.089119	0.160346	0.255265	6386.054727	32159.380745	3731.046070	14647.993550
105.535500	0.144439	0.090173	0.149828	0.262507	6298.115538	31744.801131	3693.040855	14452.201961
106.035500	0.146906	0.089126	0.155612	0.257817	6356.005593	31988.208092	3715.268978	14578.642515
106.536000	0.149649	0.092290	0.160694	0.261379	6349.331055	31961.497152	3718.537994	14482.488073
107.036000	0.148993	0.092021	0.160516	0.262590	6334.162759	31862.450591	3715.549597	14449.980929
107.536500	0.148594	0.091840	0.155218	0.263611	6322.675936	31782.242751	3702.072317	14422.635655
108.036500	0.152447	0.092397	0.165065	0.265156	6341.371106	31716.478796	3719.819679	14381.390060
108.537000	0.151081	0.092686	0.156747	0.266530	6319.183994	31644.484761	3699.134030	14344.828861
109.037000	0.152013	0.092830	0.165281	0.268214	6313.121181	31542.559212	3713.704866	14300.176033
109.540500	0.150271	0.093595	0.165617	0.274159	6251.741457	31202.324596	3701.756530	14143.928168
110.035000	0.152408	0.094801	0.161603	0.271498	6289.920455	31455.912532	3698.895413	14213.587443
110.540500	0.153741	0.095674	0.166006	0.273496	6284.607416	31381.931678	3703.986248	14161.254190
111.035000	0.157184	0.095093	0.166298	0.273773	6310.002174	31325.614019	3704.017421	14154.008880
111.536000	0.152415	0.095609	0.161679	0.278654	6233.181864	31040.836790	3684.078437	14027.197495
112.036000	0.153959	0.096129	0.163801	0.282702	6213.522636	30812.719941	3680.088526	13923.105255
112.536500	0.153076	0.095652	0.170390	0.277766	6245.397411	31101.335748	3704.228393	14050.167933
113.037000	0.155986	0.097024	0.167580	0.279744	6252.766880	31061.908408	3694.120881	13999.070693
113.537000	0.157908	0.096982	0.164705	0.280621	6261.053567	31002.308230	3686.278769	13976.491241
114.040000	0.155848	0.097346	0.161066	0.287734	6189.011300	30568.134066	3664.179353	13795.048806
114.534500	0.159516	0.098545	0.173739	0.284052	6246.610389	30881.424262	3698.013655	13888.591407
115.035500	0.160323	0.098380	0.169915	0.285075	6244.907774	30804.869275	3687.854002	13862.526994
115.535500	0.159647	0.098426	0.173932	0.288620	6211.717943	30580.536914	3688.838388	13772.646921
116.035500	0.157897	0.098548	0.174783	0.292145	6170.708829	30364.129451	3683.274898	13684.022772
116.536000	0.162191	0.099324	0.168571	0.288505	6232.590642	30645.321357	3677.957840	13775.568109
117.036500	0.161748	0.099413	0.173140	0.289284	6222.983366	30601.161677	3685.803635	13755.897182
117.536500	0.161109	0.098979	0.176238	0.292028	6196.537887	30398.873103	3686.542484	13686.957800
118.037000	0.161298	0.100622	0.172801	0.297815	6153.215371	30137.217957	3667.542958	13542.928534
118.540000	0.162355	0.101003	0.177948	0.293528	6194.557597	30432.114674	3686.978630	13649.431494
119.037500	0.163746	0.101655	0.176747	0.294850	6195.094321	30389.557289	3681.739412	13616.482589
119.535000	0.162067	0.102636	0.178468	0.298455	6154.209716	30223.710058	3677.848446	13527.133499
120.035500	0.165948	0.102704	0.174265	0.302681	6151.560188	29962.899273	3660.637827	13423.333703
120.535500	0.165497	0.101755	0.181067	0.297385	6188.993266	30235.586786	3685.443747	13553.572086
121.036000	0.166448	0.103078	0.180856	0.299067	6183.325178	30212.976485	3681.517544	13512.044394
121.536000	0.163061	0.102252	0.179811	0.301114	6141.432987	30032.554559	3675.138190	13461.696911
122.036500	0.166879	0.103104	0.178021	0.300872	6172.678991	30101.117100	3671.962628	13467.634107
122.537000	0.167486	0.103727	0.176523	0.301817	6170.060787	30080.913042	3666.971427	13444.455117
123.040000	0.167682	0.104708	0.181379	0.303427	6159.159307	30041.520071	3673.608488	13405.099552
123.537500	0.166619	0.104967	0.179262	0.306930	6124.182816	29839.149501	3662.152948	13319.977357
124.034500	0.165672	0.104786	0.185529	0.310554	6089.522145	29603.669691	3667.520047	13232.604717
124.535500	0.171717	0.105383	0.187189	0.305499	6174.310556	29954.174436	3681.311151	13354.655658
125.035500	0.173536	0.104772	0.185228	0.305973	6184.732133	29886.482825	3676.284713	13343.147022
125.535500	0.170419	0.105983	0.185508	0.309136	6136.346337	29765.333041	3670.373057	13266.710701
126.036000	0.167254	0.104341	0.180551	0.313293	6080.808816	29408.270692	3651.934545	13167.070849
126.536500	0.171583	0.105603	0.186331	0.308745	6148.259703	29765.964869	3672.858364	13276.119622
127.036500	0.169454	0.105180	0.186207	0.309165	6128.751764	29713.785606	3671.744754	13266.013614
127.539500	0.173844	0.107272	0.190419	0.311034	6148.048383	29727.566662	3676.553162	13221.093882
128.037000	0.171797	0.105798	0.187321	0.310434	6136.963251	29673.567410	3671.425593	13235.493331
128.534500	0.173943	0.107446	0.182699	0.312282	6139.238510	29661.143285	3658.279644	13191.200084
129.035000	0.174351	0.107510	0.188099	0.312759	6138.709395	29635.720464	3668.265059	13179.813634
129.535000	0.174102	0.106288	0.190414	0.312882	6135.870633	29552.869845	3672.748678	13176.885015
130.035500	0.171877	0.106872	0.189030	0.314081	6109.785095	29515.085613	3667.468285	13148.289438
130.535500	0.175768	0.107946	0.190295	0.314963	6132.697622	29526.892448	3668.248602	13127.312682
131.036500	0.174806	0.106977	0.186268	0.314796	6126.625768	29477.660052	3660.412138	13131.275505
131.536500	0.175607	0.108003	0.189267	0.316934	6116.440265	29409.571409	3662.153396	13080.571657
132.039500	0.169671	0.107291	0.187582	0.321990	6033.917132	29059.140675	3648.605195	12961.671629
132.537000	0.175168	0.108455	0.192323	0.318281	6102.889750	29354.865786	3665.621971	13048.767710
133.037500	0.176478	0.109218	0.194939	0.318656	6109.977590	29378.528455	3670.190178	13039.910622
133.535000	0.176493	0.109469	0.188307	0.320906	6093.059444	29256.731627	3652.219829	12987.045630
134.037500	0.176837	0.109036	0.192899	0.319933	6103.015643	29289.577487	3663.435615	13009.870059
134.535000	0.180317	0.110032	0.196823	0.321713	6115.918116	29241.921346	3667.795932	12968.155567
135.035500	0.178189	0.109809	0.192883	0.321626	6100.432223	29233.582443	3659.975079	12970.174551
135.536000	0.181094	0.110068	0.189565	0.323736	6106.454372	29121.422013	3649.078075	12920.920379
136.035500	0.179106	0.110071	0.193743	0.322233	6102.783917	29212.712829	3660.488016	12955.999748
136.536500	0.177594	0.110655	0.190818	0.323462	6082.093139	29173.562786	3652.130489	12927.303912
137.037000	0.178086	0.111410	0.195285	0.323911	6082.417802	29192.076695	3660.213628	12916.848666
137.537000	0.181038	0.110976	0.198364	0.325393	6093.495375	29076.120570	3663.445307	12882.407490
138.037000	0.178804	0.110378	0.194949	0.324714	6081.776085	29081.006866	3657.913524	12898.168355
138.537500	0.178952	0.111026	0.195359	0.325534	6076.729259	29070.666167	3657.089156	12879.144135
139.035000	0.181095	0.111173	0.195022	0.325611	6092.289166	29074.905968	3656.255046	12877.365225
139.535500	0.177623	0.111689	0.200952	0.327050	6055.422012	29019.176795	3665.335705	12844.041846
140.035500	0.177305	0.111581	0.191849	0.333148	6007.893354	28647.882417	3634.970134	12704.097049
140.536000	0.181525	0.111133	0.199728	0.327771	6079.249881	28942.324901	3661.392083	12827.392038
141.038000	0.181725	0.112420	0.200565	0.329108	6070.710865	28939.336818	3660.380722	12796.596693
141.536500	0.180996	0.110832	0.194302	0.328805	6067.521846	28862.278250	3648.414811	12803.559938
142.036500	0.177785	0.112029	0.193986	0.335449	5994.532765	28538.074523	3634.650216	12651.818031
142.537500	0.180912	0.112482	0.195209	0.330423	6054.803023	28864.238353	3647.000889	12766.408708
143.035000	0.181659	0.112400	0.195955	0.330775	6057.744605	28838.192530	3647.783771	12758.318524
143.535000	0.183175	0.112969	0.196511	0.332684	6054.814733	28758.140515	3645.091693	12714.682120
144.034500	0.180095	0.112991	0.192776	0.338226	5991.114244	28430.909447	3626.862276	12589.063374
144.535500	0.182973	0.113384	0.198209	0.332600	6053.933484	28787.955646	3648.638779	12716.606559
145.036000	0.185040	0.113120	0.196533	0.333044	6066.062419	28745.651643	3644.421217	12706.467343
145.539000	0.182765	0.112655	0.199201	0.333226	6047.715480	28707.133007	3649.369969	12702.330686
146.039000	0.178409	0.111994	0.201078	0.339006	5973.124478	28326.443749	3641.613134	12571.502785
146.537000	0.184362	0.113326	0.204753	0.334560	6049.677687	28667.669980	3657.830794	12671.986130
147.037000	0.182529	0.113677	0.199462	0.335127	6031.850623	28654.858675	3646.102898	12659.114658
147.536500	0.185916	0.114129	0.203089	0.336568	6046.290737	28596.123787	3650.459239	12626.465056
148.035000	0.180384	0.112602	0.200052	0.341218	5971.401457	28232.534340	3635.232644	12521.900490
148.535000	0.184980	0.114769	0.200241	0.336719	6038.217298	28625.181112	3644.486353	12623.063446
149.035000	0.185620	0.114509	0.204723	0.337557	6036.742258	28560.076085	3651.749944	12604.137440
149.536000	0.186578	0.115880	0.200698	0.339285	6031.037854	28538.967627	3640.311085	12565.238827
150.038500	0.184407	0.114105	0.197107	0.344017	5980.317558	28156.940902	3624.028511	12459.500395
150.536000	0.188502	0.115549	0.203076	0.339297	6045.232260	28518.682343	3644.998153	12564.977636
151.036000	0.187256	0.116034	0.204908	0.339461	6034.754358	28537.631094	3648.315401	12561.275462
151.537000	0.187814	0.114085	0.201741	0.338866	6043.319017	28457.653657	3643.203084	12574.657853
152.037000	0.183920	0.114558	0.201164	0.344968	5969.844844	28127.848365	3630.067428	12438.372452
152.534500	0.189948	0.116329	0.201854	0.341305	6041.051268	28446.173759	3638.605871	12519.952229
153.037500	0.190208	0.115828	0.199892	0.340968	6045.494866	28436.554391	3635.409205	12527.506497
153.535500	0.188379	0.116132	0.201202	0.341566	6027.484744	28419.166699	3636.807050	12514.113008
154.035000	0.190106	0.116527	0.201952	0.341668	6039.534181	28436.488033	3638.085430	12511.845800
154.538500	0.187561	0.115317	0.200259	0.341418	6022.535500	28379.941619	3635.246174	12517.435232
155.036000	0.190424	0.116833	0.202300	0.342303	6037.183623	28417.099112	3637.520732	12497.673493
155.536000	0.189652	0.116591	0.205795	0.342263	6031.753140	28405.185928	3644.506786	12498.558977
156.036000	0.192250	0.117065	0.204938	0.343452	6042.206091	28363.126282	3640.455870	12472.057792
156.537000	0.193919	0.118161	0.212064	0.344217	6048.928605	28382.605053	3653.113378	12455.052972
157.040000	0.193606	0.118654	0.209649	0.345393	6037.857999	28342.476377	3645.943396	12428.953006
157.535000	0.191800	0.118093	0.203040	0.344183	6033.439945	28380.640372	3635.279156	12455.816299
158.038000	0.188710	0.117439	0.194641	0.349536	5971.462575	28029.891582	3608.696723	12337.608126
158.535500	0.192617	0.118621	0.204904	0.345221	6031.797064	28350.595149	3636.899608	12432.764612
159.041500	0.193389	0.118559	0.203272	0.344411	6043.546641	28394.611694	3635.286144	12450.746210
159.536000	0.191773	0.118200	0.201044	0.344414	6031.527344	28373.312585	3630.916429	12450.681328
160.036000	0.190118	0.118891	0.200535	0.351053	5970.664382	28026.096437	3617.066419	12304.371619
160.536500	0.193780	0.118751	0.205680	0.345516	6038.240421	28340.995904	3637.847708	12426.245297
161.037000	0.196871	0.118434	0.202157	0.345686	6060.001682	28312.391274	3630.607115	12422.482182
161.537500	0.196626	0.119127	0.208620	0.346009	6055.748651	28334.087743	3642.679338	12415.315082
162.040000	0.195759	0.120286	0.205318	0.346145	6048.278044	28394.204392	3635.899299	12412.317816
162.537500	0.196406	0.120094	0.205200	0.346293	6051.993214	28374.214917	3635.375242	12409.040111
163.035000	0.195313	0.119234	0.207740	0.347197	6037.143158	28270.774361	3638.596111	12389.086759
163.538500	0.197065	0.119034	0.205940	0.345066	6066.091570	28384.019406	3639.247428	12436.220396
164.035500	0.198232	0.119707	0.210473	0.345988	6067.923635	28369.361159	3646.400800	12415.794023
164.539000	0.196698	0.120360	0.208021	0.346033	6056.110025	28405.147421	3641.447382	12414.799107
165.036000	0.195547	0.119911	0.204588	0.348113	6032.079878	28256.714195	3630.612004	12368.885871
165.536500	0.198802	0.120736	0.206709	0.346525	6068.166280	28398.318124	3637.887231	12403.921622
166.037000	0.197483	0.120514	0.207046	0.346614	6057.635066	28380.016656	3638.376188	12401.959102
166.537500	0.198253	0.120601	0.203802	0.345865	6068.998417	28429.196483	3633.473569	12418.507719
167.034500	0.197520	0.119369	0.208863	0.347640	6050.253098	28252.701501	3639.934963	12379.300417
167.535000	0.197127	0.120508	0.204612	0.346732	6054.095346	28372.724629	3633.362368	12399.344252
168.038000	0.196852	0.121084	0.201469	0.353200	6004.181248	28028.801108	3614.739634	12257.551842
168.538500	0.199773	0.121771	0.205967	0.347266	6069.886287	28415.563615	3634.971184	12387.546722
169.036000	0.197547	0.121224	0.202054	0.349810	6034.328309	28234.300679	3622.390914	12331.595790
169.536500	0.198546	0.120355	0.202102	0.346367	6067.430539	28385.183123	3629.170574	12407.409743
170.036500	0.194091	0.120969	0.200409	0.352043	5992.428953	28089.267582	3614.924992	12282.763169
170.537000	0.199970	0.122347	0.206548	0.347572	6069.069714	28431.476931	3635.510560	12380.807665
171.037000	0.198853	0.121346	0.203292	0.350516	6038.783370	28200.228096	3623.421141	12316.141538
171.537500	0.201297	0.122572	0.212462	0.348089	6075.149572	28414.263209	3646.178037	12369.410898
172.037000	0.195256	0.121100	0.201314	0.352148	6000.190181	28090.753183	3616.459806	12280.463295
172.537500	0.200451	0.121978	0.206057	0.347172	6075.689606	28433.361466	3635.334222	12389.640182
173.038500	0.200438	0.121251	0.207935	0.346436	6081.113814	28433.835493	3640.480347	12405.873732
173.536000	0.200209	0.120822	0.206493	0.345958	6082.987482	28436.727244	3638.578226	12416.453632
174.036000	0.195980	0.120847	0.202979	0.352054	6006.198447	28081.581400	3619.844670	12282.521561
174.536500	0.200904	0.121666	0.204884	0.346926	6080.938415	28429.459387	3633.515794	12395.068865
175.037000	0.198536	0.121798	0.208921	0.351677	6027.822451	28158.824081	3632.115471	12290.744403
175.537000	0.201385	0.121915	0.204216	0.347314	6081.638582	28421.293686	3631.447698	12386.507676
176.040000	0.202031	0.121786	0.202577	0.346697	6091.151438	28450.008638	3629.452621	12400.120815
176.535000	0.201109	0.121094	0.197107	0.346133	6088.445782	28442.423586	3619.937986	12412.574616
177.038000	0.198053	0.122826	0.200917	0.352320	6019.504983	28181.284491	3615.368039	12276.714287
177.535000	0.203394	0.122680	0.204141	0.347780	6093.262859	28438.878748	3630.389825	12376.220282
178.036000	0.197733	0.121686	0.200326	0.352832	6013.373937	28085.107414	3613.255015	12265.561174
178.536000	0.201217	0.121679	0.209069	0.347111	6081.898272	28419.283905	3641.387135	12390.966166
179.036000	0.200347	0.121378	0.202539	0.351183	6044.927015	28163.113504	3620.675561	12301.529694
179.536500	0.202433	0.122617	0.210310	0.347898	6085.124496	28428.183133	3642.285797	12373.622188
180.036500	0.201749	0.122302	0.207481	0.347281	6084.624285	28445.996640	3637.918939	12387.217158
180.537000	0.200793	0.122874	0.206191	0.348034	6071.773937	28435.329388	3633.902570	12370.619927
181.034500	0.199225	0.122078	0.200522	0.351987	6030.625195	28157.062374	3615.248886	12283.971480
181.540000	0.200533	0.122524	0.206601	0.348230	6068.360011	28403.180048	3634.323395	12366.311180
182.035500	0.202315	0.122552	0.212276	0.348520	6079.563575	28387.788989	3644.952623	12359.935621
182.535500	0.203889	0.122664	0.207433	0.347878	6096.260470	28432.122419	3636.649200	12374.057304
183.036000	0.199063	0.122433	0.207884	0.353029	6021.728462	28117.108126	3627.455669	12261.277540
183.535500	0.201552	0.123746	0.209436	0.348574	6073.421808	28454.902917	3639.224741	12358.748489
184.036500	0.202838	0.121687	0.216295	0.346768	6096.710630	28439.984750	3656.488998	12398.552710
184.536500	0.202386	0.122273	0.207578	0.346918	6092.160754	28465.696202	3638.823608	12395.225582
185.036500	0.199958	0.120444	0.206222	0.351611	6038.857088	28083.907717	3626.982945	12292.197508
185.545500	0.202217	0.123546	0.210096	0.348872	6076.177762	28425.542624	3639.938424	12352.199425
186.048000	0.201791	0.122677	0.208584	0.347688	6081.876483	28444.085994	3639.290256	12378.241398
186.535000	0.203466	0.123880	0.205015	0.349423	6081.426273	28412.824319	3628.892055	12340.103165
187.035000	0.200184	0.122075	0.208534	0.352967	6030.474598	28099.890303	3628.841946	12262.626537
187.535500	0.203565	0.121934	0.204694	0.347934	6093.397793	28385.922490	3631.170452	12372.836933
188.048000	0.200778	0.123293	0.204775	0.353863	6028.242077	28118.605922	3619.819504	12243.130679
188.536500	0.204057	0.122942	0.208998	0.348271	6094.566106	28425.392586	3638.957566	12365.420372
