sample name	sample
index	370
start time	 03-04-2021  12:38:40 PM
880	-0.040206
Peak Time (s)	92.535
Peak Height 	-0.04021
calc peak height	90,93
Baseline Time (s)	10.037
Baseline Value 	-0.005304
subtract baseline	10,4
Abs	-0.004036
Peak Time (s)	90.537
Peak Height 	-0.004036
calc peak height	90,93
Baseline Time (s)	9.537
Baseline Value 	0.003235
subtract baseline	10,3
PK_550	-0.003824
Peak Time (s)	92.535
Peak Height 	-0.003824
calc peak height	90,93
Baseline Time (s)	8.536
Baseline Value 	2.668E-4
subtract baseline	10,2
PK_880	-0.007495
Peak Time (s)	90.537
Peak Height 	-0.007495
calc peak height	90,93
Baseline Time (s)	11.035
Baseline Value 	0.002571
subtract baseline	10,1


Time (s)	A880-A510	A880-A775	A880-A975	A880	I510	I775	I975	I880	
0.034500	-0.002090	-0.000268	-0.002399	0.001254	6856.869101	47308.158781	3974.459239	25014.181518
0.537500	-0.003277	0.000496	0.001115	0.004946	6812.328568	47009.537031	3973.994535	24826.604980
1.035000	-0.003122	-0.000349	-0.001290	0.006858	6796.417712	46730.441844	3962.810078	24730.124197
1.535500	-0.001366	0.000115	-0.000230	0.000918	6866.617488	47381.690309	3981.003432	25031.336112
2.035500	-0.000367	0.000351	-0.002010	0.000766	6877.217429	47421.488953	3976.746570	25039.107892
2.536000	0.000245	-0.000388	-0.001613	0.000027	6889.701462	47421.416717	3979.712881	25076.842659
3.036500	-0.002602	-0.000365	-0.003039	0.004764	6820.117464	46940.740571	3963.700030	24835.835463
3.539500	0.000405	0.000971	-0.002847	0.001671	6875.986269	47392.265202	3972.208642	24992.908979
4.037000	-0.002160	0.000313	0.001898	0.000541	6862.778451	47440.630405	3987.585874	25050.576851
4.537000	0.002410	0.000149	-0.003341	0.000612	6904.351513	47416.593081	3973.679214	25046.961432
5.037500	0.001249	-0.000520	-0.000826	0.000438	6895.195929	47365.772214	3980.699833	25055.836391
5.535000	-0.001280	-0.000437	0.000917	0.000168	6874.318141	47402.065315	3985.984047	25069.666860
6.035000	0.000356	0.000310	-0.002519	0.000069	6890.345600	47488.845058	3977.236663	25074.726302
6.535500	0.000135	-0.000347	-0.001657	-0.000315	6891.848606	47460.735274	3980.495316	25094.355116
7.035500	-0.000138	-0.000343	0.002257	-0.000116	6887.480157	47440.742009	3990.264801	25084.193460
7.536500	-0.002137	-0.000156	-0.002075	0.000344	6864.791697	47412.719585	3977.677319	25060.624171
8.036500	0.001553	0.000703	0.001583	0.000733	6895.275279	47460.946909	3986.248812	25040.758567
8.536000	-0.002158	0.000000	-0.001495	0.000402	6864.073051	47422.837333	3979.042250	25057.701929
9.036500	-0.000516	-0.000705	-0.003355	0.000025	6882.680521	47389.152551	3975.171269	25076.955520
9.537000	0.001441	0.000021	0.000000	-0.000375	6904.516636	47504.687183	3985.000486	25097.442109
10.037000	-0.002297	0.000313	0.002841	0.000000	6866.487791	47496.127014	3991.501938	25078.237856
10.535000	0.001616	-0.000013	0.001214	-0.000426	6906.615063	47506.496461	3988.331488	25100.057197
11.035000	0.000000	-0.000697	0.002916	-0.000723	6894.378269	47466.738448	3993.614894	25115.265004
11.535500	0.000094	0.000145	-0.001505	0.002326	6867.086078	47240.769753	3973.993864	24959.543999
12.035000	-0.000176	0.000389	-0.004119	0.000237	6883.858962	47479.573117	3972.627659	25066.100834
12.535500	0.000161	-0.000711	0.003372	-0.000447	6893.312281	47436.891713	3994.090183	25101.104338
13.039000	0.000010	0.000697	0.005374	-0.000274	6890.311113	47563.775431	3998.946446	25092.258135
13.537000	-0.002275	-0.000094	0.005055	0.002621	6842.645643	47186.277486	3990.424304	24944.539993
14.037500	-0.001264	0.000287	0.001841	0.002678	6851.378291	47219.228302	3981.816972	24941.623799
14.537500	-0.000729	-0.000570	-0.000518	0.001480	6867.303327	47254.090991	3978.778535	25002.646203
15.035000	0.000281	0.000290	-0.000187	-0.000224	6892.364133	47516.898940	3984.111826	25089.724534
15.535500	-0.000923	-0.000494	-0.004693	0.001420	6866.067522	47268.083554	3968.070262	25005.713011
16.035000	0.001636	-0.000587	0.001299	-0.001042	6912.535579	47510.771327	3990.181332	25131.617915
16.536000	0.001869	0.000000	0.006304	-0.000730	6911.796675	47539.062222	4002.643344	25115.634513
17.036000	0.002639	0.000368	0.003709	-0.002732	6937.672919	47783.333685	4001.059246	25218.436956
17.540000	-0.003533	0.000404	0.000431	0.001762	6839.005871	47324.887966	3980.524545	24988.285798
18.037000	-0.001462	0.000404	0.003121	0.001298	6862.234217	47372.407418	3988.811891	25011.927607
18.537000	0.000737	-0.000207	0.002883	0.001017	6885.092938	47338.569284	3988.926397	25026.276548
19.034500	-0.000744	-0.000213	-0.000313	0.000883	6872.660586	47351.724792	3980.876240	25033.110296
19.537000	-0.003009	-0.000417	-0.002469	0.000649	6853.987897	47354.774362	3975.853623	25045.069751
20.034500	-0.000657	-0.000669	-0.000237	0.000986	6872.516758	47294.486546	3980.807195	25027.853436
20.535000	-0.001996	0.000562	-0.000638	0.001542	6855.092423	47363.603625	3978.302643	24999.508068
21.035500	0.000917	0.000812	0.002337	0.001679	6880.643115	47375.174491	3985.744448	24992.498136
21.536000	-0.001249	-0.000607	0.000051	0.000474	6871.772420	47353.144822	3982.902713	25053.975001
22.036000	-0.000487	-0.000285	0.001010	0.000707	6876.654173	47362.348227	3984.808828	25042.079228
22.539000	-0.000642	0.000021	0.002156	0.001180	6870.871605	47345.243124	3986.581279	25017.967347
23.036500	-0.000181	-0.000525	0.002272	0.000699	6879.556178	47338.618595	3988.155082	25042.523006
23.536500	-0.001399	-0.000131	-0.000890	0.001641	6859.660185	47282.518210	3977.384375	24994.421856
24.037500	-0.000439	0.000041	0.002810	0.001118	6873.304872	47353.635200	3988.468011	25021.110141
24.535000	-0.001392	-0.000667	0.006690	0.001027	6865.372345	47290.549585	3998.988895	25025.763795
25.034500	0.000321	0.000629	0.000283	0.001606	6875.812401	47363.853328	3980.544375	24996.216165
25.535500	-0.001838	-0.000030	-0.001324	0.002170	6850.784796	47238.858832	3974.874796	24967.500685
26.036000	0.000827	0.000698	-0.005774	0.001313	6883.195160	47401.037958	3965.551819	25011.181280
26.536000	-0.000737	-0.000495	-0.000446	0.000395	6877.223951	47372.821221	3981.808262	25058.039320
27.036000	-0.001526	-0.000375	0.003294	-0.002027	6892.316751	47633.867151	3998.078063	25182.185676
27.539500	0.001362	-0.000465	0.001740	-0.001253	6911.940305	47544.904793	3991.901418	25142.413823
28.037000	0.000746	0.000280	0.002042	-0.000711	6901.184777	47565.810717	3991.267676	25114.627293
28.534500	0.001682	0.000953	0.002191	-0.000052	6903.758661	47567.332078	3989.921369	25080.915694
29.034500	-0.000341	0.000143	-0.000855	-0.000526	6889.394982	47532.709625	3983.150798	25105.157461
29.535000	-0.002423	-0.001042	-0.004537	0.001531	6851.273990	47200.752479	3968.186937	25000.046934
30.035500	-0.001299	-0.000396	0.004665	-0.000901	6883.997504	47515.878688	3998.727659	25124.370620
30.535500	0.000725	0.000283	0.002026	0.002674	6869.695733	47219.331959	3982.313744	24941.849942
31.036000	0.000538	-0.000065	-0.000653	0.001812	6875.917344	47271.863703	3977.558836	24985.738541
31.536500	-0.000874	0.000474	-0.003046	0.002902	6852.904962	47215.525626	3968.497766	24930.268993
32.042000	0.000040	0.000239	0.003371	-0.000426	6892.000388	47532.405430	3994.031949	25100.056448
32.536500	0.000470	0.000872	0.002522	-0.000194	6893.833244	47573.596015	3991.171123	25088.155528
33.037000	0.000598	0.001260	0.001201	0.000435	6889.191567	47548.741210	3986.027701	25055.989801
33.537500	-0.001465	0.000201	0.000819	0.002763	6848.764089	47201.897940	3978.920084	24937.332734
34.035000	-0.001819	0.000326	-0.000534	0.001764	6854.684803	47316.754509	3977.995205	24988.195766
34.535500	-0.001228	-0.000025	-0.001582	0.001404	6863.412707	47317.621410	3976.198105	25006.541159
35.035500	0.000523	0.000842	0.004292	0.002512	6869.330457	47293.011876	3988.701447	24950.114685
35.536000	-0.000440	0.000070	-0.000865	0.002491	6860.667475	47216.316483	3975.234306	24951.180081
36.036000	0.000564	0.000157	0.002362	0.001802	6876.246405	47295.507036	3985.486293	24986.217817
36.539000	-0.003013	0.000120	-0.001304	0.001558	6845.616573	47316.652702	3976.520278	24998.650981
37.036500	-0.002201	0.000191	-0.000196	0.001833	6850.542695	47295.773255	3978.696408	24984.640448
37.537000	-0.001281	0.000934	-0.001439	0.003226	6846.204880	47229.418469	3971.825463	24913.796630
38.037000	-0.001176	0.000437	0.001514	0.001828	6859.995570	47321.457351	3983.189495	24984.906061
38.535000	0.000015	0.000094	-0.000314	0.001555	6873.466586	47314.333874	3979.115959	24998.832398
39.035000	-0.000227	0.000423	0.000404	0.001838	6868.627819	47319.035910	3980.252636	24984.387619
39.535500	-0.002208	-0.001086	-0.001776	0.000630	6861.516559	47288.287996	3977.712487	25046.050293
40.035500	-0.002680	0.000148	-0.005139	0.001569	6848.567543	47318.390184	3966.529819	24998.102340
40.535500	-0.001574	-0.000409	-0.000384	0.001377	6860.480612	47281.057988	3979.396802	25007.890156
41.036000	-0.002437	0.000595	-0.001078	0.001995	6846.893831	47320.528560	3975.970384	24976.386383
41.536500	0.000635	0.000668	-0.000453	0.001931	6875.708100	47334.600225	3977.767845	24979.655396
42.036500	-0.001237	-0.000307	-0.002655	0.001669	6860.900436	47261.729145	3972.713384	24993.034991
42.537000	-0.001351	0.000486	0.001934	0.001867	6858.025358	47322.547422	3984.191009	24982.928228
43.034500	-0.000799	0.000360	-0.000490	0.001929	6862.525875	47303.279297	3977.677319	24979.742900
43.534000	0.001054	0.000287	0.003700	0.000730	6890.678218	47418.554264	3991.840636	25040.900635
44.035000	0.000005	0.000241	0.000093	-0.000978	6896.782336	47589.256864	3986.829587	25128.310400
44.535500	0.000587	0.000514	-0.000836	-0.000461	6897.385169	47564.194470	3983.027806	25101.819052
45.036000	0.000698	0.000954	0.000329	0.000104	6893.182140	47551.427277	3984.606119	25072.937828
45.536000	-0.002324	0.000507	-0.002198	0.002819	6840.390642	47227.437730	3970.913133	24934.494055
46.039000	0.000246	0.000284	0.000120	-0.000190	6891.714808	47512.720883	3984.827987	25087.956965
46.536500	-0.000631	0.000343	0.000888	-0.000661	6887.961099	47567.194108	3988.091443	25112.075705
47.036500	-0.000284	0.000403	0.004305	0.002012	6866.503453	47299.272646	3990.053382	24975.550535
47.537500	-0.004672	-0.000560	0.001066	0.002724	6819.856687	47128.247613	3979.668711	24939.331739
48.037000	-0.000399	-0.000031	-0.001112	-0.000045	6884.412634	47465.517657	3981.217106	25080.554517
48.534500	0.000366	0.000233	0.001898	-0.000217	6893.081198	47510.283713	3989.583429	25089.343080
49.035500	0.000635	0.000227	0.006471	-0.000326	6896.578230	47520.850110	4002.008999	25094.916810
49.535500	-0.000111	0.000510	0.001800	0.001625	6871.660806	47349.691959	3984.474709	24995.253617
50.036000	0.000992	-0.000009	0.001206	0.010245	6802.991754	46423.868847	3960.515913	24560.201496
50.536000	0.003119	0.000094	0.000681	0.003873	6880.715004	47077.891581	3975.661655	24880.983537
51.036500	-0.010942	-0.013312	-0.007761	0.214715	5259.713764	29256.421407	3526.713029	16411.347085
51.536500	-0.027248	-0.023892	-0.017260	-0.009303	6725.069980	45991.513391	3963.303253	25559.308344
52.037000	-0.024213	-0.170072	-0.007953	-0.317875	10769.834999	65535.000000	5171.995873	49054.948898
52.537500	-0.037857	-0.197880	-0.008776	-0.345682	11031.697917	65535.000000	5321.283702	52109.574208
53.034000	-0.050662	-0.302570	-0.025238	-0.450372	12954.683516	65535.000000	5879.486747	65535.000000
53.535000	-0.077001	-0.302570	-0.059267	-0.450372	12361.263501	65535.000000	5650.663349	65535.000000
54.035000	-0.052918	-0.237834	-0.036750	-0.385637	11513.175278	65535.000000	5390.592536	56855.548671
54.535500	-0.009291	-0.148972	0.005610	-0.296775	10658.244725	65535.000000	5131.925127	46864.145641
55.035500	-0.013829	-0.118826	-0.004671	-0.266629	10060.476766	65535.000000	4928.495861	43913.205456
55.544500	-0.007960	-0.116813	-0.006597	-0.264616	10124.602662	65535.000000	4909.672070	43723.376810
56.036500	-0.006757	-0.104322	-0.009086	-0.252124	9938.482753	65535.000000	4839.606054	42564.752096
56.537000	-0.005424	-0.091258	-0.008881	-0.239061	9750.118958	65535.000000	4781.363574	41388.202396
57.037000	-0.002593	-0.071627	-0.007504	-0.219430	9489.068710	65535.000000	4701.589010	39685.338027
57.540500	-0.004611	-0.071533	-0.008554	-0.219232	9455.380644	65520.117831	4696.257371	39668.609589
58.035000	-0.002564	-0.041672	-0.010139	-0.178684	8896.735335	63997.675504	4524.929187	36387.403875
58.535000	-0.004355	-0.027371	-0.008970	-0.153494	8533.740677	62484.516965	4434.441461	34498.026915
59.035500	-0.002895	-0.025226	-0.008270	-0.147649	8476.837605	61979.009671	4415.700692	34075.057642
59.535500	-0.009299	-0.015187	-0.011202	-0.111866	7957.840010	58578.017221	4281.587541	31606.139761
60.036500	-0.008344	-0.014137	-0.011809	-0.107335	7916.133643	58133.488369	4264.672568	31307.804666
60.536500	-0.012925	-0.014839	-0.011173	-0.105228	7839.032594	57777.381983	4259.868738	31170.146087
61.036500	-0.013796	-0.014638	-0.014050	-0.110713	7892.098507	58500.739329	4268.400864	31529.979280
61.537000	-0.011036	-0.011002	-0.016320	-0.111982	7938.894536	59132.372241	4265.121554	31613.866272
62.039000	-0.009871	-0.009742	-0.014739	-0.114518	7982.274021	59626.108405	4278.662405	31782.275889
62.534500	-0.012470	-0.006567	-0.017743	-0.104911	7840.606056	58791.993996	4237.579454	31149.470644
63.053000	-0.010865	-0.005021	-0.013790	-0.099735	7799.902533	58326.647642	4233.656643	30814.281096
63.538000	-0.012577	-0.004347	-0.014598	-0.093234	7707.562138	57587.858387	4210.456148	30398.963225
64.035500	-0.011445	-0.003908	-0.015113	-0.086767	7648.500658	56833.892930	4188.649744	29991.887773
64.536000	-0.011626	-0.003835	-0.011678	-0.081570	7589.694521	56201.054900	4183.201655	29669.129348
65.039000	-0.013386	-0.003042	-0.010423	-0.077756	7529.500352	55831.517302	4175.327904	29434.693174
65.538500	-0.013017	-0.004536	-0.018498	-0.075639	7510.791644	55393.203735	4144.430014	29305.475400
66.036500	-0.014877	-0.004535	-0.013824	-0.073743	7470.836659	55164.674566	4152.781602	29190.303628
66.537000	-0.019491	-0.005269	-0.018935	-0.068016	7362.581357	54392.666975	4120.506300	28845.321872
67.037500	-0.014002	-0.004919	-0.016930	-0.069791	7438.347292	54645.233707	4131.670549	28951.736694
67.534500	-0.018701	-0.006324	-0.021171	-0.064900	7338.593949	53900.342198	4104.862564	28659.545387
68.035500	-0.017929	-0.006860	-0.012992	-0.067295	7371.296613	54119.188076	4135.956106	28802.240152
68.535500	-0.018109	-0.006562	-0.018505	-0.061424	7309.011478	53465.976908	4102.509941	28453.868975
69.035500	-0.015775	-0.005841	-0.014013	-0.064509	7364.745645	53911.217533	4124.673083	28636.326932
69.539000	-0.016950	-0.006552	-0.018901	-0.060885	7315.358340	53404.423457	4099.801784	28422.105667
70.036000	-0.014804	-0.005744	-0.014450	-0.062534	7354.377627	53691.148777	4117.579133	28519.406778
70.539000	-0.019032	-0.005301	-0.014913	-0.056117	7245.798009	52997.010385	4097.547969	28142.992484
71.037000	-0.013715	-0.006506	-0.014549	-0.061103	7350.843293	53435.103035	4113.094016	28434.956984
71.537000	-0.016588	-0.005954	-0.017272	-0.056179	7271.121273	52928.913137	4090.930961	28146.641592
72.037500	-0.015316	-0.005930	-0.015975	-0.058745	7310.183990	53228.193559	4102.079734	28296.476298
72.535000	-0.016835	-0.005954	-0.018577	-0.052609	7232.616574	52519.228682	4077.004539	27939.632429
73.035000	-0.015240	-0.005945	-0.013820	-0.057371	7296.933187	53067.474399	4104.345135	28216.129501
73.535500	-0.014818	-0.004758	-0.015380	-0.051594	7242.687450	52539.953568	4083.219055	27881.077148
74.036000	-0.014829	-0.005928	-0.009821	-0.055904	7286.177758	52900.167405	4111.719996	28130.616320
74.536000	-0.016951	-0.006060	-0.014954	-0.050474	7210.052970	52263.755460	4081.236235	27816.588672
75.036500	-0.013550	-0.005705	-0.012619	-0.055630	7296.413410	52894.359257	4102.779216	28114.689230
75.536500	-0.012806	-0.005888	-0.009739	-0.055406	7301.719038	52847.499155	4110.503895	28101.663477
76.037000	-0.014026	-0.006500	-0.011523	-0.056264	7298.029264	52875.840185	4107.807237	28151.590762
76.537000	-0.016743	-0.005865	-0.010777	-0.050751	7214.903496	52317.474504	4094.001329	27832.527135
77.034500	-0.012794	-0.005555	-0.010173	-0.056012	7308.035810	52955.651031	4111.007811	28136.931718
77.535000	-0.011506	-0.005296	-0.009592	-0.056148	7322.599445	53001.174216	4113.103484	28144.842350
78.035500	-0.011065	-0.005537	-0.010218	-0.056422	7329.938082	53004.996551	4112.071312	28160.782140
78.537500	-0.017015	-0.004975	-0.014053	-0.051071	7215.386513	52455.409357	4085.516232	27850.931934
79.038500	-0.012851	-0.004957	-0.009868	-0.056331	7310.708461	53061.478677	4112.827823	28155.474681
79.536000	-0.011014	-0.004628	-0.011953	-0.056627	7332.571504	53133.701779	4107.609193	28172.727366
80.036500	-0.011979	-0.004249	-0.007793	-0.057166	7328.197225	53240.119413	4121.366266	28204.190225
80.537000	-0.016060	-0.004614	-0.010940	-0.052281	7237.099749	52635.007577	4097.942852	27920.662261
81.037000	-0.012688	-0.005266	-0.012482	-0.058722	7336.901710	53302.555971	4112.178227	28295.154017
81.537500	-0.015364	-0.004737	-0.013383	-0.054148	7262.953216	52835.250977	4096.281001	28028.659386
82.037500	-0.011869	-0.004980	-0.011657	-0.058914	7347.304906	53358.086362	4115.151595	28306.369819
82.535500	-0.015464	-0.005510	-0.016320	-0.053280	7253.176024	52646.815658	4085.351462	27978.396100
83.038000	-0.013089	-0.005499	-0.011714	-0.059471	7340.469889	53362.483671	4116.616608	28339.021017
83.538500	-0.011169	-0.005378	-0.013152	-0.058621	7351.500474	53277.823151	4109.926424	28289.237969
84.036000	-0.010772	-0.005036	-0.009725	-0.058091	7350.136505	53256.087479	4118.404688	28258.217443
84.536500	-0.015678	-0.004947	-0.013282	-0.051999	7238.110449	52564.567551	4090.384304	27904.406448
85.036500	-0.010113	-0.004742	-0.009164	-0.056654	7342.114993	53123.696238	4115.835757	28174.310418
85.537000	-0.008388	-0.004495	-0.009365	-0.055949	7352.626839	53070.629127	4113.183356	28133.225999
86.037000	-0.009885	-0.004864	-0.008458	-0.055384	7331.395385	52962.915719	4114.184715	28100.394585
86.537500	-0.012314	-0.004350	-0.010162	-0.048878	7240.545692	52276.732036	4090.380688	27725.041112
87.035000	-0.010477	-0.004286	-0.007897	-0.053585	7306.906777	52822.304028	4110.568137	27996.062484
87.535500	-0.011146	-0.004609	-0.010272	-0.048506	7248.570020	52205.056881	4088.998853	27703.777625
88.035500	-0.007355	-0.004397	-0.006132	-0.052061	7323.254898	52634.559003	4111.266723	27907.955724
88.538500	-0.012138	-0.004393	-0.016931	-0.045949	7212.932000	51939.867263	4062.840774	27557.910737
89.036000	-0.007655	-0.004648	-0.008610	-0.050572	7304.947831	52435.782361	4099.737474	27822.232584
89.536500	-0.011724	-0.004524	-0.009427	-0.045631	7213.902926	51889.314995	4083.190875	27539.871682
90.037500	-0.009341	-0.004572	-0.004706	-0.049088	7272.701454	52275.385743	4106.760416	27737.088346
90.537000	-0.007495	-0.004055	-0.004036	-0.048241	7282.839130	52237.815216	4106.243659	27688.607424
91.038000	-0.009451	-0.003834	-0.006339	-0.047187	7252.367455	52143.309776	4096.519549	27628.432148
91.535000	-0.010760	-0.004141	-0.013765	-0.042487	7192.155153	51578.744777	4062.010933	27361.847126
92.035500	-0.008303	-0.004024	-0.008180	-0.046064	7252.618499	51994.573454	4087.994326	27564.463772
92.535500	-0.011962	-0.003824	-0.007847	-0.040206	7157.629960	51358.982029	4072.259529	27233.450076
93.035500	-0.009669	-0.003233	-0.007151	-0.045050	7228.670420	51969.445197	4088.038962	27506.862768
93.538500	-0.011079	-0.002660	-0.010237	-0.039435	7158.735326	51402.910939	4063.349424	27190.249751
94.036500	-0.009469	-0.004033	-0.013255	-0.044940	7229.566739	51866.673896	4070.354929	27500.623326
94.537000	-0.013933	-0.003493	-0.013121	-0.038629	7122.740675	51220.097218	4053.024777	27145.098789
95.036500	-0.008472	-0.002937	-0.004012	-0.043326	7223.383766	51808.286306	4092.102806	27409.215757
95.537000	-0.012011	-0.002780	-0.012161	-0.037931	7134.744755	51221.882032	4053.754761	27106.109334
96.037500	-0.008674	-0.002549	-0.011944	-0.042309	7211.178643	51737.547926	4066.631436	27351.795840
