sample name	sample
index	563
start time	 03-16-2021  02:25:29 PM
880	0.103645
Peak Time (s)	182.042
Peak Height 	0.1036
calc peak height	180,183
Baseline Time (s)	10.037
Baseline Value 	-6.0255E-4
subtract baseline	10,4
Abs	0.071006
Peak Time (s)	182.537
Peak Height 	0.07101
calc peak height	180,183
Baseline Time (s)	9.036
Baseline Value 	0.003293
subtract baseline	10,3
PK_550	0.035692
Peak Time (s)	182.042
Peak Height 	0.03569
calc peak height	180,183
Baseline Time (s)	11.537
Baseline Value 	7.4262E-4
subtract baseline	10,2
PK_880	0.060170
Peak Time (s)	182.042
Peak Height 	0.06017
calc peak height	180,183
Baseline Time (s)	10.037
Baseline Value 	0.002318
subtract baseline	10,1


Time (s)	A880-A510	A880-A775	A880-A975	A880	I510	I775	I975	I880	
0.036000	-0.005433	-0.000843	-0.007321	-0.000230	5531.955373	33945.306063	3556.378379	18357.474248
0.536500	-0.004309	-0.001224	-0.001379	0.002197	5523.502723	33744.165641	3563.463825	18270.222827
1.037000	-0.001958	-0.000218	-0.002663	0.002187	5538.839156	33816.850062	3560.888438	18270.583223
1.537000	-0.004430	-0.001723	-0.008607	0.004085	5510.519417	33574.206473	3545.210292	18202.681230
2.040000	-0.000260	-0.000993	-0.000742	-0.001988	5577.359714	34061.198027	3573.275175	18421.011633
2.535000	-0.000154	0.000788	-0.003496	-0.000508	5568.294894	34082.836506	3564.652952	18367.489682
3.035500	-0.001031	-0.000571	-0.001460	-0.002925	5578.452185	34159.357454	3573.722353	18454.955454
3.536000	-0.003978	-0.001044	-0.001596	0.000095	5539.313279	33907.611792	3567.286951	18345.779590
4.036000	-0.003702	-0.000328	0.000226	-0.000927	5547.772994	34032.576990	3573.082828	18382.615393
4.536000	-0.003590	-0.000088	-0.002155	-0.000761	5547.420860	34037.911440	3567.888917	18376.634524
5.036500	-0.000427	-0.000695	0.005490	-0.000936	5569.322441	34006.794383	3583.938278	18382.970856
5.536500	0.000262	0.000984	0.003411	0.000199	5566.384615	34045.983153	3577.307155	18342.024984
6.037000	0.001099	0.000035	-0.000156	-0.000619	5577.288467	34036.523124	3571.674018	18371.498919
6.537000	-0.001551	-0.000487	0.003654	-0.000725	5560.544486	34006.557315	3579.708614	18375.347041
7.035000	-0.000771	0.000815	0.004826	0.000452	5557.938438	34015.604767	3579.698407	18332.913412
7.535000	-0.001568	-0.000158	-0.005535	-0.000671	5560.073970	34026.429638	3560.860036	18373.394961
8.035500	-0.000346	0.000300	-0.000613	0.000204	5562.352984	33996.322762	3569.063464	18341.843300
8.535000	0.001446	0.000333	0.003650	0.000430	5572.653461	33982.432373	3577.321736	18333.691090
9.036000	-0.002239	-0.001606	0.000000	-0.001054	5558.184739	33949.761197	3572.882218	18387.225040
9.536500	0.001803	-0.000071	-0.000178	-0.000200	5579.176611	33998.779909	3570.774530	18356.414504
10.036500	0.000000	0.000349	-0.000216	0.000000	5565.967953	34014.574004	3570.289170	18349.189319
10.536500	0.000941	-0.000579	-0.000035	-0.000682	5576.656336	33996.853241	3572.049227	18373.772833
11.037500	-0.002167	0.000231	0.000095	0.000157	5550.723371	33994.764212	3570.602323	18343.527306
11.537500	-0.000220	0.000000	0.004044	0.000058	5564.135345	33985.234749	3578.898018	18347.085541
12.035000	0.001253	0.000980	-0.000025	0.000587	5570.355226	34017.740232	3569.482550	18328.061529
12.535000	-0.000061	0.001604	-0.001808	0.001180	5557.814324	34019.924110	3564.653710	18306.708673
13.035500	0.000377	-0.000374	0.000662	-0.001383	5577.564018	34062.113781	3574.911705	18399.105957
13.535500	-0.000984	0.000069	0.006018	-0.000603	5563.463390	34037.881447	3584.340771	18370.950399
14.047000	-0.003011	0.000191	0.000547	0.005355	5511.475668	33619.978390	3560.974387	18157.400017
14.536000	-0.002698	0.000011	0.002586	0.003596	5524.876969	33732.500548	3568.672315	18220.151878
15.037000	-0.000466	0.000951	0.006710	0.001318	5554.262251	33963.028419	3581.798056	18301.776474
15.545500	0.002503	0.000286	0.005275	-0.000262	5584.209751	34028.843131	3582.096560	18358.619596
16.040000	-0.002468	0.000193	0.002606	0.005871	5511.653045	33583.426558	3564.092541	18139.050957
16.538000	0.001548	0.001603	0.002306	0.000745	5571.252533	34051.218011	3573.918608	18322.347924
17.035000	0.000636	0.000829	0.000444	0.000365	5567.749227	34022.807492	3570.888589	18336.033918
17.535000	0.003182	0.000241	0.000443	-0.002096	5600.890391	34158.112328	3575.924339	18424.916067
18.035500	0.000063	0.000818	0.001075	0.003776	5541.651633	33777.194754	3565.234622	18213.691373
18.536000	0.001269	0.001220	0.000904	0.003211	5553.226304	33846.471997	3566.035166	18233.905191
19.036000	-0.001454	-0.000056	0.001543	0.001716	5545.194614	33862.189371	3570.376634	18287.473648
19.536000	-0.002523	0.000972	0.002193	0.002935	5530.303648	33848.463173	3569.217407	18243.785896
20.036500	0.000105	0.000323	-0.000359	0.003904	5541.096677	33732.754170	3562.074329	18209.144141
20.537500	-0.000121	0.001051	0.002263	0.003117	5544.749592	33841.041636	3568.987207	18237.249527
21.037500	-0.000764	0.000659	0.003463	0.002952	5541.636119	33824.864811	3571.771689	18243.178537
21.535000	0.001943	0.001085	-0.000778	0.003758	5554.051969	33797.585635	3561.522404	18214.330674
22.035500	-0.001463	0.000659	-0.004212	0.004880	5524.560212	33687.140951	3552.372459	18174.327262
22.535500	0.000260	0.000364	0.000109	0.003139	5547.101188	33790.360498	3564.568656	18236.489842
23.036000	0.000428	0.001328	0.005736	0.003697	5544.551119	33819.399165	3574.898640	18216.522078
23.536000	0.001609	0.001251	0.005235	0.003834	5551.370078	33804.033063	3573.590496	18211.617855
24.036000	-0.000797	0.001510	0.003940	0.005574	5524.375770	33698.258115	3567.402129	18149.605134
24.536500	-0.001857	0.000262	0.001551	0.003227	5532.731382	33776.815558	3567.317386	18233.345964
25.037000	-0.002686	0.000201	0.004386	0.003076	5528.322221	33783.131808	3573.405448	18238.717281
25.537500	0.000429	0.001532	0.004738	0.004314	5540.530308	33789.804055	3571.592804	18194.484829
26.035000	-0.000480	0.000692	0.001387	0.005317	5528.101760	33658.362259	3562.748421	18158.763754
26.535000	0.001223	0.001887	0.007373	0.004732	5542.985859	33785.336249	3576.133813	18179.602383
27.035500	-0.000250	0.001445	0.002091	0.004296	5536.227820	33784.863009	3566.239752	18195.123923
27.535500	0.000560	0.000310	-0.000744	0.004138	5542.529967	33715.071932	3560.822768	18200.762535
28.036000	0.002690	0.001720	-0.000188	0.001013	5577.018796	34040.351393	3568.282458	18312.736200
28.541000	0.000242	0.001827	0.007727	0.002702	5549.834760	33926.476753	3581.040271	18252.113268
29.055500	0.002705	0.001065	0.004483	0.002064	5570.185805	33917.638133	3575.677683	18274.991451
29.536500	0.001893	0.001526	0.001423	0.002794	5560.044819	33898.267614	3567.936392	18248.818508
30.037000	0.001098	0.000608	0.006086	0.001251	5564.965406	33943.173107	3580.649433	18304.176126
30.534500	0.002575	0.001801	0.002657	0.002742	5564.864416	33921.781839	3570.553712	18250.672704
31.037500	0.002552	0.002327	0.006671	0.003084	5562.468748	33935.011800	3578.076818	18238.441081
31.535000	0.000075	0.001125	0.008030	0.006602	5523.363045	33597.685139	3573.646475	18113.058736
32.035000	0.001565	0.001658	0.007844	0.005973	5537.125868	33680.402036	3574.553469	18135.403408
32.546500	0.001397	0.001015	0.005338	0.002622	5557.929445	33874.010342	3576.288359	18255.003592
33.036000	0.002081	0.001483	0.004762	0.002638	5562.307973	33906.438883	3575.072860	18254.420451
33.536500	0.003248	0.001074	0.003048	0.003271	5565.819530	33831.724247	3570.274900	18231.758879
34.036500	-0.000920	0.000968	0.005834	0.008735	5503.173220	33435.362385	3564.829135	18037.544238
34.537000	0.002672	0.001039	-0.000385	0.002431	5567.551445	33889.394150	3565.001720	18261.815260
35.040000	0.002693	0.001673	0.003540	0.006164	5543.234334	33667.849297	3565.391577	18128.634907
35.534500	0.003844	0.002154	0.008830	0.006318	5549.743848	33691.197590	3575.868738	18123.169678
36.035000	0.001806	0.001083	-0.000172	0.006588	5534.688204	33595.727343	3557.044208	18113.564935
36.535500	0.001947	0.002618	0.007002	0.006549	5535.863631	33707.778624	3571.652225	18114.947377
37.035500	0.000618	0.001484	0.004825	0.006053	5530.453850	33662.349062	3568.228063	18132.587589
37.536000	0.002744	0.002550	0.004768	0.006643	5540.443695	33696.260585	3566.912414	18111.628643
38.036500	-0.001797	0.002210	0.004370	0.006994	5508.736216	33646.963551	3565.390527	18099.150990
38.536500	0.000273	0.001181	0.001823	0.005515	5531.699536	33679.020568	3563.228512	18151.701755
39.036500	0.002407	0.001303	0.005619	0.005720	5544.265340	33673.130975	3570.523966	18144.426964
39.540000	0.000838	0.000658	0.003800	0.005498	5535.482741	33643.016941	3567.271700	18152.299667
40.037000	0.000584	0.002098	0.002208	0.007631	5519.999960	33593.698227	3559.733119	18076.598521
40.535000	-0.000417	0.001530	0.006279	0.006236	5522.548596	33652.531517	3570.815171	18126.054380
41.035000	0.002683	0.002356	0.007009	0.006751	5539.338972	33674.703203	3571.255603	18107.789450
41.535500	0.001969	0.001222	0.002486	0.006422	5536.832975	33617.403030	3562.734219	18119.464647
42.035500	-0.002714	0.002218	0.008669	0.007655	5498.581791	33600.480063	3572.799283	18075.731535
42.535500	0.001367	0.001101	0.008369	0.005595	5538.297096	33667.655679	3576.407443	18148.867742
43.036500	0.000511	0.001641	0.012040	0.006291	5528.208779	33656.495669	3582.536458	18124.113880
43.536500	0.001168	0.002771	0.005852	0.007533	5524.416088	33648.575513	3567.304682	18080.057582
44.037000	0.000743	0.001905	-0.002231	0.007923	5519.143316	33559.322546	3550.254099	18066.276804
44.537500	0.003268	0.002699	0.008847	0.005055	5554.240067	33820.336324	3578.498159	18168.077197
45.037500	0.005877	0.004262	0.012123	0.004065	5577.907209	34003.610192	3587.321662	18203.382380
45.535500	0.005109	0.002043	0.008304	0.004402	5570.624156	33820.153254	3578.727240	18191.374976
46.035000	0.002192	0.001766	0.008687	0.010073	5514.608115	33397.243764	3567.905889	17990.384404
46.538000	0.004726	0.002205	0.007362	0.004675	5566.303635	33812.167765	3576.229006	18181.634475
47.035500	0.002430	0.002161	0.006890	0.005236	5547.572742	33768.828110	3574.109750	18161.617593
47.536000	0.006094	0.002520	0.007683	0.005368	5570.746393	33785.076127	3575.463251	18156.929524
48.039000	-0.000521	0.001214	0.002078	0.009752	5499.202658	33380.934882	3555.209392	18001.676941
48.536000	0.000633	0.001870	0.002166	0.007757	5519.501478	33568.610418	3559.396899	18072.150617
49.040000	0.001575	0.002429	0.009556	0.008329	5521.893687	33567.624718	3573.235720	18051.892668
49.538000	0.002145	0.002298	0.010300	0.005249	5545.627185	33777.719886	3581.093909	18161.157808
50.034500	0.002300	0.002526	0.005212	0.010362	5513.439358	33430.526132	3560.284597	17980.207313
50.534500	0.004076	0.002845	0.003744	0.005289	5558.002916	33814.030821	3567.581927	18159.738156
51.035000	0.001422	0.002031	0.002237	0.004949	5542.867476	33780.158832	3565.213966	18171.869854
51.535500	0.003517	0.002733	-0.000969	0.005625	5552.139022	33781.953021	3557.377793	18147.795274
52.036000	0.001424	0.002240	0.006364	0.010152	5509.143787	33425.110804	3563.033773	17987.578422
52.536500	0.007489	0.003576	0.007001	0.000034	5615.415339	34245.431907	3585.057535	18347.964587
53.037000	0.004472	-0.004202	0.019918	0.180688	4613.405064	23151.964424	3296.587961	13022.502329
53.536500	0.002053	-0.009239	0.005022	-0.057855	5988.404487	37691.904054	3708.761519	20579.317223
54.037500	-0.014163	-0.026415	-0.019759	-0.272917	7892.183637	57871.482592	4271.826387	32037.676655
54.534500	0.007607	-0.015304	0.004346	-0.233528	7686.149355	54395.433793	4216.941143	29493.828112
55.034500	-0.015836	-0.013233	-0.012582	-0.202142	7095.943112	51023.210055	4055.621801	27625.693881
55.535000	-0.010808	-0.009791	-0.019220	-0.243467	7589.976939	56266.824111	4169.609266	30114.134847
56.035500	-0.008641	-0.005146	-0.020429	-0.231602	7482.204803	55384.154469	4125.573690	29375.269556
56.536000	-0.004293	-0.002694	-0.015678	-0.209837	7294.604863	53093.920640	4070.215996	28071.273202
57.036000	-0.004856	0.000489	-0.013872	-0.175974	6945.207016	49658.880838	3971.625543	26168.083760
57.536500	-0.000957	-0.000856	-0.015465	-0.165544	6881.995226	48403.604291	3936.488658	25611.179376
58.036500	-0.001321	-0.001707	-0.007862	-0.138175	6623.910424	45530.188849	3880.792353	24211.803755
58.536500	0.000604	-0.002201	-0.005354	-0.115706	6443.066497	43325.958902	3827.058366	23127.073423
59.037500	0.003314	-0.001311	-0.000864	-0.094485	6287.295977	41469.395180	3783.886954	22152.873098
59.534500	0.001181	-0.002437	0.004916	-0.067992	6059.101460	39082.529437	3732.692670	21001.604716
60.035000	0.001318	-0.001487	-0.001473	-0.046525	5898.585603	37405.160038	3667.581655	20118.901748
60.535000	0.002931	-0.002500	-0.002554	-0.030313	5793.180181	36056.827067	3629.213849	19480.610650
61.035500	-0.000063	-0.001619	0.001114	-0.011048	5639.133274	34675.519310	3595.892708	18752.434545
61.536000	0.002192	-0.000452	0.000288	-0.000557	5584.103918	33996.994178	3572.454801	18369.284472
62.036000	0.001300	-0.000399	0.006465	0.010768	5504.380268	33195.968831	3561.993339	17965.931922
62.536500	0.004849	0.000376	0.004379	0.020185	5466.876931	32595.699419	3539.061671	17638.451226
63.040000	0.003091	0.000387	0.004884	0.024328	5429.666685	32312.920251	3531.933690	17496.590835
63.537500	0.005062	0.003797	0.013573	0.020376	5467.014188	32818.603327	3556.957347	17631.861523
64.035000	0.003839	0.003337	0.004933	0.023108	5442.018106	32598.306164	3534.413368	17538.211293
64.535000	0.005625	0.004226	0.005941	0.019835	5474.033004	32885.946322	3542.830539	17650.481429
65.064000	0.007322	0.006466	0.014634	0.018904	5490.808014	33106.948996	3562.059904	17682.577218
65.538000	0.008694	0.006045	0.012702	0.018614	5501.467690	33097.717064	3558.748819	17692.566186
66.038500	0.008067	0.005771	0.005920	0.018976	5495.121718	33053.275674	3544.488949	17680.086663
66.536000	0.009566	0.006775	0.014180	0.020155	5497.174738	33041.144501	3558.621987	17639.482086
67.037000	0.010510	0.006343	0.016726	0.020401	5501.660185	32993.851956	3563.263525	17631.019292
67.536500	0.011029	0.006640	0.016142	0.021823	5495.857953	32915.539216	3559.214778	17582.202556
68.039000	0.007396	0.006495	0.013599	0.028078	5433.147807	32473.958328	3541.676064	17369.385394
68.537500	0.012200	0.008666	0.015143	0.024722	5484.791201	32854.867681	3551.399417	17483.162541
69.037500	0.009551	0.007684	0.013353	0.029560	5437.371389	32453.915203	3538.273229	17319.405105
69.535000	0.014270	0.009447	0.014232	0.026781	5484.862201	32766.399162	3545.492116	17413.245924
70.035500	0.012130	0.008797	0.014423	0.032674	5434.009737	32317.241132	3534.264228	17214.934274
70.536000	0.013814	0.009341	0.020606	0.027896	5474.845082	32682.096341	3555.979949	17375.524729
71.036000	0.011755	0.008261	0.016662	0.032681	5431.614613	32280.287235	3538.642653	17214.699287
71.536500	0.015517	0.010820	0.016914	0.030035	5472.070797	32636.606775	3544.358899	17303.413492
72.036500	0.013871	0.010716	0.014880	0.036438	5421.351391	32191.811190	3527.818687	17089.664851
72.540000	0.016452	0.010649	0.018917	0.030742	5473.525678	32576.213140	3546.929483	17279.663664
73.037500	0.012479	0.009647	0.012326	0.036874	5409.959827	32089.934403	3522.034223	17075.224288
73.534500	0.018383	0.011674	0.024070	0.033534	5468.048257	32455.012562	3551.629547	17186.223515
74.034500	0.014261	0.012434	0.018106	0.039559	5404.358292	32096.804514	3528.024322	16986.625557
74.535000	0.020626	0.012348	0.020786	0.034545	5475.879596	32431.886835	3543.096888	17152.520669
75.035500	0.015034	0.012271	0.016258	0.041103	5399.571947	31981.594861	3521.461331	16935.905166
75.535500	0.020294	0.013485	0.020212	0.036461	5461.605889	32378.701620	3538.191033	17088.909168
76.036000	0.015868	0.012206	0.026353	0.041636	5401.439142	31941.360441	3540.089420	16918.433946
76.536000	0.017152	0.012862	0.026060	0.037005	5438.352295	32299.154613	3548.678419	17070.905941
77.036500	0.018162	0.013685	0.020051	0.043994	5401.044962	31882.292774	3523.203142	16841.455032
77.536500	0.021672	0.012922	0.030411	0.038449	5457.743581	32205.100586	3554.480526	17023.194547
78.034500	0.022091	0.013052	0.027720	0.038635	5459.218374	32201.268381	3548.737996	17017.062010
78.537000	0.023777	0.014599	0.023258	0.040250	5459.666163	32196.642866	3536.729704	16963.897989
79.037000	0.018556	0.013636	0.020845	0.045558	5393.799904	31774.216632	3521.716939	16790.608994
79.535000	0.020388	0.013872	0.022439	0.040440	5437.100137	32134.502630	3534.753271	16957.657700
80.036000	0.021091	0.014468	0.020463	0.042262	5430.082358	32051.670322	3527.352778	16897.983361
80.536000	0.024255	0.014340	0.026061	0.041606	5454.111171	32087.288271	3539.573849	16919.422278
81.036000	0.022163	0.014299	0.026838	0.048941	5395.189714	31592.908560	3526.762622	16681.266637
81.536500	0.024824	0.014931	0.027195	0.043714	5444.405523	31984.910540	3537.658422	16850.571569
82.042500	0.024535	0.015175	0.027544	0.044100	5440.159904	31975.358628	3537.587191	16838.008336
82.537000	0.025694	0.015324	0.023712	0.044378	5445.700617	31966.666055	3529.553043	16828.955390
83.039500	0.022279	0.014171	0.024373	0.050391	5386.946705	31488.209090	3519.204882	16634.645813
83.703000	0.025653	0.015899	0.027359	0.046381	5432.854765	31870.654837	3532.757524	16763.922366
84.648500	0.025843	0.016733	0.033087	0.047570	5426.599013	31846.895523	3541.666218	16725.470448
84.793000	0.025641	0.016723	0.031613	0.047898	5423.284743	31824.249608	3538.119578	16714.889197
85.036000	0.022666	0.016030	0.030064	0.053617	5369.507448	31397.834686	3523.955521	16531.526867
85.536000	0.027683	0.016577	0.034221	0.048155	5434.460886	31797.252600	3542.752785	16706.605413
86.036500	0.024835	0.016537	0.029126	0.048493	5414.548934	31771.931789	3532.084259	16695.691290
86.537000	0.027691	0.017684	0.037613	0.049624	5425.307921	31773.007211	3546.559300	16659.283470
87.037000	0.025829	0.016378	0.024185	0.054766	5381.873494	31345.030498	3510.483715	16494.982990
87.537500	0.025309	0.016694	0.028166	0.049459	5411.486301	31717.903147	3528.332965	16664.588371
88.035000	0.025123	0.017393	0.029148	0.056600	5366.291946	31291.104927	3516.455103	16436.839875
88.535000	0.030496	0.017006	0.034069	0.050573	5436.943413	31664.431572	3537.689596	16628.820370
89.035000	0.024814	0.016425	0.027666	0.056557	5364.665123	31230.372106	3513.703000	16438.203100
89.536000	0.029288	0.015916	0.028803	0.049796	5434.236571	31643.616413	3528.918096	16653.767618
90.035500	0.027039	0.017351	0.032913	0.057858	5370.322440	31205.791082	3521.270655	16397.117322
90.536500	0.028580	0.017167	0.030633	0.051581	5418.641288	31608.067751	3529.004870	16596.516424
91.036500	0.026501	0.017358	0.032410	0.058140	5365.293697	31187.730546	3519.758304	16388.197125
91.537000	0.028020	0.017967	0.032290	0.052866	5407.160295	31575.832919	3529.728623	16555.460426
92.037000	0.025772	0.017796	0.028142	0.058910	5356.145179	31165.939282	3510.126236	16363.949820
92.537500	0.030142	0.018345	0.038590	0.053299	5417.671499	31572.226338	3541.222481	16541.674805
93.035000	0.026924	0.017685	0.034092	0.059481	5359.691026	31121.319308	3520.414218	16345.995237
93.535000	0.031154	0.018312	0.036819	0.054396	5417.138530	31497.257293	3535.584765	16506.742140
94.035500	0.024894	0.017832	0.033313	0.059721	5345.878646	31115.341970	3518.456031	16338.479593
94.535500	0.029763	0.018961	0.031987	0.055427	5402.082786	31471.977039	3524.174756	16474.004462
95.036000	0.028527	0.018629	0.035365	0.060953	5360.490010	31086.863628	3520.031866	16299.822077
95.536000	0.032888	0.019555	0.034498	0.056209	5416.649139	31459.540115	3527.522662	16449.219468
96.036500	0.030943	0.018764	0.037076	0.056293	5404.030023	31401.680020	3532.377048	16446.564581
96.537000	0.030549	0.019063	0.037298	0.056220	5402.044297	31426.289571	3532.954294	16448.877423
97.037500	0.030652	0.019888	0.036556	0.057123	5397.085813	31421.161611	3529.745682	16420.319233
97.537500	0.031959	0.019411	0.039065	0.057213	5404.627420	31383.729036	3534.466558	16417.478179
98.035000	0.031797	0.019477	0.033090	0.057370	5402.649896	31377.684498	3522.553390	16412.517729
98.535500	0.034412	0.019555	0.036872	0.057883	5415.712700	31349.026181	3528.883083	16396.321602
99.035500	0.030110	0.018431	0.030616	0.061949	5364.075236	31009.031069	3509.055144	16268.679029
99.538500	0.035832	0.020376	0.039325	0.059135	5416.760110	31320.596545	3531.220610	16356.884185
100.036000	0.033792	0.020989	0.045652	0.059905	5399.300151	31310.221587	3542.120162	16332.677910
100.535500	0.032190	0.019875	0.043136	0.058912	5395.535030	31302.272756	3539.118769	16363.894775
101.039500	0.029032	0.020219	0.038356	0.063511	5347.991352	31023.800718	3520.866441	16219.967572
101.539500	0.035265	0.019650	0.035240	0.058883	5414.796174	31289.411061	3523.781886	16364.811001
102.037000	0.030893	0.020247	0.040041	0.065962	5344.408695	30866.329762	3519.391290	16143.865298
102.539500	0.034250	0.019363	0.042753	0.060050	5401.236963	31193.913879	3536.131354	16328.125568
103.035000	0.031314	0.020029	0.039494	0.065656	5348.824082	30872.035187	3518.928084	16153.341873
103.541000	0.035891	0.021317	0.042452	0.061229	5404.109620	31244.798357	3533.236945	16291.198290
104.035500	0.033064	0.020709	0.038876	0.067339	5349.228144	30807.106620	3514.519913	16101.286683
104.538500	0.037098	0.021514	0.036825	0.061686	5408.766119	31227.725572	3521.432344	16276.902621
105.036500	0.031220	0.020722	0.041446	0.066586	5342.609931	30856.676794	3520.893415	16124.548512
105.542000	0.035555	0.021707	0.044450	0.063034	5390.852788	31152.042759	3533.612308	16234.799250
106.036500	0.033323	0.020549	0.032451	0.067149	5351.957220	30809.056195	3502.691644	16107.150001
106.537000	0.036018	0.021700	0.040124	0.063363	5391.684876	31130.089501	3524.562513	16224.569008
107.035000	0.032316	0.020384	0.036913	0.067442	5344.067283	30779.448798	3510.581162	16098.119433
107.537500	0.038391	0.022487	0.039595	0.063666	5404.496834	31161.695965	3522.954299	16215.116110
108.035000	0.030262	0.019889	0.037635	0.068394	5325.898066	30686.195571	3510.145619	16068.784686
108.535500	0.037903	0.021403	0.039378	0.063774	5400.797079	31083.783846	3522.327167	16211.752825
109.036000	0.035310	0.021101	0.045622	0.067973	5359.045801	30791.493342	3526.282891	16081.758190
109.535500	0.035767	0.020858	0.041598	0.063530	5389.104619	31064.159394	3527.093729	16219.368217
110.036500	0.036449	0.021502	0.046257	0.070542	5350.331583	30651.748479	3522.540618	16002.801564
110.536500	0.036626	0.022468	0.038710	0.065574	5381.804520	31035.865478	3517.580814	16155.882722
111.037000	0.036221	0.023078	0.039317	0.070161	5351.265551	30777.825904	3509.983259	16014.491014
111.536500	0.038421	0.022780	0.042020	0.065651	5392.390034	31051.193419	3523.803971	16153.481626
112.037500	0.035771	0.022115	0.039443	0.071532	5340.211991	30627.491517	3507.619516	15972.515428
112.537500	0.037884	0.023708	0.046113	0.067190	5379.605646	31011.394959	3528.753928	16105.906946
113.035500	0.039421	0.023429	0.044128	0.067062	5389.854342	31001.547457	3525.151998	16109.851058
113.535500	0.037814	0.022483	0.042669	0.066084	5385.980917	31003.637567	3524.222386	16140.087595
114.036000	0.037589	0.023515	0.044098	0.067089	5378.405811	31005.324090	3525.040952	16109.002303
114.536000	0.038209	0.023573	0.043320	0.067524	5379.545121	30980.822004	3522.698468	16095.582251
115.039000	0.034911	0.022544	0.042761	0.069386	5348.011807	30793.360208	3518.038081	16038.258622
115.536000	0.040091	0.022955	0.042800	0.067345	5392.246304	30952.312387	3522.040988	16101.110231
116.037000	0.041283	0.023471	0.040711	0.068143	5394.682190	30934.003265	3516.493799	16076.516941
116.537000	0.039926	0.024079	0.044167	0.068835	5382.043953	30928.537033	3521.803645	16055.211194
117.035000	0.036135	0.023634	0.036871	0.071718	5341.294085	30713.298267	3502.410578	15966.837467
117.535000	0.040828	0.023924	0.042792	0.068603	5389.028727	30933.510085	3519.602864	16062.344665
118.036000	0.038800	0.024250	0.049684	0.068755	5375.615667	30944.826890	3532.660456	16057.656626
118.536000	0.039649	0.023627	0.039960	0.069492	5376.302889	30856.577422	3512.479015	16035.003326
119.036500	0.037702	0.023620	0.043661	0.072613	5345.368553	30654.806691	3513.586170	15939.526273
119.536000	0.040796	0.024198	0.045173	0.069593	5382.729644	30887.043242	3522.280655	16031.909084
120.036500	0.037882	0.024768	0.050697	0.070360	5360.172758	30874.328380	3531.507167	16008.389401
120.536500	0.041528	0.023840	0.045577	0.069871	5385.533672	30845.875599	3522.524919	16023.399998
121.037000	0.037629	0.024280	0.046487	0.073858	5337.385580	30617.223200	3516.610474	15901.627358
121.537500	0.041855	0.025201	0.050054	0.070859	5381.460143	30870.054026	3529.282873	15993.112655
122.035000	0.040933	0.025991	0.048414	0.071970	5368.979420	30849.223505	3523.949427	15959.129997
122.537500	0.040299	0.024477	0.044312	0.071258	5369.458484	30797.389216	3517.424462	15980.899860
123.035500	0.041904	0.026022	0.045925	0.075570	5352.933877	30619.077522	3512.263309	15849.668066
123.535500	0.041053	0.024172	0.048257	0.071249	5374.132771	30778.193381	3525.039300	15981.163878
124.036500	0.042029	0.024768	0.045880	0.071697	5377.374459	30787.771917	3519.591210	15967.474423
124.539500	0.042298	0.024829	0.047385	0.072538	5373.868929	30737.485172	3520.868765	15941.816608
125.036500	0.040386	0.024851	0.044778	0.074878	5347.909679	30588.363099	3511.397404	15870.645693
125.538000	0.041235	0.025065	0.049778	0.072688	5366.436564	30742.966511	3525.199939	15937.236863
126.034500	0.040002	0.025287	0.041799	0.079235	5319.272047	30337.990170	3497.550476	15739.158367
126.534500	0.041615	0.026338	0.049546	0.073827	5361.796567	30751.675582	3522.549104	15902.565633
127.035000	0.042249	0.026461	0.048328	0.076980	5346.463840	30556.861921	3514.159956	15807.061353
127.535500	0.043125	0.025749	0.046021	0.074213	5368.665577	30688.807516	3515.037652	15890.821491
128.036000	0.042025	0.024994	0.047725	0.079806	5328.010524	30283.116784	3507.636196	15722.041318
128.538000	0.043111	0.025100	0.050325	0.074088	5369.344894	30655.053721	3523.548742	15894.616676
129.036500	0.045151	0.026401	0.052195	0.075303	5374.406395	30660.663124	3524.815710	15857.772961
129.536500	0.043970	0.027014	0.046260	0.075884	5363.616972	30662.676090	3512.303727	15840.164843
130.036500	0.041663	0.026331	0.043814	0.080936	5319.028908	30296.283370	3498.139135	15688.184757
130.537500	0.044596	0.026457	0.053483	0.075769	5368.152470	30634.266486	3526.407467	15843.649176
131.037500	0.046940	0.027491	0.052994	0.076829	5376.014788	30632.573500	3523.409603	15811.591797
131.535500	0.042855	0.026675	0.053032	0.076059	5355.747342	30629.633812	3524.973405	15834.877784
132.035500	0.043609	0.026772	0.050030	0.083028	5318.153686	30191.636195	3505.898827	15625.752324
132.535500	0.045718	0.026961	0.052546	0.077102	5366.856388	30581.002517	3522.019127	15803.354970
133.035500	0.047193	0.027408	0.051197	0.078925	5364.733109	30492.952617	3515.926399	15748.477255
133.536000	0.045478	0.026536	0.050744	0.076976	5366.162150	30561.871649	3518.794058	15807.157762
134.039000	0.040381	0.026122	0.047514	0.082034	5304.768937	30213.407335	3503.026056	15655.376300
134.536500	0.043937	0.027054	0.045564	0.077740	5352.100899	30546.139682	3507.457000	15784.135404
135.037000	0.046769	0.027193	0.050541	0.078745	5363.240282	30490.667756	3515.015412	15753.872517
135.534500	0.047740	0.026825	0.048963	0.078298	5371.921545	30495.807509	3512.857459	15767.340908
136.037000	0.044484	0.026699	0.052050	0.083656	5319.638756	30147.370972	3508.536355	15607.077489
136.539000	0.045145	0.026610	0.050495	0.077556	5360.584726	30529.462828	3517.203730	15789.678392
137.041000	0.046039	0.028441	0.055215	0.080537	5347.873018	30455.927016	3520.542392	15700.113501
137.535500	0.050391	0.028237	0.062027	0.079642	5379.941278	30500.102553	3535.509403	15726.955890
138.036000	0.043643	0.028177	0.044290	0.085017	5306.437658	30154.703740	3491.413423	15566.684681
138.539000	0.050373	0.029751	0.055267	0.081230	5370.080882	30495.358201	3519.310523	15679.391529
139.036000	0.047671	0.028169	0.047752	0.079759	5362.556519	30488.268471	3507.775713	15723.441930
139.536500	0.049042	0.028081	0.055308	0.080469	5366.598229	30437.326644	3520.853892	15702.170147
140.037000	0.047232	0.028256	0.056025	0.080286	5356.663968	30460.182765	3522.588627	15707.653692
140.537500	0.047504	0.028709	0.050697	0.080782	5355.297577	30457.439331	3511.426255	15692.790792
141.035000	0.047938	0.028464	0.055750	0.081589	5353.026814	30390.398811	3519.550637	15668.684478
141.535500	0.046746	0.029072	0.054759	0.081652	5345.400718	30425.064843	3517.525816	15666.791987
142.035500	0.048477	0.029398	0.055995	0.081688	5355.709495	30443.585838	3519.831188	15665.721748
142.536000	0.049898	0.029093	0.055982	0.082205	5361.215820	30391.138342	3518.811186	15650.274172
143.036000	0.048080	0.028230	0.053580	0.081925	5351.842938	30354.071963	3514.745310	15658.636469
143.536500	0.048252	0.028742	0.056993	0.082175	5351.372075	30370.784339	3520.812940	15651.189947
144.037000	0.048839	0.029119	0.055025	0.082216	5354.693411	30392.123310	3516.954887	15649.963442
144.537000	0.050211	0.030548	0.051002	0.083831	5353.215110	30380.297139	3506.218969	15601.877331
145.037500	0.049443	0.029327	0.053898	0.083890	5348.182908	30298.897787	3511.603040	15600.132804
145.537000	0.048467	0.029874	0.058574	0.083804	5342.788493	30339.142076	3520.721880	15602.697537
146.035000	0.048888	0.028501	0.048359	0.088568	5316.590650	29951.801519	3492.378496	15461.924713
146.535500	0.050840	0.030177	0.053816	0.083947	5356.339898	30349.262095	3511.339101	15598.434271
147.035500	0.050469	0.029326	0.054255	0.084240	5352.291863	30276.617006	3511.615968	15589.729357
147.536000	0.049583	0.029153	0.055512	0.083381	5352.136721	30320.250766	3515.656900	15615.277618
148.039000	0.051910	0.030834	0.047575	0.085240	5354.979584	30308.895051	3497.122593	15560.097591
148.536500	0.049955	0.029902	0.058147	0.084538	5347.360356	30294.310980	3518.488410	15580.901988
149.037000	0.050552	0.029545	0.064839	0.085105	5347.537930	30235.701355	3530.331484	15564.080003
149.537000	0.048059	0.030557	0.057740	0.085240	5331.630583	30291.271792	3516.361494	15560.087699
150.036500	0.051531	0.031096	0.057974	0.085787	5349.344303	30290.804687	3515.764263	15543.907628
150.534500	0.052296	0.029883	0.065181	0.085305	5356.933343	30244.431337	3530.607524	15558.157693
151.035000	0.050718	0.031040	0.059280	0.086565	5339.692214	30237.909239	3516.772542	15520.900132
151.535500	0.050325	0.031028	0.058152	0.086089	5340.196032	30267.284163	3515.525714	15534.959065
152.035000	0.049970	0.030574	0.060910	0.086019	5338.468762	30242.951578	3520.953371	15537.038716
152.535500	0.052510	0.030947	0.053436	0.086438	5351.342579	30240.102583	3505.892665	15524.664965
153.036500	0.053079	0.031809	0.057409	0.087633	5347.532742	30218.968234	3511.160956	15489.412360
153.537000	0.053028	0.031644	0.059270	0.087716	5346.726100	30203.332049	3514.553721	15486.981363
154.037000	0.047711	0.029890	0.054180	0.091654	5291.128548	29845.580083	3497.478798	15371.544099
154.537500	0.050239	0.030570	0.062957	0.087678	5330.072536	30137.863171	3521.702135	15488.095402
155.034000	0.051499	0.029989	0.052966	0.087070	5341.367111	30139.557220	3503.812398	15506.018191
155.535500	0.050338	0.031483	0.060243	0.087694	5330.569338	30194.472482	3516.455705	15487.613476
156.035500	0.052140	0.030360	0.052520	0.093549	5306.232909	29756.756484	3490.854285	15316.366722
156.535500	0.052778	0.031880	0.062551	0.089212	5336.142563	30123.730513	3517.970603	15443.000929
157.036000	0.051904	0.030651	0.056116	0.088509	5335.106022	30090.558522	3507.044300	15463.646258
157.539000	0.055665	0.032517	0.060361	0.089727	5350.527092	30131.401626	3512.796678	15427.907945
158.036000	0.048371	0.031512	0.050520	0.094508	5278.118265	29768.740402	3485.379222	15288.524995
158.536500	0.052736	0.031545	0.059096	0.088617	5339.484896	30140.120987	3512.499826	15460.462252
159.037000	0.054108	0.031984	0.061001	0.089606	5341.804870	30105.395518	3514.249365	15431.438387
159.534500	0.053850	0.032009	0.066310	0.089733	5339.477534	30098.974805	3524.206979	15427.723940
160.035000	0.050645	0.030621	0.055952	0.093424	5298.055316	29780.763065	3497.482327	15319.996339
160.535500	0.053723	0.032752	0.066159	0.092173	5323.977411	29992.257407	3519.213523	15356.399974
161.035500	0.055353	0.033341	0.060920	0.091332	5338.890908	30082.126015	3510.804459	15380.930276
161.535500	0.055264	0.032722	0.060114	0.090183	5345.320528	30115.588084	3511.457515	15414.537797
162.036000	0.053871	0.032464	0.056907	0.094863	5308.723984	29805.967073	3496.576831	15278.235676
162.536000	0.051915	0.032822	0.053474	0.093168	5307.157885	29934.245094	3493.334256	15327.428511
163.039000	0.057235	0.033490	0.060609	0.091854	5347.146516	30058.734361	3509.222014	15365.719015
163.536500	0.054505	0.032771	0.055197	0.091299	5333.969282	30048.350357	3500.051637	15381.904738
164.037000	0.051152	0.032593	0.058669	0.096997	5279.846473	29681.254910	3495.882754	15216.577577
164.534500	0.054749	0.032339	0.059382	0.093434	5322.566355	29887.375965	3503.908416	15319.696165
165.035000	0.055501	0.032553	0.065802	0.092512	5332.655561	29958.504601	3517.876684	15346.537981
165.535000	0.052419	0.033780	0.067335	0.092299	5315.382218	30048.939155	3521.233318	15352.722859
166.035500	0.054202	0.033559	0.065835	0.092342	5325.844507	30032.351494	3518.264976	15351.476107
166.536000	0.053684	0.032822	0.061516	0.095431	5304.206471	29792.886346	3504.167329	15261.793122
167.038500	0.055743	0.033455	0.060829	0.093170	5330.146353	29973.854552	3507.143021	15327.386909
167.539000	0.057561	0.032814	0.065582	0.092383	5345.905870	29982.964243	3517.702980	15350.286989
168.039500	0.055316	0.034170	0.061921	0.097981	5298.727271	29718.080632	3500.129770	15188.241054
168.537000	0.054660	0.033348	0.061508	0.096246	5305.171517	29774.844944	3502.616282	15238.238879
169.093000	0.058224	0.033800	0.068062	0.093940	5340.488925	29947.165622	3519.474983	15305.023074
169.534000	0.056747	0.034418	0.060188	0.094126	5330.430797	29974.254805	3504.123898	15299.608742
170.035000	0.053732	0.032723	0.061689	0.095893	5301.738617	29757.952794	3503.622237	15248.438616
170.535000	0.056950	0.034207	0.060916	0.098146	5307.499692	29710.095950	3497.935823	15183.502995
171.035500	0.058033	0.034669	0.059492	0.095184	5331.810034	29923.725536	3500.821902	15268.964072
171.538500	0.059040	0.034995	0.062788	0.095627	5335.218180	29916.349592	3506.201015	15256.147889
172.036000	0.058436	0.034449	0.065723	0.097603	5319.666474	29758.948876	3508.016517	15199.136617
172.536000	0.051763	0.032613	0.061269	0.098375	5275.309888	29597.105770	3498.167452	15176.918165
173.037000	0.057496	0.034713	0.058111	0.096105	5323.019480	29868.797236	3496.505600	15242.310020
173.537500	0.057218	0.033989	0.066178	0.095674	5323.941096	29850.517851	3512.547835	15254.768541
174.035000	0.057324	0.035284	0.064139	0.099619	5300.939436	29685.592124	3501.220245	15141.247231
174.535000	0.054966	0.033799	0.062185	0.100151	5283.755473	29560.648642	3496.558946	15126.009559
175.038000	0.058196	0.035992	0.070311	0.097236	5320.432108	29878.121253	3517.465413	15209.709689
175.535000	0.059399	0.034701	0.064771	0.095941	5335.486468	29878.288027	3509.363563	15247.054578
176.038500	0.056360	0.034508	0.068441	0.096440	5314.185348	29835.112546	3515.407008	15232.652906
176.536000	0.055015	0.034497	0.062405	0.101950	5273.406773	29492.733091	3493.613669	15074.643818
177.039000	0.058187	0.035607	0.065506	0.097148	5320.900598	29859.505190	3508.466709	15212.221331
177.536500	0.059930	0.035282	0.065693	0.097386	5329.966506	29824.356304	3508.370690	15205.369474
178.040000	0.057692	0.034670	0.064791	0.101964	5289.166785	29502.516962	3498.042136	15074.224558
178.537000	0.057074	0.035226	0.066643	0.097044	5314.845346	29842.219616	3510.823842	15215.220248
179.035000	0.059246	0.036642	0.069339	0.098212	5320.877080	29857.689594	3513.737186	15181.617630
179.538000	0.060364	0.035341	0.065985	0.097747	5330.410342	29805.537907	3508.240417	15194.976918
180.035500	0.057970	0.034423	0.067165	0.102043	5290.356738	29482.459353	3502.352722	15071.997173
180.535500	0.057974	0.035299	0.068266	0.098008	5314.463567	29786.662418	3512.080585	15187.490420
181.039000	0.058511	0.034815	0.068194	0.097836	5318.716893	29767.187345	3512.269627	15192.422352
181.536000	0.059206	0.035524	0.070973	0.098496	5318.926731	29770.268043	3516.317685	15173.457569
182.041500	0.060170	0.035692	0.068711	0.103645	5293.904907	29461.889998	3502.246031	15026.419008
182.537000	0.059381	0.034954	0.071006	0.098431	5320.371088	29738.821229	3516.505591	15175.315231
183.037500	0.061141	0.036138	0.065284	0.099399	5325.135644	29752.322150	3503.790984	15147.547498
183.537000	0.059402	0.035918	0.071494	0.099395	5314.709868	29738.880409	3515.595585	15147.669685
184.035000	0.058454	0.036205	0.063586	0.103203	5286.337015	29520.753702	3493.477612	15038.977520
184.535000	0.062757	0.035926	0.063431	0.099733	5332.867177	29718.352583	3499.676429	15137.971329
185.035500	0.061695	0.036050	0.071124	0.100100	5324.245353	29703.219447	3513.540037	15127.451804
185.535500	0.058643	0.036121	0.069304	0.099353	5310.412518	29754.054450	3511.494696	15148.851372
186.036500	0.060783	0.036328	0.065822	0.105545	5286.262457	29384.191326	3493.280755	14972.600220
186.536000	0.059218	0.035968	0.063990	0.105835	5275.281330	29344.427124	3489.340506	14964.429092
187.036500	0.058331	0.035444	0.070529	0.099662	5306.692605	29692.747516	3513.240035	15139.992719
187.537000	0.061835	0.037454	0.070775	0.101657	5315.740330	29693.756251	3509.912562	15082.998472
188.034500	0.057998	0.035835	0.068448	0.105232	5271.642595	29373.195910	3498.771827	14981.462187
