sample name	sample
index	1482
start time	 05-18-2021  12:38:22 PM
880	-0.022871
Peak Time (s)	91.035
Peak Height 	-0.02287
calc peak height	90,93
Baseline Time (s)	10.035
Baseline Value 	-0.006192
subtract baseline	10,4
Abs	-0.013908
Peak Time (s)	91.535
Peak Height 	-0.01391
calc peak height	90,93
Baseline Time (s)	11.536
Baseline Value 	0.002552
subtract baseline	10,3
PK_550	0.002660
Peak Time (s)	90.038
Peak Height 	0.00266
calc peak height	90,93
Baseline Time (s)	8.537
Baseline Value 	8.5113E-5
subtract baseline	10,2
PK_880	-0.008394
Peak Time (s)	90.038
Peak Height 	-0.008394
calc peak height	90,93
Baseline Time (s)	10.536
Baseline Value 	0.001441
subtract baseline	10,1


Time (s)	A880-A510	A880-A775	A880-A975	A880	I510	I775	I975	I880	
0.034500	-0.001470	-0.000556	-0.005969	0.001819	6585.457950	44762.716905	3965.493137	23407.013823
0.535000	-0.002641	-0.000633	0.000193	0.004398	6554.245791	44507.969829	3974.047434	23285.928164
1.035500	-0.003755	-0.000265	-0.005835	0.005773	6533.680610	44411.886851	3956.454617	23221.668573
1.535500	0.000854	0.000573	-0.004658	0.001813	6604.984220	44872.136556	3968.631431	23407.317907
2.036000	0.000341	-0.000211	-0.003758	0.000510	6611.635092	44922.210384	3973.894988	23468.768599
2.535000	0.000707	-0.000035	-0.002741	0.000814	6612.154918	44909.827166	3975.604488	23454.400166
3.037000	-0.000060	0.000257	0.000142	0.000250	6610.438814	44992.481769	3983.910390	23481.035026
3.534000	0.000895	-0.000185	0.000639	0.000779	6614.036046	44898.755650	3983.834959	23456.069371
4.037000	-0.000696	0.000067	0.000069	0.001006	6598.748330	44901.087186	3981.906983	23445.332601
4.534500	-0.001640	0.000071	0.001055	0.000755	6592.941799	44925.767838	3984.900268	23457.221729
5.038000	-0.000969	-0.000092	0.002217	0.000680	6599.187225	44917.238028	3987.899027	23460.728647
5.535500	0.001788	0.000749	-0.001499	0.001329	6616.915175	44935.716030	3977.351238	23430.098115
6.036000	0.000494	0.000725	0.003610	0.001438	6605.111398	44922.962056	3989.441415	23424.975807
6.536000	0.000125	-0.000077	-0.002871	0.000253	6611.979518	44959.959954	3976.640636	23480.914740
7.036000	-0.000871	0.000110	-0.001577	0.000288	6603.299886	44974.586743	3979.669451	23479.238883
7.536500	0.001430	-0.000280	-0.002650	0.000252	6622.986980	44940.424419	3977.173781	23480.956366
8.037000	-0.000860	0.000236	0.001113	0.000700	6599.937048	44947.067808	3985.172762	23459.802828
8.537500	-0.000761	0.000000	0.002680	0.000939	6598.768785	44901.159385	3988.396333	23448.526469
9.037500	-0.000492	-0.000460	-0.001741	0.002865	6584.889358	44671.458754	3973.084237	23357.804055
9.535000	0.001059	-0.000302	0.000695	-0.000171	6623.422219	44979.130501	3986.271138	23500.949158
10.035000	0.000512	0.000155	0.003411	0.000000	6617.368597	45006.834686	3992.458972	23492.876089
10.535500	0.000000	0.000292	-0.003163	-0.000110	6613.981351	45030.781117	3976.811414	23498.077599
11.036000	-0.002442	-0.000304	-0.001422	0.004297	6556.734841	44549.154775	3970.424692	23290.644387
11.536000	0.000161	0.000153	0.000000	-0.000044	6614.782855	45010.954497	3984.279367	23494.952914
12.036000	-0.000505	0.000589	0.004650	0.000488	6604.704123	45001.607024	3994.292961	23469.809150
12.537000	0.000980	-0.000150	0.003457	-0.000257	6623.482745	45002.225724	3993.199405	23505.021742
13.036500	-0.003406	-0.000117	-0.005444	0.003611	6554.424008	44632.794676	3962.486115	23322.790714
13.535000	-0.000655	0.000160	0.001536	0.000309	6604.941482	44977.424844	3987.145976	23478.259968
14.034000	-0.000734	0.000514	-0.000312	-0.000023	6607.077854	45043.859061	3983.475897	23493.985493
14.535000	-0.000626	-0.000010	-0.001048	0.002459	6587.161850	44753.628381	3975.718839	23376.889008
15.035500	-0.003763	-0.000685	-0.002824	0.005532	6535.604526	44394.765030	3964.144662	23232.899390
15.536500	0.000778	-0.000213	0.002337	0.000027	6619.386389	44968.738276	3989.778013	23491.614353
16.035500	0.001120	0.000397	0.004218	-0.000297	6625.012331	45059.095358	3995.156611	23506.939139
16.539000	0.000292	0.000356	0.001227	0.000592	6610.532493	44969.033170	3985.711243	23464.904981
17.039500	-0.002210	-0.000589	-0.002264	0.004453	6557.369394	44506.983671	3968.044046	23283.356787
17.536500	0.000213	0.000714	-0.000323	0.000485	6610.768122	45014.008663	3982.218552	23469.951279
18.037500	0.000529	-0.000299	-0.000872	-0.002775	6640.990185	45232.032556	3988.787550	23624.539776
18.535000	-0.001468	-0.000349	-0.003453	0.000931	6592.899753	44868.187474	3973.615953	23448.881091
19.034000	0.000310	-0.000224	-0.000308	0.001764	6600.831192	44800.034122	3979.170802	23409.624220
19.535000	0.000385	0.000415	0.001137	0.001616	6602.702241	44875.913775	3983.015859	23416.601358
20.035500	-0.000049	0.000037	-0.000192	0.001202	6602.540725	44879.391339	3980.806661	23436.125673
20.536000	0.000275	-0.000116	-0.002392	0.001423	6603.402853	44843.274350	3974.980885	23425.691003
21.036000	-0.000546	0.000822	-0.002579	0.001856	6592.882311	44891.968193	3973.496042	23405.305300
21.536500	-0.002043	0.000023	-0.005154	0.001630	6582.253121	44836.781695	3967.883940	23415.950624
22.037000	-0.001047	-0.000619	-0.000999	0.000637	6598.897939	44870.549643	3980.221531	23462.779183
22.534500	-0.000943	0.000232	-0.004864	0.001855	6589.564583	44835.154260	3968.038641	23405.329396
23.040000	-0.002456	-0.000260	0.002265	0.001419	6580.564982	44829.764438	3986.222148	23425.882378
23.535000	0.000648	0.000637	0.001395	0.001978	6601.866596	44862.344757	3982.764091	23399.540591
24.035000	0.000042	0.000356	-0.004325	0.001973	6596.824661	44835.716050	3969.043528	23399.780756
24.535500	-0.001659	-0.000584	-0.000248	0.001182	6589.205878	44821.381462	3980.717408	23437.034620
25.036000	-0.001330	0.000058	-0.001272	0.001416	6590.000366	44860.741363	3977.687457	23426.014128
25.536000	-0.000656	0.000435	-0.003397	0.001998	6590.765851	44840.915257	3971.197281	23398.588842
26.036000	-0.001001	0.000111	-0.000281	0.001088	6595.504023	44897.455684	3980.864585	23441.467333
26.536500	0.000891	0.000103	0.001217	0.001470	6608.180453	44859.772948	3983.561174	23423.458782
27.037000	-0.002760	0.000997	-0.002487	0.003141	6563.691057	44784.919426	3970.640330	23344.844530
27.537000	0.000618	0.000547	0.000542	0.001866	6602.561625	44864.531473	3980.975631	23404.833607
28.037500	0.001966	0.000925	0.000211	0.000140	6628.470182	45067.936523	3984.346312	23486.263374
28.534000	-0.000196	-0.000163	0.002043	0.000023	6611.210377	44973.862300	3989.073574	23491.786207
29.038000	0.000528	0.000270	-0.002658	0.005526	6571.206774	44486.591673	3964.555486	23233.207354
29.535500	0.000240	-0.000045	0.002838	-0.000046	6615.459108	44991.919979	3991.174962	23495.037531
30.036000	0.001208	0.000380	0.003740	0.000223	6621.354475	45006.995106	3992.718177	23482.317995
30.536000	0.000203	-0.000570	0.003616	0.000249	6612.666938	44912.645728	3992.351833	23481.085564
31.036500	-0.001358	-0.000269	-0.002119	0.003577	6571.728132	44621.419240	3970.479312	23324.395334
31.571000	0.002133	0.000709	0.000883	0.001065	6622.058348	44957.454321	3983.733157	23442.562478
32.037000	-0.000401	0.000267	-0.000668	0.002995	6584.564893	44728.811003	3975.346402	23351.710439
32.539000	-0.000978	0.000897	0.004208	0.002650	6582.621411	44822.632429	3987.949291	23367.918358
33.062500	0.000716	-0.000025	0.000646	0.004149	6584.260388	44590.100876	3975.730407	23297.611572
33.535500	0.002023	0.000419	-0.000689	0.000310	6627.512943	45002.390977	3981.757774	23478.231243
34.035500	0.000602	0.000642	0.001267	0.000772	6611.620022	44979.303409	3985.371942	23456.400469
34.535000	0.002409	0.000823	0.000773	0.002151	6615.230743	44863.639505	3980.843103	23391.403511
35.035500	0.002850	0.000325	0.004140	-0.001672	6651.337599	45185.479158	3998.333068	23572.104461
35.538500	-0.001363	0.000096	0.000186	0.002151	6583.580577	44793.584900	3979.429336	23391.391810
36.036500	-0.000732	-0.000151	-0.000630	0.001820	6591.619926	44801.596554	3978.259746	23406.964942
36.536500	-0.000481	-0.000199	0.002376	0.002045	6591.845376	44775.372568	3984.974494	23396.386760
37.037000	0.000652	0.001222	0.000892	0.003824	6586.437226	44740.927161	3977.102172	23312.821962
37.537000	0.000171	0.000249	-0.003297	0.002017	6597.547408	44821.248544	3971.392399	23397.729166
38.037500	-0.002465	-0.000683	0.004551	0.001592	6579.049971	44772.408143	3991.358289	23417.732483
38.535500	-0.001720	0.000513	-0.001462	0.002326	6579.130753	44816.797219	3975.045953	23383.148666
39.035500	-0.002247	-0.000095	-0.000422	0.001663	6580.271644	44822.147141	3979.140076	23414.386826
39.536000	-0.001737	0.000554	0.000370	0.002368	6578.646007	44816.785207	3979.349843	23381.180518
40.036000	-0.000882	-0.000448	0.000793	0.001395	6593.921470	44813.924145	3982.715634	23426.992745
40.536000	-0.000039	0.000330	-0.000189	0.001652	6598.839340	44864.194483	3979.726859	23414.890948
41.036500	-0.001039	-0.000778	0.000058	0.001427	6592.347416	44779.163886	3980.865635	23425.522012
41.537000	0.001353	0.000325	-0.003136	0.002380	6604.418938	44793.558130	3970.908778	23380.623398
42.040000	0.001107	0.000434	0.000933	0.002456	6601.716147	44796.735801	3980.495092	23377.074244
42.537500	-0.000777	-0.000292	-0.001456	0.001579	6593.263992	44811.319543	3976.854019	23418.337101
43.035000	0.000829	0.000203	0.002767	0.002369	6600.102023	44782.806832	3985.136251	23381.120088
43.535500	-0.002458	0.000184	0.004529	0.001769	6577.622610	44838.749506	3990.872930	23409.364235
44.035500	-0.001148	0.000407	-0.000091	0.002415	6583.173896	44798.125875	3978.126081	23378.993688
44.536000	-0.000545	-0.000190	-0.000505	0.001686	6594.315206	44810.790968	3978.884847	23413.311172
45.036000	-0.001975	0.000536	0.000300	0.002368	6576.659293	44815.043642	3979.180717	23381.203347
45.536500	0.002928	0.000496	0.002850	0.000072	6637.191119	45032.957231	3990.917479	23489.473547
46.041000	0.001138	0.000094	0.002200	0.000300	6620.121290	44971.975384	3988.781611	23478.712682
46.553500	-0.002351	-0.000156	0.000858	0.004992	6551.725812	44496.798118	3974.215888	23258.133668
47.037000	-0.002821	0.000016	-0.001613	0.003532	6559.943475	44653.166935	3971.797439	23326.533253
47.540500	0.000351	0.001225	0.001669	0.000320	6613.316313	45079.452749	3987.442449	23477.731093
48.035000	0.000805	0.000289	0.000473	-0.000186	6621.407639	45037.826956	3985.767515	23501.661825
48.535000	-0.000754	0.000101	0.002445	0.004267	6571.012204	44590.824679	3979.773284	23292.050207
49.036000	0.000475	0.000590	-0.007260	0.004379	6580.321645	44626.951629	3956.382267	23286.835247
49.536000	-0.002811	-0.000450	0.001685	0.002111	6571.835250	44744.870292	3983.143585	23393.275006
50.036000	0.001952	0.001068	0.003485	0.000798	6622.780947	45017.971424	3990.695232	23455.151671
50.536500	-0.001435	-0.000226	-0.001903	0.003888	6568.496918	44595.836458	3970.253088	23309.828217
51.036500	-0.001868	-0.000173	-0.005920	0.003916	6564.662328	44598.178394	3960.637545	23308.510205
51.537000	0.002149	0.000211	0.005502	-0.002276	6650.511490	45233.195926	4003.165369	23600.805018
52.037500	0.000655	-0.000090	0.005310	-0.001807	6633.843104	45158.293422	4001.537170	23578.492385
52.535000	-0.001261	0.000659	0.003352	0.006168	6551.017591	44462.254107	3977.380243	23203.209959
53.035500	-0.003759	-0.004154	0.001372	0.018864	6427.399868	42823.229082	3942.684685	22619.834925
53.535500	0.011614	-0.014999	0.004461	0.311626	4788.474428	22784.372831	3451.324774	12975.675694
54.036000	-0.002718	-0.021730	0.003425	-0.087237	7398.885749	51831.429429	4228.147996	28062.218629
54.536000	-0.032451	-0.027472	-0.019138	-0.086298	7095.887232	51085.677831	4159.934818	28007.972998
55.036500	-0.010373	-0.043489	0.003262	-0.189995	8486.714404	61847.303580	4573.207872	34764.844129
55.536500	-0.006181	-0.036938	0.008360	-0.171104	8302.626022	60198.279642	4521.941307	33410.771795
56.039500	-0.009493	-0.024277	0.000346	-0.117987	7651.092181	55109.061868	4313.339768	29904.455721
56.537000	-0.015969	-0.017585	0.002998	-0.071347	7110.511491	50528.030789	4180.398238	27160.142771
57.034500	-0.017857	-0.012968	-0.004274	-0.057247	6960.320024	49501.099096	4120.509605	26386.837150
57.535500	-0.019893	-0.014068	-0.008139	-0.078726	7143.695195	51736.041909	4169.652094	27574.936011
58.035500	-0.015803	-0.012500	-0.008267	-0.103633	7432.893192	54800.612631	4242.250824	29028.255165
58.535500	-0.014688	-0.012436	-0.012301	-0.101412	7421.501826	54543.866707	4223.529059	28895.211916
59.036000	-0.011815	-0.012200	-0.006552	-0.107480	7514.397077	55297.777213	4259.120645	29260.239310
59.536500	-0.007248	-0.009678	-0.008990	-0.099009	7473.596220	54586.016699	4226.230381	28752.085373
60.036500	-0.009040	-0.009554	-0.009698	-0.091408	7376.932042	53705.247120	4201.730023	28304.502983
60.537000	-0.005977	-0.006009	-0.008987	-0.080743	7300.199432	52880.341573	4172.983854	27689.519861
61.037000	-0.006816	-0.005713	-0.008983	-0.060593	7095.220563	50650.672930	4116.790020	26568.088545
61.537500	-0.009194	-0.005056	-0.011080	-0.056395	7033.003069	50263.520423	4099.758664	26340.931888
62.035000	-0.011090	-0.004493	-0.013457	-0.048705	6943.989295	49493.960879	4073.028899	25930.452512
62.535500	-0.011796	-0.005321	-0.014523	-0.039280	6852.014128	48408.661645	4045.823310	25437.175941
63.035500	-0.017756	-0.007800	-0.013249	-0.039326	6799.314579	48154.894136	4049.210515	25439.574028
63.536000	-0.015728	-0.008776	-0.016435	-0.055629	6965.031071	49777.614015	4083.431232	26299.692701
64.036000	-0.019248	-0.006515	-0.021926	-0.042985	6818.540495	48672.128468	4036.388615	25629.794141
64.536000	-0.019530	-0.005502	-0.022526	-0.043310	6818.928648	48813.117414	4035.691234	25646.794960
65.037000	-0.017932	-0.005206	-0.009585	-0.050580	6898.625271	49618.581617	4088.212132	26029.874103
65.547500	-0.014664	-0.003277	-0.012491	-0.052452	6945.572145	50028.465055	4085.463110	26129.535676
66.037000	-0.014440	-0.002759	-0.014017	-0.053157	6954.124254	50161.159355	4083.288925	26167.210580
66.537500	-0.019437	-0.001967	-0.017828	-0.048259	6864.032882	49717.141132	4060.453878	25906.839611
67.038000	-0.020177	-0.001546	-0.020849	-0.051252	6884.366486	50086.046370	4060.382132	26065.572861
67.535000	-0.015079	-0.002424	-0.018875	-0.058110	6994.028397	50739.069891	4083.539196	26433.420733
68.035500	-0.016086	-0.002988	-0.021428	-0.059590	6998.433951	50839.978886	4080.701214	26513.609071
68.536000	-0.023970	-0.002595	-0.023404	-0.054193	6876.669983	50291.691732	4061.385677	26222.633683
69.036500	-0.017322	-0.002916	-0.017893	-0.059629	6987.308749	50852.242720	4090.182644	26515.709542
69.536500	-0.019426	-0.003087	-0.018366	-0.059173	6963.611961	50783.176781	4087.710850	26491.014672
70.037000	-0.018271	-0.002775	-0.018989	-0.058134	6964.676318	50703.207677	4083.299735	26434.728067
70.537000	-0.021582	-0.003448	-0.023525	-0.050836	6867.923156	49835.283699	4052.384717	26043.452858
71.037500	-0.020904	-0.003555	-0.022154	-0.050503	6871.035592	49787.778035	4055.062526	26025.749300
71.537500	-0.018404	-0.003416	-0.018283	-0.052897	6915.411200	50061.579934	4071.362985	26153.269320
72.035000	-0.017064	-0.002167	-0.019907	-0.049491	6896.615533	49828.365448	4058.259037	25972.063468
72.538000	-0.019716	-0.001645	-0.021926	-0.041073	6797.426633	48984.383341	4031.543920	25530.175522
73.036000	-0.020660	-0.002252	-0.024848	-0.039173	6772.345766	48719.565924	4019.416165	25431.641377
73.536000	-0.017072	-0.001443	-0.017412	-0.040858	6818.975240	48983.015918	4042.471875	25519.032972
74.036500	-0.016538	-0.001782	-0.016665	-0.037554	6794.415237	48598.721159	4035.958925	25348.012330
74.539500	-0.021984	-0.001079	-0.025471	-0.028908	6671.841810	47771.972276	3992.522543	24906.574478
75.040000	-0.018527	-0.000661	-0.019213	-0.030930	6719.021892	48024.387047	4012.913595	25009.026574
75.537500	-0.015602	-0.000869	-0.017571	-0.028932	6727.060252	47796.127374	4012.028911	24907.774426
76.037500	-0.016989	-0.001112	-0.017893	-0.026901	6697.497001	47562.099473	4006.199519	24805.361715
76.534500	-0.016907	-0.000902	-0.015071	-0.024978	6681.664408	47386.595465	4008.421869	24708.789450
77.035000	-0.018573	-0.001098	-0.018004	-0.024321	6661.783386	47299.357918	3999.570273	24675.895833
77.541000	-0.016454	-0.000130	-0.013382	-0.021899	6659.207180	47151.386909	4004.988462	24555.127015
78.036000	-0.016634	0.000528	-0.013384	-0.020011	6641.610854	47026.438813	4000.331965	24461.407328
78.536500	-0.020138	0.000132	-0.014257	-0.014645	6567.076722	46445.818040	3985.110930	24197.278300
79.036500	-0.015761	0.000363	-0.015610	-0.018464	6635.891430	46853.163911	3991.103129	24384.955999
79.537000	-0.017376	-0.000200	-0.013418	-0.017783	6616.480183	46727.590761	3994.788012	24351.347516
80.037000	-0.017479	-0.000545	-0.015657	-0.017628	6614.306854	46677.264942	3988.954197	24343.709051
80.537500	-0.017894	0.000179	-0.020041	-0.012281	6566.091913	46214.714170	3965.561510	24081.999977
81.035000	-0.014714	-0.000554	-0.014673	-0.016331	6626.699630	46546.172259	3988.193847	24279.950664
81.535000	-0.015987	-0.000452	-0.016519	-0.015426	6608.335842	46465.643396	3981.533651	24235.559747
82.035500	-0.014998	0.000002	-0.011348	-0.014557	6609.339427	46424.067133	3991.966331	24192.972860
82.535500	-0.016581	-0.000087	-0.018488	-0.010735	6564.148777	46034.570365	3965.577140	24006.886486
83.036000	-0.014656	0.000142	-0.013165	-0.014129	6608.612530	46395.214558	3986.508103	24172.058550
83.536000	-0.014829	0.000194	-0.015757	-0.014569	6610.869804	46444.522651	3981.302538	24193.601307
84.036500	-0.013897	0.001238	-0.016832	-0.014635	6619.275071	46555.756122	3978.870198	24196.826787
84.539500	-0.017251	0.000966	-0.021552	-0.009872	6551.427632	46053.470080	3956.284820	23965.094417
85.037000	-0.014378	0.001729	-0.019400	-0.012450	6596.849267	46386.105087	3967.486939	24090.191085
85.537500	-0.013041	0.001412	-0.014040	-0.016990	6646.466618	46810.190891	3991.335894	24312.319254
86.035000	-0.012623	0.001845	-0.015239	-0.017439	6653.845029	46899.378562	3989.511819	24334.428396
86.535000	-0.015309	0.001802	-0.023315	-0.013106	6594.546734	46458.955421	3959.755942	24122.138124
87.035500	-0.013707	0.002524	-0.016602	-0.015211	6625.738389	46742.935091	3980.812445	24224.993900
87.535500	-0.013020	0.002283	-0.016991	-0.020528	6676.839525	47257.453381	3992.767546	24487.040657
88.036000	-0.011904	0.002043	-0.014352	-0.021762	6697.033204	47358.892379	4002.257686	24548.304608
88.536500	-0.015305	0.002482	-0.014823	-0.017823	6634.320834	47002.581024	3991.456563	24353.301374
89.039000	-0.015404	0.001788	-0.016525	-0.019932	6651.387601	47146.325196	3992.449280	24457.484633
89.537000	-0.010226	0.002693	-0.015707	-0.024104	6731.831330	47665.725846	4004.690560	24665.081153
90.037500	-0.008394	0.002660	-0.013986	-0.025410	6759.206181	47796.807781	4012.182785	24730.433033
90.534500	-0.014703	0.002617	-0.016527	-0.022961	6683.271863	47540.372461	3999.858328	24607.992939
91.035000	-0.013716	0.002422	-0.015633	-0.022871	6690.980372	47511.270897	4001.836053	24603.538267
91.535500	-0.010078	0.002633	-0.013908	-0.027959	6766.793294	48057.793634	4018.732246	24858.641783
92.036000	-0.010483	0.001772	-0.015588	-0.029600	6777.655347	48138.805441	4018.632767	24941.556420
92.536000	-0.008617	0.002230	-0.018770	-0.026943	6770.707085	47910.834821	4004.138859	24807.473521
93.036500	-0.011141	0.001356	-0.016755	-0.031991	6792.949338	48344.687852	4021.698402	25062.977470
93.536500	-0.009822	0.002285	-0.016209	-0.032115	6805.715839	48454.824514	4023.378139	25069.299276
94.037000	-0.007480	0.003075	-0.014553	-0.032903	6833.568421	48620.291468	4029.530443	25109.433695
94.537000	-0.010300	0.002649	-0.012686	-0.030196	6784.523961	48292.387464	4027.411772	24971.790965
95.037500	-0.007808	0.002968	-0.022199	-0.034944	6848.889587	48823.976415	4015.471785	25213.792145
95.537500	-0.010003	0.002279	-0.014804	-0.036642	6844.442530	48930.755796	4038.371298	25301.024251
96.054500	-0.009011	0.002563	-0.016197	-0.037601	6861.950464	49062.324410	4037.264969	25350.408249
96.552000	-0.008671	0.003189	-0.015388	-0.038379	6872.024106	49211.645759	4041.307622	25390.581169
97.036000	-0.008293	0.003670	-0.013919	-0.038717	6878.489944	49298.933953	4045.929933	25408.064091
97.536000	-0.011522	0.002969	-0.020324	-0.040721	6867.436186	49438.072459	4034.710152	25511.914509
98.036000	-0.008330	0.002740	-0.016091	-0.041553	6903.851203	49502.577793	4047.630773	25555.167984
98.549500	-0.010043	0.003719	-0.013407	-0.041507	6887.886048	49602.628951	4054.419609	25552.749596
99.037500	-0.010557	0.002996	-0.011221	-0.042868	6895.567530	49671.217420	4063.614413	25623.695507
