sample name	sample
index	582
start time	 03-16-2021  03:51:34 PM
880	0.013760
Peak Time (s)	182.536
Peak Height 	0.01376
calc peak height	180,183
Baseline Time (s)	9.536
Baseline Value 	-0.004058
subtract baseline	10,4
Abs	0.001947
Peak Time (s)	182.037
Peak Height 	0.001947
calc peak height	180,183
Baseline Time (s)	9.536
Baseline Value 	0.003961
subtract baseline	10,3
PK_550	0.007492
Peak Time (s)	182.536
Peak Height 	0.007492
calc peak height	180,183
Baseline Time (s)	8.535
Baseline Value 	4.1887E-4
subtract baseline	10,2
PK_880	0.003736
Peak Time (s)	182.037
Peak Height 	0.003736
calc peak height	180,183
Baseline Time (s)	10.537
Baseline Value 	0.001139
subtract baseline	10,1


Time (s)	A880-A510	A880-A775	A880-A975	A880	I510	I775	I975	I880	
0.036000	-0.000954	-0.000531	0.002062	0.000890	5586.888974	33853.072338	3642.210435	18374.449168
0.536500	-0.001801	-0.000919	-0.008442	0.004120	5561.486706	33596.171359	3617.316759	18259.480978
1.037000	-0.002955	0.000232	-0.004077	0.004064	5554.686176	33681.716028	3625.245800	18261.485459
1.537000	-0.001822	-0.000403	-0.005429	0.004145	5561.202409	33630.913344	3622.665525	18258.597388
2.037000	0.002548	0.000444	0.001191	0.000204	5613.225705	33971.687374	3641.869482	18398.970503
2.534500	-0.000522	0.000231	0.000913	-0.000096	5595.778246	33977.920000	3641.909452	18409.704684
3.035000	-0.000167	-0.000052	0.004343	0.000182	5596.263141	33937.790701	3647.732973	18399.765230
3.535500	-0.002191	-0.001365	-0.002409	-0.000074	5585.177021	33862.348692	3635.777959	18408.929205
4.035500	0.000671	0.000380	-0.001479	0.000752	5597.943522	33927.902147	3635.969324	18379.379710
4.535000	-0.001423	0.000436	0.002119	0.000653	5585.432314	33938.991625	3642.751016	18382.910756
5.036000	-0.003480	-0.000281	-0.002252	-0.000063	5577.055852	33938.931914	3636.044153	18408.523149
5.536500	0.000431	-0.000938	-0.012271	-0.000647	5605.235321	33933.708684	3618.992364	18429.447053
6.036500	0.000775	0.000813	0.001980	0.000689	5598.990932	33963.367478	3642.427638	18381.619935
6.540000	0.000658	0.000549	-0.004378	-0.000122	5603.359578	34002.587797	3632.278210	18410.648794
7.037000	0.002068	0.000483	-0.000375	-0.000056	5611.841231	33993.100779	3639.470123	18408.295197
7.534500	-0.000843	-0.000506	0.002054	-0.000188	5594.340559	33931.785824	3644.182513	18413.001850
8.035000	-0.000929	0.000527	-0.001340	0.000379	5590.249095	33965.147862	3636.905323	18392.729405
8.535000	-0.001716	0.000000	-0.001687	0.000134	5586.853301	33944.949005	3636.717194	18401.483919
9.036000	-0.000789	-0.000557	-0.002157	0.000349	5591.310092	33889.802350	3635.466458	18393.793808
9.536000	0.002426	0.000322	0.000000	0.000000	5613.746717	33977.598189	3640.055030	18406.279489
10.036500	0.000371	0.000734	0.000152	0.000593	5597.058370	33964.637433	3639.246378	18385.068410
10.536500	0.000000	0.000278	-0.002673	-0.000474	5601.437688	34008.344089	3636.028299	18423.266086
11.037000	0.000725	-0.000815	0.000446	-0.000844	5608.333774	33956.558616	3642.426812	18436.510825
11.537000	-0.000964	-0.000231	0.001722	-0.000353	5594.617296	33963.228408	3643.874094	18418.924726
12.034500	0.000600	0.000326	0.003244	0.000524	5598.932284	33940.406565	3645.066819	18387.547684
12.535000	-0.000739	0.000102	-0.002314	-0.000249	5595.376951	33979.602311	3636.270978	18415.186548
13.038000	0.003442	-0.000181	0.001971	-0.002438	5635.673002	34116.428197	3648.192943	18493.813068
13.535500	0.001844	0.001298	-0.000153	-0.000760	5614.869722	34102.046239	3641.170000	18433.494762
14.036000	-0.000757	-0.000104	-0.003703	-0.001467	5602.925525	34052.187928	3635.959857	18458.889369
14.535500	-0.002749	0.000684	-0.000125	0.002791	5563.850554	33804.173231	3634.717160	18306.682774
15.036500	0.002260	0.000360	0.005095	-0.000623	5616.637260	34024.850250	3650.624388	18428.579434
15.565500	-0.000455	0.000018	-0.000843	-0.002269	5609.886286	34118.568678	3642.678064	18487.732390
16.040000	-0.000937	-0.000051	0.000701	0.000049	5592.266491	33947.394707	3641.254675	18404.539781
16.537500	0.002380	-0.000138	0.000860	-0.001604	5623.612004	34059.573101	3644.593268	18463.805025
17.034500	-0.001173	0.000007	-0.000492	-0.001987	5603.578952	34097.483694	3642.806083	18477.584359
17.534500	0.004597	0.000690	0.001994	-0.003904	5652.420195	34284.828759	3650.959850	18546.672614
18.035000	0.001400	-0.000087	-0.001477	0.001004	5600.945382	33876.577463	3635.511765	18370.366892
18.535500	0.000762	0.000835	-0.005449	0.001096	5596.356523	33935.841822	3628.125784	18367.082962
19.036000	-0.001440	0.000069	0.003642	0.000636	5585.439330	33914.006851	3645.595230	18383.542303
19.536500	-0.000750	0.000074	-0.000297	0.000552	5590.280716	33920.361114	3638.496254	18386.515198
20.039500	0.000702	-0.000440	-0.004097	-0.000070	5603.312146	33928.083661	3632.693165	18408.780668
20.537500	-0.002349	-0.000521	-0.000375	-0.000637	5587.712712	33962.828943	3640.536705	18429.091170
21.039500	0.000185	-0.000197	-0.000267	0.000959	5593.591280	33871.969690	3637.805638	18371.978493
21.534500	0.000928	0.000236	0.001498	0.000721	5599.754886	33919.874032	3641.482929	18380.480965
22.035000	0.001163	0.000990	-0.000854	0.001334	5597.374584	33929.908284	3636.046494	18358.583439
22.535000	-0.001556	0.000480	0.005100	0.000767	5583.890178	33934.009216	3648.051841	18378.838080
23.035000	0.000699	-0.000176	-0.003927	0.000060	5602.475315	33937.647695	3632.766117	18404.129388
23.535500	-0.000165	0.000413	0.002252	0.000718	5592.908900	33932.700058	3642.876487	18380.586846
24.036000	-0.000188	-0.000620	-0.000939	0.000240	5595.771774	33893.129473	3637.893170	18397.708049
24.536500	0.000335	0.000171	-0.003488	0.000459	5597.678150	33933.923138	3632.839895	18389.856372
25.036000	0.001570	0.000627	0.004932	0.000776	5603.450984	33943.830259	3647.722163	18378.510831
25.540000	-0.000005	0.000325	0.000799	0.000357	5596.183544	33952.226236	3640.866694	18393.513996
26.037500	-0.000817	0.000812	-0.000438	0.001266	5585.395159	33922.065655	3636.931918	18361.025144
26.535000	-0.000179	-0.000413	0.003764	-0.000126	5598.122431	33934.037745	3647.229815	18410.787226
27.035000	-0.000460	-0.000468	-0.000065	-0.000032	5595.766586	33923.418686	3639.995229	18407.435917
27.535500	0.000680	-0.000269	-0.008229	-0.002119	5616.103797	34087.104909	3628.912643	18482.315773
28.035500	0.000915	0.000968	0.004709	-0.000898	5609.871662	34088.240848	3650.417461	18438.454694
28.535500	0.002018	0.001185	0.001866	-0.000950	5617.176899	34107.581923	3645.243690	18440.325951
29.036000	-0.002363	-0.000095	-0.002108	-0.001995	5596.139916	34090.704660	3639.847586	18477.848438
29.536000	-0.001558	0.000196	0.001957	-0.001940	5600.857386	34107.715646	3647.244016	18475.885376
30.036500	-0.001440	0.000275	-0.000140	-0.001064	5596.088433	34050.441474	3641.751825	18444.397092
30.537000	0.000884	0.000134	-0.003103	-0.001742	5615.012660	34088.999258	3637.559050	18468.761619
31.057500	-0.003254	-0.000188	-0.000470	0.004509	5550.089757	33620.373791	3630.962785	18245.691806
31.536000	-0.002191	0.000517	-0.008191	0.002704	5567.854862	33798.508658	3620.296669	18309.771004
32.035000	0.002730	0.001357	0.002588	0.000449	5612.832216	34019.549565	3643.992731	18390.205367
32.585000	0.000484	-0.000207	-0.001993	-0.001550	5611.269476	34050.764236	3639.242850	18461.873216
33.036000	-0.002893	-0.000802	-0.008842	0.002624	5563.995420	33710.452990	3619.275617	18312.639042
33.536500	0.001258	-0.000046	0.002673	-0.001248	5614.254735	34040.638541	3647.287602	18451.027557
34.036000	-0.000841	0.000042	-0.000854	-0.001884	5605.019603	34092.614976	3641.949801	18473.883958
34.535500	-0.000047	-0.000069	0.001548	-0.000030	5598.347387	33951.791174	3642.959130	18407.361344
35.037000	-0.003852	0.000317	-0.004982	0.002855	5556.618936	33773.569313	3625.792389	18304.415328
35.537500	-0.000894	-0.000282	-0.002864	0.001154	5585.613643	33852.034470	3632.711498	18365.031342
36.037500	0.000327	0.000895	0.000024	0.001710	5589.773193	33896.287773	3636.964073	18345.179601
36.535000	-0.000347	0.000622	-0.002806	0.001682	5585.727233	33878.761066	3631.855509	18346.168323
37.035500	-0.001089	-0.000139	-0.001289	0.002088	5578.562316	33795.664497	3633.878230	18331.730342
37.535000	0.000673	0.000435	0.003187	0.001739	5591.762278	33861.426584	3642.718482	18344.151446
38.035500	-0.003297	-0.000373	-0.002342	0.001248	5570.033182	33838.794586	3633.489044	18361.653950
38.541500	-0.000004	0.000100	-0.001587	0.001455	5589.302775	33857.781386	3634.489061	18354.298483
39.036500	-0.002078	-0.000771	0.001896	0.000602	5581.663339	33856.540984	3642.436056	18384.757497
39.539500	-0.002908	0.001381	0.006303	0.001986	5567.860445	33911.290187	3648.020512	18335.333914
40.037500	-0.003003	-0.000196	-0.002091	0.001202	5572.148061	33854.686698	3634.029401	18363.297615
40.537500	-0.000681	0.000261	0.002968	0.001370	5585.589532	33875.321496	3642.993317	18357.299629
41.035000	-0.002240	0.000224	0.003414	0.001416	5575.573401	33869.388653	3643.732700	18355.685110
41.535000	0.001027	0.000688	0.003392	0.001745	5593.944304	33879.045540	3643.086254	18343.950690
42.035500	-0.001728	0.000750	0.000921	0.001679	5577.123739	33888.194471	3638.664553	18346.309459
42.535500	0.002232	0.000362	0.004157	0.001584	5602.528083	33867.206387	3644.793033	18349.672744
43.036000	-0.002894	0.000154	-0.002007	0.001656	5570.001808	33847.257177	3633.356963	18347.110807
43.542000	-0.002499	0.000100	0.001365	0.001574	5572.972787	33849.320315	3639.671559	18350.044963
44.036500	-0.002370	-0.000267	-0.002523	0.001049	5577.048935	33860.602421	3633.522628	18368.790218
44.539000	0.001248	0.000111	-0.000107	-0.003750	5630.056694	34231.920164	3646.773840	18541.106644
45.037000	0.001372	0.001030	0.001231	-0.000586	5610.790214	34070.287667	3643.398047	18427.255046
45.537500	0.002780	0.000468	0.000488	-0.001163	5623.353449	34071.401030	3643.092193	18447.962339
46.038000	0.001723	0.000374	0.002090	0.002318	5594.713198	33815.789599	3639.635943	18323.513999
46.535000	0.001124	0.000383	0.005859	-0.000867	5611.001583	34044.042514	3652.501721	18437.344419
47.035500	-0.002878	-0.000940	-0.002132	0.003940	5555.935271	33607.483274	3628.982668	18265.893205
47.541000	0.002563	0.001011	-0.000934	-0.000613	5618.488891	34070.857111	3639.464116	18428.222650
48.054000	-0.000522	0.000552	-0.003210	0.001483	5585.882425	33887.989959	3631.483605	18353.282273
48.536500	-0.000510	0.000157	0.004327	0.002420	5580.095510	33793.062586	3643.564022	18319.876470
49.039500	-0.002555	-0.000392	-0.003634	0.004305	5555.672319	33620.453351	3625.609372	18252.941447
49.550500	0.001454	0.000806	0.003671	-0.000550	5611.082811	34051.668271	3647.842969	18425.978003
50.037500	-0.000358	0.000866	0.005215	0.001206	5588.642628	33930.257157	3647.451683	18363.172212
50.543000	-0.001305	0.001169	0.001292	-0.000765	5595.064739	34093.169717	3643.842541	18433.704002
51.035000	-0.000914	0.001362	0.000474	0.005507	5558.388697	33659.482104	3630.865562	18210.383584
51.535500	0.000287	0.000899	0.006349	-0.000131	5601.083281	34028.237066	3652.043491	18410.958836
52.035500	0.019846	0.011198	0.003558	-0.000404	5728.764850	34795.526032	3647.363101	18420.750618
52.536000	-0.003552	-0.009214	-0.013481	0.088264	5078.219622	27709.952394	3473.490239	15547.063207
53.036500	-0.012925	-0.015006	-0.006937	-0.046434	5817.428811	36285.540111	3715.985140	20160.585767
53.536500	-0.012917	-0.043198	-0.018916	-0.329629	8529.239320	62961.784450	4473.529404	36069.320277
54.036500	0.006998	-0.031426	0.008073	-0.308566	8514.288174	61690.277629	4495.933952	34497.091862
54.537000	-0.007394	-0.011989	0.003813	-0.221032	7333.250129	53157.503994	4180.929041	28721.954059
55.034500	-0.018726	-0.008845	-0.012805	-0.190495	6922.908142	50085.069166	4043.220950	26965.941579
55.535000	-0.008300	-0.005523	-0.010238	-0.221208	7325.756349	53932.123951	4138.848347	28732.466877
56.034500	-0.007728	-0.001893	-0.008938	-0.194184	7062.374368	51255.608508	4064.294580	27171.603525
56.535500	-0.007991	-0.001106	-0.011098	-0.173286	6862.925244	49067.245607	4001.122438	26029.435198
57.035500	-0.007907	0.002207	-0.015684	-0.155434	6702.793587	47546.964305	3942.783114	25096.312854
57.536000	-0.003013	0.001231	-0.010514	-0.149936	6697.461773	46886.293183	3941.950949	24816.579801
58.036000	-0.004244	-0.001286	-0.012435	-0.135624	6562.845579	45214.138043	3901.614972	24104.785813
58.539000	-0.004731	-0.001788	-0.007727	-0.112103	6364.163522	42936.733517	3856.717330	22984.777617
59.037000	-0.004342	-0.001031	-0.009816	-0.101977	6286.661918	42082.182395	3828.589944	22520.968085
59.537000	-0.002982	-0.002560	-0.005665	-0.084961	6165.633296	40444.033133	3799.811086	21765.545911
60.034500	-0.003183	0.000415	-0.011104	-0.049694	5907.052186	37753.249221	3714.162426	20290.949163
60.535000	-0.003110	0.000427	-0.011323	-0.033135	5793.868984	36450.104843	3681.132042	19638.847087
61.035500	-0.009950	-0.003499	-0.013125	-0.057270	5912.727932	38048.467986	3725.383548	20597.725544
61.535500	-0.007817	-0.001612	-0.010595	-0.023388	5698.112192	35551.708619	3663.897530	19266.472796
62.036000	-0.011014	-0.002104	-0.012620	-0.012524	5607.965879	34708.767346	3639.879226	18861.143948
62.535500	-0.008617	-0.001735	-0.007876	-0.011307	5615.417958	34646.755487	3646.380970	18816.355820
63.039500	-0.009977	0.001639	-0.006351	-0.016172	5637.675724	35254.820799	3658.295119	18996.102219
63.539500	-0.010509	0.003127	-0.008448	-0.024025	5684.754716	35958.395909	3669.178146	19290.544428
64.037000	-0.014090	0.002634	-0.011887	-0.021382	5644.681349	35720.555614	3657.683686	19190.856084
64.534500	-0.012451	0.002658	-0.016626	-0.023798	5670.720591	35905.446188	3653.333060	19281.941040
65.049000	-0.012467	0.001420	-0.009648	-0.026831	5690.259312	36042.264072	3672.241147	19397.059393
65.535000	-0.008931	0.001321	-0.008390	-0.029997	5734.139650	36277.106030	3680.735643	19518.028724
66.035500	-0.009814	0.000881	-0.009042	-0.030809	5733.672443	36305.702036	3681.044131	19549.213343
66.541000	-0.010137	-0.000232	-0.009676	-0.032111	5740.140010	36320.319158	3682.336266	19599.340451
67.036000	-0.011875	-0.000006	-0.011162	-0.028910	5707.668577	36092.049909	3673.321483	19476.401857
67.536000	-0.010995	-0.000619	-0.011968	-0.031394	5729.743928	36235.424663	3676.538961	19571.728211
68.037000	-0.010166	-0.001445	-0.007377	-0.029454	5722.431724	36023.745787	3681.642792	19497.222645
68.537000	-0.009808	-0.001032	-0.010904	-0.028806	5720.530289	36005.803647	3673.617130	19472.426828
69.034000	-0.010675	-0.001374	-0.011456	-0.023328	5679.159555	35565.045787	3662.156408	19264.181194
69.537500	-0.010571	-0.000863	-0.013055	-0.024459	5687.165849	35688.827017	3661.275098	19306.978710
70.035500	-0.011364	-0.000284	-0.011113	-0.021563	5663.329976	35514.300287	3659.477929	19197.673076
70.535500	-0.009402	-0.002002	-0.015763	-0.022212	5680.175096	35434.056559	3651.985033	19222.078182
71.036000	-0.012459	-0.001715	-0.010548	-0.017262	5628.815751	35086.579722	3652.480307	19036.662246
71.536000	-0.011201	-0.001447	-0.008545	-0.018950	5647.608009	35231.915422	3659.394459	19099.672015
72.036000	-0.008682	-0.000792	-0.003864	-0.016757	5649.688550	35117.590485	3664.085435	19017.845488
72.539500	-0.008137	-0.000304	-0.007498	-0.017252	5656.358246	35190.609425	3658.170027	19036.302422
73.036500	-0.009529	-0.000956	-0.009331	-0.014673	5630.982757	34951.212484	3649.924217	18940.489123
73.539500	-0.009149	-0.000423	-0.008100	-0.016789	5646.903346	35147.321662	3656.170664	19019.041136
74.037500	-0.007241	-0.000658	-0.005032	-0.016517	5657.389252	35109.717095	3661.427319	19008.925383
74.535000	-0.007175	-0.000158	-0.007976	-0.015938	5654.101614	35103.883625	3654.810845	18987.418392
75.035500	-0.012124	-0.001117	-0.010328	-0.013847	5609.310678	34878.432114	3646.544535	18909.959033
75.535000	-0.008689	0.000806	-0.010832	-0.014627	5636.032844	35078.100980	3647.053408	18938.787794
76.036000	-0.009446	-0.000069	-0.009849	-0.013546	5624.351303	34933.493130	3646.872784	18898.829377
76.538500	-0.005108	0.001272	-0.007456	-0.013035	5648.746577	34994.854155	3650.366302	18879.978631
77.041500	-0.008294	0.000268	-0.012234	-0.011840	5620.834112	34832.709948	3639.331432	18835.948263
77.536500	-0.008673	0.000224	-0.009763	-0.012743	5624.158659	34895.878126	3645.544966	18869.189254
78.037000	-0.007678	0.000806	-0.015666	-0.012245	5627.313487	34902.121976	3633.797463	18850.847168
78.537000	-0.006424	0.001601	-0.008393	-0.010949	5627.052018	34865.206605	3644.762686	18803.211967
79.037000	-0.009228	0.000673	-0.012018	-0.008875	5596.233644	34644.918138	3634.304081	18727.242229
79.535000	-0.007447	0.000804	-0.004655	-0.010411	5617.154418	34767.123130	3650.696290	18783.478594
80.035500	-0.007517	0.001452	-0.003859	-0.009750	5612.527712	34766.067996	3650.946922	18759.242120
80.881000	-0.008849	0.001835	-0.003552	-0.008489	5596.192635	34701.718943	3649.173198	18713.148522
81.310500	-0.005989	0.001642	-0.005941	-0.008623	5615.063106	34697.452463	3644.994693	18718.047902
81.535500	-0.009098	0.001855	-0.010716	-0.008152	5592.512792	34678.470571	3635.359251	18700.837514
82.039000	-0.007780	0.001541	-0.009691	-0.007848	5598.880998	34633.330189	3636.677000	18689.763543
82.539000	-0.004174	0.001608	-0.008674	-0.008172	5623.707955	34661.999694	3639.135332	18701.602255
83.037000	-0.008686	0.001720	-0.006419	-0.005745	5580.030142	34492.985962	3638.816619	18613.285078
83.537500	-0.004308	0.002402	-0.008976	-0.006418	5611.752147	34591.782747	3635.371111	18637.735215
84.038000	-0.009902	0.001494	-0.016474	-0.005951	5573.730071	34491.557014	3620.963324	18620.771125
84.537500	-0.007427	0.001765	-0.011933	-0.006616	5593.366916	34559.755979	3630.350905	18644.941871
85.035500	-0.006151	0.002254	-0.005187	-0.005833	5596.453907	34538.334371	3641.241678	18616.494953
85.537500	-0.006542	0.002105	-0.010705	-0.005591	5592.485667	34509.902135	3630.719658	18607.724584
86.036000	-0.007132	0.002108	-0.013707	-0.005037	5585.316748	34469.811674	3624.293345	18587.654911
86.539000	-0.004485	0.002514	-0.009124	-0.004569	5598.985102	34465.301296	3631.735150	18570.709831
87.037000	-0.007018	0.002413	-0.007119	-0.003194	5574.524064	34358.201131	3632.881071	18521.052521
87.537000	-0.004444	0.002665	-0.006438	-0.003889	5594.973531	34426.861872	3635.389152	18546.135223
88.037500	-0.006381	0.003291	-0.009558	-0.002038	5571.293345	34337.998007	3626.364523	18479.407455
88.534500	-0.006407	0.002567	-0.007778	-0.003621	5580.993805	34400.226720	3632.456424	18536.432864
89.035000	-0.006038	0.001858	-0.008590	-0.003683	5583.693483	34353.371140	3631.095022	18538.695382
89.535500	-0.005029	0.003823	-0.008417	-0.002356	5581.708152	34399.635926	3629.003032	18490.861978
90.036000	-0.006790	0.003425	-0.013994	-0.001558	5565.758264	34312.906061	3617.542156	18462.137715
90.538500	-0.006734	0.003514	-0.011781	-0.002328	5570.893927	34375.115950	3622.882728	18489.829340
91.035500	-0.004627	0.003138	-0.006386	-0.002401	5584.496666	34353.204293	3632.771609	18492.473939
91.539000	-0.006787	0.002875	-0.010433	-0.002559	5572.010508	34345.638175	3625.726271	18498.171299
92.036500	-0.001695	0.003335	-0.016925	-0.002013	5600.453768	34339.405586	3613.136756	18478.513791
92.539000	-0.005309	0.003254	-0.003647	-0.001900	5577.109955	34325.360178	3636.854233	18474.455855
93.037000	-0.008176	0.003685	-0.014089	-0.000950	5553.405558	34287.821658	3616.288271	18440.329771
93.534500	-0.006119	0.003952	-0.009850	-0.000852	5565.543041	34300.007927	3623.701897	18436.797160
94.036000	-0.003266	0.003936	-0.007341	-0.000323	5580.014727	34260.625155	3627.271069	18417.834095
94.535500	-0.003672	0.003230	-0.005013	-0.000908	5581.133976	34251.877577	3632.551909	18438.813257
95.036000	-0.005406	0.003660	-0.005216	-0.000016	5564.781261	34218.566113	3630.562927	18406.855029
95.535500	-0.004743	0.004084	-0.004362	0.000339	5566.696629	34223.575988	3631.470385	18394.163829
96.039000	-0.005598	0.002884	-0.005841	-0.001080	5570.199343	34239.325204	3631.359942	18444.971365
96.536000	-0.003053	0.004103	-0.006023	0.000372	5577.010199	34222.521586	3628.397314	18392.959611
97.037000	-0.004559	0.003795	-0.007672	0.000908	5564.300813	34161.699793	3624.452555	18373.795333
97.537000	-0.002457	0.004358	-0.004669	0.000622	5579.166631	34222.901349	3630.398243	18384.025483
98.035000	-0.002745	0.004519	-0.006899	0.000439	5578.513204	34247.740297	3626.693375	18390.571781
98.534500	-0.003356	0.003976	-0.005628	0.000558	5573.963278	34199.979731	3628.775380	18386.317659
99.035000	-0.004433	0.004082	-0.011294	0.000633	5566.797077	34202.204936	3618.451870	18383.643311
99.535000	-0.004987	0.004287	-0.005630	0.000140	5566.417570	34252.579553	3629.529860	18401.276572
100.036500	-0.004789	0.003741	-0.000428	0.001111	5561.621344	34143.214028	3637.234330	18366.567529
100.536000	-0.005972	0.003471	-0.007693	0.000215	5559.841651	34188.312954	3625.664507	18398.586583
101.036500	-0.002828	0.004184	-0.009752	0.001168	5573.448047	34170.949084	3620.252412	18364.510104
101.536500	-0.002422	0.003786	-0.009270	-0.000008	5583.323660	34227.023541	3623.227434	18406.558461
102.037000	-0.003332	0.004795	-0.009551	0.001211	5570.042471	34211.922047	3620.534839	18362.986732
102.537000	-0.004499	0.004073	-0.007224	0.000954	5564.391527	34178.418779	3625.177582	18372.175193
103.035000	-0.003497	0.004475	-0.006959	0.001477	5567.364088	34169.666714	3624.713257	18353.500175
103.535500	-0.004295	0.003798	-0.008319	0.000785	5566.704386	34170.752940	3623.509636	18378.186865
104.035000	-0.003370	0.004357	-0.004613	0.001312	5569.176538	34173.011288	3629.248259	18359.366617
104.536000	-0.000538	0.004082	-0.004641	0.001257	5587.196196	34157.278057	3629.297474	18361.363010
105.036000	-0.001936	0.005390	-0.006635	0.002393	5571.376499	34169.579628	3623.646675	18320.845578
105.538500	-0.003172	0.003824	-0.007521	0.001005	5572.321979	34156.845650	3624.551121	18370.350471
106.037000	-0.002689	0.004755	-0.001976	0.002456	5566.303585	34119.392531	3631.956863	18318.607997
106.536500	-0.002774	0.004009	-0.008904	0.001632	5570.899461	34124.974926	3620.940103	18347.957607
107.037500	-0.003329	0.003656	-0.008453	0.001128	5570.585321	34135.861393	3622.655076	18365.966821
107.543000	-0.000417	0.004060	-0.005792	0.001759	5584.808681	34119.475624	3626.308096	18343.426864
108.038500	-0.001940	0.005196	-0.009638	0.003335	5565.497041	34087.911348	3616.585346	18287.361627
108.537000	-0.003251	0.004551	-0.007428	0.001465	5568.966404	34175.990948	3623.890113	18353.910293
109.038500	-0.002112	0.004047	-0.012697	0.001672	5574.773182	34124.840342	3614.099661	18346.535365
109.538000	-0.003216	0.004417	-0.008843	0.002059	5565.496696	34123.667158	3620.285325	18332.756725
110.036000	-0.001852	0.004414	-0.012965	0.002781	5569.487565	34071.567291	3611.657543	18307.043293
110.539000	-0.003010	0.004546	-0.006357	0.002850	5561.867002	34076.048280	3623.326688	18304.591330
111.037000	-0.002911	0.005124	-0.004919	0.002698	5563.426679	34128.559186	3626.189614	18310.014836
111.537000	-0.001223	0.004627	-0.007572	0.002646	5574.243869	34096.591250	3621.510516	18311.863020
112.038500	-0.003958	0.005336	-0.004030	0.002620	5557.415449	34149.406736	3627.935847	18312.772418
112.537500	-0.002951	0.004832	-0.005212	0.003738	5556.725114	34032.870437	3623.786726	18273.031787
113.035000	-0.003103	0.004015	-0.009081	0.001872	5567.360481	34108.183741	3620.192233	18339.405536
113.538000	-0.002087	0.005466	-0.003796	0.003318	5564.690448	34108.565115	3627.097743	18287.973226
114.036000	0.000255	0.005676	-0.006583	0.003130	5580.440430	34137.117743	3622.417130	18294.632507
114.538500	-0.003050	0.004829	-0.006567	0.002893	5561.351277	34093.285312	3622.872055	18303.067928
115.036000	-0.001225	0.004676	-0.008558	0.003044	5571.746519	34071.427580	3619.031440	18297.677539
115.539500	-0.001571	0.005346	-0.003222	0.003280	5568.132785	34102.710679	3628.204588	18289.324238
116.037000	-0.004148	0.004503	-0.005752	0.002593	5556.405540	34091.447030	3624.876599	18313.730788
116.538000	-0.002513	0.004884	-0.011659	0.005174	5550.559582	33933.843798	3609.736263	18222.170741
117.034500	-0.001887	0.005527	-0.009134	0.003860	5562.562229	34073.928966	3616.545376	18268.697018
117.542500	-0.002328	0.004795	-0.008772	0.003120	5564.421469	34074.545321	3618.514217	18294.991338
118.035500	-0.001730	0.005397	-0.006003	0.003480	5565.899671	34091.946618	3622.829761	18282.195670
118.535500	-0.003002	0.004902	-0.004713	0.005454	5545.814443	33915.063011	3621.601490	18212.255865
119.035500	-0.001500	0.004673	-0.009477	0.003603	5566.567821	34031.182412	3616.393980	18277.839905
119.536500	-0.001743	0.004224	-0.000999	0.003302	5566.920203	34020.477861	3632.195412	18288.507669
120.036500	-0.004201	0.004754	-0.006987	0.002891	5554.238535	34088.053676	3622.121105	18303.130885
120.536500	-0.005345	0.004254	-0.009774	0.005588	5530.585770	33859.241846	3612.337952	18207.512361
121.037000	-0.000472	0.005352	-0.006845	0.004275	5568.780925	34031.716241	3619.894487	18254.013129
121.537000	-0.001015	0.005776	-0.005988	0.003850	5568.044838	34092.629936	3622.192491	18269.079221
122.037500	-0.006027	0.005144	-0.009472	0.004179	5535.043944	34023.589358	3615.376544	18257.398585
122.535000	-0.003622	0.005048	-0.007703	0.006649	5534.646849	33840.220841	3614.130456	18170.065952
123.035500	-0.004634	0.004603	-0.007134	0.003414	5548.335263	34039.693948	3620.918844	18284.558745
123.535500	0.000430	0.006105	-0.006268	0.004413	5573.532289	34075.777081	3620.679469	18249.097473
124.036000	-0.001674	0.004480	-0.003962	0.003557	5565.767355	34020.647144	3626.366846	18279.471418
124.539000	-0.003941	0.004566	-0.006332	0.007400	5528.086197	33752.524685	3615.232585	18143.621950
125.036500	-0.000980	0.005034	-0.010067	0.004146	5566.418904	34018.057208	3614.376372	18258.562645
125.536500	-0.004783	0.004152	-0.010258	0.003351	5547.797995	34011.857231	3615.452645	18286.792111
126.037500	-0.001938	0.005641	-0.007808	0.004938	5555.573453	34004.837008	3616.989560	18230.506773
126.537500	-0.005840	0.004853	-0.006136	0.008200	5511.611245	33716.091178	3614.159461	18115.489045
127.037500	-0.001370	0.005357	-0.000071	0.004491	5561.862951	34016.572303	3631.721999	18246.348796
127.535000	0.000283	0.006160	-0.001818	0.004622	5571.319580	34064.732464	3628.316168	18241.714486
128.035500	-0.002042	0.004667	-0.008428	0.004360	5558.505103	33976.448810	3616.913819	18250.972702
128.535500	-0.000051	0.006376	-0.005191	0.005249	5565.336760	34035.169288	3621.111396	18219.494316
129.039000	-0.000748	0.005627	-0.004261	0.003932	5569.193041	34076.043062	3625.152037	18266.166908
129.536000	-0.000573	0.006774	-0.003022	0.005373	5561.330921	34054.885585	3624.787570	18215.124773
130.036500	-0.001054	0.005392	-0.006148	0.005520	5557.446033	33945.382217	3618.914076	18209.945611
130.537000	-0.004859	0.005495	-0.009997	0.009681	5508.570945	33656.581894	3604.726108	18063.572257
131.037000	-0.002349	0.004393	-0.009426	0.003759	5560.328325	33999.912992	3616.207727	18272.314003
131.537500	-0.002502	0.005931	0.003451	0.005179	5550.599652	34008.393125	3636.888711	18222.002621
132.035000	-0.002014	0.005010	-0.004787	0.005552	5551.306341	33915.798093	3621.294500	18208.804984
132.535500	-0.000343	0.005365	-0.011145	0.005064	5564.672365	33976.067947	3610.837771	18226.044433
133.035500	-0.001522	0.005199	-0.007638	0.004918	5558.265867	33974.595915	3617.326605	18231.205998
133.535500	-0.001533	0.005074	-0.000788	0.004782	5559.048646	33975.442675	3629.893277	18236.049823
134.036000	-0.005797	0.005079	-0.003337	0.005182	5530.304488	33947.183823	3624.563533	18221.875592
134.536000	-0.004269	0.004763	-0.005562	0.010211	5508.933406	33567.293276	3611.609689	18045.008145
135.037000	-0.001965	0.005562	0.001672	0.005109	5554.345060	33986.948739	3633.767563	18224.452056
135.537000	-0.003766	0.005237	-0.003981	0.005200	5542.674042	33957.205642	3623.373803	18221.259236
136.037500	0.000843	0.006000	0.003014	0.005396	5569.984762	33997.704706	3635.693129	18214.303002
136.537500	-0.004957	0.005310	-0.005480	0.009583	5508.568376	33650.395375	3612.867481	18066.986859
137.035000	0.002000	0.004892	0.000193	0.005103	5579.017664	33939.417165	3631.089462	18224.661266
137.535500	-0.002914	0.005573	-0.004716	0.005616	5545.357465	33951.454075	3621.305551	18206.518559
138.035500	-0.002638	0.005057	-0.004033	0.005749	5546.241481	33905.095099	3622.294069	18201.850645
138.538500	-0.005241	0.005714	-0.008601	0.011310	5496.368046	33556.844416	3604.315663	18006.624179
139.036000	-0.000493	0.005610	0.001251	0.005810	5559.123203	33940.208645	3631.726440	18199.688569
139.536000	-0.003013	0.005014	-0.003637	0.005744	5543.962565	33902.397387	3623.013983	18202.030137
140.037000	-0.002368	0.005393	0.001984	0.005945	5546.694803	33915.084013	3632.814126	18194.925123
140.534000	-0.003198	0.005363	-0.005019	0.011721	5506.268709	33503.162909	3609.899896	17992.316243
141.037500	-0.000786	0.005780	-0.001380	0.006323	5554.130874	33915.767258	3626.035292	18181.583639
141.538000	-0.002256	0.005343	-0.005778	0.005541	5549.880710	33940.409421	3619.538127	18209.203523
142.035000	-0.002672	0.005204	0.001840	0.006303	5542.612529	33876.004265	3631.901194	18182.268849
142.535500	-0.004036	0.005009	-0.004579	0.011871	5500.272055	33467.614576	3610.411094	17987.076225
143.035500	-0.001179	0.005730	-0.007000	0.006454	5550.889334	33902.754720	3615.727102	18176.937568
143.535500	-0.003026	0.006126	-0.002606	0.006129	5541.510226	33954.315521	3624.174931	18188.422382
144.036500	0.001412	0.005794	-0.000841	0.006870	5564.358226	33877.671617	3626.020867	18162.290675
144.536500	-0.000630	0.005324	-0.003060	0.005835	5558.115221	33917.979371	3623.885447	18198.785939
145.036500	-0.001004	0.007077	0.002798	0.007779	5543.798924	33904.372505	3630.960307	18130.302516
145.537000	-0.001794	0.006032	-0.000031	0.006750	5545.271346	33903.217083	3627.698883	18166.516767
146.034500	0.000153	0.005599	-0.002454	0.006902	5556.354502	33861.438779	3623.057413	18161.148788
146.535000	-0.004014	0.005450	-0.002090	0.012591	5496.047187	33447.997796	3613.546530	17962.028176
147.035000	-0.000920	0.005853	-0.002103	0.007261	5547.511179	33854.029638	3623.044193	18148.524248
147.536000	-0.001488	0.005899	-0.002760	0.007108	5544.956070	33868.196079	3622.138542	18153.919120
148.038500	-0.001726	0.006096	-0.003717	0.006750	5545.688551	33907.762818	3621.063008	18166.512735
148.536500	-0.001304	0.006927	-0.004412	0.007617	5542.946974	33905.192420	3618.268767	18135.987274
149.036500	-0.001211	0.006122	-0.005909	0.007350	5545.163883	33866.806079	3616.073683	18145.367256
149.536500	0.000676	0.006618	-0.000172	0.007678	5554.789044	33878.812848	3625.769322	18133.827848
150.037000	0.002319	0.006812	-0.000151	0.008026	5562.813125	33867.789728	3625.179079	18121.608224
150.537000	0.000067	0.005867	-0.007309	0.007065	5554.814885	33868.932480	3614.091690	18155.413705
151.037500	0.000440	0.006813	-0.005979	0.008046	5551.059793	33866.464237	3614.713194	18120.916729
151.535500	-0.002043	0.005126	-0.004478	0.006131	5547.556388	33882.797032	3620.809742	18188.362763
152.035000	0.001594	0.006502	-0.003749	0.007921	5558.970778	33853.176452	3618.908740	18125.283476
152.536000	-0.004298	0.005308	-0.005914	0.013092	5491.301160	33402.816655	3605.906526	17944.626533
153.036000	-0.000700	0.006384	-0.001272	0.007801	5545.535780	33853.334638	3623.566063	18129.520781
153.536500	0.001095	0.005601	-0.002164	0.007109	5560.908676	33846.844143	3623.206175	18153.865664
154.036500	-0.000917	0.005694	-0.007613	0.007170	5548.087677	33849.141657	3613.366130	18151.724438
154.537000	-0.004517	0.005855	-0.005122	0.013153	5489.606400	33436.938678	3607.191516	17942.485935
155.037000	-0.001983	0.006000	0.002464	0.007831	5537.454533	33823.798763	3630.258639	18128.447686
155.535000	-0.002866	0.006841	-0.002513	0.008396	5528.569560	33843.520169	3620.270366	18108.597779
156.035000	-0.000341	0.006443	0.002589	0.008415	5543.965777	33813.759695	3629.426852	18107.933961
156.535500	-0.005433	0.005318	-0.007977	0.013252	5483.487904	33392.205947	3602.007968	17939.044562
157.035500	-0.001220	0.006171	-0.002462	0.008321	5539.134618	33801.123753	3620.497347	18111.247823
157.538500	0.004501	0.006909	-0.001537	0.008666	5572.402811	33829.120231	3621.538074	18099.142870
158.036000	-0.000073	0.006785	-0.003010	0.009254	5540.453775	33778.497467	3617.849973	18078.525122
158.535500	-0.004875	0.004725	-0.002774	0.013588	5484.827763	33327.051682	3610.568428	17927.392981
159.036000	-0.001365	0.006709	-0.004743	0.008413	5537.680577	33832.911053	3616.258594	18108.025406
159.537000	0.000045	0.006007	-0.000218	0.008379	5546.564612	33785.286609	3624.422500	18109.195934
160.037000	-0.001047	0.006146	-0.004942	0.009277	5534.326138	33731.435032	3614.366680	18077.718481
160.535000	-0.003141	0.006264	-0.001655	0.015030	5486.586160	33333.881474	3609.996139	17877.451437
161.035500	0.000092	0.005568	-0.002849	0.008116	5548.477065	33772.809291	3620.171267	18118.445397
161.538000	0.000260	0.005858	-0.003418	0.008102	5549.602293	33794.472527	3619.179375	18118.946029
162.035500	-0.000813	0.006102	-0.000797	0.009254	5535.902466	33729.904772	3621.810362	18078.518416
162.538500	-0.002438	0.006427	-0.005435	0.014568	5493.614908	33377.694551	3604.154508	17893.422657
163.036500	-0.000689	0.006950	-0.002449	0.009021	5538.094521	33806.770326	3619.268852	18086.695593
163.538500	-0.000448	0.006453	0.004581	0.008786	5541.019304	33788.082009	3632.370097	18094.919215
164.033500	0.000111	0.005870	-0.002433	0.009467	5540.271507	33698.329710	3618.499947	18071.061039
164.537500	-0.003067	0.006319	-0.008808	0.014424	5490.689038	33380.253798	3598.513246	17898.414866
165.037500	0.000235	0.006584	-0.003497	0.009023	5543.763153	33780.587997	3617.391140	18086.598465
165.535000	0.002192	0.006658	-0.002267	0.009338	5553.899988	33763.451894	3619.027670	18075.578515
166.035000	-0.001292	0.006747	-0.004276	0.009121	5533.781212	33785.217211	3615.829127	18083.191470
166.535500	-0.005850	0.006087	-0.005642	0.014084	5475.979105	33387.811878	3604.641297	17910.180607
167.036000	0.004257	0.007022	0.000489	0.010069	5562.167455	33737.386204	3622.656728	18049.994549
167.536500	0.000105	0.006345	-0.001173	0.008896	5543.745020	33772.614722	3621.776175	18091.049555
168.036500	-0.002117	0.006634	-0.000130	0.008866	5530.278450	33795.271165	3623.705133	18092.117387
168.537000	-0.005886	0.006592	-0.000566	0.014830	5471.287426	33370.858680	3612.277015	17884.353496
169.036500	0.001974	0.005926	-0.001930	0.009426	5552.009127	33705.222710	3619.471785	18072.492966
169.537000	0.001149	0.007457	-0.001785	0.010154	5542.429619	33762.211400	3618.429027	18046.998099
170.037500	-0.000348	0.007683	0.000485	0.010489	5531.176943	33754.550432	3621.895192	18035.312828
170.535000	-0.001396	0.007096	-0.010181	0.009846	5528.693081	33758.433065	3604.112662	18057.767748
171.035500	0.001536	0.006960	-0.004650	0.010309	5543.858857	33715.866945	3613.052977	18041.575946
171.538500	-0.000922	0.006683	-0.000861	0.009205	5535.534966	33774.711642	3621.784369	18080.250218
172.036500	-0.000445	0.005847	-0.003315	0.009293	5537.924062	33709.040578	3617.235837	18077.153570
172.536000	-0.001265	0.006761	0.001844	0.012801	5511.454521	33525.548702	3620.186673	17954.731579
173.037000	0.001820	0.006550	0.002431	0.009997	5547.538107	33709.000386	3626.281501	18052.508116
173.537000	0.000693	0.007289	-0.000361	0.010747	5535.983397	33708.227767	3619.915590	18026.301934
174.037000	-0.001579	0.007261	0.000035	0.010236	5525.185822	33742.516233	3621.541913	18044.148262
174.537000	-0.000170	0.006732	-0.001105	0.012200	5521.796303	33565.952440	3615.994053	17975.644263
175.035000	-0.001201	0.006138	0.002538	0.009854	5529.841728	33689.949553	3626.733121	18057.514378
175.535500	0.002602	0.006960	0.002082	0.010496	5549.277729	33702.660094	3624.752557	18035.045832
176.035000	0.000121	0.006379	0.001011	0.010482	5534.091201	33662.432760	3622.851554	18035.532417
176.536000	-0.001891	0.007046	-0.007995	0.012762	5507.885551	33548.412202	3602.835176	17956.096729
177.036000	0.000410	0.006923	0.000246	0.010522	5535.622221	33698.144039	3621.405167	18034.137701
177.536000	0.001112	0.006217	-0.000364	0.010312	5541.232452	33663.025916	3620.690434	18041.494697
178.036500	-0.001575	0.006585	-0.001595	0.010252	5525.116205	33693.384837	3618.594761	18043.599200
178.537000	-0.000843	0.007307	-0.004624	0.014084	5506.216484	33473.601508	3606.429377	17910.196005
179.034000	0.000464	0.006083	-0.000640	0.010081	5538.662669	33669.921186	3620.607791	18049.555583
179.537500	-0.001805	0.006175	-0.001655	0.010558	5521.830494	33642.619580	3617.939089	18032.876568
180.035500	-0.000617	0.005737	0.001709	0.010651	5528.534430	33605.075585	3623.802580	18029.637005
180.535000	-0.001641	0.005684	-0.002937	0.011928	5514.481777	33511.187582	3613.220450	17985.116622
181.038500	0.001309	0.006604	0.001290	0.011277	5536.507917	33622.143811	3621.925694	18007.792301
181.536000	-0.000303	0.007395	0.001049	0.011402	5525.861235	33669.321878	3621.269109	18003.443456
182.036500	0.003736	0.006926	0.001947	0.011482	5550.194503	33630.334928	3622.735395	18000.626133
182.536000	-0.001337	0.007492	-0.004173	0.013760	5505.185083	33509.469692	3607.794756	17921.425317
183.037000	0.001926	0.007639	-0.002127	0.011840	5536.840287	33655.499073	3614.813791	17988.153231
183.537000	0.000270	0.006882	-0.002980	0.011596	5528.173897	33619.173874	3613.731578	17996.649958
184.037500	0.001558	0.006728	0.002576	0.011497	5536.682329	33615.309240	3623.839469	18000.107545
184.535000	0.001986	0.007225	0.004048	0.011740	5537.820255	33633.295399	3626.054072	17991.638221
185.035000	0.000959	0.006894	-0.004926	0.011852	5530.831429	33601.911372	3609.831747	17987.735742
185.535000	0.000221	0.007336	-0.005289	0.012135	5524.579580	33613.198770	3608.691765	17977.881180
186.036000	-0.000565	0.006959	-0.007724	0.012025	5520.446563	33594.279646	3604.600724	17981.706199
186.535500	0.000290	0.006156	-0.005070	0.012773	5521.102954	33484.899508	3607.952985	17955.704147
187.036000	-0.000648	0.006702	-0.002678	0.011382	5523.872693	33621.608553	3614.650381	18004.133989
187.536500	-0.000665	0.006354	-0.009171	0.012154	5519.053937	33542.507484	3601.841700	17977.240971
188.037000	0.000431	0.007201	0.001544	0.013183	5519.459926	33529.627735	3618.964943	17941.448966
