sample name	sample
index	133
start time	 02-15-2021  01:27:41 PM
880	0.003115
Peak Time (s)	91.535
Peak Height 	0.003115
calc peak height	90,93
Baseline Time (s)	9.534
Baseline Value 	-0.002574
subtract baseline	10,4
Abs	0.005095
Peak Time (s)	90.037
Peak Height 	0.005095
calc peak height	90,93
Baseline Time (s)	10.035
Baseline Value 	0.007216
subtract baseline	10,3
PK_550	0.002711
Peak Time (s)	91.535
Peak Height 	0.002711
calc peak height	90,93
Baseline Time (s)	9.034
Baseline Value 	0.001875
subtract baseline	10,2
PK_880	-0.005418
Peak Time (s)	91.535
Peak Height 	-0.005418
calc peak height	90,93
Baseline Time (s)	10.536
Baseline Value 	0.003329
subtract baseline	10,1


Time (s)	A880-A510	A880-A775	A880-A975	A880	I510	I775	I975	I880	
0.035000	-0.004761	-0.002874	-0.011678	0.002953	4233.572896	15385.437439	3259.074939	8808.182846
0.535000	-0.003681	-0.001978	-0.017720	0.001491	4240.569923	15452.328471	3256.241467	8827.688961
1.035500	-0.000295	-0.002878	-0.004492	0.001461	4250.040831	15427.629783	3264.526936	8828.095711
1.536000	-0.001811	-0.003898	0.009785	-0.001579	4254.288822	15485.109236	3275.736938	8868.867415
2.038500	0.001764	-0.001693	-0.003338	0.000784	4257.678341	15480.582287	3265.690965	8837.148718
2.536500	0.000058	-0.001765	-0.001704	-0.000357	4256.094355	15511.093298	3267.464466	8852.434248
3.036000	-0.002466	0.000707	0.019351	-0.002091	4253.888564	15631.890363	3282.468521	8875.754917
3.537500	-0.000569	0.000491	-0.009860	0.000028	4253.268537	15564.695117	3262.041250	8847.279060
4.037500	-0.002155	-0.000630	-0.004511	-0.000035	4249.026575	15534.376424	3265.465568	8848.122522
4.534000	0.002237	-0.002380	-0.004788	-0.001908	4266.573196	15537.866878	3266.483160	8873.291643
5.034500	-0.002113	-0.000617	0.003937	-0.000436	4250.259167	15546.227553	3271.156785	8853.495825
5.535000	-0.003761	-0.000139	0.004732	0.000135	4244.101392	15543.559797	3271.303067	8845.846201
6.035500	-0.000188	-0.000912	0.003434	-0.000259	4255.135139	15532.714272	3270.715837	8851.129923
6.535500	0.003275	-0.000669	-0.002321	-0.000076	4264.336129	15534.430440	3266.889629	8848.671882
7.035500	0.004441	-0.000355	0.003234	0.000235	4266.744297	15534.516977	3270.265938	8844.502888
7.536500	-0.000313	-0.001381	-0.002607	-0.000184	4254.577367	15517.131940	3266.775725	8850.121229
8.036500	0.001023	0.000018	-0.004491	0.000350	4256.816262	15541.881275	3265.232580	8842.953196
8.534500	-0.004942	-0.002322	0.007873	-0.001220	4244.581494	15519.849373	3274.240529	8864.032076
9.034500	-0.000395	0.000000	-0.002263	0.000193	4253.294625	15545.891369	3266.754622	8845.067652
9.534500	0.002278	0.000138	0.005510	0.000000	4261.318311	15555.359143	3271.897131	8847.650646
10.035000	0.001775	0.000140	0.000000	0.000058	4259.744454	15553.773896	3268.292810	8846.877152
10.535500	0.000000	-0.001142	-0.015430	-0.000917	4257.500618	15544.972154	3259.148270	8859.960782
11.035500	0.002537	-0.000673	0.000929	-0.001360	4265.873177	15571.125864	3269.806279	8865.912987
11.536000	-0.001090	0.001173	-0.004991	0.000592	4250.244048	15568.070178	3264.761353	8839.710533
12.036000	0.002181	0.001291	-0.000333	0.001283	4257.446714	15551.630192	3267.292190	8830.463568
12.536500	0.001634	0.001381	0.002313	0.001855	4254.317232	15537.837930	3268.624588	8822.823209
13.039500	0.000726	0.000177	-0.012502	0.000668	4255.098676	15537.358373	3259.985548	8838.703404
13.537000	-0.002993	-0.001360	-0.002437	-0.000485	4247.948482	15526.362426	3267.077156	8854.163163
14.037000	0.000688	-0.002548	-0.005520	0.000545	4255.333416	15463.029927	3264.455413	8840.339881
14.535000	0.001908	-0.000235	0.001848	0.002030	4254.594809	15486.621003	3268.212490	8820.485193
15.037500	0.000472	-0.001342	-0.012246	-0.000557	4257.813275	15528.929821	3260.911029	8855.122465
15.535000	0.002344	-0.000926	-0.000005	0.000151	4261.076950	15520.571033	3268.229015	8845.620716
16.036000	-0.003926	-0.001718	-0.008005	-0.001770	4248.926177	15552.896869	3264.347517	8871.430436
16.536000	-0.002491	0.001003	-0.008235	0.000532	4246.517416	15564.918050	3262.746447	8840.516395
17.036000	0.005456	0.000612	0.004528	-0.002417	4277.133956	15638.573559	3272.832769	8880.149396
17.536000	0.000267	-0.000514	0.001822	0.001466	4251.592504	15494.760667	3268.559072	8828.026346
18.036000	0.001329	0.000348	-0.007658	0.000346	4257.686542	15551.481161	3263.228415	8843.014259
18.534000	-0.003345	0.000921	-0.002291	0.001123	4242.515134	15545.623319	3266.142586	8832.609972
19.038500	0.000567	0.000838	0.002275	0.000535	4255.025650	15560.107340	3269.451727	8840.483095
19.537500	0.001000	0.001395	-0.011669	0.000189	4257.205057	15586.065620	3260.805319	8845.121948
20.035000	-0.001819	0.000219	0.016708	0.000249	4249.172577	15550.567605	3279.121062	8844.313260
20.535500	-0.000935	-0.000237	-0.007758	-0.000974	4255.047143	15572.576564	3264.000109	8860.732290
21.036000	0.001074	0.000956	-0.007561	0.000018	4257.890254	15578.351221	3263.496571	8847.408678
21.536000	0.000322	0.000509	-0.006916	-0.000725	4257.866883	15586.850598	3264.375696	8857.388107
22.036000	-0.004364	-0.000383	-0.004321	-0.001360	4246.572408	15579.482455	3266.431622	8865.924299
22.539500	0.003720	0.001062	-0.001853	0.000506	4263.948224	15567.352711	3266.816143	8840.866412
23.037000	-0.002111	-0.000847	-0.023200	-0.001990	4254.598070	15584.236346	3255.013798	8874.396777
23.537500	0.002055	-0.000775	-0.004247	-0.001049	4263.641990	15559.285941	3266.280451	8861.742520
24.035000	0.000281	0.000598	0.003803	-0.000699	4257.677451	15588.675441	3271.241528	8857.037907
24.535000	0.001549	-0.000139	-0.009941	-0.000889	4261.768125	15572.947721	3262.567183	8859.586729
25.035000	-0.001861	0.000951	0.006717	0.000809	4247.497136	15555.475214	3272.156268	8836.805437
25.536000	-0.003653	0.000347	0.014839	0.001037	4241.900740	15531.618781	3277.350712	8833.753997
26.036000	0.003761	0.001016	-0.006173	-0.001333	4269.252666	15618.943889	3265.233785	8865.555478
26.536500	-0.002824	-0.000525	-0.011895	-0.001463	4251.141454	15578.361273	3261.699471	8867.309689
27.037000	-0.005148	-0.000452	0.005086	-0.002752	4248.260052	15617.558778	3273.418192	8884.681284
27.536500	-0.002779	0.001044	-0.001885	0.002687	4239.759871	15504.396130	3265.404184	8811.726768
28.037500	0.004003	0.000406	0.013544	-0.000695	4268.133465	15583.006345	3277.641246	8856.974858
28.534500	0.001214	0.000598	-0.008494	-0.001868	4263.577413	15622.349254	3264.100258	8872.760934
29.035000	0.001832	0.003007	-0.003695	0.000640	4258.271242	15619.480429	3265.555424	8839.074899
29.535500	0.001983	0.000445	-0.019423	-0.001510	4264.734213	15607.613589	3257.041632	8867.937143
30.035500	0.004582	-0.000542	-0.018362	-0.001309	4271.508359	15573.431929	3257.572814	8865.230397
30.539000	0.004571	0.001425	0.004473	0.001417	4263.781470	15551.639475	3270.303051	8828.679937
31.035000	0.005158	0.000422	0.001980	-0.000001	4269.437552	15563.551414	3269.607322	8847.662499
31.536500	-0.005491	-0.000884	-0.011770	0.002326	4233.289983	15459.704745	3259.408232	8816.544029
32.039500	-0.003846	0.001319	-0.009691	-0.000848	4246.587527	15613.696964	3262.698730	8859.029755
32.537500	-0.002218	-0.000280	-0.003473	-0.001588	4253.179108	15589.001792	3267.119984	8868.992191
33.037000	0.003971	0.000698	-0.015158	-0.001599	4270.599392	15617.482825	3259.742868	8869.140819
33.534500	0.000489	-0.000042	-0.003019	0.001283	4252.719659	15513.480626	3265.576459	8830.471480
34.035000	-0.003207	-0.000646	-0.006184	-0.001021	4248.844307	15562.168079	3265.028373	8861.358118
34.535500	-0.000406	-0.000363	-0.001273	0.000264	4253.064481	15533.451991	3267.342902	8844.108411
35.035500	0.001678	0.000245	0.001930	0.000319	4258.740622	15549.318121	3269.368549	8843.379919
35.536000	-0.001130	0.000350	-0.003116	0.001301	4248.163113	15524.174794	3265.503507	8830.234355
36.036500	0.001112	0.000126	-0.000080	0.000854	4255.656794	15530.560497	3267.730057	8836.213452
36.537000	-0.004276	-0.000476	-0.001459	-0.000058	4243.208038	15539.444453	3267.430434	8848.430425
37.036500	0.001046	0.000871	0.000041	0.001442	4253.830015	15535.056281	3267.430210	8828.348899
37.537000	0.003697	0.000706	-0.006153	0.001116	4262.168383	15539.645999	3263.692584	8832.700814
38.034500	-0.000968	0.000463	-0.013436	0.000316	4251.353120	15555.649129	3259.622199	8843.417610
38.537500	-0.002606	0.001696	0.001315	0.000962	4245.006506	15572.476057	3268.557196	8834.760286
39.037500	-0.000377	0.000879	-0.028042	0.000929	4251.294275	15549.995158	3250.302010	8835.208156
39.535500	-0.005398	-0.000451	-0.003918	0.000090	4239.699445	15535.913752	3265.763315	8846.445167
40.035000	-0.002505	0.000453	-0.006190	0.000385	4246.887535	15553.380784	3264.132190	8842.490616
40.536500	-0.003955	0.000381	-0.008060	0.000792	4241.745350	15539.632339	3262.693773	8837.043946
41.036000	-0.000289	0.000011	-0.004250	0.000759	4252.011043	15529.958808	3265.126044	8837.474700
41.539500	0.000495	0.000037	-0.027116	0.000487	4254.959492	15538.519801	3251.126447	8841.128505
42.037000	0.000039	0.000400	0.000383	0.000963	4252.356704	15535.275918	3267.956969	8834.749425
42.540000	0.000991	0.000686	0.000620	0.001023	4254.847632	15541.750702	3268.070718	8833.947718
43.037000	-0.002400	-0.000568	-0.012317	0.000929	4245.671741	15508.560510	3259.937538	8835.206621
43.537000	0.000813	0.000293	-0.004598	-0.000713	4259.207186	15580.307259	3265.841982	8857.221790
44.035000	0.001669	0.000490	-0.016101	-0.001259	4263.144002	15601.653830	3258.943460	8864.558186
44.535000	0.001437	-0.000247	-0.011860	-0.001517	4263.215299	15587.867628	3261.754916	8868.025129
45.036000	-0.002212	0.000639	-0.013482	-0.000426	4249.955256	15582.002737	3260.056244	8853.368223
45.536500	-0.004497	0.000810	-0.010538	0.005750	4226.640989	15410.553299	3258.046606	8771.047137
46.039500	-0.003949	0.001788	0.004794	0.000093	4243.695106	15600.131333	3271.370236	8846.405429
46.536500	-0.000569	0.001374	0.005047	0.000034	4253.252826	15589.926756	3271.573771	8847.201301
47.036500	0.000509	0.001131	-0.028319	0.000718	4254.352806	15563.264211	3250.261661	8838.026588
47.535000	-0.004303	-0.000669	-0.012910	0.002713	4235.488857	15454.791917	3258.458101	8811.372596
48.035000	0.002613	-0.000051	0.006203	-0.001073	4265.279040	15580.744683	3273.049972	8862.057373
48.534500	-0.005403	-0.001198	-0.005857	-0.001916	4245.231907	15572.021732	3265.806522	8873.405802
49.035500	0.000120	0.001124	0.006370	0.000377	4254.219354	15572.863163	3272.211489	8842.597581
49.535500	-0.001191	-0.000172	-0.008556	0.004358	4239.530122	15422.187556	3260.145360	8789.500251
50.036000	0.003465	0.002254	0.006028	-0.002336	4271.253214	15683.749317	3273.762382	8879.068870
50.536000	-0.001790	-0.002031	0.008356	-0.003560	4259.892778	15595.360102	3276.101406	8895.596010
51.036500	-0.066981	-0.033220	-0.003172	0.318640	3540.831664	8636.727421	3122.117643	5819.701079
51.537000	-0.027358	-0.014663	-0.048455	0.043557	4072.125195	13988.972652	3214.990974	8291.835274
52.037000	0.007194	-0.006403	-0.004056	-0.071402	4495.666205	17562.060540	3315.191759	9888.465969
52.540000	-0.019325	-0.013765	-0.012726	-0.071780	4410.718501	17331.298769	3309.021725	9894.437093
53.035000	-0.029692	-0.017076	-0.023448	-0.044102	4295.874829	16351.045664	3281.937407	9470.191800
53.535500	-0.031450	-0.014674	-0.023415	-0.033225	4259.906810	16094.901648	3274.712134	9310.729218
54.035500	-0.024521	-0.010841	-0.022617	-0.050090	4328.522748	16729.351952	3286.573317	9559.691925
54.538500	-0.018196	-0.010514	-0.009116	-0.088639	4468.621155	18005.892251	3324.468157	10166.425679
55.036000	-0.018550	-0.010612	-0.007081	-0.058543	4371.986524	17004.594298	3303.475741	9688.169505
55.539000	-0.019965	-0.011754	-0.009015	-0.029068	4280.637460	16057.939420	3281.531541	9250.829875
56.036500	-0.008853	-0.008023	-0.005650	-0.018283	4281.571724	15849.132518	3276.575421	9098.082642
56.537000	-0.013642	-0.006656	-0.005971	-0.015795	4260.968103	15816.253955	3274.721291	9063.383345
57.037000	-0.013363	-0.006457	-0.011999	-0.020975	4276.394262	15974.786839	3274.164117	9135.862166
57.537500	-0.015280	-0.008508	-0.014727	-0.000176	4213.459604	15314.772576	3259.125203	8850.015883
58.035500	-0.012544	-0.006878	-0.025208	0.001202	4217.131097	15321.852637	3251.847635	8831.554863
58.535500	-0.011745	-0.006316	-0.028993	0.000827	4220.314236	15348.282509	3249.791484	8836.575712
59.035500	-0.009856	-0.007045	-0.023013	0.008066	4205.878569	15125.543836	3249.036179	8740.468227
59.535500	-0.006885	-0.006925	-0.019687	0.003971	4224.978888	15242.857221	3253.518283	8794.638384
60.036500	-0.007598	-0.005385	-0.023860	-0.000058	4234.050527	15399.596555	3253.430750	8848.430967
60.536500	-0.014362	-0.004245	-0.011631	-0.006732	4233.802250	15622.946018	3265.195915	8938.636694
61.037000	-0.011364	-0.004107	-0.020186	-0.009170	4248.821678	15697.436036	3261.332301	8971.936311
61.537000	-0.010505	-0.003013	-0.033245	-0.013511	4263.365253	15856.141443	3255.919672	9031.703631
62.034500	-0.004703	-0.002129	-0.028103	-0.036620	4347.472520	16580.813952	3273.862755	9360.068848
62.536500	-0.010572	-0.002108	-0.015421	-0.037866	4333.645021	16620.193904	3283.147570	9378.278276
63.035000	-0.010123	-0.000992	-0.019671	-0.038550	4337.020310	16676.373153	3280.742272	9388.300239
63.538500	-0.007431	-0.002066	-0.032287	-0.043944	4361.367610	16812.113435	3275.930180	9467.844397
64.039000	-0.009739	-0.003346	-0.002985	-0.046933	4363.438664	16866.181005	3298.080395	9512.347122
64.536000	-0.007195	-0.002243	-0.025662	-0.046172	4368.877102	16877.046616	3281.840184	9500.990483
65.039500	-0.008690	-0.002890	-0.007019	-0.045306	4361.678834	16829.114882	3294.076730	9488.081922
65.536500	-0.015766	-0.001149	-0.000115	-0.039118	4321.967531	16689.227176	3294.580783	9396.624120
66.037000	-0.011953	-0.002490	-0.007546	-0.044153	4348.324569	16805.329127	3292.899773	9470.951455
66.537000	-0.008942	-0.002633	-0.024445	-0.041786	4350.263999	16726.343526	3279.710703	9435.900575
67.034500	-0.011164	-0.003013	-0.019065	-0.038184	4332.831659	16601.942205	3280.903806	9382.938637
67.536500	-0.013256	-0.003560	-0.009595	-0.034163	4314.780183	16460.648532	3284.589429	9324.323134
68.035500	-0.015539	-0.004936	-0.024816	-0.037482	4317.822162	16520.566602	3276.598040	9372.665021
68.535500	-0.011284	-0.002671	-0.008887	-0.033298	4318.029035	16461.366128	3284.482446	9311.781799
69.036000	-0.015784	-0.003385	-0.013327	-0.031843	4300.645413	16394.796594	3280.498164	9290.753305
69.536500	-0.017823	-0.001911	-0.030991	-0.023514	4270.940953	16186.546795	3263.561261	9171.692344
70.036500	-0.011830	-0.000703	-0.010654	-0.026481	4296.571340	16313.014696	3278.698740	9213.848720
70.536500	-0.018205	-0.000387	-0.013566	-0.024463	4272.545640	16261.288128	3275.427917	9185.141122
71.036500	-0.012237	-0.001594	-0.024045	-0.023359	4286.413012	16191.461766	3267.889043	9169.506385
71.537500	-0.018463	-0.001211	-0.038129	-0.017534	4252.343759	16028.414586	3255.391037	9087.618193
72.037000	-0.014566	0.001707	-0.005401	-0.019309	4268.259111	16168.874225	3277.421030	9112.449448
72.535500	-0.014675	-0.000622	-0.019603	-0.019697	4269.047028	16110.577292	3268.390102	9117.888328
73.035500	-0.011796	-0.000735	-0.022446	-0.018124	4272.745003	16060.169569	3265.563687	9095.860404
73.536000	-0.017875	-0.002095	-0.020612	-0.014092	4244.411282	15900.230078	3264.166755	9039.736121
74.036500	-0.008950	-0.000805	-0.012036	-0.016602	4276.503554	16012.740261	3271.282703	9074.611931
74.544000	-0.013684	0.000892	-0.006324	-0.014954	4258.490023	16014.207843	3273.937291	9051.702014
75.036500	-0.013033	-0.000309	-0.012706	-0.014155	4258.073855	15954.855977	3269.263219	9040.609812
75.536500	-0.017426	0.000946	-0.021415	-0.008834	4231.166062	15835.036243	3260.353320	8967.340229
76.037000	-0.013696	-0.000601	-0.026442	-0.013048	4253.126538	15913.510886	3259.845117	9025.290350
76.537000	-0.011035	-0.001146	-0.026100	-0.012647	4259.449238	15885.624473	3259.808607	9019.760116
77.035000	-0.009535	0.000151	-0.023354	-0.009911	4255.985360	15843.320965	3259.814615	8982.096371
77.536500	-0.013030	-0.000078	-0.017411	-0.007254	4238.905105	15758.898648	3261.872349	8945.754975
78.036000	-0.014603	-0.000670	-0.021285	-0.011481	4246.242408	15865.300609	3262.093838	9003.675675
78.535000	-0.009262	-0.000833	-0.026338	-0.010476	4258.334633	15831.030087	3258.310389	8989.860665
79.039000	-0.009983	0.000920	-0.023561	-0.006727	4245.874167	15772.660149	3257.708200	8938.572714
79.537500	-0.014721	-0.002970	-0.025026	-0.008254	4236.999569	15703.850963	3257.746673	8959.406616
80.037000	-0.015269	-0.001338	-0.024553	-0.009482	4238.871903	15787.153380	3258.800930	8976.207970
80.537000	-0.013269	-0.001009	-0.011827	-0.007156	4237.974299	15728.942049	3265.340924	8944.415243
81.034500	-0.014634	-0.000665	-0.023689	-0.005486	4229.643244	15690.436999	3256.862212	8921.693119
81.537000	-0.016729	-0.001130	-0.011574	-0.007366	4229.054345	15731.531472	3265.635967	8947.283823
82.034500	-0.013222	-0.002564	-0.034927	-0.007788	4239.847176	15702.144023	3251.406308	8953.043812
82.537500	-0.014696	-0.000977	-0.031242	-0.005861	4230.500826	15692.252851	3252.470791	8926.788146
83.036000	-0.013210	-0.002741	-0.014691	-0.005050	4232.347764	15617.789309	3262.196019	8915.770273
83.536500	-0.016861	-0.001753	-0.008197	-0.005403	4223.339565	15656.542853	3266.538761	8920.567684
84.036500	-0.010179	-0.000642	-0.023977	-0.004950	4240.412656	15675.560727	3256.354389	8914.411775
84.536500	-0.010604	-0.001388	-0.016992	-0.005337	4240.308157	15665.171815	3260.932287	8919.665595
85.037000	-0.011946	-0.000407	-0.024114	-0.002112	4227.766612	15600.392004	3254.529041	8876.044291
85.537000	-0.007323	0.000220	-0.015786	-0.002510	4241.563280	15629.967174	3259.919206	8881.416151
86.037500	-0.011632	-0.000711	-0.015256	-0.003749	4233.107666	15638.823811	3261.024709	8898.143207
86.535000	-0.008714	-0.001611	-0.004390	-0.003438	4240.284639	15603.921790	3267.718489	8893.947229
87.035000	-0.010383	0.000877	-0.022441	-0.001974	4231.665038	15633.414617	3255.469481	8874.180045
87.536000	-0.007616	-0.000121	-0.011810	-0.000630	4235.571369	15566.000906	3261.229897	8856.102793
88.036000	-0.007453	-0.000673	-0.017946	-0.002742	4241.843623	15610.892684	3258.718734	8884.539332
88.538500	-0.014296	-0.000486	-0.023019	-0.003206	4224.340877	15629.641336	3255.870837	8890.803954
89.036500	-0.009867	-0.000696	-0.021926	-0.001952	4233.023375	15587.496691	3255.772564	8873.894641
89.539500	-0.011224	-0.001267	-0.009530	-0.000794	4226.142951	15537.873690	3262.766277	8858.312543
90.037000	-0.006854	0.000113	0.005095	-0.001670	4240.537659	15602.631803	3272.715405	8870.084899
90.537500	-0.010612	-0.000130	-0.019063	-0.001918	4230.888287	15602.805718	3257.516387	8873.436903
91.038000	-0.008628	0.001546	-0.011517	0.000134	4230.699893	15591.972791	3260.934542	8845.852335
91.535500	-0.005418	0.002711	-0.028445	0.003115	4231.326392	15539.829033	3248.748416	8806.024322
92.035500	-0.006418	0.000732	-0.008329	-0.000078	4237.350666	15574.682493	3263.072820	8848.702837
92.538500	-0.005977	0.001710	-0.005304	0.001212	4235.014288	15565.704768	3264.169681	8831.419319
93.036000	-0.005078	0.000768	-0.007358	0.003138	4232.197018	15483.645316	3261.659345	8805.719664
93.536000	-0.009499	0.002137	-0.013805	0.003081	4220.292645	15524.385239	3257.676200	8806.480915
94.037000	-0.008664	0.001261	-0.030896	0.001208	4227.663991	15552.929627	3248.423248	8831.476234
94.537000	-0.008164	-0.000461	-0.018773	-0.000040	4232.448853	15539.358833	3256.535684	8848.191466
95.034500	-0.008063	0.001939	-0.028188	0.001882	4227.464479	15553.041927	3249.641070	8822.462904
95.537500	-0.005451	-0.000369	-0.010163	0.001365	4236.039662	15501.797369	3261.011557	8829.373479
96.035000	-0.008645	0.000323	-0.018872	0.001358	4227.306916	15521.761905	3255.614782	8829.464199
