sample name	sample
index	323
start time	 02-25-2021  03:28:35 PM
880	-0.020933
Peak Time (s)	92.535
Peak Height 	-0.02093
calc peak height	90,93
Baseline Time (s)	10.535
Baseline Value 	-0.002758
subtract baseline	10,4
Abs	-0.005217
Peak Time (s)	90.538
Peak Height 	-0.005217
calc peak height	90,93
Baseline Time (s)	9.037
Baseline Value 	9.5175E-4
subtract baseline	10,3
PK_550	-0.001551
Peak Time (s)	92.535
Peak Height 	-0.001551
calc peak height	90,93
Baseline Time (s)	10.535
Baseline Value 	3.2006E-4
subtract baseline	10,2
PK_880	-0.004852
Peak Time (s)	92.035
Peak Height 	-0.004852
calc peak height	90,93
Baseline Time (s)	9.037
Baseline Value 	0.002094
subtract baseline	10,1


Time (s)	A880-A510	A880-A775	A880-A975	A880	I510	I775	I975	I880	
0.037000	0.000933	0.000748	0.001552	0.001044	6838.625969	44857.171733	4009.701144	23751.758277
0.535000	-0.002484	0.000395	0.000160	0.003145	6789.936262	44621.380458	4001.255570	23651.487023
1.038000	-0.001415	-0.000058	0.000158	0.005048	6782.626973	44396.238838	3996.678118	23561.090859
1.535000	-0.001967	0.000298	-0.004022	-0.000111	6823.164533	44925.212768	3999.028641	23807.077478
2.035500	-0.002084	0.000044	0.002423	0.001255	6810.066747	44769.081934	4011.303953	23741.639782
2.536000	-0.001955	-0.000897	-0.001112	-0.000510	6826.800896	44848.414725	4007.010133	23826.227320
3.036000	-0.002024	0.000064	-0.001345	0.005001	6777.706385	44412.297834	3993.192950	23563.300731
3.536500	-0.002681	0.000168	-0.000418	0.000438	6812.001385	44859.698918	4006.394345	23780.742159
4.037000	-0.001428	-0.000547	0.001614	-0.000503	6831.407641	44881.476687	4013.614798	23825.903110
4.534000	-0.000253	0.000132	0.003253	0.000394	6833.871839	44860.540862	4015.423397	23782.892413
5.038000	-0.000151	-0.000172	0.001110	-0.000234	6840.350522	44891.753409	4011.732954	23812.988562
5.534500	0.000935	0.000423	0.004710	0.000170	6846.411160	44910.076722	4019.532324	23793.585021
6.035500	0.002328	-0.000064	0.002408	0.000114	6859.330482	44868.619002	4014.045314	23796.299259
6.535500	0.000267	-0.000297	0.004837	-0.000420	6845.719985	44897.577065	4021.291846	23821.911951
7.036500	-0.001053	0.000013	-0.004732	-0.000063	6830.833515	44893.134528	3997.208406	23804.791230
7.536000	0.002052	0.000221	-0.003506	-0.000004	6857.926393	44907.403802	4000.010549	23801.952673
8.037000	0.000136	-0.000787	-0.000803	-0.000905	6848.872936	44897.112688	4008.715707	23845.206721
8.537000	-0.000878	-0.000468	-0.003672	-0.000420	6835.549799	44881.127338	4000.612807	23821.906506
9.037000	0.000000	-0.000369	0.000000	-0.000071	6840.245776	44857.028123	4008.640656	23805.164832
9.537500	0.000029	0.000218	-0.001429	0.000233	6837.797538	44884.261448	4004.444799	23790.573502
10.035000	0.000935	0.000278	0.002334	0.000138	6846.699508	44899.245333	4013.807524	23795.141608
10.535000	-0.000565	0.000000	0.000083	0.000000	6834.596759	44885.731302	4008.670108	23801.756699
11.035500	0.000243	-0.000226	-0.002618	-0.000048	6842.197014	44868.516810	4002.254984	23804.054977
11.535500	-0.000918	0.000963	0.002343	0.000902	6823.481389	44891.624795	4011.967595	23758.555350
12.036000	-0.002291	0.000812	0.000836	0.002482	6797.441208	44724.938917	4004.484614	23683.064888
12.536500	0.000363	0.000302	-0.001625	0.000226	6840.828499	44893.097761	4003.990545	23790.926139
13.036500	0.000242	-0.000469	0.003569	-0.002534	6864.354482	45085.320919	4023.371597	23923.637656
13.536500	-0.000432	0.000264	-0.000235	0.000167	6834.293935	44895.075424	4007.494511	23793.751192
14.034500	0.000001	-0.000121	-0.006313	0.001574	6825.662723	44722.539669	3989.516932	23726.391487
14.537500	-0.001355	-0.000012	-0.003960	0.002829	6802.627515	44612.633008	3992.135009	23666.546050
15.035000	-0.000970	0.000419	-0.002333	0.001213	6820.269099	44809.204787	3999.905442	23743.657950
15.536000	-0.000218	0.000382	0.000681	0.000448	6833.701923	44879.311028	4009.032768	23780.280121
16.035500	-0.001471	-0.000075	0.002849	0.000334	6823.612371	44846.279736	4014.584020	23785.732297
16.536000	0.000265	-0.000268	0.002388	-0.000011	6842.064699	44860.981215	4014.301369	23802.289875
17.039000	-0.000297	0.000634	0.005137	0.000930	6828.727085	44857.230217	4018.717802	23757.206232
17.536000	0.000827	0.000478	0.004135	0.000825	6839.635433	44852.283442	4016.524614	23762.231716
18.036500	0.000961	0.000434	-0.006240	-0.000328	6851.077344	44959.230090	3994.231130	23817.473945
18.537000	-0.001801	-0.001185	0.000759	0.000112	6822.654786	44760.818252	4010.037674	23796.373802
19.037000	-0.001673	0.000527	-0.004254	0.003416	6794.671766	44608.048014	3990.035049	23638.599519
19.535000	-0.002385	0.000194	0.000868	0.001523	6805.046206	44757.748283	4006.880065	23728.830305
20.035500	-0.002111	-0.000497	-0.000786	0.001533	6807.374629	44690.436179	4002.860031	23728.359307
20.535500	-0.000150	-0.000193	0.003409	0.001124	6828.314228	44758.907826	4014.022179	23747.920917
21.035500	0.000074	0.000108	0.003824	0.001591	6826.159575	44742.939083	4013.895727	23725.587076
21.536000	0.000012	0.000061	0.001968	0.001483	6826.566749	44748.751551	4009.644270	23730.740034
22.036000	-0.001207	0.000026	-0.002996	0.002326	6808.352571	44664.433807	3995.641970	23690.491194
22.536500	-0.001978	-0.000347	-0.001112	0.001655	6807.474780	44693.026810	4001.780676	23722.523392
23.037000	-0.001013	0.000540	-0.000875	0.001871	6814.076737	44757.567759	4001.830561	23712.220716
23.537000	-0.002586	0.000596	-0.000762	0.001979	6799.276485	44752.597307	4001.843713	23707.082766
24.037000	-0.001486	-0.000555	0.001172	0.002382	6805.397748	44603.449251	4005.537150	23687.822201
24.535000	-0.003243	-0.001059	-0.003400	0.000742	6804.371040	44712.412656	3998.473343	23766.188430
25.034500	-0.001143	0.000400	0.000416	0.001975	6812.012008	44734.089330	4004.695518	23707.255606
25.535500	0.001955	0.000572	0.004663	0.002026	6838.979931	44745.691251	4014.881990	23704.821302
26.035500	-0.000893	-0.000713	-0.000616	0.001926	6814.649925	44631.945226	4002.320878	23709.581295
26.536000	-0.000473	0.000453	0.001751	0.001854	6819.000586	44750.874436	4008.218780	23713.059213
27.036500	-0.000821	0.000511	0.000435	0.002903	6806.674413	44655.731035	4002.501279	23663.007817
27.537000	-0.000417	0.000643	0.004933	0.002213	6816.324525	44734.601004	4015.085146	23695.902908
28.037000	-0.001401	0.000704	-0.000363	0.002638	6803.896027	44699.650039	4001.216873	23675.620022
28.537000	-0.000759	0.000212	0.001538	0.000775	6826.012485	44831.553208	4010.321666	23764.647187
29.037000	-0.005340	-0.000573	0.001030	0.005120	6747.799598	44340.276699	3998.598280	23557.673339
29.535000	0.000536	0.000227	0.007396	0.000253	6842.127250	44883.173940	4025.928961	23789.616522
30.035500	-0.000681	0.000699	0.000959	0.000793	6826.537253	44876.675902	4008.869358	23763.745342
30.535500	-0.001641	0.000148	0.000143	0.000390	6821.617604	44862.475440	4007.871596	23783.079153
31.036000	-0.001462	-0.000169	-0.004155	0.005525	6778.047304	44340.271243	3985.257746	23538.502051
31.552500	-0.001699	-0.000102	0.002922	0.000409	6820.934878	44836.407040	4014.579286	23782.136967
32.036500	-0.002012	0.000301	0.002305	0.004037	6786.254789	44527.037636	4004.276724	23609.073549
32.536500	-0.000080	0.001012	0.007307	0.001594	6824.774211	44829.621505	4022.411998	23725.455411
33.062000	-0.003716	0.000141	-0.000866	0.003482	6776.200169	44564.759519	3997.980168	23635.454082
33.534500	0.000058	0.000268	0.006560	0.000193	6838.409017	44892.901983	4024.017664	23792.485369
34.035000	-0.003083	0.000380	0.002541	0.002834	6787.410897	44649.723979	4007.759190	23666.302127
34.535000	0.001388	0.000600	0.005047	0.000353	6848.822293	44909.561001	4019.912714	23784.844706
35.035500	-0.001756	0.000088	0.000277	0.003184	6795.977285	44588.186366	4001.442735	23649.606958
35.536000	-0.001699	-0.000181	0.002439	0.001792	6808.720318	44695.830853	4010.037519	23715.980585
36.036000	-0.002149	-0.000248	-0.000072	0.002537	6798.205508	44617.985604	4002.160618	23680.429012
36.536000	-0.000568	0.000217	-0.000240	0.001939	6817.403211	44720.028506	4003.198126	23708.977846
37.036500	0.000270	-0.000458	-0.000237	0.001465	6829.014840	44700.702994	4004.348781	23731.613878
37.537000	-0.002514	0.000545	0.003936	0.002568	6794.735700	44691.123653	4011.792238	23678.990647
38.037500	-0.003817	-0.000991	0.001052	0.002264	6785.967824	44572.986836	4005.533243	23693.473713
38.535000	-0.000188	-0.000921	0.000375	0.001181	6827.476310	44683.536734	4006.517027	23745.212338
39.037500	-0.002015	0.000661	0.003079	0.002008	6804.042029	44756.082763	4011.069088	23705.702333
39.535000	-0.001670	-0.000439	0.000354	0.001415	6812.301492	44707.297421	4005.897934	23733.989976
40.035500	0.000397	0.000009	0.005763	0.002143	6824.135607	44680.464623	4017.284429	23699.266314
40.536000	-0.001776	0.000339	0.000713	0.002309	6803.489741	44696.171047	4004.604991	23691.315371
41.036500	0.000266	-0.000457	-0.002369	0.002113	6823.244624	44638.638584	3997.657547	23700.697942
41.536500	-0.000784	0.000670	-0.000215	0.002723	6808.582518	44688.157415	4001.367218	23671.568610
42.037000	-0.001468	-0.000261	-0.000230	0.001942	6809.436197	44673.787781	4003.215030	23708.826330
42.537000	-0.000801	0.000133	0.003129	0.002032	6814.535643	44703.068661	4011.131901	23704.560957
43.037500	-0.002651	-0.000589	0.000347	0.001912	6799.293778	44645.266226	4004.681093	23710.277687
43.537500	-0.001911	0.000213	-0.001388	0.001972	6805.270965	44716.437599	4000.350900	23707.381314
44.035000	0.000128	0.000002	-0.001173	0.002173	6821.493638	44676.913358	4000.387186	23697.830173
44.535000	-0.003559	0.000469	-0.001762	0.002148	6789.244642	44724.096864	3999.028486	23698.984486
45.036000	-0.001279	-0.000002	0.004318	-0.000042	6828.635976	44889.519579	4019.092495	23803.759767
45.536000	-0.000931	0.000318	-0.000001	-0.001006	6840.284067	45013.615716	4010.908467	23850.064202
46.036500	-0.004373	-0.000367	0.001334	0.001857	6784.664677	44671.779300	4007.198933	23712.878010
46.536500	-0.001634	0.000339	0.005983	0.000206	6823.304260	44898.529678	4022.570382	23791.884716
47.037000	-0.001496	-0.000404	0.000061	0.001541	6812.728331	44698.568500	4004.885902	23727.993824
47.537500	-0.000801	-0.000009	0.001140	0.000276	6830.058791	44858.273597	4010.565551	23788.531780
48.037500	-0.002409	-0.000044	-0.000208	0.002186	6799.014274	44671.242358	4002.680233	23697.194630
48.552500	-0.001172	0.000255	0.002495	0.000496	6824.820556	44862.477875	4013.326295	23777.967011
49.035500	-0.001874	-0.000454	-0.004272	0.001806	6807.065777	44668.395817	3993.833836	23715.342575
49.535000	-0.002309	-0.000346	-0.000945	0.001956	6801.914106	44664.379937	4001.458124	23708.185251
50.062000	-0.002384	-0.000459	0.000317	0.003510	6787.605764	44504.747534	4000.755561	23634.114648
50.536000	0.000288	-0.000287	0.000366	0.000041	6841.814247	44854.203884	4009.257873	23799.814121
51.036500	-0.002099	0.000165	-0.000650	0.002348	6800.312284	44675.727724	4001.224017	23689.473595
51.539500	0.000650	-0.000011	0.004208	-0.002638	6868.929112	45139.811209	4025.197772	23928.635974
52.037000	-0.001373	0.000233	0.001973	0.002435	6805.931557	44673.962080	4007.350329	23685.324092
52.540000	-0.000494	0.000053	-0.001615	0.001368	6823.103761	44759.090933	4001.259477	23736.241840
53.034500	0.001725	0.003053	0.004030	0.016102	6713.989295	43646.058895	3979.601611	23043.736157
53.535000	-0.016009	-0.011271	0.004435	0.218286	5231.003748	27691.251075	3599.012136	15574.174578
54.035000	-0.024107	-0.022051	0.002481	-0.049403	7071.002516	47608.223485	4142.092040	26310.862058
54.536000	-0.020030	-0.031174	0.011972	-0.143768	8111.424305	57281.248402	4462.661336	31974.298881
55.036000	-0.031411	-0.024747	-0.004451	-0.113903	7646.649768	54429.726470	4310.284582	30047.163789
55.536000	-0.030112	-0.022259	-0.010790	-0.138431	7932.490608	57730.191575	4368.230279	31620.067662
56.036500	-0.015294	-0.032668	-0.009593	-0.183263	8661.412760	62244.407281	4526.189614	34735.105221
56.537000	-0.005496	-0.021068	-0.001170	-0.163904	8537.733819	61195.318970	4487.128110	33350.426031
57.036000	-0.002989	-0.015572	-0.005236	-0.147262	8359.806671	59721.016881	4415.812340	32208.540311
57.537500	-0.002642	-0.015848	-0.004087	-0.147056	8361.551431	59658.073631	4418.984356	32194.641616
58.035000	-0.004018	-0.013714	-0.003339	-0.131088	8150.921767	57881.766400	4368.580769	31139.807763
58.535500	-0.002331	-0.011091	-0.004870	-0.114986	7982.169226	56204.887617	4312.358084	30114.755741
59.035500	-0.008565	-0.012223	-0.008259	-0.104714	7795.683743	54826.091244	4270.342818	29480.384627
59.535500	-0.006599	-0.004622	-0.005944	-0.057824	7322.595838	50343.727933	4142.079423	26767.738429
60.035500	-0.010534	-0.008437	-0.009361	-0.051567	7221.903982	49258.513057	4115.937714	26427.393961
60.536500	-0.000780	-0.004773	-0.006815	-0.055564	7358.311973	50081.574134	4133.554424	26644.228602
61.036500	-0.007250	-0.005115	-0.007004	-0.053458	7272.728975	49817.007847	4127.344040	26529.732617
61.537000	-0.007065	-0.006618	-0.005750	-0.081399	7559.835659	52755.325397	4208.831564	28094.952245
62.034500	-0.011706	-0.005251	-0.006084	-0.039304	7092.742680	48301.860786	4092.175379	25774.485360
62.535000	-0.012475	-0.006591	-0.009387	-0.023057	6934.768591	46504.115615	4042.140924	24937.309180
63.035000	-0.012002	-0.005472	-0.006707	-0.020788	6918.464296	46389.043255	4043.169704	24822.878984
63.535500	-0.013030	-0.006560	-0.010505	-0.027669	6971.867570	46971.561600	4050.916108	25171.760094
64.036000	-0.007087	-0.000203	-0.011976	-0.018142	6939.085754	46651.932979	4023.525471	24690.179618
64.535500	-0.005771	-0.002403	-0.008069	-0.036898	7126.279655	48347.961215	4080.741476	25648.533956
65.036500	-0.007248	-0.002292	-0.008437	-0.034542	7089.856831	48114.106551	4073.704109	25525.852308
65.571000	-0.004967	-0.001460	-0.006512	-0.034132	7107.596689	48157.992175	4077.611910	25504.588340
66.037000	-0.007172	-0.001478	-0.006562	-0.030328	7050.905036	47762.328242	4067.696968	25308.090100
66.537500	-0.006321	-0.001954	-0.006358	-0.032608	7080.348916	47948.627695	4074.076322	25425.648142
67.037000	-0.003846	-0.001841	-0.008321	-0.032776	7105.365255	47977.764873	4069.461603	25434.319032
67.535500	-0.005507	-0.001417	-0.007703	-0.032313	7085.251815	47973.703913	4069.862736	25410.421057
68.035000	-0.006939	-0.001547	-0.009768	-0.029534	7045.649508	47673.520830	4057.502147	25267.314394
68.535500	-0.004721	-0.001018	-0.009098	-0.032003	7089.751690	47982.939984	4065.495051	25394.400895
69.036000	-0.004856	-0.001677	-0.007595	-0.032170	7090.047795	47932.000482	4069.771899	25403.032472
69.536000	-0.007535	-0.001737	-0.006503	-0.032737	7070.111830	47984.401670	4074.034544	25432.297556
70.036500	-0.005831	-0.001576	-0.006953	-0.032357	7082.599718	47961.801037	4071.900174	25412.680742
70.536500	-0.008892	-0.001591	-0.008429	-0.032007	7050.518266	47924.034037	4067.216411	25394.589200
71.037000	-0.005549	-0.001057	-0.005009	-0.031343	7075.698197	47910.613005	4074.293525	25360.357448
71.537500	-0.005851	-0.002291	-0.008617	-0.032207	7080.998834	47872.413634	4067.248274	25404.946623
72.037500	-0.008190	-0.001672	-0.005718	-0.031695	7054.175875	47883.391710	4073.373983	25378.497511
72.534500	-0.006120	-0.001104	-0.010233	-0.030398	7061.429135	47808.163386	4058.515918	25311.721764
73.035000	-0.005625	-0.001801	-0.008569	-0.029657	7059.124626	47660.034814	4060.859900	25273.629615
73.535500	-0.004428	-0.002097	-0.008236	-0.029821	7071.908124	47646.387920	4062.126110	25282.019822
74.038500	-0.007669	-0.002796	-0.006037	-0.029739	7040.745571	47566.293808	4067.535279	25277.849683
74.536000	-0.006874	-0.002253	-0.009932	-0.029069	7041.904545	47553.146887	4055.904985	25243.432481
75.036500	-0.007422	-0.002825	-0.009678	-0.028416	7030.697324	47427.758694	4054.894674	25209.992240
75.536500	-0.006474	-0.002138	-0.006428	-0.027859	7034.334972	47441.009638	4061.732345	25181.481426
76.036500	-0.009111	-0.002981	-0.006231	-0.024840	6981.910184	47047.720875	4054.569867	25027.687302
76.534500	-0.006339	-0.003197	-0.006706	-0.027683	7033.960160	47314.897569	4060.577628	25172.507238
77.035000	-0.007320	-0.002875	-0.006561	-0.026270	7011.685940	47203.695994	4057.356691	25100.391304
77.535000	-0.006945	-0.002857	-0.011518	-0.027099	7022.871026	47289.988490	4046.931068	25142.668996
78.035500	-0.010533	-0.003226	-0.010341	-0.023267	6954.414281	46863.680740	4040.280408	24947.952822
78.535500	-0.009158	-0.003751	-0.007966	-0.026708	6998.712071	47159.138533	4054.906242	25122.735647
79.036000	-0.007774	-0.003321	-0.008006	-0.026421	7008.874797	47173.649508	4054.076934	25108.086532
79.536500	-0.007337	-0.003378	-0.011412	-0.026124	7010.176611	47137.731794	4044.751031	25092.978447
80.036000	-0.008376	-0.002869	-0.006736	-0.021810	6960.816530	46752.702484	4045.658850	24874.329762
80.536500	-0.005839	-0.003128	-0.007736	-0.025615	7019.354478	47111.384650	4052.724465	25067.070874
81.037500	-0.005511	-0.002283	-0.005181	-0.024711	7014.002011	47105.416834	4056.900784	25021.107162
81.534500	-0.006896	-0.002765	-0.002888	-0.025380	7007.362157	47124.335427	4064.440192	25055.099810
82.034500	-0.009141	-0.002964	-0.002936	-0.022017	6955.702409	46764.003340	4055.763281	24884.765516
82.535500	-0.005831	-0.001818	-0.004283	-0.024313	7007.341850	47112.213080	4058.172555	25000.939185
83.035500	-0.006483	-0.002453	-0.003203	-0.024722	7005.089566	47089.198022	4061.956606	25021.667687
83.536000	-0.005004	-0.003143	-0.005248	-0.025158	7022.875719	47063.528246	4057.867148	25043.831454
84.039000	-0.007934	-0.001810	-0.010100	-0.019991	6948.218313	46676.213634	4032.725456	24782.817091
84.536500	-0.004710	-0.001806	-0.006802	-0.023728	7012.321531	47054.056589	4050.317894	24971.296650
85.036500	-0.005468	-0.001840	-0.008328	-0.023439	7002.603629	47021.341138	4045.751563	24956.643356
85.536500	-0.005583	-0.002116	-0.005308	-0.024089	7007.565374	47059.259239	4055.004137	24989.571715
86.037500	-0.006413	-0.002368	-0.009833	-0.024226	7001.146870	47047.573620	4043.950487	24996.526207
86.535000	-0.006883	-0.002469	-0.008163	-0.024262	6997.125269	47040.890223	4048.234391	24998.328276
87.035000	-0.008243	-0.002279	-0.006054	-0.023690	6979.310014	47002.191867	4052.108385	24969.350344
87.535500	-0.005685	-0.002985	-0.003878	-0.023965	7005.467491	46958.592036	4058.314035	24983.269164
88.036000	-0.005393	-0.002492	-0.010360	-0.023663	7005.376926	46977.932672	4041.223929	24967.998101
88.536000	-0.009524	-0.002460	-0.005453	-0.023409	6964.953845	46955.444723	4052.917707	24955.116524
89.036500	-0.004850	-0.001704	-0.005525	-0.022614	7000.685791	46951.507379	4050.728650	24914.908050
89.537000	-0.005064	-0.002461	-0.004355	-0.023112	7003.318915	46925.311664	4054.942752	24940.078408
90.037000	-0.007252	-0.002852	-0.009650	-0.023367	6985.453807	46911.516930	4042.257667	24952.978934
90.537500	-0.007371	-0.002671	-0.005217	-0.021719	6969.202873	46763.419284	4049.247181	24869.737262
91.034500	-0.006192	-0.002458	-0.009250	-0.022367	6986.009010	46850.359575	4040.757126	24902.440891
91.537500	-0.005873	-0.002251	-0.011950	-0.021994	6985.511813	46833.529865	4033.104728	24883.611349
92.035500	-0.004852	-0.001835	-0.007364	-0.021361	6989.097730	46811.678139	4042.959490	24851.714123
92.535500	-0.006052	-0.001551	-0.007010	-0.020933	6974.104538	46797.139625	4042.774132	24830.173327
93.035500	-0.003695	-0.002221	-0.006639	-0.021507	7001.129034	46787.487115	4045.140664	24859.060264
93.536000	-0.008542	-0.002737	-0.010622	-0.021402	6955.569204	46724.991707	4034.933673	24853.807766
94.036500	-0.005559	-0.001803	0.000182	-0.020494	6974.591211	46727.548958	4059.811805	24808.075825
94.536500	-0.005779	-0.002218	-0.011377	-0.020384	6971.569785	46674.730763	4030.534436	24802.573988
95.037000	-0.004955	-0.001913	-0.003961	-0.019951	6975.159902	46661.857349	4047.960159	24780.825243
95.534500	-0.004103	-0.002004	-0.011153	-0.020114	6984.509464	46669.136887	4030.422564	24789.016771
96.034500	-0.008141	-0.001932	-0.009057	-0.015997	6910.036301	46264.334113	4025.430605	24583.200903
96.556500	-0.005207	-0.002552	-0.004171	-0.019572	6969.357275	46559.583805	4046.479603	24761.772444
97.035500	-0.005428	-0.001443	-0.007666	-0.018897	6961.138030	46603.215057	4036.053911	24727.944974
97.536000	-0.005011	-0.002128	-0.005252	-0.019062	6966.484470	46551.073935	4042.490587	24736.236609
98.036000	-0.006544	-0.002747	-0.010051	-0.019382	6955.361194	46520.988044	4031.337080	24752.252380
98.536000	-0.005373	-0.002216	-0.007277	-0.018219	6955.433677	46457.757078	4035.334513	24694.015199
99.037000	-0.006238	-0.002195	-0.004659	-0.018503	6950.124788	46488.324412	4042.575640	24708.234644
