sample name	sample
index	1235
start time	 04-29-2021  11:21:46 AM
880	0.052810
Peak Time (s)	92.538
Peak Height 	0.05281
calc peak height	90,93
Baseline Time (s)	9.04
Baseline Value 	-0.004233
subtract baseline	10,4
Abs	0.029439
Peak Time (s)	91.537
Peak Height 	0.02944
calc peak height	90,93
Baseline Time (s)	10.034
Baseline Value 	8.7221E-4
subtract baseline	10,3
PK_550	0.014874
Peak Time (s)	90.037
Peak Height 	0.01487
calc peak height	90,93
Baseline Time (s)	9.537
Baseline Value 	2.9759E-4
subtract baseline	10,2
PK_880	0.022271
Peak Time (s)	90.037
Peak Height 	0.02227
calc peak height	90,93
Baseline Time (s)	11.535
Baseline Value 	0.001389
subtract baseline	10,1


Time (s)	A880-A510	A880-A775	A880-A975	A880	I510	I775	I975	I880	
0.036500	-0.002193	0.000237	-0.000519	0.002780	6182.338096	44105.436609	3878.204486	22744.778092
0.540500	-0.001672	-0.000524	-0.002664	0.004250	6175.122041	43894.219491	3869.731938	22677.615360
1.037500	-0.001987	-0.000977	-0.005881	0.003213	6180.611617	43949.407967	3864.657336	22724.963531
1.537000	-0.002917	0.000046	-0.003096	0.005384	6157.116020	43841.051049	3866.086285	22625.991857
2.035500	-0.000412	0.000501	-0.003871	0.000864	6210.587971	44312.816816	3874.832240	22832.660993
2.535000	-0.000339	0.000421	0.000822	0.000097	6217.039085	44378.371480	3887.716730	22867.930165
3.036000	0.000374	-0.000183	-0.001260	-0.001317	6233.440418	44455.907041	3886.133304	22933.183595
3.536000	-0.002475	-0.001161	-0.002075	0.003566	6174.224240	43898.714378	3872.708922	22708.868351
4.036500	-0.001073	0.000113	-0.000554	0.000591	6207.612249	44301.879994	3883.286077	22845.217788
4.537000	-0.001114	-0.000424	-0.001761	0.000025	6211.641607	44304.624142	3881.772453	22871.269902
5.034500	-0.000346	0.000475	0.005071	0.000658	6212.677356	44330.079483	3896.517235	22842.151461
5.537500	0.000412	0.000677	0.001033	0.000617	6218.814479	44353.240659	3886.985609	22844.019557
6.038500	0.000453	0.000657	0.000283	0.000510	6219.962929	44361.554916	3885.461244	22848.960693
6.535000	0.001111	0.000498	-0.000470	0.000445	6225.523850	44352.525115	3883.831169	22851.944960
7.035000	-0.000444	-0.000193	-0.000183	-0.000527	6221.035833	44379.361172	3886.814384	22896.705417
7.536000	0.000387	-0.000839	-0.001501	-0.000581	6227.857559	44322.838012	3883.820272	22899.211523
8.036000	0.000209	0.000983	0.003336	0.000650	6217.001929	44379.257332	3892.387565	22842.496697
8.536500	0.000246	0.000330	-0.003408	0.000116	6221.395922	44367.931720	3877.677212	22867.095219
9.039500	-0.000689	0.000391	0.002970	0.000000	6215.098271	44384.797319	3893.064738	22872.417564
9.537000	0.001213	0.000000	-0.000583	-0.000374	6232.632046	44383.190246	3885.501816	22889.653706
10.034500	-0.002299	-0.000341	0.000000	0.003355	6177.163005	43996.132241	3878.072784	22718.481701
10.534500	0.000366	-0.000211	0.001438	0.000114	6222.336214	44316.436452	3889.141617	22867.153395
11.035000	-0.001800	-0.000792	0.002725	-0.000550	6210.789014	44324.412932	3893.793293	22897.782965
11.535000	0.000000	0.000163	-0.000097	-0.000193	6221.881162	44381.434453	3886.225346	22881.312557
12.035500	-0.001444	0.000722	-0.001524	0.004704	6173.410928	43969.100058	3871.334144	22656.915857
12.536000	0.000362	0.000658	0.002933	0.000612	6218.468422	44351.827386	3891.515653	22844.248862
13.036500	-0.000413	0.000198	0.006543	-0.001021	6225.076110	44463.980805	3904.089090	22919.485777
13.536500	0.000738	0.000049	0.000636	-0.001268	6235.866324	44473.402857	3890.521799	22930.900623
14.037000	-0.001256	0.000915	-0.003003	0.003468	6184.234738	44104.468212	3870.768465	22713.330210
14.537000	-0.001797	-0.000040	-0.004617	0.001481	6195.268584	44202.580489	3871.639637	22804.345435
15.037000	-0.001925	0.000361	0.002518	-0.001210	6214.899402	44497.748717	3894.875661	22928.238847
15.535000	-0.002073	-0.000432	-0.002882	0.004439	6170.647859	43885.092277	3868.784216	22668.998492
16.035000	-0.003652	0.000317	-0.000347	0.005019	6154.320193	43901.045474	3873.351219	22642.581236
16.535500	0.002944	0.001039	0.003856	-0.000610	6247.858200	44505.162656	3896.642172	22900.546321
17.035500	0.002268	0.000108	0.001339	-0.003619	6266.009185	44704.771371	3897.822882	23039.798935
17.536500	0.001825	0.000263	0.007384	0.002162	6217.801803	44166.637067	3898.456177	22773.109200
18.036500	-0.002720	0.000090	0.006420	0.001863	6185.306012	44178.494641	3896.858257	22786.776788
18.539500	-0.000087	0.000468	0.000444	0.000723	6214.164353	44323.084199	3885.336599	22839.132840
19.037000	-0.002279	-0.000231	-0.002873	0.000248	6201.001200	44301.774195	3878.624485	22860.998808
19.534000	-0.001045	0.000001	0.002585	0.000568	6207.999067	44293.367671	3890.792279	22846.263150
20.035000	-0.001222	0.000137	-0.000156	0.002078	6195.094370	44162.585646	3880.715717	22776.944361
20.535000	-0.000163	-0.000188	-0.000283	0.000597	6214.551517	44272.646593	3883.913967	22844.956870
21.035500	-0.000259	-0.000314	0.004742	0.000559	6214.102592	44264.222344	3895.964105	22846.680578
21.535500	-0.000710	0.000081	0.001868	0.000829	6208.569340	44276.129485	3888.463239	22834.256106
22.035500	-0.001813	0.000398	0.007140	0.002225	6189.463387	44173.413098	3897.717843	22770.204342
22.536500	0.000226	0.000555	-0.000830	0.001333	6211.880200	44273.280436	3880.880487	22811.104701
23.039000	-0.002419	-0.000840	-0.002214	-0.000286	6204.019612	44294.618510	3881.436612	22885.597482
23.536500	-0.000813	0.000468	0.002645	0.001021	6206.309051	44294.723320	3889.857554	22825.461494
24.037000	-0.001513	0.000380	-0.002037	0.000754	6202.990977	44311.785064	3879.400758	22837.703137
24.537000	-0.000277	0.000086	-0.000433	0.000605	6213.607767	44297.928604	3883.537777	22844.550212
25.034500	0.000646	0.000981	0.001127	0.001242	6215.808814	44322.588456	3885.724132	22815.291597
25.537500	-0.000287	0.000197	0.004415	0.000537	6214.061830	44315.077507	3895.236289	22847.714239
26.041000	-0.002474	-0.000197	-0.000513	0.001420	6190.555512	44193.329458	3881.423548	22807.108249
26.541000	0.000527	0.001014	0.004726	0.001335	6214.183968	44316.843077	3894.069333	22811.018159
27.035500	-0.001756	0.000416	0.004801	-0.001423	6217.831547	44523.342944	3900.861095	22938.051418
27.618000	0.002363	0.000867	0.001656	-0.001293	6248.646511	44554.151081	3893.015076	22932.049644
28.039000	0.000603	0.000731	0.006829	-0.001080	6233.372086	44520.652592	3904.923287	22922.215895
28.536500	0.000239	-0.000358	0.001105	-0.001756	6235.785788	44481.135127	3892.804328	22953.446989
29.037000	0.001803	0.000974	0.001110	-0.000918	6241.399724	44528.451861	3890.816998	22914.733337
29.534500	0.002091	0.000032	-0.000661	-0.001325	6246.788605	44477.211588	3887.573063	22933.539837
30.035000	-0.002973	-0.000210	-0.002980	0.004463	6163.653598	43903.797422	3868.500069	22667.930057
30.537500	-0.000835	0.000302	0.000221	0.000698	6208.611485	44309.655294	3884.865819	22840.280685
31.035000	-0.001952	0.000265	0.003464	0.001613	6193.075738	44219.006834	3890.398204	22798.278535
31.535500	0.000109	0.000627	-0.001954	0.004013	6190.480708	44025.577222	3871.945577	22688.447905
32.047000	-0.003695	-0.000393	-0.001587	0.004072	6161.149973	43923.463237	3872.667815	22685.768563
32.538000	0.000657	-0.000025	0.005934	-0.001140	6234.257189	44454.086281	3902.910033	22924.993571
33.036000	0.002162	0.000239	0.005953	-0.001453	6248.332125	44509.325424	3903.709595	22939.450318
33.533500	-0.000613	0.000000	0.001064	0.002708	6194.928209	44089.774533	3882.105901	22748.067559
34.037000	-0.001050	0.000410	0.002478	0.000584	6207.846049	44330.892532	3890.499180	22845.552377
34.537500	-0.001742	0.000049	0.004101	0.000899	6200.135663	44266.458627	3893.619142	22831.068975
35.035500	-0.001503	-0.000406	0.000503	0.000841	6202.407167	44228.617212	3885.198131	22833.727352
35.536000	0.000500	0.000835	0.003278	0.001756	6210.737135	44259.643320	3889.612688	22791.690879
36.035500	0.000326	0.000206	0.003391	0.001551	6210.980719	44219.243262	3890.369888	22801.113334
36.536000	-0.001240	0.000102	-0.000116	0.001643	6198.285464	44200.683045	3881.836403	22796.903067
37.036000	0.002747	0.000681	0.003242	0.001708	6228.403029	44249.592717	3889.642899	22793.923489
37.537000	-0.001759	0.000303	0.000497	0.001166	6197.957689	44265.109185	3884.411789	22818.766269
38.037000	-0.002122	-0.000377	0.005553	0.001330	6193.932580	44184.864248	3896.060347	22811.248006
38.537000	-0.001774	0.000085	0.003153	0.000870	6200.106166	44272.605412	3891.424816	22832.374597
39.034500	0.000201	-0.000526	0.005037	0.000842	6215.465870	44217.100527	3895.993781	22833.662920
39.535000	0.000233	0.000237	0.003444	0.001643	6209.556916	44213.422627	3890.277020	22796.880024
40.037500	-0.000911	0.000060	0.000930	0.001785	6199.714999	44183.151816	3883.972872	22790.391061
40.535500	0.000300	0.000005	0.001132	0.001274	6212.909230	44226.556711	3885.662077	22813.825737
41.036000	-0.001836	0.000585	0.003664	0.001447	6195.222190	44265.245508	3891.268016	22805.877414
41.536000	-0.001254	0.000272	-0.002020	0.001410	6199.951369	44238.951100	3877.895620	22807.572274
42.038500	-0.002701	0.000195	0.004588	0.001522	6188.053764	44221.001142	3893.293440	22802.440037
42.536500	-0.001314	0.000449	0.005180	0.001279	6200.498271	44268.320110	3895.290908	22813.616253
43.037000	0.001259	0.000155	-0.000873	0.001165	6221.115282	44251.121896	3881.176736	22818.824262
43.537000	-0.001472	0.000172	0.000245	0.001325	6198.937162	44237.521640	3883.438677	22811.463776
44.037500	-0.001394	-0.000130	-0.002617	0.002170	6193.077221	44128.547285	3874.710229	22772.734154
44.535000	-0.000867	0.000300	0.001239	-0.001619	6226.187653	44531.034637	3892.798768	22947.130446
45.038500	0.003613	0.000191	0.004669	-0.001269	6258.184171	44487.095454	3900.174679	22930.961625
45.535000	0.000139	0.000320	0.003348	-0.001380	6232.104413	44510.082643	3897.270286	22936.085773
46.036000	-0.003149	-0.000065	-0.001471	0.003679	6168.255650	43991.583758	3873.857545	22703.689518
46.536500	0.000141	0.000208	0.002488	-0.001643	6234.159607	44524.543483	3895.840734	22948.253055
47.036500	0.001213	0.000520	0.007646	-0.001162	6238.722626	44508.383211	3907.097179	22926.022238
47.536000	-0.001348	0.000295	0.003702	0.002335	6192.162522	44153.166780	3889.242971	22765.142585
48.036500	-0.001920	0.000337	-0.002184	0.004429	6171.891371	43958.720595	3870.437737	22669.480412
48.535000	-0.000011	0.000971	0.004002	-0.000977	6227.838883	44533.870394	3897.872544	22917.473048
49.035000	0.001947	0.001045	0.006152	-0.001053	6243.564506	44548.202528	3903.225664	22920.967279
49.535000	0.000602	0.000455	0.004640	-0.000496	6228.856055	44438.385296	3898.250162	22895.285398
50.035500	-0.003953	0.000207	0.004743	0.003750	6161.635510	44010.609890	3888.355119	22700.437651
50.536000	0.001219	-0.000550	0.004103	0.004034	6198.796891	43912.134549	3886.160880	22687.468479
51.036000	0.042993	-0.024526	0.077026	0.667101	3672.226575	11325.166742	3120.857595	7175.292004
51.537000	0.003477	-0.026604	-0.012048	0.017222	6116.268916	40368.258089	3818.879880	22094.746793
52.036500	-0.002897	-0.086568	-0.023411	-0.257946	8891.223130	64403.592629	4623.403413	39096.478388
52.537000	-0.014479	-0.062434	-0.026755	-0.227053	8330.960188	63453.715676	4489.436632	36609.067898
53.037500	-0.000823	-0.092946	-0.011383	-0.270115	9091.705089	65229.281233	4724.656150	40125.897692
53.537500	0.000743	-0.073211	-0.006956	-0.243775	8747.165130	64288.449498	4632.722570	37933.501997
54.035000	-0.003315	-0.048549	-0.012083	-0.207728	8229.445632	62699.823425	4472.031342	35140.709124
54.535000	-0.006120	-0.045935	-0.011920	-0.205573	8168.672643	62762.942806	4464.636943	34980.924500
55.035000	-0.013807	-0.043416	-0.016955	-0.202404	8038.069454	62673.634138	4434.540939	34747.529869
55.536000	-0.010101	-0.043675	-0.017543	-0.204710	8109.998031	62956.007559	4440.796406	34917.230063
56.039000	-0.007275	-0.030293	-0.009084	-0.175038	7796.366815	60744.686803	4365.255482	32800.799837
56.541000	-0.002859	-0.018557	-0.003990	-0.133229	7390.611217	56874.343398	4242.924312	30053.788229
57.036000	-0.003358	-0.011734	-0.004880	-0.096224	7017.270281	53250.185929	4127.055296	27833.504095
57.542000	-0.003260	-0.008400	-0.002220	-0.067698	6754.999694	50412.249458	4053.573845	26246.486146
58.037500	-0.000548	-0.005882	0.002837	-0.047561	6602.527434	48522.991507	4012.709681	25187.356025
58.538000	-0.001376	-0.002978	-0.006871	-0.028236	6433.637833	46829.898216	3937.925715	24216.079233
59.035500	-0.000700	-0.001741	-0.002794	-0.019882	6371.325376	46115.706062	3927.324064	23809.378285
59.541000	0.000623	0.002198	0.003121	-0.009455	6298.867683	45474.824865	3916.255524	23312.666987
60.036000	0.001850	0.003299	-0.004220	-0.009815	6311.383733	45618.266398	3899.349124	23329.589474
60.536000	0.000789	0.003052	0.001515	-0.005785	6271.371583	45199.636517	3903.453919	23140.637231
61.036500	0.005018	0.002611	0.003374	0.010830	6175.963418	43570.309559	3868.468137	22379.774489
61.539000	0.003156	0.004881	0.001995	0.014259	6136.028839	43461.981443	3857.324993	22226.372399
62.037000	0.002358	0.006144	0.003669	0.035860	5972.247380	41605.838354	3812.426972	21287.167666
62.537000	0.003679	0.008004	0.002119	0.035059	5987.405399	41843.786206	3810.780887	21321.175261
63.035000	0.003180	0.007932	-0.001754	0.029609	6023.054733	42329.117000	3814.250891	21554.162386
63.558500	0.001961	0.009112	-0.000297	0.022989	6062.416223	43043.805465	3832.237025	21841.174110
64.035500	-0.000804	0.009312	-0.001414	0.027231	6011.453925	42671.880064	3820.267654	21656.774537
64.534500	0.003959	0.011523	0.004253	0.022509	6080.636430	43311.950355	3843.607667	21862.128427
65.035500	0.007073	0.011454	0.006698	0.023262	6098.097031	43235.607496	3847.462191	21829.255411
65.536000	0.005950	0.012397	0.002891	0.024810	6078.355439	43179.373114	3835.314451	21761.787242
66.036500	0.006435	0.012226	0.005560	0.027209	6064.278428	42941.701351	3835.923406	21657.721267
66.537000	0.008351	0.013926	0.006870	0.029245	6063.398612	42910.710784	3834.286944	21569.841765
67.037500	0.009911	0.014639	0.004228	0.029292	6074.517440	42972.192878	3828.249662	21567.837581
67.537000	0.008595	0.013943	0.005842	0.028927	6067.519771	42941.609065	3832.688353	21583.532900
68.038000	0.004941	0.012964	0.005002	0.032848	6012.369809	42492.281478	3822.042514	21415.347508
68.535000	0.007751	0.013599	0.002371	0.027047	6075.146262	43083.493531	3829.119853	21664.741390
69.035500	0.006367	0.012664	0.007578	0.026317	6070.328493	43064.465715	3842.508706	21696.330475
69.536000	0.006423	0.012540	0.007172	0.027962	6058.666270	42901.229130	3837.862279	21625.160942
70.035500	0.009189	0.012120	0.009457	0.028913	6071.989062	42775.067860	3840.881557	21584.127986
70.536500	0.007638	0.012573	0.006664	0.030587	6048.364015	42663.205874	3830.806802	21512.153615
71.037000	0.010571	0.013151	0.007260	0.032221	6057.860912	42566.578081	3828.479948	21442.157437
71.537000	0.009901	0.013636	0.003952	0.035213	6031.159893	42338.241485	3814.476667	21314.626618
72.034500	0.005097	0.015380	0.002941	0.042714	5943.071145	41818.758933	3795.879392	20998.811519
72.537500	0.008206	0.015548	0.011238	0.037223	6004.375670	42329.320981	3826.190654	21229.475460
73.035000	0.012693	0.016065	0.008510	0.037705	6033.336138	42332.482392	3819.045322	21209.089276
73.535000	0.009812	0.016233	0.008525	0.039368	6000.493450	42196.925456	3815.400340	21138.993564
74.036000	0.008593	0.015143	0.010540	0.044707	5953.697866	41619.476037	3808.087311	20915.815068
74.536000	0.014767	0.015144	0.014440	0.039235	6037.292520	42110.527032	3828.852230	21144.605253
75.038500	0.010869	0.015003	0.007506	0.038699	6012.926099	42146.200903	3814.627683	21167.168101
75.535500	0.011249	0.014931	0.008839	0.039286	6011.428974	42086.617516	3816.274439	21142.441825
76.036500	0.013348	0.016215	0.013871	0.039769	6023.119359	42159.083582	3826.385325	21122.163996
76.537000	0.014436	0.017659	0.015355	0.040127	6028.408238	42257.435985	3828.903321	21107.131648
77.037000	0.012769	0.017335	0.013960	0.040534	6013.392861	42191.142101	3824.873732	21090.016432
77.534500	0.014523	0.016452	0.009260	0.039798	6031.422845	42177.820899	3816.073761	21120.916306
78.035000	0.016020	0.016721	0.015535	0.040265	6038.917020	42159.938508	3828.997755	21101.324435
78.535500	0.014051	0.017585	0.009488	0.041819	6013.378335	42097.670079	3812.119310	21036.218105
79.035500	0.012408	0.017328	0.015796	0.042084	5999.629939	42050.472749	3825.512431	21025.110590
79.536000	0.014504	0.017449	0.014835	0.043217	6006.561549	41959.365021	3820.850237	20977.802639
80.036000	0.016109	0.018229	0.017697	0.044421	6009.457181	41921.345259	3824.540817	20927.703202
80.536500	0.017558	0.018803	0.019293	0.045793	6010.002206	41849.559178	3825.039173	20870.718883
81.037000	0.016533	0.019053	0.018577	0.046973	5994.147231	41766.268883	3820.819356	20821.891287
81.537000	0.017789	0.018287	0.018760	0.047618	5998.531886	41640.226760	3819.794843	20795.243338
82.035000	0.013566	0.018373	0.014867	0.054420	5920.306151	41045.559683	3796.354457	20516.674557
82.534500	0.019808	0.018892	0.017175	0.050284	5993.893173	41456.775387	3810.408760	20685.569188
83.035500	0.015956	0.018311	0.022972	0.051240	5959.575495	41320.444513	3821.103503	20646.363061
83.538500	0.016354	0.017579	0.017599	0.051186	5962.790701	41260.579893	3809.359461	20648.588094
84.036000	0.018968	0.017900	0.020748	0.051857	5976.622646	41229.729512	3814.813781	20621.155255
84.538500	0.018049	0.018167	0.018797	0.052399	5966.218906	41205.352469	3809.326169	20599.002617
85.036500	0.019940	0.017549	0.015893	0.053105	5974.655449	41088.807290	3801.434930	20570.201076
85.535500	0.018260	0.016648	0.027304	0.052073	5970.034819	41100.235094	3828.909999	20612.302285
86.037000	0.015151	0.016607	0.022083	0.057801	5907.761642	40596.114413	3804.693651	20379.861304
86.537500	0.019210	0.016609	0.024536	0.052177	5976.067098	41087.716523	3822.497061	20608.058633
87.034500	0.019849	0.016312	0.023412	0.053499	5971.195869	40945.537401	3817.070007	20554.137302
87.535000	0.019906	0.016026	0.025176	0.052244	5980.556596	41030.524785	3823.772515	20605.314615
88.035000	0.018779	0.014604	0.018845	0.056438	5942.776522	40540.545734	3800.607636	20434.876847
88.538500	0.018420	0.015102	0.023955	0.051897	5972.431377	40979.975502	3821.827635	20619.499829
89.039000	0.019111	0.014380	0.025634	0.053251	5967.710646	40798.284372	3822.551767	20564.252514
89.536000	0.019889	0.014004	0.024800	0.051552	5985.376984	40913.956040	3824.477333	20633.601685
90.036500	0.022271	0.014874	0.019996	0.052031	5999.027749	40948.222790	3812.769646	20614.021875
90.537000	0.020711	0.014053	0.027981	0.051662	5990.482211	40908.710232	3831.350241	20629.128637
91.037000	0.020688	0.014221	0.024507	0.052193	5986.509327	40876.887335	3822.398495	20607.401217
91.537000	0.020906	0.014817	0.029439	0.052530	5985.660638	40899.484287	3832.673549	20593.642970
92.035000	0.021187	0.013466	0.017197	0.051820	5992.761077	40843.511619	3807.088276	20622.667346
92.538000	0.021530	0.014285	0.029029	0.052810	5988.127108	40828.571973	3831.124689	20582.240726
93.035500	0.021135	0.013949	0.024263	0.056198	5961.145498	40504.605772	3812.991738	20444.588013
93.559500	0.021524	0.013400	0.023355	0.053029	5986.512341	40732.224132	3817.984970	20573.298930
94.036000	0.023541	0.013833	0.023806	0.053343	5998.725122	40742.651971	3818.290550	20560.514542
94.537000	0.022715	0.014089	0.024911	0.053939	5988.524105	40712.970563	3819.417983	20536.256804
95.037000	0.022305	0.013512	0.020666	0.056991	5963.825808	40398.286045	3803.368311	20412.538309
95.536500	0.021224	0.013331	0.026482	0.053783	5978.978886	40660.606857	3823.254932	20542.600897
96.037000	0.019559	0.013475	0.026836	0.059793	5924.657998	40153.863647	3810.743172	20299.723954
96.534500	0.021984	0.012924	0.022704	0.054116	5982.033563	40596.361827	3814.144200	20529.061819
