sample name	sample
index	289
start time	 02-25-2021  12:44:15 PM


Wavelength (nm)	Absorbance
494.344910	-0.397398
494.563924	-0.397398
494.782919	-0.397398
495.001897	-0.018885
495.220856	-0.237882
495.439797	-0.259872
495.658719	-0.118337
495.877624	-0.021741
496.096510	-0.061101
496.315378	-0.137662
496.534227	-0.146531
496.753059	-0.090300
496.971872	-0.083955
497.190667	0.009619
497.409444	0.011955
497.628203	0.012309
497.846943	0.007875
498.065665	0.006908
498.284369	0.004698
498.503055	0.003995
498.721723	0.004237
498.940372	0.004957
499.159003	0.005033
499.377616	0.003106
499.596210	0.001391
499.814787	0.002634
500.033345	0.002467
500.251885	0.003350
500.470406	0.003573
500.688910	0.003083
500.907395	0.001915
501.125862	0.001607
501.344311	0.002001
501.562742	0.002932
501.781154	0.002489
501.999548	0.003115
502.217924	0.003075
502.436282	0.004322
502.654621	0.005337
502.872942	0.005520
503.091245	0.005247
503.309530	0.006109
503.527797	0.005748
503.746045	0.005784
503.964275	0.004903
504.182487	0.004294
504.400681	0.003041
504.618856	0.002270
504.837013	0.001796
505.055152	0.002092
505.273273	0.001784
505.491376	0.001863
505.709460	0.001179
505.927526	0.001648
506.145574	0.002305
506.363604	0.002061
506.581615	0.002010
506.799608	0.002593
507.017583	0.001756
507.235540	0.001548
507.453478	0.001444
507.671399	0.001516
507.889301	0.002078
508.107185	0.001326
508.325050	0.001780
508.542898	0.001528
508.760727	0.001873
508.978538	0.002350
509.196330	0.002714
509.414105	0.003168
509.631861	0.002796
509.849599	0.002149
510.067319	0.002038
510.285021	0.001558
510.502704	0.002115
510.720369	0.002351
510.938016	0.003000
511.155645	0.003086
511.373255	0.002391
511.590848	0.002869
511.808422	0.003136
512.025977	0.003957
512.243515	0.004400
512.461034	0.004362
512.678536	0.003741
512.896018	0.002688
513.113483	0.002651
513.330930	0.003256
513.548358	0.002983
513.765768	0.002630
513.983160	0.002627
514.200533	0.002139
514.417889	0.002296
514.635226	0.001895
514.852545	0.001798
515.069845	0.001525
515.287128	0.001429
515.504392	0.001972
515.721638	0.002362
515.938866	0.001611
516.156075	0.001695
516.373267	0.001268
516.590440	0.001494
516.807594	0.002083
517.024731	0.001630
517.241850	0.001286
517.458950	0.001174
517.676032	0.000721
517.893095	0.001073
518.110141	0.001423
518.327168	0.001525
518.544177	0.001433
518.761168	0.001089
518.978141	0.001760
519.195095	0.001635
519.412031	0.002032
519.628949	0.002080
519.845849	0.002518
520.062731	0.002989
520.279594	0.003342
520.496439	0.003599
520.713266	0.003984
520.930074	0.003644
521.146865	0.004029
521.363637	0.003930
521.580391	0.004351
521.797127	0.003979
522.013844	0.003718
522.230543	0.003602
522.447224	0.003368
522.663887	0.003476
522.880532	0.003693
523.097158	0.003173
523.313766	0.002892
523.530356	0.002792
523.746928	0.002556
523.963481	0.002166
524.180017	0.001936
524.396534	0.001752
524.613032	0.001305
524.829513	0.001556
525.045975	0.001894
525.262420	0.001770
525.478845	0.002237
525.695253	0.002121
525.911643	0.002229
526.128014	0.002207
526.344367	0.002453
526.560702	0.002549
526.777018	0.002351
526.993316	0.002014
527.209597	0.002196
527.425858	0.001857
527.642102	0.001823
527.858328	0.002379
528.074535	0.002744
528.290724	0.002847
528.506894	0.003073
528.723047	0.003023
528.939181	0.003456
529.155297	0.003824
529.371395	0.003497
529.587475	0.003901
529.803536	0.003835
530.019579	0.003502
530.235604	0.003628
530.451611	0.003609
530.667600	0.003958
530.883570	0.003919
531.099522	0.003563
531.315456	0.004333
531.531372	0.003935
531.747269	0.003740
531.963148	0.003992
532.179009	0.003641
532.394852	0.003592
532.610676	0.003455
532.826482	0.003578
533.042271	0.003431
533.258040	0.002701
533.473792	0.003272
533.689525	0.002956
533.905240	0.002602
534.120937	0.002647
534.336616	0.002922
534.552277	0.002789
534.767919	0.002753
534.983543	0.003002
535.199149	0.003216
535.414736	0.002807
535.630306	0.003294
535.845857	0.003572
536.061390	0.004037
536.276904	0.004115
536.492401	0.004255
536.707879	0.003951
536.923339	0.004117
537.138781	0.004087
537.354204	0.003809
537.569610	0.003208
537.784997	0.003338
538.000366	0.003004
538.215716	0.002874
538.431049	0.003072
538.646363	0.003357
538.861659	0.003242
539.076937	0.003191
539.292196	0.004016
539.507438	0.004996
539.722661	0.004951
539.937866	0.005415
540.153052	0.005249
540.368221	0.005026
540.583371	0.004980
540.798503	0.005357
541.013617	0.005508
541.228712	0.005483
541.443789	0.004556
541.658848	0.004533
541.873889	0.004343
542.088912	0.004490
542.303916	0.004686
542.518902	0.004539
542.733870	0.003994
542.948820	0.003669
543.163752	0.003460
543.378665	0.004014
543.593560	0.003990
543.808437	0.004179
544.023295	0.004110
544.238136	0.003958
544.452958	0.004185
544.667762	0.004378
544.882548	0.004743
545.097315	0.004653
545.312064	0.004462
545.526795	0.004577
545.741508	0.004584
545.956203	0.004832
546.170879	0.005117
546.385537	0.005038
546.600177	0.004996
546.814799	0.005100
547.029402	0.005219
547.243988	0.005236
547.458555	0.005448
547.673103	0.005204
547.887634	0.005068
548.102146	0.005224
548.316640	0.005309
548.531116	0.005181
548.745574	0.005168
548.960013	0.005397
549.174435	0.005333
549.388838	0.004893
549.603222	0.004727
549.817589	0.004638
550.031937	0.004438
550.246267	0.004585
550.460579	0.004824
550.674873	0.004665
550.889148	0.004658
551.103405	0.004873
551.317644	0.005146
551.531865	0.005579
551.746068	0.005765
551.960252	0.005520
552.174418	0.005547
552.388566	0.005465
552.602696	0.005457
552.816807	0.005270
553.030900	0.005376
553.244975	0.005473
553.459032	0.005490
553.673070	0.005380
553.887091	0.005418
554.101093	0.005498
554.315077	0.005694
554.529042	0.005857
554.742990	0.005966
554.956919	0.005951
555.170830	0.005849
555.384722	0.005674
555.598597	0.005859
555.812453	0.005756
556.026291	0.005448
556.240111	0.005481
556.453913	0.005401
556.667696	0.005204
556.881461	0.005101
557.095208	0.005323
557.308937	0.005176
557.522647	0.005051
557.736339	0.005098
557.950013	0.005559
558.163669	0.005347
558.377307	0.005432
558.590926	0.005930
558.804527	0.005941
559.018110	0.005688
559.231675	0.006002
559.445221	0.006031
559.658749	0.005762
559.872259	0.005585
560.085751	0.005791
560.299225	0.005636
560.512680	0.005528
560.726117	0.005656
560.939536	0.006027
561.152937	0.006283
561.366319	0.006090
561.579683	0.006584
561.793029	0.006338
562.006357	0.006654
562.219667	0.007062
562.432958	0.007079
562.646231	0.007220
562.859486	0.007022
563.072723	0.006771
563.285941	0.007165
563.499141	0.007124
563.712323	0.007342
563.925487	0.007004
564.138632	0.006900
564.351760	0.006807
564.564869	0.006562
564.777960	0.006638
564.991032	0.006840
565.204087	0.006653
565.417123	0.006690
565.630141	0.006617
565.843140	0.006703
566.056122	0.006693
566.269085	0.006635
566.482030	0.006652
566.694957	0.006738
566.907866	0.006594
567.120756	0.006621
567.333628	0.006765
567.546482	0.006645
567.759318	0.006631
567.972135	0.006778
568.184935	0.007026
568.397716	0.006979
568.610478	0.006833
568.823223	0.006617
569.035949	0.006637
569.248657	0.006453
569.461347	0.006580
569.674019	0.006470
569.886672	0.005988
570.099308	0.005402
570.311925	0.005377
570.524523	0.005424
570.737104	0.005566
570.949666	0.005537
571.162210	0.005762
571.374736	0.005719
571.587244	0.005925
571.799733	0.006331
572.012205	0.006887
572.224658	0.006942
572.437092	0.006800
572.649509	0.006607
572.861907	0.006813
573.074287	0.006851
573.286649	0.006636
573.498993	0.006693
573.711318	0.006687
573.923625	0.006656
574.135914	0.006621
574.348185	0.006677
574.560438	0.006794
574.772672	0.006838
574.984888	0.006351
575.197086	0.006503
575.409266	0.006432
575.621427	0.006331
575.833570	0.006399
576.045695	0.006564
576.257802	0.006321
576.469890	0.006393
576.681961	0.006078
576.894013	0.006220
577.106046	0.006307
577.318062	0.006131
577.530059	0.005926
577.742039	0.005937
577.954000	0.005806
578.165942	0.006123
578.377867	0.006345
578.589773	0.006414
578.801661	0.006674
579.013531	0.007013
579.225382	0.006976
579.437216	0.007293
579.649031	0.007120
579.860828	0.007149
580.072606	0.007074
580.284367	0.006841
580.496109	0.006935
580.707833	0.006664
580.919539	0.006655
581.131227	0.006733
581.342896	0.006603
581.554547	0.006454
581.766180	0.006262
581.977795	0.006495
582.189391	0.006731
582.400969	0.006690
582.612529	0.007103
582.824071	0.006906
583.035595	0.007095
583.247100	0.007197
583.458587	0.007516
583.670056	0.007915
583.881506	0.007568
584.092939	0.007799
584.304353	0.008030
584.515749	0.007980
584.727127	0.007940
584.938486	0.007659
585.149828	0.007646
585.361151	0.007617
585.572456	0.007563
585.783742	0.007889
585.995011	0.007452
586.206261	0.007376
586.417493	0.007252
586.628706	0.007474
586.839902	0.007890
587.051079	0.007915
587.262238	0.007527
587.473379	0.007345
587.684502	0.007119
587.895606	0.007164
588.106692	0.007453
588.317760	0.007545
588.528810	0.007442
588.739841	0.007180
588.950855	0.007090
589.161850	0.007507
589.372827	0.007743
589.583785	0.007934
589.794726	0.007685
590.005648	0.007567
590.216552	0.007455
590.427437	0.007286
590.638305	0.007248
590.849154	0.007303
591.059985	0.007135
591.270798	0.006921
591.481592	0.006739
591.692369	0.006933
591.903127	0.006777
592.113867	0.006704
592.324588	0.007003
592.535292	0.007268
592.745977	0.007068
592.956644	0.007385
593.167293	0.007508
593.377923	0.007712
593.588536	0.007729
593.799130	0.007601
594.009706	0.007490
594.220263	0.007270
594.430803	0.007224
594.641324	0.007529
594.851827	0.007484
595.062312	0.007491
595.272778	0.007525
595.483227	0.007968
595.693657	0.008104
595.904069	0.008280
596.114462	0.008358
596.324838	0.008182
596.535195	0.008205
596.745534	0.007998
596.955855	0.008130
597.166157	0.008011
597.376441	0.007692
597.586707	0.007643
597.796955	0.007442
598.007185	0.007406
598.217396	0.007506
598.427589	0.007566
598.637764	0.007609
598.847921	0.007481
599.058060	0.007454
599.268180	0.007539
599.478282	0.007875
599.688366	0.008242
599.898431	0.008198
600.108479	0.008318
600.318508	0.008266
600.528519	0.008193
600.738511	0.008270
600.948486	0.008469
601.158442	0.008558
601.368380	0.008416
601.578300	0.008494
601.788202	0.008770
601.998085	0.008675
602.207950	0.008873
602.417797	0.009127
602.627626	0.009181
602.837436	0.009299
603.047228	0.009385
603.257002	0.009542
603.466758	0.009560
603.676496	0.009496
603.886215	0.009609
604.095916	0.009491
604.305599	0.009455
604.515264	0.009524
604.724910	0.009403
604.934538	0.009072
605.144148	0.009040
605.353740	0.008854
605.563314	0.008902
605.772869	0.008772
605.982406	0.008524
606.191925	0.008567
606.401425	0.008366
606.610908	0.008600
606.820372	0.008854
607.029818	0.008737
607.239246	0.008892
607.448655	0.008771
607.658047	0.009034
607.867420	0.009178
608.076775	0.009143
608.286111	0.009375
608.495430	0.009153
608.704730	0.008959
608.914012	0.008900
609.123275	0.008739
609.332521	0.008576
609.541748	0.008415
609.750957	0.008488
609.960148	0.008422
610.169321	0.008412
610.378475	0.008464
610.587611	0.008804
610.796729	0.008871
611.005829	0.008916
611.214910	0.009246
611.423974	0.009271
611.633019	0.009198
611.842045	0.009479
612.051054	0.009457
612.260044	0.009359
612.469017	0.009247
612.677970	0.009214
612.886906	0.009382
613.095824	0.009380
613.304723	0.009412
613.513604	0.009584
613.722467	0.009523
613.931311	0.009584
614.140138	0.009663
614.348946	0.009487
614.557736	0.009629
614.766507	0.009719
614.975261	0.009608
615.183996	0.009772
615.392713	0.009979
615.601412	0.010040
615.810092	0.010222
616.018754	0.010284
616.227399	0.010587
616.436024	0.010541
616.644632	0.010426
616.853222	0.010586
617.061793	0.010366
617.270346	0.010271
617.478880	0.010069
617.687397	0.009828
617.895895	0.009784
618.104375	0.009686
618.312837	0.009505
618.521281	0.009483
618.729706	0.009253
618.938113	0.009243
619.146502	0.009172
619.354873	0.009399
619.563226	0.009423
619.771560	0.009342
619.979876	0.009378
620.188174	0.009439
620.396453	0.009615
620.604715	0.009725
620.812958	0.009876
621.021183	0.009689
621.229390	0.009458
621.437578	0.009469
621.645748	0.009607
621.853900	0.009583
622.062034	0.009720
622.270150	0.009678
622.478247	0.010003
622.686326	0.009951
622.894387	0.010104
623.102430	0.010465
623.310454	0.010782
623.518461	0.010897
623.726449	0.011010
623.934418	0.011148
624.142370	0.011323
624.350303	0.011008
624.558218	0.011192
624.766115	0.011289
624.973994	0.011211
625.181855	0.011165
625.389697	0.011192
625.597521	0.011183
625.805327	0.011124
626.013114	0.011133
626.220883	0.011458
626.428634	0.011257
626.636367	0.011316
626.844082	0.011399
627.051778	0.011282
627.259457	0.011115
627.467117	0.011237
627.674758	0.011190
627.882382	0.010948
628.089987	0.010762
628.297574	0.010838
628.505143	0.010753
628.712694	0.010524
628.920226	0.010430
629.127740	0.010678
629.335236	0.010494
629.542714	0.010567
629.750174	0.010740
629.957615	0.010807
630.165038	0.011011
630.372443	0.011136
630.579829	0.011307
630.787198	0.011370
630.994548	0.011351
631.201880	0.011381
631.409194	0.011398
631.616489	0.011427
631.823766	0.011491
632.031025	0.011448
632.238266	0.011359
632.445489	0.011318
632.652693	0.011526
632.859879	0.011706
633.067047	0.012039
633.274197	0.012063
633.481329	0.012072
633.688442	0.012192
633.895537	0.012182
634.102614	0.012424
634.309672	0.012577
634.516713	0.012539
634.723735	0.012457
634.930739	0.012407
635.137724	0.012512
635.344692	0.012696
635.551641	0.012623
635.758572	0.012681
635.965485	0.012508
636.172379	0.012248
636.379256	0.012250
636.586114	0.012158
636.792954	0.011959
636.999775	0.011746
637.206579	0.011417
637.413364	0.011372
637.620131	0.011319
637.826880	0.011407
638.033610	0.011633
638.240323	0.011566
638.447017	0.011592
638.653692	0.011492
638.860350	0.011723
639.066990	0.011939
639.273611	0.011939
639.480214	0.011998
639.686798	0.012106
639.893365	0.011960
640.099913	0.011994
640.306443	0.012000
640.512955	0.012199
640.719449	0.012142
640.925924	0.012216
641.132381	0.012211
641.338820	0.012348
641.545241	0.012306
641.751644	0.012321
641.958028	0.012404
642.164394	0.012381
642.370742	0.012456
642.577071	0.012622
642.783383	0.012569
642.989676	0.012549
643.195951	0.012502
643.402207	0.012563
643.608446	0.012702
643.814666	0.012861
644.020868	0.012774
644.227052	0.012792
644.433218	0.012837
644.639365	0.012926
644.845494	0.013065
645.051605	0.013291
645.257698	0.013159
645.463772	0.013067
645.669828	0.012989
645.875866	0.013185
646.081886	0.013116
646.287888	0.012948
646.493871	0.013090
646.699836	0.013232
646.905783	0.012936
647.111712	0.013182
647.317622	0.013321
647.523514	0.013244
647.729388	0.013452
647.935244	0.013511
648.141082	0.013686
648.346901	0.013535
648.552702	0.013354
648.758485	0.013356
648.964250	0.013241
649.169996	0.013148
649.375724	0.013121
649.581434	0.012900
649.787126	0.012802
649.992800	0.012734
650.198455	0.012679
650.404092	0.012556
650.609711	0.012629
650.815311	0.012640
651.020894	0.012810
651.226458	0.012863
651.432004	0.012938
651.637532	0.013040
651.843041	0.013100
652.048532	0.013119
652.254006	0.013314
652.459460	0.013556
652.664897	0.013512
652.870315	0.013562
653.075716	0.013754
653.281097	0.013721
653.486461	0.013922
653.691807	0.013793
653.897134	0.013950
654.102443	0.014088
654.307734	0.013992
654.513006	0.014150
654.718261	0.014372
654.923497	0.014313
655.128715	0.014293
655.333915	0.014340
655.539096	0.014513
655.744259	0.014631
655.949404	0.014639
656.154531	0.014841
656.359640	0.014883
656.564730	0.014699
656.769802	0.014767
656.974856	0.014859
657.179892	0.014792
657.384909	0.014724
657.589908	0.014657
657.794889	0.014663
657.999852	0.014474
658.204797	0.014464
658.409723	0.014655
658.614631	0.014730
658.819521	0.014870
659.024393	0.014921
659.229246	0.015134
659.434081	0.015022
659.638898	0.015038
659.843697	0.014997
660.048478	0.014962
660.253240	0.014678
660.457984	0.014649
660.662710	0.014573
660.867417	0.014449
661.072107	0.014441
661.276778	0.014590
661.481431	0.014641
661.686066	0.014499
661.890682	0.014475
662.095281	0.014688
662.299861	0.014671
662.504422	0.014658
662.708966	0.014830
662.913491	0.014845
663.117999	0.014785
663.322488	0.014839
663.526958	0.015209
663.731411	0.015347
663.935845	0.015310
664.140261	0.015333
664.344659	0.015469
664.549038	0.015421
664.753400	0.015546
664.957743	0.015785
665.162068	0.015829
665.366375	0.015574
665.570663	0.015617
665.774933	0.015524
665.979185	0.015591
666.183419	0.015418
666.387635	0.015516
666.591832	0.015307
666.796011	0.015257
667.000172	0.015105
667.204315	0.015293
667.408439	0.015293
667.612545	0.015397
667.816634	0.015475
668.020703	0.015634
668.224755	0.015608
668.428788	0.015657
668.632803	0.015614
668.836800	0.015736
669.040779	0.015832
669.244739	0.015743
669.448681	0.015882
669.652605	0.015684
669.856511	0.015814
670.060399	0.015745
670.264268	0.015838
670.468119	0.015791
670.671952	0.015862
670.875767	0.016003
671.079563	0.016037
671.283341	0.016038
671.487101	0.016379
671.690843	0.016501
671.894567	0.016661
672.098272	0.016685
672.301959	0.016714
672.505628	0.016682
672.709278	0.016459
672.912911	0.016640
673.116525	0.016625
673.320121	0.016485
673.523699	0.016502
673.727258	0.016667
673.930799	0.016723
674.134322	0.017016
674.337827	0.017218
674.541314	0.017393
674.744782	0.017407
674.948232	0.017488
675.151664	0.017594
675.355078	0.017550
675.558474	0.017585
675.761851	0.017716
675.965210	0.017695
676.168551	0.017738
676.371873	0.017740
676.575178	0.017809
676.778464	0.017911
676.981732	0.017746
677.184981	0.017803
677.388213	0.017628
677.591426	0.017597
677.794621	0.017537
677.997798	0.017406
678.200956	0.017528
678.404097	0.017429
678.607219	0.017253
678.810323	0.017626
679.013408	0.017637
679.216476	0.017677
679.419525	0.017668
679.622556	0.017746
679.825569	0.017938
680.028563	0.017948
680.231540	0.018076
680.434498	0.018346
680.637438	0.018249
680.840359	0.018196
681.043263	0.018376
681.246148	0.018436
681.449015	0.018428
681.651864	0.018280
681.854694	0.018264
682.057506	0.018319
682.260301	0.018359
682.463076	0.018396
682.665834	0.018370
682.868573	0.018439
683.071295	0.018536
683.273998	0.018627
683.476682	0.018705
683.679349	0.018604
683.881997	0.018499
684.084627	0.018422
684.287239	0.018227
684.489833	0.018273
684.692408	0.018132
684.894965	0.017873
685.097504	0.017787
685.300025	0.017816
685.502527	0.017970
685.705012	0.017956
685.907478	0.018028
686.109925	0.018104
686.312355	0.018226
686.514766	0.018213
686.717159	0.018398
686.919534	0.018399
687.121891	0.018385
687.324230	0.018322
687.526550	0.018411
687.728852	0.018314
687.931136	0.018579
688.133401	0.018566
688.335649	0.018628
688.537878	0.018644
688.740089	0.018637
688.942281	0.018778
689.144456	0.018813
689.346612	0.018808
689.548750	0.018820
689.750870	0.018784
689.952971	0.018728
690.155055	0.018782
690.357120	0.018854
690.559167	0.019027
690.761195	0.019019
690.963206	0.019104
691.165198	0.019122
691.367172	0.019065
691.569128	0.018832
691.771065	0.018995
691.972984	0.018935
692.174885	0.018847
692.376768	0.018773
692.578633	0.018650
692.780479	0.018606
692.982308	0.018623
693.184118	0.018706
693.385909	0.018701
693.587683	0.018536
693.789438	0.018563
693.991175	0.018579
694.192894	0.018456
694.394595	0.018498
694.596277	0.018440
694.797941	0.018409
694.999587	0.018367
695.201215	0.018367
695.402824	0.018420
695.604416	0.018338
695.805989	0.018309
696.007543	0.018340
696.209080	0.018297
696.410598	0.018136
696.612099	0.018201
696.813580	0.018068
697.015044	0.018306
697.216490	0.018393
697.417917	0.018458
697.619326	0.018527
697.820717	0.018490
698.022089	0.018518
698.223444	0.018686
698.424780	0.018707
698.626098	0.018952
698.827397	0.018899
699.028679	0.018839
699.229942	0.018870
699.431187	0.018937
699.632414	0.019085
699.833622	0.019306
700.034813	0.019367
700.235985	0.019395
700.437139	0.019448
700.638274	0.019543
700.839392	0.019713
701.040491	0.019859
701.241572	0.019908
701.442635	0.019840
701.643679	0.019793
701.844706	0.019958
702.045714	0.019849
702.246704	0.019954
702.447675	0.019941
702.648629	0.019899
702.849564	0.019983
703.050481	0.019997
703.251380	0.020150
703.452260	0.020224
703.653122	0.020152
703.853966	0.020474
704.054792	0.020340
704.255600	0.020230
704.456389	0.020113
704.657160	0.019969
704.857913	0.019970
705.058648	0.020029
705.259365	0.020004
705.460063	0.020022
705.660743	0.019891
705.861405	0.019821
706.062048	0.019929
706.262674	0.019937
706.463281	0.019840
706.663870	0.019800
706.864441	0.019803
707.064993	0.019637
707.265527	0.019478
707.466043	0.019387
707.666541	0.019491
707.867021	0.019551
708.067482	0.019695
708.267925	0.019917
708.468350	0.019997
708.668757	0.020079
708.869145	0.020312
709.069516	0.020632
709.269868	0.020858
709.470201	0.021003
709.670517	0.021136
709.870814	0.021150
710.071093	0.021032
710.271354	0.020992
710.471597	0.020739
710.671821	0.020637
710.872028	0.020333
711.072216	0.020101
711.272385	0.020030
711.472537	0.019859
711.672670	0.019676
711.872785	0.019595
712.072882	0.019554
712.272961	0.019557
712.473021	0.019518
712.673063	0.019632
712.873087	0.019820
713.073093	0.019869
713.273081	0.019740
713.473050	0.019784
713.673001	0.019804
713.872934	0.019829
714.072849	0.019963
714.272745	0.019975
714.472623	0.019893
714.672483	0.019790
714.872325	0.019670
715.072148	0.019784
715.271954	0.019954
715.471741	0.020155
715.671509	0.020119
715.871260	0.020215
716.070992	0.020204
716.270707	0.020345
716.470403	0.020335
716.670080	0.020310
716.869740	0.020318
717.069381	0.020522
717.269004	0.020479
717.468609	0.020532
717.668195	0.020517
717.867764	0.020474
718.067314	0.020342
718.266846	0.020311
718.466360	0.020365
718.665855	0.020213
718.865332	0.019964
719.064791	0.019678
719.264232	0.019533
719.463655	0.019366
719.663059	0.019376
719.862445	0.019552
720.061813	0.019523
720.261163	0.019496
720.460494	0.019476
720.659807	0.019265
720.859102	0.019332
721.058379	0.019414
721.257638	0.019477
721.456878	0.019566
721.656100	0.019326
721.855304	0.019399
722.054490	0.019360
722.253657	0.019414
722.452806	0.019463
722.651937	0.019681
722.851050	0.019610
723.050145	0.019496
723.249221	0.019310
723.448279	0.019463
723.647319	0.019465
723.846340	0.019514
724.045344	0.019761
724.244329	0.019812
724.443296	0.019746
724.642245	0.019941
724.841175	0.020055
725.040088	0.020281
725.238982	0.020335
725.437857	0.020379
725.636715	0.020434
725.835554	0.020385
726.034376	0.020412
726.233179	0.020382
726.431963	0.020135
726.630730	0.020031
726.829478	0.019688
727.028208	0.019679
727.226920	0.019585
727.425614	0.019379
727.624289	0.019332
727.822946	0.019343
728.021585	0.019391
728.220206	0.019507
728.418808	0.019548
728.617392	0.019645
728.815958	0.019559
729.014506	0.019713
729.213036	0.019630
729.411547	0.019556
729.610040	0.019423
729.808515	0.019300
730.006972	0.019149
730.205410	0.018972
730.403831	0.018957
730.602233	0.018817
730.800616	0.018700
730.998982	0.018743
731.197329	0.018652
731.395658	0.018680
731.593969	0.018595
731.792262	0.018494
731.990536	0.018540
732.188793	0.018674
732.387031	0.018701
732.585250	0.018509
732.783452	0.018578
732.981635	0.018326
733.179800	0.018248
733.377947	0.018267
733.576076	0.018394
733.774186	0.018367
733.972278	0.018063
734.170352	0.017904
734.368408	0.017915
734.566446	0.017963
734.764465	0.018150
734.962466	0.018150
735.160449	0.017955
735.358413	0.018007
735.556360	0.018113
735.754288	0.018351
735.952198	0.018436
736.150090	0.018361
736.347963	0.018217
736.545818	0.018075
736.743655	0.018162
736.941474	0.018364
737.139275	0.018240
737.337057	0.018155
737.534821	0.017972
737.732567	0.017924
737.930295	0.017942
738.128005	0.017818
738.325696	0.017716
738.523369	0.017652
738.721024	0.017638
738.918660	0.017705
739.116279	0.017621
739.313879	0.017750
739.511461	0.017969
739.709024	0.018125
739.906570	0.018201
740.104097	0.018450
740.301606	0.018413
740.499097	0.018359
740.696569	0.018445
740.894024	0.018514
741.091460	0.018424
741.288878	0.018340
741.486277	0.018198
741.683659	0.018356
741.881022	0.018388
742.078367	0.018482
742.275694	0.018514
742.473002	0.018480
742.670293	0.018531
742.867565	0.018510
743.064819	0.018493
743.262054	0.018534
743.459272	0.018304
743.656471	0.018226
743.853652	0.018291
744.050815	0.018233
744.247959	0.018311
744.445085	0.018249
744.642194	0.018436
744.839283	0.018476
745.036355	0.018443
745.233408	0.018594
745.430444	0.018686
745.627461	0.018546
745.824459	0.018587
746.021440	0.018248
746.218402	0.018146
746.415346	0.017970
746.612272	0.017838
746.809180	0.017830
747.006069	0.017955
747.202940	0.017847
747.399793	0.017911
747.596628	0.018060
747.793444	0.018399
747.990243	0.018615
748.187023	0.018706
748.383784	0.019032
748.580528	0.019038
748.777253	0.019078
748.973960	0.019276
749.170649	0.019286
749.367320	0.019161
749.563973	0.019058
749.760607	0.018943
749.957223	0.019126
750.153821	0.018899
750.350400	0.018971
750.546962	0.018977
750.743505	0.018832
750.940030	0.018751
751.136536	0.018777
751.333025	0.018720
751.529495	0.018849
751.725947	0.018739
751.922381	0.018731
752.118796	0.018866
752.315194	0.018839
752.511573	0.018811
752.707934	0.018847
752.904276	0.018763
753.100601	0.018861
753.296907	0.018875
753.493195	0.019165
753.689465	0.019292
753.885716	0.019253
754.081949	0.019178
754.278164	0.019323
754.474361	0.019405
754.670540	0.019520
754.866700	0.019471
755.062843	0.019257
755.258967	0.018910
755.455072	0.018718
755.651160	0.018653
755.847229	0.018503
756.043280	0.018389
756.239313	0.018249
756.435328	0.018067
756.631324	0.018014
756.827302	0.018156
757.023262	0.018076
757.219204	0.018004
757.415127	0.017924
757.611033	0.017983
757.806920	0.017927
758.002788	0.017980
758.198639	0.017999
758.394471	0.017821
758.590286	0.017685
758.786081	0.017532
758.981859	0.017549
759.177619	0.017377
759.373360	0.017290
759.569083	0.017290
759.764788	0.017237
759.960474	0.017365
760.156143	0.017455
760.351793	0.017538
760.547425	0.017694
760.743038	0.017757
760.938634	0.017986
761.134211	0.017965
761.329770	0.017934
761.525311	0.018094
761.720833	0.018101
761.916338	0.018175
762.111824	0.018229
762.307292	0.018216
762.502741	0.018121
762.698173	0.017960
762.893586	0.018076
763.088981	0.018043
763.284358	0.018050
763.479716	0.017998
763.675057	0.018030
763.870379	0.017815
764.065683	0.017714
764.260968	0.017783
764.456236	0.018053
764.651485	0.018110
764.846716	0.018283
765.041929	0.018166
765.237123	0.018192
765.432299	0.018276
765.627457	0.018568
765.822597	0.018763
766.017719	0.018848
766.212822	0.018788
766.407907	0.018776
766.602974	0.018656
766.798023	0.018498
766.993054	0.018560
767.188066	0.018326
767.383060	0.018073
767.578036	0.017922
767.772993	0.017927
767.967933	0.017859
768.162854	0.017798
768.357757	0.017775
768.552642	0.017823
768.747508	0.017744
768.942356	0.017828
769.137186	0.017819
769.331998	0.017775
769.526792	0.017698
769.721567	0.017557
769.916324	0.017504
770.111063	0.017493
770.305784	0.017460
770.500486	0.017428
770.695171	0.017631
770.889837	0.017687
771.084484	0.017653
771.279114	0.017696
771.473725	0.017751
771.668318	0.017736
771.862893	0.017570
772.057450	0.017606
772.251988	0.017523
772.446509	0.017120
772.641011	0.016919
772.835494	0.017018
773.029960	0.017047
773.224407	0.017043
773.418836	0.017018
773.613247	0.017233
773.807640	0.017289
774.002014	0.017364
774.196370	0.017543
774.390708	0.017719
774.585028	0.017576
774.779330	0.017506
774.973613	0.017438
775.167878	0.017463
775.362125	0.017278
775.556354	0.017290
775.750564	0.017138
775.944756	0.016949
776.138930	0.016832
776.333086	0.016847
776.527223	0.016717
776.721343	0.016754
776.915444	0.016969
777.109526	0.017188
777.303591	0.017313
777.497637	0.017589
777.691666	0.017923
777.885676	0.018067
778.079667	0.018194
778.273641	0.018365
778.467596	0.018488
778.661533	0.018378
778.855452	0.018224
779.049352	0.017984
779.243235	0.017765
779.437099	0.017532
779.630945	0.017510
779.824773	0.017479
780.018582	0.017429
780.212373	0.017253
780.406146	0.017137
780.599901	0.017164
780.793638	0.017147
780.987356	0.017102
781.181056	0.017183
781.374738	0.016954
781.568402	0.016789
781.762047	0.016711
781.955674	0.016716
782.149283	0.016602
782.342874	0.016368
782.536447	0.016481
782.730001	0.016506
782.923537	0.016432
783.117055	0.016721
783.310555	0.016755
783.504036	0.016906
783.697499	0.016938
783.890944	0.016981
784.084371	0.017142
784.277780	0.016972
784.471170	0.017085
784.664542	0.017010
784.857896	0.016921
785.051231	0.016943
785.244549	0.016764
785.437848	0.016739
785.631129	0.016690
785.824392	0.016687
786.017636	0.016760
786.210863	0.016635
786.404071	0.016734
786.597260	0.016512
786.790432	0.016620
786.983585	0.016562
787.176721	0.016357
787.369838	0.016175
787.562936	0.016059
787.756017	0.015809
787.949079	0.015564
788.142123	0.015336
788.335149	0.015380
788.528156	0.015113
788.721146	0.015179
788.914117	0.015296
789.107070	0.015384
789.300005	0.015466
789.492921	0.015555
789.685819	0.015693
789.878699	0.015820
790.071561	0.015927
790.264405	0.016046
790.457230	0.015937
790.650037	0.015837
790.842826	0.015786
791.035597	0.015724
791.228349	0.015897
791.421084	0.015995
791.613800	0.016029
791.806497	0.015952
791.999177	0.016120
792.191838	0.016251
792.384481	0.016493
792.577106	0.016877
792.769713	0.017135
792.962301	0.017116
793.154871	0.017037
793.347423	0.017019
793.539957	0.017076
793.732473	0.016992
793.924970	0.017081
794.117449	0.017030
794.309910	0.016676
794.502353	0.016632
794.694777	0.016709
794.887183	0.016771
795.079571	0.016842
795.271941	0.016831
795.464293	0.016941
795.656626	0.016745
795.848941	0.016825
796.041238	0.016926
796.233516	0.016802
796.425777	0.016785
796.618019	0.016880
796.810243	0.016948
797.002449	0.016929
797.194636	0.016767
797.386805	0.016900
797.578956	0.016830
797.771089	0.016982
797.963204	0.017083
798.155300	0.016951
798.347378	0.016940
798.539438	0.016910
798.731480	0.016976
798.923503	0.017115
799.115509	0.017057
799.307496	0.017145
799.499465	0.017144
799.691415	0.016951
799.883348	0.017001
800.075262	0.017010
800.267158	0.017157
800.459035	0.017311
800.650895	0.017410
800.842736	0.017515
801.034559	0.017606
801.226364	0.017573
801.418150	0.017627
801.609919	0.017810
801.801669	0.017803
801.993401	0.017557
802.185114	0.017396
802.376810	0.017120
802.568487	0.017245
802.760146	0.017163
802.951787	0.017150
803.143409	0.017229
803.335014	0.017020
803.526600	0.016882
803.718168	0.016892
803.909717	0.016981
804.101249	0.017022
804.292762	0.016835
804.484257	0.016774
804.675734	0.016806
804.867192	0.016969
805.058632	0.017138
805.250054	0.017346
805.441458	0.017397
805.632844	0.017436
805.824211	0.017712
806.015561	0.017808
806.206891	0.017832
806.398204	0.017731
806.589499	0.017626
806.780775	0.017616
806.972033	0.017594
807.163273	0.017809
807.354495	0.017880
807.545698	0.017728
807.736883	0.017748
807.928050	0.017702
808.119199	0.017921
808.310329	0.018131
808.501441	0.018190
808.692535	0.018063
808.883611	0.017874
809.074669	0.017821
809.265708	0.017815
809.456729	0.017729
809.647732	0.017879
809.838717	0.017886
810.029683	0.017723
810.220632	0.017503
810.411562	0.017653
810.602474	0.017732
810.793367	0.017824
810.984242	0.017798
811.175100	0.017804
811.365938	0.017606
811.556759	0.017575
811.747562	0.017614
811.938346	0.017820
812.129112	0.017834
812.319860	0.017981
812.510589	0.017962
812.701300	0.018054
812.891994	0.018197
813.082668	0.018467
813.273325	0.018386
813.463964	0.018486
813.654584	0.018616
813.845186	0.018574
814.035769	0.018467
814.226335	0.018464
814.416882	0.018484
814.607411	0.018534
814.797922	0.018325
814.988415	0.018360
815.178889	0.018339
815.369345	0.018220
815.559783	0.018330
815.750203	0.018190
815.940605	0.018053
816.130988	0.017954
816.321353	0.017798
816.511700	0.017875
816.702028	0.017822
816.892339	0.017634
817.082631	0.017422
817.272905	0.017233
817.463161	0.017406
817.653398	0.017663
817.843617	0.017715
818.033819	0.017931
818.224001	0.018100
818.414166	0.018319
818.604312	0.018507
818.794440	0.018888
818.984550	0.019152
819.174642	0.019100
819.364716	0.019045
819.554771	0.018959
819.744808	0.018815
819.934827	0.018739
820.124827	0.018722
820.314810	0.018956
820.504774	0.018785
820.694720	0.018757
820.884647	0.018855
821.074557	0.018789
821.264448	0.018848
821.454321	0.018854
821.644176	0.018777
821.834012	0.018773
822.023831	0.018460
822.213631	0.018556
822.403413	0.018595
822.593176	0.018562
822.782922	0.018543
822.972649	0.018611
823.162358	0.018639
823.352049	0.018693
823.541721	0.018467
823.731376	0.018429
823.921012	0.018520
824.110629	0.018404
824.300229	0.018460
824.489811	0.018397
824.679374	0.018532
824.868919	0.018290
825.058445	0.018193
825.247954	0.018409
825.437444	0.018473
825.626916	0.018201
825.816370	0.018136
826.005806	0.018076
826.195223	0.018102
826.384622	0.018046
826.574003	0.018293
826.763366	0.018403
826.952711	0.018431
827.142037	0.018456
827.331345	0.018470
827.520635	0.018521
827.709906	0.018622
827.899160	0.018658
828.088395	0.018709
828.277612	0.018632
828.466810	0.018555
828.655991	0.018576
828.845153	0.018329
829.034297	0.018432
829.223423	0.018557
829.412531	0.018387
829.601620	0.018518
829.790691	0.018502
829.979744	0.018604
830.168779	0.018821
830.357795	0.018791
830.546793	0.019084
830.735773	0.019234
830.924735	0.019284
831.113679	0.019553
831.302604	0.019492
831.491511	0.019604
831.680400	0.019619
831.869271	0.019474
832.058123	0.019460
832.246957	0.019288
832.435773	0.019276
832.624571	0.019169
832.813351	0.019120
833.002112	0.019304
833.190855	0.019339
833.379580	0.019524
833.568287	0.019747
833.756975	0.019844
833.945645	0.020069
834.134297	0.020246
834.322931	0.020427
834.511547	0.020571
834.700144	0.020352
834.888723	0.020248
835.077284	0.020049
835.265826	0.020116
835.454351	0.020067
835.642857	0.020099
835.831345	0.020027
836.019815	0.020040
836.208266	0.019922
836.396699	0.020197
836.585114	0.020285
836.773511	0.020626
836.961890	0.020587
837.150250	0.020823
837.338592	0.020936
837.526916	0.021014
837.715222	0.020969
837.903510	0.021099
838.091779	0.021029
838.280030	0.021005
838.468263	0.020884
838.656477	0.020888
838.844674	0.020748
839.032852	0.020617
839.221012	0.020460
839.409153	0.020796
839.597277	0.020966
839.785382	0.021176
839.973469	0.021351
840.161538	0.021346
840.349589	0.021281
840.537621	0.021416
840.725635	0.021845
840.913631	0.022002
841.101609	0.021777
841.289568	0.021703
841.477509	0.021533
841.665432	0.021379
841.853337	0.021465
842.041224	0.021672
842.229092	0.021464
842.416942	0.021253
842.604774	0.021331
842.792588	0.021261
842.980383	0.021147
843.168160	0.021348
843.355919	0.021639
843.543660	0.021608
843.731382	0.021570
843.919087	0.022026
844.106773	0.022105
844.294441	0.022275
844.482090	0.022769
844.669722	0.022763
844.857335	0.022913
845.044930	0.023017
845.232507	0.023291
845.420065	0.023568
845.607605	0.023505
845.795127	0.023406
845.982631	0.023338
846.170117	0.023213
846.357584	0.023386
846.545033	0.023396
846.732464	0.023310
846.919877	0.023340
847.107272	0.023457
847.294648	0.023508
847.482006	0.023844
847.669346	0.023920
847.856667	0.023693
848.043971	0.023859
848.231256	0.023802
848.418523	0.023954
848.605771	0.023819
848.793002	0.023635
848.980214	0.023747
849.167408	0.023521
849.354584	0.023353
849.541742	0.023462
849.728881	0.023491
849.916002	0.023360
850.103105	0.023264
850.290190	0.023322
850.477256	0.023357
850.664304	0.023325
850.851334	0.023399
851.038346	0.023587
851.225340	0.023537
851.412315	0.023513
851.599272	0.023740
851.786211	0.023862
851.973132	0.023809
852.160034	0.023673
852.346918	0.023789
852.533784	0.023855
852.720632	0.023901
852.907462	0.023884
853.094273	0.023666
853.281066	0.023542
853.467841	0.023653
853.654598	0.023741
853.841336	0.023996
854.028056	0.023710
854.214758	0.023697
854.401442	0.023413
854.588107	0.023666
854.774755	0.023885
854.961384	0.023980
855.147995	0.023981
855.334587	0.023959
855.521162	0.024020
855.707718	0.024144
855.894256	0.024297
856.080775	0.024644
856.267277	0.024591
856.453760	0.024631
856.640225	0.024717
856.826672	0.024583
857.013101	0.024744
857.199511	0.024904
857.385903	0.024886
857.572277	0.024891
857.758633	0.024946
857.944970	0.024990
858.131290	0.025187
858.317591	0.025250
858.503873	0.025343
858.690138	0.025553
858.876384	0.025261
859.062612	0.025508
859.248822	0.025515
859.435014	0.025539
859.621188	0.025817
859.807343	0.025896
859.993480	0.025817
860.179599	0.025874
860.365699	0.025771
860.551781	0.025578
860.737846	0.025307
860.923891	0.025392
861.109919	0.025268
861.295929	0.025328
861.481920	0.025004
861.667893	0.024889
861.853848	0.024893
862.039784	0.024948
862.225702	0.025393
862.411603	0.025520
862.597484	0.025632
862.783348	0.026114
862.969193	0.026133
863.155021	0.026450
863.340830	0.026675
863.526620	0.026909
863.712393	0.026758
863.898147	0.026843
864.083883	0.027088
864.269601	0.027164
864.455301	0.026979
864.640982	0.026700
864.826645	0.026658
865.012290	0.026565
865.197917	0.026284
865.383526	0.026418
865.569116	0.026274
865.754688	0.026247
865.940242	0.025906
866.125777	0.025582
866.311295	0.025464
866.496794	0.025566
866.682275	0.025722
866.867737	0.025798
867.053182	0.025613
867.238608	0.025606
867.424016	0.025535
867.609406	0.025504
867.794778	0.025815
867.980131	0.026110
868.165466	0.026134
868.350783	0.026225
868.536082	0.026118
868.721362	0.026148
868.906625	0.026244
869.091869	0.026017
869.277094	0.026200
869.462302	0.026169
869.647491	0.026029
869.832662	0.025961
870.017815	0.026043
870.202950	0.026125
870.388066	0.026285
870.573165	0.026216
870.758245	0.026531
870.943306	0.026639
871.128350	0.026777
871.313375	0.026813
871.498382	0.026642
871.683371	0.026497
871.868342	0.026838
872.053294	0.026962
872.238229	0.026914
872.423144	0.026946
872.608042	0.026907
872.792922	0.026773
872.977783	0.026880
873.162626	0.026946
873.347451	0.027175
873.532258	0.026913
873.717046	0.027084
873.901816	0.027233
874.086568	0.027143
874.271302	0.027323
874.456017	0.027350
874.640715	0.027389
874.825394	0.027355
875.010055	0.027284
875.194697	0.027022
875.379322	0.026829
875.563928	0.026655
875.748516	0.026349
875.933085	0.026110
876.117637	0.025778
876.302170	0.025615
876.486685	0.025706
876.671182	0.025596
876.855661	0.026123
877.040121	0.026088
877.224563	0.026099
877.408987	0.026388
877.593393	0.026459
877.777780	0.026909
877.962150	0.027295
878.146501	0.027381
878.330833	0.027374
878.515148	0.027158
878.699444	0.027250
878.883722	0.027349
879.067982	0.027223
879.252224	0.027146
879.436447	0.027123
879.620653	0.026925
879.804840	0.026751
879.989008	0.026852
880.173159	0.026852
880.357291	0.026884
880.541405	0.027099
880.725501	0.027171
880.909579	0.027625
881.093638	0.027790
881.277680	0.027990
881.461703	0.028137
881.645707	0.028299
881.829694	0.028323
882.013662	0.028069
882.197612	0.027982
882.381544	0.028237
882.565458	0.028169
882.749353	0.028141
882.933230	0.028196
883.117089	0.028202
883.300930	0.027982
883.484753	0.028319
883.668557	0.028451
883.852343	0.028506
884.036111	0.028657
884.219861	0.028745
884.403592	0.028506
884.587305	0.028324
884.771000	0.028455
884.954677	0.028900
885.138335	0.028440
885.321976	0.028629
885.505598	0.028515
885.689201	0.028388
885.872787	0.028398
886.056354	0.028640
886.239904	0.028586
886.423434	0.028646
886.606947	0.028039
886.790442	0.028243
886.973918	0.028003
887.157376	0.027826
887.340816	0.027744
887.524237	0.027703
887.707641	0.027012
887.891026	0.027055
888.074393	0.026564
888.257741	0.026932
888.441072	0.026889
888.624384	0.026904
888.807678	0.027319
888.990954	0.027271
889.174211	0.026952
889.357451	0.027506
889.540672	0.027462
889.723875	0.027952
889.907059	0.027716
890.090226	0.027479
890.273374	0.027137
890.456504	0.026626
890.639616	0.026624
890.822709	0.026573
891.005785	0.026140
891.188842	0.026103
891.371881	0.025714
891.554901	0.025562
891.737904	0.025707
891.920888	0.025831
892.103854	0.025815
892.286802	0.025826
892.469731	0.025784
892.652643	0.025823
892.835536	0.025832
893.018410	0.026088
893.201267	0.026057
893.384106	0.025956
893.566926	0.026416
893.749728	0.026599
893.932511	0.026416
894.115277	0.026461
894.298024	0.026738
894.480753	0.026395
894.663464	0.026106
894.846157	0.026094
895.028831	0.026208
895.211487	0.026034
895.394125	0.025761
895.576745	0.025954
895.759346	0.026014
895.941930	0.026181
896.124495	0.026524
896.307041	0.026754
896.489570	0.026819
896.672080	0.026727
896.854573	0.026815
897.037046	0.027273
897.219502	0.027547
897.401940	0.027828
897.584359	0.027741
897.766760	0.027917
897.949143	0.027759
898.131507	0.027843
898.313854	0.028090
898.496182	0.027833
898.678492	0.027370
898.860783	0.026881
899.043057	0.026484
899.225312	0.026209
899.407549	0.026032
899.589768	0.026116
899.771968	0.025952
899.954151	0.025840
900.136315	0.025312
900.318461	0.025318
900.500588	0.025254
900.682698	0.025094
900.864789	0.025338
901.046862	0.025407
901.228917	0.025116
901.410953	0.025075
901.592971	0.024908
901.774972	0.025253
901.956953	0.025508
902.138917	0.025546
902.320862	0.025488
902.502790	0.024975
902.684699	0.024529
902.866589	0.024331
903.048462	0.024288
903.230316	0.024259
903.412152	0.024297
903.593970	0.023769
903.775770	0.023676
903.957551	0.023556
904.139314	0.023604
904.321059	0.023746
904.502786	0.023960
904.684494	0.023866
904.866185	0.023693
905.047857	0.023581
905.229510	0.023719
905.411146	0.023578
905.592763	0.023506
905.774363	0.023451
905.955943	0.023212
906.137506	0.022930
906.319051	0.023045
906.500577	0.022968
906.682085	0.022775
906.863575	0.022861
907.045046	0.022562
907.226500	0.022586
907.407935	0.022918
907.589352	0.022691
907.770750	0.022791
907.952131	0.022199
908.133493	0.022093
908.314837	0.022115
908.496163	0.021921
908.677470	0.022570
908.858760	0.022547
909.040031	0.022245
909.221284	0.021953
909.402518	0.021940
909.583735	0.022628
909.764933	0.022701
909.946113	0.022727
910.127275	0.022771
910.308418	0.022468
910.489544	0.022526
910.670651	0.022330
910.851740	0.022628
911.032810	0.022588
911.213863	0.022189
911.394897	0.022176
911.575913	0.021733
911.756911	0.021608
911.937890	0.021300
912.118851	0.021039
912.299794	0.021156
912.480719	0.020951
912.661626	0.020832
912.842514	0.020514
913.023384	0.020334
913.204236	0.020573
913.385070	0.020281
913.565886	0.020101
913.746683	0.019940
913.927462	0.019485
914.108223	0.019353
914.288965	0.019314
914.469690	0.019124
914.650396	0.018615
914.831084	0.018271
915.011754	0.018583
915.192405	0.018848
915.373038	0.018581
915.553653	0.018565
915.734250	0.018389
915.914829	0.017968
916.095389	0.017752
916.275931	0.017975
916.456455	0.018214
916.636961	0.017806
916.817448	0.017342
916.997917	0.017577
917.178368	0.017613
917.358801	0.017823
917.539216	0.018217
917.719612	0.018413
917.899990	0.018199
918.080350	0.017957
918.260692	0.017835
918.441015	0.017802
918.621320	0.017505
918.801607	0.017327
918.981876	0.017290
919.162127	0.017121
919.342359	0.017093
919.522573	0.016872
919.702769	0.017083
919.882947	0.016773
920.063106	0.016542
920.243247	0.016552
920.423370	0.016346
920.603475	0.015921
920.783562	0.015632
920.963630	0.015420
921.143680	0.015220
921.323712	0.014841
921.503725	0.015111
921.683721	0.015324
921.863698	0.015281
922.043657	0.015258
922.223598	0.015131
922.403520	0.014727
922.583424	0.014375
922.763311	0.014916
922.943178	0.015155
923.123028	0.014906
923.302859	0.014517
923.482673	0.014266
923.662467	0.014016
923.842244	0.014391
924.022003	0.014487
924.201743	0.014322
924.381465	0.013534
924.561169	0.012870
924.740854	0.012800
924.920522	0.012406
925.100171	0.011846
925.279802	0.011460
925.459414	0.011072
925.639009	0.011185
925.818585	0.010866
925.998143	0.010888
926.177683	0.010570
926.357205	0.009834
926.536708	0.009795
926.716193	0.009754
926.895660	0.009752
927.075109	0.008919
927.254539	0.008444
927.433951	0.008496
927.613345	0.008405
927.792721	0.008064
927.972079	0.008310
928.151418	0.008004
928.330739	0.008084
928.510042	0.007993
928.689327	0.008445
928.868593	0.008152
929.047841	0.008517
929.227071	0.008201
929.406283	0.008308
929.585476	0.008100
929.764652	0.008137
929.943809	0.007614
930.122948	0.007302
930.302068	0.006772
930.481171	0.006458
930.660255	0.005701
930.839321	0.005555
931.018369	0.004886
931.197398	0.004545
931.376409	0.003846
931.555402	0.004008
931.734377	0.003912
931.913334	0.003278
932.092272	0.002947
932.271192	0.002877
932.450094	0.002254
932.628978	0.002641
932.807844	0.002329
932.986691	0.002935
933.165520	0.002663
933.344331	0.001708
933.523123	0.002104
933.701898	0.001494
933.880654	0.001162
934.059392	0.001171
934.238111	0.000545
934.416813	0.000881
934.595496	0.000076
934.774161	0.000123
934.952808	0.000751
935.131437	0.000740
935.310047	0.000969
935.488639	0.000733
935.667213	0.000140
935.845769	0.000598
936.024306	0.000297
936.202825	-0.000390
936.381326	-0.000993
936.559809	-0.001402
936.738274	-0.001806
936.916720	-0.002107
937.095148	-0.001961
937.273558	-0.001673
937.451950	-0.001713
937.630323	-0.001993
937.808678	-0.001265
937.987015	-0.001728
938.165334	-0.001416
938.343635	-0.001644
938.521917	-0.000445
938.700181	-0.001327
938.878427	-0.001378
939.056655	-0.002477
939.234864	-0.002848
939.413055	-0.002966
939.591228	-0.002811
939.769383	-0.002515
939.947519	-0.002507
940.125638	-0.004491
940.303738	-0.004728
940.481820	-0.005257
940.659883	-0.004782
940.837929	-0.005052
941.015956	-0.004926
941.193965	-0.004905
941.371955	-0.006299
941.549928	-0.006360
941.727882	-0.005830
941.905818	-0.005742
942.083736	-0.005537
942.261636	-0.006517
942.439517	-0.007232
942.617380	-0.007927
942.795225	-0.008310
942.973052	-0.008990
943.150860	-0.009213
943.328651	-0.010059
943.506423	-0.010582
943.684176	-0.011343
943.861912	-0.010850
944.039629	-0.010286
944.217328	-0.010524
944.395009	-0.010481
944.572672	-0.010372
944.750317	-0.010693
944.927943	-0.009654
945.105551	-0.010197
945.283141	-0.009568
945.460712	-0.010704
945.638265	-0.011338
945.815801	-0.011986
945.993317	-0.012213
946.170816	-0.012210
946.348297	-0.012607
946.525759	-0.013362
946.703203	-0.011764
946.880629	-0.011948
947.058036	-0.010076
947.235425	-0.009948
947.412797	-0.009318
947.590149	-0.010313
947.767484	-0.010063
947.944800	-0.010265
948.122099	-0.009573
948.299379	-0.009708
948.476640	-0.010378
948.653884	-0.011883
948.831109	-0.012524
949.008316	-0.012774
949.185505	-0.011942
949.362676	-0.012344
949.539828	-0.011542
949.716962	-0.012136
949.894078	-0.012870
950.071176	-0.013248
950.248256	-0.013482
950.425317	-0.012330
950.602360	-0.013218
950.779385	-0.012455
950.956391	-0.011936
951.133380	-0.013323
951.310350	-0.013526
951.487302	-0.012892
951.664235	-0.012539
951.841151	-0.013279
952.018048	-0.013581
952.194927	-0.012238
952.371788	-0.013335
952.548631	-0.013949
952.725455	-0.012760
952.902261	-0.012599
953.079049	-0.013262
953.255819	-0.013321
953.432570	-0.013285
953.609303	-0.014169
953.786018	-0.015474
953.962715	-0.015281
954.139394	-0.014923
954.316054	-0.015005
954.492696	-0.015973
954.669320	-0.017027
954.845926	-0.016705
955.022513	-0.015654
955.199083	-0.015475
955.375634	-0.014807
955.552166	-0.015372
955.728681	-0.015559
955.905177	-0.015337
956.081655	-0.015717
956.258115	-0.013987
956.434557	-0.014244
956.610980	-0.014862
956.787385	-0.014565
956.963772	-0.013904
957.140141	-0.013002
957.316492	-0.012699
957.492824	-0.013337
957.669138	-0.011805
957.845434	-0.010590
958.021712	-0.008336
958.197971	-0.008444
958.374212	-0.008524
958.550435	-0.009260
958.726640	-0.009335
958.902826	-0.009009
959.078995	-0.008921
959.255145	-0.006937
959.431277	-0.009010
959.607390	-0.010283
959.783486	-0.009524
959.959563	-0.008057
960.135622	-0.007196
960.311662	-0.006515
960.487685	-0.005382
960.663689	-0.005169
960.839675	-0.007311
961.015643	-0.005448
961.191593	-0.006309
961.367524	-0.004702
961.543437	-0.004896
961.719332	-0.003832
961.895209	-0.003120
962.071067	-0.004611
962.246907	-0.005110
962.422730	-0.005508
962.598533	-0.005616
962.774319	-0.005197
962.950086	-0.007100
963.125835	-0.005526
963.301566	-0.006442
963.477279	-0.006356
963.652973	-0.005855
963.828650	-0.004294
964.004308	-0.002139
964.179947	-0.002988
964.355569	-0.001798
964.531172	-0.000424
964.706757	-0.002985
964.882324	-0.004092
965.057873	-0.004524
965.233403	-0.003741
965.408916	-0.003752
965.584410	-0.004315
965.759885	-0.004243
965.935343	-0.004337
966.110782	-0.004568
966.286203	-0.004386
966.461606	-0.004149
966.636991	-0.003874
966.812357	-0.005084
966.987705	-0.007726
967.163035	-0.009752
967.338347	-0.010043
967.513641	-0.010382
967.688916	-0.010167
967.864173	-0.008226
968.039412	-0.006135
968.214632	-0.006622
968.389835	-0.004150
968.565019	-0.000974
968.740185	0.000796
968.915333	0.000597
969.090462	0.001706
969.265573	0.002441
969.440667	0.002934
969.615741	-0.000240
969.790798	0.000923
969.965836	-0.000205
970.140856	-0.002953
970.315858	-0.004478
970.490842	-0.002878
970.665808	-0.002544
970.840755	-0.001238
971.015684	-0.002671
971.190595	-0.001482
971.365487	-0.002669
971.540362	-0.002136
971.715218	-0.001197
971.890056	-0.000195
972.064875	-0.002488
972.239677	-0.002132
972.414460	-0.001980
972.589225	-0.003173
972.763972	-0.000177
972.938700	-0.001491
973.113411	-0.004086
973.288103	-0.003693
973.462777	-0.003242
973.637432	-0.002528
973.812070	-0.005320
973.986689	-0.006307
974.161290	-0.004054
974.335873	-0.005218
974.510437	-0.003538
974.684984	-0.001845
974.859512	-0.001048
975.034022	-0.000750
975.208513	0.000485
975.382987	0.003134
975.557442	0.002354
975.731879	0.001625
975.906298	0.001933
976.080698	0.000710
976.255080	0.000803
976.429445	0.001548
976.603790	0.002969
976.778118	0.002878
976.952427	0.001879
977.126719	0.002522
977.300992	0.001034
977.475246	-0.000989
977.649483	-0.000619
977.823701	-0.000994
977.997901	-0.001264
978.172083	-0.000635
978.346247	-0.000375
978.520392	-0.001173
978.694519	-0.000418
978.868628	0.000320
979.042719	0.002485
979.216791	0.003432
979.390845	0.005024
979.564882	0.002985
979.738899	0.000910
979.912899	0.000506
980.086880	0.002491
980.260843	0.000188
980.434788	0.002011
980.608715	-0.000684
980.782623	-0.000815
980.956514	-0.001478
981.130386	-0.000491
981.304240	-0.000348
981.478075	-0.000185
981.651892	-0.002707
981.825692	-0.000914
981.999472	-0.001970
982.173235	-0.001064
982.346980	-0.001009
982.520706	0.000685
982.694414	0.000622
982.868104	0.000468
983.041775	0.000388
983.215428	0.000967
983.389064	0.002144
983.562680	0.001376
983.736279	0.003474
983.909860	0.002533
984.083422	0.001050
984.256966	0.000467
984.430491	0.000437
984.603999	-0.000010
984.777488	0.001306
984.950959	-0.000119
985.124412	0.000550
985.297847	-0.001078
985.471263	-0.000596
985.644661	0.000135
985.818041	0.000897
985.991403	0.000205
986.164747	0.001349
986.338072	0.000527
986.511379	0.000051
986.684668	-0.000160
986.857938	0.000502
987.031191	0.001291
987.204425	-0.000177
987.377641	0.000053
987.550839	0.000109
987.724018	-0.000353
987.897179	0.000609
988.070322	0.001184
988.243447	0.001360
988.416554	0.001418
988.589642	0.000407
988.762712	0.001104
988.935764	-0.000246
989.108798	0.001599
989.281813	0.001358
989.454811	-0.000821
989.627790	-0.000242
989.800751	-0.000200
989.973693	-0.000998
990.146617	-0.000478
990.319524	-0.000925
990.492412	0.000202
990.665281	-0.001641
990.838133	-0.000359
991.010966	0.000592
991.183781	-0.000600
991.356578	-0.001903
991.529356	-0.002560
991.702117	-0.003991
991.874859	-0.005004
992.047583	-0.004743
992.220288	-0.004489
992.392976	-0.006047
992.565645	-0.006945
992.738296	-0.007256
992.910929	-0.007069
993.083543	-0.005790
993.256139	-0.003929
993.428718	-0.003928
993.601277	-0.005030
993.773819	-0.005019
993.946342	-0.004976
994.118848	-0.004508
994.291335	-0.005001
994.463803	-0.004684
994.636254	-0.005051
994.808686	-0.004094
994.981100	-0.001913
995.153496	0.000252
995.325874	0.000665
995.498233	0.001237
995.670574	0.001081
995.842897	0.002200
996.015202	0.001955
996.187488	0.003000
996.359757	0.000932
996.532007	-0.000790
996.704239	-0.002038
996.876452	-0.001259
997.048648	-0.001626
997.220825	-0.001211
997.392984	-0.002095
997.565124	-0.001282
997.737247	-0.002370
997.909351	-0.001396
998.081437	-0.003365
998.253505	-0.003331
998.425554	-0.003611
998.597586	-0.003020
998.769599	-0.003112
998.941594	-0.001662
999.113571	-0.000971
999.285529	-0.001192
999.457469	-0.001793
999.629391	-0.001052
999.801295	-0.001639
999.973181	-0.002805
1000.145048	-0.003625
1000.316897	-0.004074
1000.488728	-0.004882
1000.660541	-0.005839
1000.832335	-0.005625
1001.004111	-0.005952
1001.175869	-0.004310
1001.347609	-0.003326
1001.519331	-0.001838
1001.691034	-0.002439
1001.862719	-0.000228
1002.034386	-0.000822
1002.206035	-0.001117
1002.377665	-0.000751
1002.549277	-0.000267
1002.720871	-0.001381
1002.892447	-0.002624
1003.064004	-0.004273
1003.235544	-0.004776
1003.407065	-0.005926
1003.578568	-0.005878
1003.750052	-0.004993
1003.921519	-0.004917
1004.092967	-0.005820
1004.264397	-0.004655
1004.435809	-0.005160
1004.607202	-0.004884
1004.778577	-0.004010
1004.949934	-0.004510
1005.121273	-0.004613
1005.292594	-0.006179
1005.463896	-0.008211
1005.635180	-0.007451
1005.806446	-0.008129
1005.977694	-0.007080
1006.148923	-0.005762
1006.320135	-0.006065
1006.491328	-0.005384
1006.662503	-0.004456
1006.833659	-0.003040
1007.004798	-0.002619
1007.175918	-0.003316
1007.347020	-0.002848
1007.518103	-0.003116
1007.689169	-0.004172
1007.860216	-0.003803
1008.031245	-0.004122
1008.202256	-0.004538
1008.373248	-0.004214
1008.544223	-0.003246
1008.715179	-0.001107
1008.886117	-0.000794
1009.057036	0.000120
1009.227938	0.000480
1009.398821	-0.000193
1009.569686	-0.001349
1009.740533	-0.003292
1009.911361	-0.003886
1010.082172	-0.003612
1010.252964	-0.005452
1010.423738	-0.004951
1010.594493	-0.006904
1010.765231	-0.006090
1010.935950	-0.005079
1011.106651	-0.003061
1011.277334	-0.001830
1011.447998	-0.001322
1011.618645	-0.001251
1011.789273	-0.002256
1011.959882	-0.005126
1012.130474	-0.002898
1012.301048	-0.002453
1012.471603	-0.003305
1012.642140	-0.005220
1012.812658	-0.005362
1012.983159	-0.006081
1013.153641	-0.005578
1013.324105	-0.004782
1013.494551	-0.003381
1013.664979	-0.006837
1013.835388	-0.007277
1014.005779	-0.005888
1014.176152	-0.005056
1014.346507	-0.005091
1014.516843	-0.005775
1014.687162	-0.007465
1014.857462	-0.007014
1015.027744	-0.007235
1015.198007	-0.005104
1015.368252	-0.005546
1015.538480	-0.005411
1015.708689	-0.004504
1015.878879	-0.003272
1016.049052	-0.002981
1016.219206	-0.002870
1016.389342	-0.003204
1016.559460	-0.002917
1016.729559	-0.002367
1016.899641	-0.002383
1017.069704	-0.002979
1017.239749	-0.004043
1017.409775	-0.005090
1017.579784	-0.004500
1017.749774	-0.003310
1017.919746	-0.004253
1018.089700	-0.004450
1018.259635	-0.004011
1018.429553	-0.003220
1018.599452	-0.003691
1018.769333	-0.003773
1018.939195	-0.002751
1019.109040	-0.002933
1019.278866	-0.003927
1019.448674	-0.002595
1019.618464	-0.002983
1019.788235	-0.002807
1019.957989	-0.004923
1020.127724	-0.004378
1020.297441	-0.004742
1020.467139	-0.004976
1020.636820	-0.005430
1020.806482	-0.006491
1020.976126	-0.006106
1021.145752	-0.006983
1021.315359	-0.007567
1021.484948	-0.006002
1021.654519	-0.005962
1021.824072	-0.005800
1021.993607	-0.006272
1022.163123	-0.005801
1022.332621	-0.004212
1022.502101	-0.005217
1022.671563	-0.002234
1022.841007	-0.001757
1023.010432	-0.003994
1023.179839	-0.004893
1023.349228	-0.004313
1023.518598	-0.004890
1023.687951	-0.004372
1023.857285	-0.006813
1024.026601	-0.005994
1024.195899	-0.008403
1024.365178	-0.009145
1024.534439	-0.007207
1024.703682	-0.007211
1024.872907	-0.006582
1025.042114	-0.005983
1025.211302	-0.007446
1025.380472	-0.004535
1025.549624	-0.005691
1025.718758	-0.002523
1025.887873	-0.002840
1026.056970	-0.002893
1026.226049	-0.002972
1026.395110	-0.002876
1026.564153	-0.002966
1026.733177	-0.001063
1026.902183	-0.002067
1027.071171	-0.001699
1027.240141	-0.004795
1027.409092	-0.004392
1027.578026	-0.005480
1027.746940	-0.005186
1027.915837	-0.006243
1028.084716	-0.006265
1028.253576	-0.007766
1028.422418	-0.006499
1028.591242	-0.003869
1028.760048	-0.003585
1028.928835	-0.002986
1029.097604	-0.002020
1029.266355	-0.002058
1029.435088	-0.000988
1029.603803	-0.001417
1029.772499	-0.000689
1029.941177	-0.001206
1030.109837	-0.002682
1030.278478	-0.002216
1030.447102	-0.003561
1030.615707	-0.003472
1030.784294	-0.002836
1030.952863	-0.003978
1031.121413	-0.003220
1031.289945	-0.004550
1031.458460	-0.005265
1031.626955	-0.006572
1031.795433	-0.007357
1031.963892	-0.006074
1032.132334	-0.006841
1032.300756	-0.006950
1032.469161	-0.007199
1032.637548	-0.006797
1032.805916	-0.006275
1032.974266	-0.005950
1033.142598	-0.007310
1033.310911	-0.007762
1033.479207	-0.008993
1033.647484	-0.008420
1033.815743	-0.008535
1033.983983	-0.008035
1034.152206	-0.008035
1034.320410	-0.008339
1034.488596	-0.008700
1034.656764	-0.006786
1034.824914	-0.006438
1034.993045	-0.005783
1035.161158	-0.005450
1035.329253	-0.004686
1035.497330	-0.006153
1035.665388	-0.007274
1035.833428	-0.006890
1036.001450	-0.008499
1036.169454	-0.009111
1036.337440	-0.007221
1036.505407	-0.007969
1036.673356	-0.008146
1036.841287	-0.008289
1037.009200	-0.007402
1037.177094	-0.007068
1037.344970	-0.005375
1037.512828	-0.004752
1037.680668	-0.004373
1037.848489	-0.005154
1038.016293	-0.004349
1038.184078	-0.005565
1038.351845	-0.007298
1038.519593	-0.005542
1038.687324	-0.005176
1038.855036	-0.006573
1039.022730	-0.004314
1039.190406	-0.002638
1039.358063	-0.001405
1039.525702	-0.002097
1039.693323	-0.001515
1039.860926	-0.000332
1040.028511	-0.002443
1040.196077	-0.003633
1040.363625	-0.004661
1040.531155	-0.005351
1040.698667	-0.006473
1040.866161	-0.007400
1041.033636	-0.007263
1041.201093	-0.008220
1041.368532	-0.009029
1041.535952	-0.008567
1041.703355	-0.006385
1041.870739	-0.004917
1042.038105	-0.004874
1042.205452	-0.005169
1042.372782	-0.006581
1042.540093	-0.007360
1042.707386	-0.005671
1042.874661	-0.005914
1043.041918	-0.007080
1043.209156	-0.008162
1043.376376	-0.008549
1043.543578	-0.009021
1043.710762	-0.008892
1043.877927	-0.008398
1044.045074	-0.005262
1044.212203	-0.006508
1044.379314	-0.006707
1044.546407	-0.005282
1044.713481	-0.004304
1044.880537	-0.003746
1045.047575	-0.003966
1045.214595	-0.002829
1045.381596	-0.001673
1045.548579	-0.004243
1045.715544	-0.004952
1045.882491	-0.005464
1046.049420	-0.005022
1046.216330	-0.006245
1046.383222	-0.007908
1046.550096	-0.008237
1046.716951	-0.010667
1046.883789	-0.011233
1047.050608	-0.009643
1047.217409	-0.007507
1047.384192	-0.006530
1047.550956	-0.007150
1047.717703	-0.007112
1047.884431	-0.006716
1048.051140	-0.005411
1048.217832	-0.002841
1048.384505	-0.003092
1048.551161	-0.004113
1048.717798	-0.006945
1048.884416	-0.007381
1049.051017	-0.005343
1049.217599	-0.004796
1049.384163	-0.003926
1049.550709	-0.005081
1049.717237	-0.006789
1049.883746	-0.007208
1050.050237	-0.007267
1050.216710	-0.005968
1050.383165	-0.004396
1050.549601	-0.004651
1050.716019	-0.004103
1050.882420	-0.004242
1051.048801	-0.002579
1051.215165	-0.002628
1051.381510	-0.002160
1051.547837	-0.002372
1051.714146	-0.001114
1051.880437	-0.003211
1052.046709	-0.004439
1052.212964	-0.006073
1052.379200	-0.006580
1052.545417	-0.006554
1052.711617	-0.006095
1052.877798	-0.005308
1053.043961	-0.003888
1053.210106	-0.004828
1053.376233	-0.004366
1053.542341	-0.003894
1053.708432	-0.003707
1053.874504	-0.002855
1054.040557	-0.001383
1054.206593	-0.001365
1054.372610	-0.002033
1054.538609	-0.003849
1054.704590	-0.002472
1054.870553	-0.001193
1055.036497	-0.002483
1055.202424	-0.003722
1055.368331	-0.003050
1055.534221	-0.005965
1055.700093	-0.006130
1055.865946	-0.005740
1056.031781	-0.006338
1056.197598	-0.007487
1056.363397	-0.006622
1056.529177	-0.006200
1056.694939	-0.004401
1056.860683	-0.006818
1057.026409	-0.004963
1057.192116	-0.005398
1057.357806	-0.005191
1057.523477	-0.005460
1057.689130	-0.004589
1057.854764	-0.005476
1058.020381	-0.005032
1058.185979	-0.005343
1058.351559	-0.005004
1058.517120	-0.005289
1058.682664	-0.004528
1058.848189	-0.004602
1059.013696	-0.002251
1059.179185	-0.002393
1059.344656	-0.002979
1059.510108	-0.003280
1059.675542	-0.002796
1059.840958	-0.001021
1060.006356	-0.002372
1060.171735	-0.002046
1060.337096	-0.002613
1060.502439	-0.003519
1060.667764	-0.002557
1060.833071	-0.002698
1060.998359	-0.001784
1061.163629	-0.001949
1061.328881	-0.002915
1061.494115	-0.003099
1061.659330	-0.002914
1061.824527	-0.003772
1061.989706	-0.002393
1062.154867	-0.002666
1062.320010	-0.001909
1062.485134	-0.002730
1062.650240	-0.003550
1062.815328	-0.002443
1062.980398	-0.003396
1063.145449	-0.005379
1063.310482	-0.004754
1063.475497	-0.006221
1063.640494	-0.007169
1063.805473	-0.007783
1063.970433	-0.008214
1064.135375	-0.007847
1064.300299	-0.009364
1064.465204	-0.008405
1064.630092	-0.006801
1064.794961	-0.008493
1064.959812	-0.008109
1065.124645	-0.007525
1065.289459	-0.008546
1065.454256	-0.007731
1065.619034	-0.006210
1065.783793	-0.005690
1065.948535	-0.006412
1066.113258	-0.006902
1066.277964	-0.003969
1066.442651	-0.004048
1066.607319	-0.004700
1066.771970	-0.004146
1066.936602	-0.003951
1067.101216	-0.004248
1067.265812	-0.003465
1067.430389	-0.001588
1067.594949	-0.001810
1067.759490	-0.002262
1067.924013	-0.002682
1068.088518	-0.002293
1068.253004	-0.001120
1068.417472	-0.002069
1068.581922	-0.002982
1068.746354	-0.003045
1068.910768	-0.004738
1069.075163	-0.005523
1069.239540	-0.005780
1069.403899	-0.006320
1069.568240	-0.006603
1069.732562	-0.006323
1069.896866	-0.006414
1070.061152	-0.006830
1070.225420	-0.006896
1070.389670	-0.006698
1070.553901	-0.005612
1070.718114	-0.005388
1070.882309	-0.004798
1071.046486	-0.005536
1071.210644	-0.006114
1071.374784	-0.007264
1071.538906	-0.007838
1071.703010	-0.008667
1071.867096	-0.008389
1072.031163	-0.010361
1072.195212	-0.011296
1072.359243	-0.011640
1072.523256	-0.012996
1072.687250	-0.012720
1072.851226	-0.011788
1073.015184	-0.011008
1073.179124	-0.010457
1073.343045	-0.009135
1073.506949	-0.008165
1073.670834	-0.007059
1073.834701	-0.006451
1073.998549	-0.005523
1074.162380	-0.007824
1074.326192	-0.007002
1074.489986	-0.007688
1074.653761	-0.006870
1074.817519	-0.008090
1074.981258	-0.006408
1075.144979	-0.005406
1075.308682	-0.005068
1075.472367	-0.005083
1075.636033	-0.002364
1075.799681	-0.003439
1075.963311	-0.000763
1076.126923	-0.000299
1076.290516	-0.000603
1076.454092	-0.002072
1076.617649	-0.003679
1076.781187	-0.003568
1076.944708	-0.002285
1077.108210	-0.003935
1077.271695	-0.004495
1077.435160	-0.003922
1077.598608	-0.006870
1077.762038	-0.007293
1077.925449	-0.005757
1078.088842	-0.006140
1078.252217	-0.006856
1078.415573	-0.007128
1078.578912	-0.006554
1078.742232	-0.004767
1078.905534	-0.007539
1079.068817	-0.006078
1079.232083	-0.005568
1079.395330	-0.007077
1079.558559	-0.005281
1079.721770	-0.006498
1079.884962	-0.007061
1080.048136	-0.006799
1080.211293	-0.009432
1080.374430	-0.008268
1080.537550	-0.007832
1080.700651	-0.006044
1080.863735	-0.007636
1081.026800	-0.008288
1081.189846	-0.006388
1081.352875	-0.005776
1081.515885	-0.005860
1081.678877	-0.001852
1081.841851	-0.003054
1082.004807	-0.003351
1082.167744	-0.004339
1082.330663	-0.001448
1082.493564	-0.003499
1082.656447	-0.004552
1082.819312	-0.005784
1082.982158	-0.003767
1083.144986	-0.004648
1083.307796	-0.001476
1083.470587	0.000037
1083.633361	-0.001227
1083.796116	-0.000591
1083.958853	0.001244
1084.121571	0.001262
1084.284272	0.002055
1084.446954	0.000212
1084.609618	-0.001404
1084.772264	-0.005205
1084.934892	-0.006960
1085.097501	-0.006797
1085.260092	-0.006722
1085.422665	-0.007331
1085.585220	-0.005599
1085.747756	-0.003844
1085.910274	-0.004558
1086.072774	-0.004141
1086.235256	-0.003467
1086.397720	-0.003017
1086.560165	-0.002569
1086.722592	-0.003757
1086.885001	-0.004063
1087.047392	-0.005828
1087.209764	-0.007662
1087.372119	-0.005038
1087.534455	-0.004727
1087.696772	-0.004789
1087.859072	-0.003956
1088.021353	-0.004242
1088.183616	-0.004316
1088.345861	-0.005085
1088.508088	-0.003986
1088.670296	-0.003580
1088.832486	-0.007346
1088.994658	-0.008768
1089.156812	-0.009227
1089.318948	-0.011927
1089.481065	-0.012450
1089.643164	-0.012978
1089.805245	-0.010971
1089.967308	-0.011485
1090.129352	-0.011346
1090.291378	-0.009141
1090.453386	-0.007239
1090.615376	-0.007546
1090.777347	-0.007740
1090.939301	-0.005469
1091.101236	-0.006675
1091.263153	-0.008859
1091.425051	-0.009456
1091.586932	-0.009634
1091.748794	-0.011277
1091.910638	-0.009510
1092.072463	-0.006820
1092.234271	-0.003177
1092.396060	-0.004900
1092.557831	-0.003268
1092.719584	0.000624
1092.881319	0.004118
1093.043035	0.004377
1093.204733	0.004180
1093.366413	0.003403
1093.528075	0.002604
1093.689718	-0.001995
1093.851343	0.000029
1094.012950	-0.000297
1094.174539	-0.001028
1094.336110	-0.003405
1094.497662	-0.004197
1094.659196	-0.003017
1094.820712	-0.005211
1094.982210	-0.006065
1095.143689	-0.002047
1095.305151	-0.001682
1095.466594	0.000075
1095.628018	-0.000740
1095.789425	-0.000837
1095.950813	0.000196
1096.112183	0.001961
1096.273535	0.001397
1096.434869	0.001898
1096.596184	-0.000734
1096.757482	-0.004263
1096.918761	-0.007741
1097.080021	-0.010085
1097.241264	-0.010549
1097.402488	-0.009993
1097.563694	-0.011053
1097.724882	-0.008640
1097.886052	-0.010379
1098.047203	-0.010060
1098.208336	-0.008276
1098.369451	-0.003307
1098.530548	-0.004060
1098.691627	-0.004498
1098.852687	-0.005328
1099.013729	-0.005953
1099.174753	-0.006758
1099.335758	-0.008036
1099.496746	-0.008009
1099.657715	-0.005636
1099.818666	-0.007198
1099.979599	-0.006555
1100.140513	-0.008256
1100.301409	-0.009304
1100.462287	-0.011121
1100.623147	-0.011550
1100.783989	-0.006601
1100.944812	-0.008572
1101.105617	-0.012365
1101.266404	-0.015674
1101.427173	-0.014974
1101.587923	-0.013691
1101.748656	-0.014877
1101.909370	-0.011764
1102.070066	-0.014812
1102.230743	-0.016666
1102.391403	-0.014662
1102.552044	-0.013113
1102.712667	-0.009761
1102.873271	-0.008275
1103.033858	-0.009089
1103.194426	-0.007827
1103.354976	-0.007218
1103.515508	-0.001806
1103.676021	-0.003509
1103.836517	-0.000285
1103.996994	0.000464
1104.157453	0.002267
1104.317893	0.003809
1104.478316	0.004425
1104.638720	0.005643
1104.799106	0.002145
1104.959474	0.000690
1105.119823	0.003327
1105.280155	0.001205
1105.440468	-0.003613
1105.600763	-0.007820
1105.761039	-0.011855
1105.921298	-0.012129
1106.081538	-0.013382
1106.241760	-0.011982
1106.401964	-0.015073
1106.562149	-0.016471
1106.722316	-0.018361
1106.882465	-0.015727
1107.042596	-0.015279
1107.202709	-0.013519
1107.362803	-0.013459
1107.522879	-0.009290
1107.682937	-0.005373
1107.842977	-0.003375
1108.002999	-0.003006
1108.163002	-0.000148
1108.322987	0.002255
1108.482954	-0.000018
1108.642902	-0.001746
1108.802833	-0.001283
1108.962745	-0.006759
1109.122639	-0.007290
1109.282515	-0.009454
1109.442372	-0.010329
1109.602211	-0.010889
1109.762032	-0.010104
1109.921835	-0.010207
1110.081620	-0.010234
1110.241386	-0.009045
1110.401134	-0.006207
1110.560864	-0.008589
1110.720576	-0.006220
1110.880269	-0.001950
1111.039945	-0.002122
1111.199602	-0.008289
1111.359240	-0.005605
1111.518861	-0.004842
1111.678463	-0.002028
1111.838047	-0.001187
1111.997613	-0.000874
1112.157161	-0.001267
1112.316690	-0.005495
1112.476202	-0.007236
1112.635695	-0.002626
1112.795169	-0.001499
1112.954626	-0.001446
1113.114064	-0.004303
1113.273484	-0.007018
1113.432886	-0.005886
1113.592270	0.000004
1113.751635	0.001280
1113.910983	0.001558
1114.070312	0.001869
1114.229622	-0.000677
1114.388915	-0.000007
1114.548189	-0.003404
1114.707445	-0.001068
1114.866683	-0.003460
1115.025903	-0.009758
1115.185104	-0.011894
1115.344287	-0.013874
1115.503452	-0.014029
1115.662599	-0.008290
1115.821727	-0.006002
1115.980838	-0.003352
1116.139930	-0.006456
1116.299004	-0.006245
1116.458059	-0.006213
1116.617097	-0.005474
1116.776116	-0.005950
1116.935117	-0.010490
1117.094099	-0.015723
1117.253064	-0.020301
1117.412010	-0.019206
1117.570938	-0.018664
1117.729848	-0.019358
1117.888740	-0.018205
1118.047613	-0.017025
1118.206468	-0.013963
1118.365305	-0.009174
1118.524124	-0.009538
1118.682924	-0.007642
1118.841707	-0.005547
1119.000471	-0.001268
1119.159216	0.001132
1119.317944	0.002926
1119.476653	0.000378
1119.635344	0.001284
1119.794017	0.002347
1119.952672	0.005455
1120.111308	0.003193
1120.269927	-0.000269
1120.428527	-0.000785
1120.587108	-0.003491
1120.745672	-0.005678
1120.904217	-0.004474
1121.062744	-0.004625
1121.221253	-0.007349
1121.379744	-0.009186
1121.538216	-0.006699
1121.696671	-0.003567
1121.855107	-0.001298
1122.013524	-0.001656
1122.171924	-0.000676
1122.330305	0.000777
1122.488668	-0.000428
1122.647013	0.001684
1122.805340	-0.000013
1122.963648	0.001382
1123.121938	-0.001555
1123.280210	-0.007769
1123.438464	-0.008362
1123.596700	-0.008270
1123.754917	-0.010450
1123.913116	-0.009652
1124.071297	-0.009090
1124.229459	-0.006143
1124.387604	-0.011138
1124.545730	-0.009056
1124.703838	-0.005221
1124.861928	-0.001984
1125.019999	-0.001133
1125.178052	0.004375
1125.336088	0.003031
1125.494104	0.002574
1125.652103	0.002622
1125.810083	0.005775
1125.968045	0.002424
1126.125989	0.002682
1126.283915	0.003792
1126.441823	0.001844
1126.599712	-0.003505
1126.757583	0.000424
1126.915436	-0.000011
1127.073270	-0.000403
1127.231087	0.002312
1127.388885	0.003092
1127.546665	0.001455
1127.704426	0.004049
1127.862170	0.003539
1128.019895	0.006569
1128.177602	0.004243
1128.335291	0.006407
1128.492961	0.003762
1128.650614	0.001820
1128.808248	0.000706
1128.965864	-0.000379
1129.123461	-0.004270
1129.281041	-0.003399
1129.438602	-0.003951
1129.596145	-0.002976
1129.753670	-0.009239
1129.911176	-0.007416
1130.068665	-0.003575
1130.226135	-0.000223
1130.383587	-0.001681
1130.541020	-0.001512
1130.698436	-0.003902
1130.855833	-0.005327
1131.013212	-0.003579
1131.170573	-0.003997
1131.327915	-0.002972
1131.485239	-0.005410
1131.642545	-0.005420
1131.799833	-0.001613
1131.957103	-0.003471
1132.114354	-0.000313
1132.271588	0.001495
1132.428803	-0.000153
1132.585999	0.003566
1132.743178	0.002484
1132.900338	0.001530
1133.057480	-0.003963
1133.214604	-0.003018
1133.371710	-0.004608
1133.528797	-0.005764
1133.685866	-0.008128
1133.842917	-0.010686
1133.999950	-0.009456
1134.156964	-0.010981
1134.313960	-0.010470
1134.470938	-0.007081
1134.627898	-0.011589
1134.784840	-0.006763
1134.941763	-0.006743
1135.098668	-0.002485
1135.255555	-0.004245
1135.412424	-0.002956
1135.569274	-0.001513
1135.726107	-0.003845
1135.882921	-0.002894
1136.039716	0.000547
1136.196494	-0.002471
1136.353253	0.002795
1136.509995	0.003449
1136.666717	0.007813
1136.823422	0.004356
1136.980109	0.010022
1137.136777	0.014576
1137.293427	0.013230
1137.450059	0.010680
1137.606672	0.014098
1137.763267	0.007296
1137.919844	0.004158
1138.076403	0.000831
1138.232944	0.003388
1138.389466	-0.005237
1138.545971	-0.003562
1138.702457	-0.001079
1138.858924	-0.001736
1139.015374	-0.001285
1139.171805	-0.000655
1139.328218	0.000050
1139.484613	0.002616
1139.640990	-0.003113
1139.797348	0.002259
1139.953688	-0.002616
1140.110010	0.004204
1140.266314	0.003658
1140.422600	-0.000095
1140.578867	0.000895
1140.735116	-0.002740
1140.891347	-0.002626
1141.047559	0.004733
1141.203754	0.001872
1141.359930	0.002775
1141.516088	-0.006581
1141.672228	-0.008600
1141.828349	-0.011161
1141.984452	-0.010887
1142.140537	-0.010226
1142.296604	-0.010440
1142.452653	-0.011645
1142.608683	-0.008784
1142.764695	-0.012624
1142.920689	-0.011976
1143.076665	-0.011321
1143.232622	-0.007521
1143.388562	-0.005089
1143.544483	-0.003542
1143.700385	-0.001892
1143.856270	-0.007659
1144.012136	-0.006328
1144.167985	-0.004701
1144.323814	-0.003386
1144.479626	0.000383
1144.635420	-0.003560
1144.791195	-0.009647
1144.946952	-0.003775
1145.102691	-0.006584
1145.258411	-0.000636
1145.414113	-0.006655
1145.569798	-0.007442
1145.725463	-0.006818
1145.881111	-0.006165
1146.036741	0.001383
1146.192352	0.002466
1146.347945	-0.004844
1146.503519	-0.001862
1146.659076	-0.005710
1146.814614	0.004599
1146.970134	-0.000055
1147.125636	0.002215
1147.281120	0.001114
1147.436585	-0.003233
1147.592032	0.001890
1147.747461	0.005726
1147.902872	0.005114
1148.058265	0.009281
1148.213639	0.003302
1148.368995	0.011999
1148.524333	0.007399
1148.679653	0.009480
1148.834954	0.009247
1148.990237	0.008628
1149.145502	0.009557
1149.300749	0.007316
1149.455977	0.006051
1149.611188	0.013605
1149.766380	0.018697
1149.921553	0.023033
1150.076709	0.020342
1150.231846	0.014391
1150.386966	0.012944
1150.542066	0.009291
1150.697149	0.012721
1150.852214	0.007979
1151.007260	-0.004944
1151.162288	-0.007457
1151.317298	-0.005962
1151.472289	-0.007693
1151.627263	0.000555
1151.782218	0.000203
1151.937155	0.001033
1152.092073	-0.002914
1152.246974	0.000521
1152.401856	0.008356
1152.556720	-0.004365
1152.711566	-0.015466
1152.866393	-0.005243
1153.021203	-0.007021
1153.175994	-0.004590
1153.330767	-0.006953
1153.485521	-0.005568
1153.640258	-0.007273
1153.794976	-0.006234
1153.949676	0.007423
1154.104358	0.016096
1154.259021	-0.000260
1154.413667	-0.006447
1154.568294	-0.010169
1154.722903	-0.012822
1154.877493	-0.013964
1155.032066	-0.015345
1155.186620	-0.017205
1155.341156	-0.022235
1155.495674	-0.023851
1155.650173	-0.010822
1155.804654	-0.007789
1155.959118	-0.006518
1156.113562	-0.004434
1156.267989	-0.002495
1156.422397	0.000582
1156.576788	0.000215
1156.731160	-0.000777
1156.885513	0.005989
1157.039849	-0.002968
1157.194166	0.001132
1157.348465	-0.003863
1157.502746	0.001589
1157.657009	-0.002059
1157.811253	0.002406
1157.965479	0.001368
1158.119687	0.002105
1158.273877	-0.010969
1158.428048	-0.000934
1158.582201	-0.002110
1158.736337	0.000976
1158.890453	0.000355
1159.044552	0.007997
1159.198632	0.010415
1159.352694	-0.000773
1159.506738	0.002083
1159.660764	0.007581
1159.814771	0.003848
1159.968761	0.007747
1160.122732	0.002444
1160.276685	-0.001642
1160.430619	-0.005818
1160.584535	-0.012841
1160.738434	-0.002450
1160.892313	-0.004060
1161.046175	0.000193
1161.200019	0.006967
1161.353844	0.003707
1161.507651	0.006433
1161.661440	0.011589
1161.815210	0.011310
1161.968962	0.010713
1162.122697	0.008318
1162.276412	0.008986
1162.430110	0.001247
1162.583789	-0.009034
1162.737451	-0.012059
1162.891094	-0.006827
1163.044718	-0.006870
1163.198325	-0.014333
1163.351913	-0.012639
1163.505483	-0.014089
1163.659035	-0.011747
1163.812569	-0.005307
1163.966084	0.003144
1164.119581	0.000795
1164.273060	0.002002
1164.426521	0.002361
1164.579964	0.004910
1164.733388	0.002560
1164.886794	0.001855
1165.040182	0.002733
1165.193551	-0.004247
1165.346903	-0.008743
1165.500236	-0.003486
1165.653551	0.001716
1165.806848	-0.006731
1165.960126	0.000268
1166.113386	-0.003765
1166.266628	-0.000912
1166.419852	-0.003354
1166.573058	-0.004059
1166.726245	-0.011232
1166.879414	-0.003626
1167.032565	-0.016469
1167.185698	-0.019115
1167.338812	-0.021769
1167.491909	-0.007540
1167.644987	-0.007751
1167.798046	-0.000273
1167.951088	0.009644
1168.104111	0.012944
1168.257117	0.001681
1168.410103	0.017600
1168.563072	0.036581
1168.716023	0.041134
1168.868955	0.032151
1169.021869	0.044519
1169.174765	0.038871
1169.327642	0.040460
1169.480501	0.042727
1169.633343	0.049028
1169.786165	0.036688
1169.938970	0.039799
1170.091757	0.036654
1170.244525	0.043169
1170.397275	0.036613
1170.550007	0.034252
1170.702720	0.028571
1170.855415	0.037433
1171.008092	0.032938
1171.160751	0.030893
1171.313392	0.015518
1171.466014	0.106723
1171.618619	-0.023096
1171.771205	-0.023096
1171.923772	-0.023096
