sample name	sample
index	1011
start time	 04-19-2021  11:34:06 AM


Wavelength (nm)	Absorbance
494.344910	0.112765
494.563924	0.112765
494.782919	0.112765
495.001897	-0.037700
495.220856	0.023072
495.439797	0.014178
495.658719	-0.013995
495.877624	-0.026162
496.096510	-0.018577
496.315378	-0.032933
496.534227	-0.018669
496.753059	-0.038761
496.971872	-0.036236
497.190667	0.015459
497.409444	0.022391
497.628203	0.030307
497.846943	0.031385
498.065665	0.031582
498.284369	0.032778
498.503055	0.033208
498.721723	0.033420
498.940372	0.033436
499.159003	0.032843
499.377616	0.033592
499.596210	0.032169
499.814787	0.032979
500.033345	0.032372
500.251885	0.031643
500.470406	0.032266
500.688910	0.032016
500.907395	0.031543
501.125862	0.032097
501.344311	0.030862
501.562742	0.033130
501.781154	0.032168
501.999548	0.032992
502.217924	0.033408
502.436282	0.033182
502.654621	0.034388
502.872942	0.034218
503.091245	0.033351
503.309530	0.034934
503.527797	0.033387
503.746045	0.033607
503.964275	0.033865
504.182487	0.033771
504.400681	0.033679
504.618856	0.033103
504.837013	0.034304
505.055152	0.034803
505.273273	0.033920
505.491376	0.033225
505.709460	0.032572
505.927526	0.032352
506.145574	0.032841
506.363604	0.032796
506.581615	0.032875
506.799608	0.032003
507.017583	0.032993
507.235540	0.033257
507.453478	0.033148
507.671399	0.034284
507.889301	0.033794
508.107185	0.033268
508.325050	0.032923
508.542898	0.033000
508.760727	0.033061
508.978538	0.031765
509.196330	0.031169
509.414105	0.031231
509.631861	0.030382
509.849599	0.030634
510.067319	0.030622
510.285021	0.031070
510.502704	0.030267
510.720369	0.030303
510.938016	0.031216
511.155645	0.031986
511.373255	0.032538
511.590848	0.032970
511.808422	0.032642
512.025977	0.032491
512.243515	0.031921
512.461034	0.032210
512.678536	0.031825
512.896018	0.030912
513.113483	0.030934
513.330930	0.031570
513.548358	0.031599
513.765768	0.032024
513.983160	0.032269
514.200533	0.032465
514.417889	0.033215
514.635226	0.033621
514.852545	0.034177
515.069845	0.033427
515.287128	0.033129
515.504392	0.032469
515.721638	0.032434
515.938866	0.032486
516.156075	0.032269
516.373267	0.031838
516.590440	0.031891
516.807594	0.031306
517.024731	0.031323
517.241850	0.031117
517.458950	0.031506
517.676032	0.031199
517.893095	0.031361
518.110141	0.031715
518.327168	0.031136
518.544177	0.031082
518.761168	0.031496
518.978141	0.031893
519.195095	0.031803
519.412031	0.031738
519.628949	0.031828
519.845849	0.030806
520.062731	0.030743
520.279594	0.031608
520.496439	0.031401
520.713266	0.031210
520.930074	0.030974
521.146865	0.030958
521.363637	0.030848
521.580391	0.030819
521.797127	0.031709
522.013844	0.031497
522.230543	0.031278
522.447224	0.031000
522.663887	0.030824
522.880532	0.031120
523.097158	0.030559
523.313766	0.030711
523.530356	0.030411
523.746928	0.030596
523.963481	0.030664
524.180017	0.030502
524.396534	0.030906
524.613032	0.030630
524.829513	0.030125
525.045975	0.031190
525.262420	0.030711
525.478845	0.030874
525.695253	0.030183
525.911643	0.029937
526.128014	0.029634
526.344367	0.029916
526.560702	0.030135
526.777018	0.030348
526.993316	0.030193
527.209597	0.030153
527.425858	0.030311
527.642102	0.030961
527.858328	0.031004
528.074535	0.031209
528.290724	0.030948
528.506894	0.031670
528.723047	0.031361
528.939181	0.031084
529.155297	0.031858
529.371395	0.032190
529.587475	0.032169
529.803536	0.032593
530.019579	0.032711
530.235604	0.033313
530.451611	0.033015
530.667600	0.033363
530.883570	0.033736
531.099522	0.033708
531.315456	0.033246
531.531372	0.032679
531.747269	0.032351
531.963148	0.032066
532.179009	0.031371
532.394852	0.030777
532.610676	0.030616
532.826482	0.029768
533.042271	0.029754
533.258040	0.030174
533.473792	0.030002
533.689525	0.030222
533.905240	0.030374
534.120937	0.030564
534.336616	0.031206
534.552277	0.031402
534.767919	0.032443
534.983543	0.032342
535.199149	0.031952
535.414736	0.032579
535.630306	0.032235
535.845857	0.032335
536.061390	0.032151
536.276904	0.032061
536.492401	0.032180
536.707879	0.031079
536.923339	0.030526
537.138781	0.031049
537.354204	0.030916
537.569610	0.031641
537.784997	0.031558
538.000366	0.031662
538.215716	0.031805
538.431049	0.031922
538.646363	0.032148
538.861659	0.032371
539.076937	0.032191
539.292196	0.032231
539.507438	0.031721
539.722661	0.031948
539.937866	0.032516
540.153052	0.031992
540.368221	0.031930
540.583371	0.032317
540.798503	0.032647
541.013617	0.032400
541.228712	0.032632
541.443789	0.032996
541.658848	0.032643
541.873889	0.032106
542.088912	0.032422
542.303916	0.032156
542.518902	0.032020
542.733870	0.031815
542.948820	0.031877
543.163752	0.031922
543.378665	0.031638
543.593560	0.031887
543.808437	0.032258
544.023295	0.031922
544.238136	0.032064
544.452958	0.032201
544.667762	0.032702
544.882548	0.032804
545.097315	0.032707
545.312064	0.033086
545.526795	0.033058
545.741508	0.032898
545.956203	0.033339
546.170879	0.034060
546.385537	0.034300
546.600177	0.034086
546.814799	0.034251
547.029402	0.033996
547.243988	0.033674
547.458555	0.033982
547.673103	0.034018
547.887634	0.034249
548.102146	0.034160
548.316640	0.034213
548.531116	0.034387
548.745574	0.034226
548.960013	0.034676
549.174435	0.034936
549.388838	0.034831
549.603222	0.034869
549.817589	0.034680
550.031937	0.034256
550.246267	0.033878
550.460579	0.033455
550.674873	0.033597
550.889148	0.033546
551.103405	0.033505
551.317644	0.033157
551.531865	0.033322
551.746068	0.033484
551.960252	0.033635
552.174418	0.033773
552.388566	0.033995
552.602696	0.033876
552.816807	0.033730
553.030900	0.033933
553.244975	0.034364
553.459032	0.034536
553.673070	0.034252
553.887091	0.033998
554.101093	0.034126
554.315077	0.034594
554.529042	0.034460
554.742990	0.034603
554.956919	0.034355
555.170830	0.034191
555.384722	0.034051
555.598597	0.034269
555.812453	0.034640
556.026291	0.034788
556.240111	0.034459
556.453913	0.034645
556.667696	0.034302
556.881461	0.034130
557.095208	0.034295
557.308937	0.034274
557.522647	0.034318
557.736339	0.034229
557.950013	0.033863
558.163669	0.034131
558.377307	0.034036
558.590926	0.034269
558.804527	0.034519
559.018110	0.034533
559.231675	0.034479
559.445221	0.034598
559.658749	0.034552
559.872259	0.035171
560.085751	0.034843
560.299225	0.034967
560.512680	0.035116
560.726117	0.035123
560.939536	0.035188
561.152937	0.035464
561.366319	0.035381
561.579683	0.035732
561.793029	0.035326
562.006357	0.035502
562.219667	0.035655
562.432958	0.035694
562.646231	0.035889
562.859486	0.035875
563.072723	0.035837
563.285941	0.035987
563.499141	0.036131
563.712323	0.036644
563.925487	0.036759
564.138632	0.036774
564.351760	0.036845
564.564869	0.036686
564.777960	0.036605
564.991032	0.036275
565.204087	0.035936
565.417123	0.035466
565.630141	0.035057
565.843140	0.035099
566.056122	0.035203
566.269085	0.034868
566.482030	0.034787
566.694957	0.035020
566.907866	0.035046
567.120756	0.035481
567.333628	0.035547
567.546482	0.035826
567.759318	0.035642
567.972135	0.035394
568.184935	0.035626
568.397716	0.036007
568.610478	0.035979
568.823223	0.036173
569.035949	0.035943
569.248657	0.036175
569.461347	0.035976
569.674019	0.036079
569.886672	0.036550
570.099308	0.036706
570.311925	0.036555
570.524523	0.036269
570.737104	0.036229
570.949666	0.036240
571.162210	0.035974
571.374736	0.035973
571.587244	0.036106
571.799733	0.035812
572.012205	0.035825
572.224658	0.035950
572.437092	0.035926
572.649509	0.035957
572.861907	0.036363
573.074287	0.036395
573.286649	0.036260
573.498993	0.036060
573.711318	0.036107
573.923625	0.036137
574.135914	0.035941
574.348185	0.036099
574.560438	0.036242
574.772672	0.035867
574.984888	0.036022
575.197086	0.036340
575.409266	0.036395
575.621427	0.036445
575.833570	0.036209
576.045695	0.036283
576.257802	0.036377
576.469890	0.036456
576.681961	0.036670
576.894013	0.036403
577.106046	0.036434
577.318062	0.036445
577.530059	0.036525
577.742039	0.036615
577.954000	0.036491
578.165942	0.036369
578.377867	0.036380
578.589773	0.036559
578.801661	0.036967
579.013531	0.036875
579.225382	0.036839
579.437216	0.036781
579.649031	0.036995
579.860828	0.037188
580.072606	0.036890
580.284367	0.036615
580.496109	0.036344
580.707833	0.036281
580.919539	0.036551
581.131227	0.036616
581.342896	0.036496
581.554547	0.036349
581.766180	0.036509
581.977795	0.036945
582.189391	0.037197
582.400969	0.036994
582.612529	0.036897
582.824071	0.036515
583.035595	0.036545
583.247100	0.036643
583.458587	0.036909
583.670056	0.036723
583.881506	0.036724
584.092939	0.036849
584.304353	0.037240
584.515749	0.037211
584.727127	0.037378
584.938486	0.037617
585.149828	0.037895
585.361151	0.037678
585.572456	0.037936
585.783742	0.038196
585.995011	0.038044
586.206261	0.037766
586.417493	0.038122
586.628706	0.038033
586.839902	0.037733
587.051079	0.037824
587.262238	0.037780
587.473379	0.037551
587.684502	0.037442
587.895606	0.037656
588.106692	0.037833
588.317760	0.037656
588.528810	0.037522
588.739841	0.037830
588.950855	0.037584
589.161850	0.038009
589.372827	0.038070
589.583785	0.038177
589.794726	0.038267
590.005648	0.038008
590.216552	0.037868
590.427437	0.038316
590.638305	0.038377
590.849154	0.038180
591.059985	0.038119
591.270798	0.038138
591.481592	0.037985
591.692369	0.037560
591.903127	0.037839
592.113867	0.038018
592.324588	0.037896
592.535292	0.037572
592.745977	0.037781
592.956644	0.037322
593.167293	0.037267
593.377923	0.037688
593.588536	0.037945
593.799130	0.037835
594.009706	0.037757
594.220263	0.037505
594.430803	0.037855
594.641324	0.037804
594.851827	0.038092
595.062312	0.038122
595.272778	0.037610
595.483227	0.037600
595.693657	0.037921
595.904069	0.038090
596.114462	0.038371
596.324838	0.037986
596.535195	0.038268
596.745534	0.037971
596.955855	0.038122
597.166157	0.038193
597.376441	0.038095
597.586707	0.038036
597.796955	0.038000
598.007185	0.038083
598.217396	0.038424
598.427589	0.038160
598.637764	0.038506
598.847921	0.038437
599.058060	0.038617
599.268180	0.038538
599.478282	0.038211
599.688366	0.038038
599.898431	0.038209
600.108479	0.038246
600.318508	0.038270
600.528519	0.038310
600.738511	0.038457
600.948486	0.038667
601.158442	0.039000
601.368380	0.039295
601.578300	0.039508
601.788202	0.039403
601.998085	0.039308
602.207950	0.039399
602.417797	0.039209
602.627626	0.039360
602.837436	0.039000
603.047228	0.038855
603.257002	0.038668
603.466758	0.038888
603.676496	0.038750
603.886215	0.038515
604.095916	0.038533
604.305599	0.038916
604.515264	0.038660
604.724910	0.038898
604.934538	0.038917
605.144148	0.039161
605.353740	0.038999
605.563314	0.039189
605.772869	0.039473
605.982406	0.039353
606.191925	0.039105
606.401425	0.039330
606.610908	0.039417
606.820372	0.039510
607.029818	0.039449
607.239246	0.039376
607.448655	0.039364
607.658047	0.039331
607.867420	0.039566
608.076775	0.039823
608.286111	0.039634
608.495430	0.039539
608.704730	0.039508
608.914012	0.039729
609.123275	0.039995
609.332521	0.040069
609.541748	0.040215
609.750957	0.040213
609.960148	0.039974
610.169321	0.040159
610.378475	0.040126
610.587611	0.040237
610.796729	0.040256
611.005829	0.040218
611.214910	0.040263
611.423974	0.040251
611.633019	0.040350
611.842045	0.040554
612.051054	0.040322
612.260044	0.040250
612.469017	0.040284
612.677970	0.040104
612.886906	0.039981
613.095824	0.039975
613.304723	0.039925
613.513604	0.039844
613.722467	0.039818
613.931311	0.040047
614.140138	0.040326
614.348946	0.040169
614.557736	0.040139
614.766507	0.040491
614.975261	0.040363
615.183996	0.040524
615.392713	0.040613
615.601412	0.040598
615.810092	0.040684
616.018754	0.040627
616.227399	0.040712
616.436024	0.040652
616.644632	0.040693
616.853222	0.040737
617.061793	0.040696
617.270346	0.040741
617.478880	0.040610
617.687397	0.040696
617.895895	0.040759
618.104375	0.040747
618.312837	0.040854
618.521281	0.040601
618.729706	0.040598
618.938113	0.040695
619.146502	0.040606
619.354873	0.040638
619.563226	0.040531
619.771560	0.040439
619.979876	0.040483
620.188174	0.040559
620.396453	0.040604
620.604715	0.040446
620.812958	0.040324
621.021183	0.040516
621.229390	0.040746
621.437578	0.040812
621.645748	0.040883
621.853900	0.041170
622.062034	0.041353
622.270150	0.041543
622.478247	0.041647
622.686326	0.041745
622.894387	0.041725
623.102430	0.041617
623.310454	0.041756
623.518461	0.041803
623.726449	0.041685
623.934418	0.041490
624.142370	0.041377
624.350303	0.041578
624.558218	0.041471
624.766115	0.041460
624.973994	0.041428
625.181855	0.041138
625.389697	0.041216
625.597521	0.041074
625.805327	0.041100
626.013114	0.041023
626.220883	0.041029
626.428634	0.041024
626.636367	0.040857
626.844082	0.041009
627.051778	0.041242
627.259457	0.041185
627.467117	0.041292
627.674758	0.041523
627.882382	0.041507
628.089987	0.041421
628.297574	0.041665
628.505143	0.041730
628.712694	0.041754
628.920226	0.041796
629.127740	0.042017
629.335236	0.041765
629.542714	0.041549
629.750174	0.041551
629.957615	0.041787
630.165038	0.041788
630.372443	0.041841
630.579829	0.041693
630.787198	0.041427
630.994548	0.041150
631.201880	0.041465
631.409194	0.041628
631.616489	0.041838
631.823766	0.041762
632.031025	0.041611
632.238266	0.041821
632.445489	0.042003
632.652693	0.042257
632.859879	0.042438
633.067047	0.042556
633.274197	0.042552
633.481329	0.042643
633.688442	0.042514
633.895537	0.042510
634.102614	0.042376
634.309672	0.042369
634.516713	0.042415
634.723735	0.042437
634.930739	0.042553
635.137724	0.042528
635.344692	0.042381
635.551641	0.042540
635.758572	0.042806
635.965485	0.042864
636.172379	0.043008
636.379256	0.042979
636.586114	0.042751
636.792954	0.042603
636.999775	0.042440
637.206579	0.042343
637.413364	0.042158
637.620131	0.042015
637.826880	0.042095
638.033610	0.041904
638.240323	0.041850
638.447017	0.042055
638.653692	0.042064
638.860350	0.042317
639.066990	0.042434
639.273611	0.042475
639.480214	0.042627
639.686798	0.042571
639.893365	0.042934
640.099913	0.043138
640.306443	0.043254
640.512955	0.043343
640.719449	0.043585
640.925924	0.043714
641.132381	0.043865
641.338820	0.043710
641.545241	0.043709
641.751644	0.043594
641.958028	0.043573
642.164394	0.043512
642.370742	0.043402
642.577071	0.043151
642.783383	0.043094
642.989676	0.043283
643.195951	0.043381
643.402207	0.043577
643.608446	0.043432
643.814666	0.043353
644.020868	0.043260
644.227052	0.043146
644.433218	0.043221
644.639365	0.043257
644.845494	0.043146
645.051605	0.043206
645.257698	0.043026
645.463772	0.043091
645.669828	0.043260
645.875866	0.043291
646.081886	0.043378
646.287888	0.043551
646.493871	0.043639
646.699836	0.043618
646.905783	0.043612
647.111712	0.043456
647.317622	0.043480
647.523514	0.043142
647.729388	0.043251
647.935244	0.043334
648.141082	0.043176
648.346901	0.043072
648.552702	0.043054
648.758485	0.043154
648.964250	0.043398
649.169996	0.043484
649.375724	0.043746
649.581434	0.043767
649.787126	0.043625
649.992800	0.043509
650.198455	0.043625
650.404092	0.043682
650.609711	0.043572
650.815311	0.043622
651.020894	0.043716
651.226458	0.043517
651.432004	0.043374
651.637532	0.043521
651.843041	0.043752
652.048532	0.043495
652.254006	0.043457
652.459460	0.043453
652.664897	0.043525
652.870315	0.043478
653.075716	0.043680
653.281097	0.043780
653.486461	0.043757
653.691807	0.043670
653.897134	0.043935
654.102443	0.044094
654.307734	0.044269
654.513006	0.044120
654.718261	0.043987
654.923497	0.044046
655.128715	0.044352
655.333915	0.044587
655.539096	0.044546
655.744259	0.044676
655.949404	0.044667
656.154531	0.044562
656.359640	0.044860
656.564730	0.045153
656.769802	0.045162
656.974856	0.045046
657.179892	0.044842
657.384909	0.045017
657.589908	0.044844
657.794889	0.044950
657.999852	0.044913
658.204797	0.044812
658.409723	0.044708
658.614631	0.044622
658.819521	0.044694
659.024393	0.044953
659.229246	0.044835
659.434081	0.044948
659.638898	0.044877
659.843697	0.044831
660.048478	0.044945
660.253240	0.045000
660.457984	0.045215
660.662710	0.045074
660.867417	0.044999
661.072107	0.045177
661.276778	0.045197
661.481431	0.045310
661.686066	0.045605
661.890682	0.045421
662.095281	0.045338
662.299861	0.045196
662.504422	0.045245
662.708966	0.045371
662.913491	0.045502
663.117999	0.045379
663.322488	0.045294
663.526958	0.045104
663.731411	0.045189
663.935845	0.045233
664.140261	0.045409
664.344659	0.045580
664.549038	0.045332
664.753400	0.045185
664.957743	0.045308
665.162068	0.045314
665.366375	0.045475
665.570663	0.045596
665.774933	0.045866
665.979185	0.045931
666.183419	0.045857
666.387635	0.046171
666.591832	0.046280
666.796011	0.046485
667.000172	0.046679
667.204315	0.046730
667.408439	0.046772
667.612545	0.046637
667.816634	0.046712
668.020703	0.046731
668.224755	0.046648
668.428788	0.046696
668.632803	0.046681
668.836800	0.046531
669.040779	0.046557
669.244739	0.046540
669.448681	0.046548
669.652605	0.046454
669.856511	0.046521
670.060399	0.046623
670.264268	0.046496
670.468119	0.046422
670.671952	0.046635
670.875767	0.046604
671.079563	0.046708
671.283341	0.046861
671.487101	0.046857
671.690843	0.046999
671.894567	0.046926
672.098272	0.046991
672.301959	0.046930
672.505628	0.046715
672.709278	0.046771
672.912911	0.046585
673.116525	0.046487
673.320121	0.046669
673.523699	0.046567
673.727258	0.046655
673.930799	0.046777
674.134322	0.046917
674.337827	0.046964
674.541314	0.047139
674.744782	0.047158
674.948232	0.047106
675.151664	0.046966
675.355078	0.046906
675.558474	0.046877
675.761851	0.047002
675.965210	0.046939
676.168551	0.047101
676.371873	0.046932
676.575178	0.047046
676.778464	0.047091
676.981732	0.047084
677.184981	0.047233
677.388213	0.047350
677.591426	0.047233
677.794621	0.047276
677.997798	0.047300
678.200956	0.047208
678.404097	0.047211
678.607219	0.047171
678.810323	0.047226
679.013408	0.047247
679.216476	0.047236
679.419525	0.047149
679.622556	0.047218
679.825569	0.047067
680.028563	0.047233
680.231540	0.047375
680.434498	0.047380
680.637438	0.047419
680.840359	0.047273
681.043263	0.047194
681.246148	0.047215
681.449015	0.047400
681.651864	0.047419
681.854694	0.047389
682.057506	0.047261
682.260301	0.047317
682.463076	0.047330
682.665834	0.047557
682.868573	0.047878
683.071295	0.047970
683.273998	0.047882
683.476682	0.048072
683.679349	0.048175
683.881997	0.048221
684.084627	0.048399
684.287239	0.048399
684.489833	0.048296
684.692408	0.048174
684.894965	0.048161
685.097504	0.048271
685.300025	0.048351
685.502527	0.048351
685.705012	0.048529
685.907478	0.048667
686.109925	0.048764
686.312355	0.048952
686.514766	0.049088
686.717159	0.049185
686.919534	0.049190
687.121891	0.049046
687.324230	0.049026
687.526550	0.048948
687.728852	0.048855
687.931136	0.048749
688.133401	0.048566
688.335649	0.048249
688.537878	0.048189
688.740089	0.047901
688.942281	0.048117
689.144456	0.048235
689.346612	0.048282
689.548750	0.048327
689.750870	0.048604
689.952971	0.048727
690.155055	0.048945
690.357120	0.049117
690.559167	0.049298
690.761195	0.049251
690.963206	0.049400
691.165198	0.049346
691.367172	0.049230
691.569128	0.049138
691.771065	0.049261
691.972984	0.049136
692.174885	0.049241
692.376768	0.049395
692.578633	0.049303
692.780479	0.049238
692.982308	0.049206
693.184118	0.049256
693.385909	0.049265
693.587683	0.049046
693.789438	0.049153
693.991175	0.048894
694.192894	0.048799
694.394595	0.048910
694.596277	0.048785
694.797941	0.048912
694.999587	0.048942
695.201215	0.048895
695.402824	0.049017
695.604416	0.048898
695.805989	0.049127
696.007543	0.049132
696.209080	0.049099
696.410598	0.049176
696.612099	0.049289
696.813580	0.049240
697.015044	0.049023
697.216490	0.049186
697.417917	0.049406
697.619326	0.049460
697.820717	0.049703
698.022089	0.049776
698.223444	0.049697
698.424780	0.049642
698.626098	0.049872
698.827397	0.050358
699.028679	0.050249
699.229942	0.050136
699.431187	0.050041
699.632414	0.049892
699.833622	0.049857
700.034813	0.049985
700.235985	0.050046
700.437139	0.050121
700.638274	0.049859
700.839392	0.049968
701.040491	0.050097
701.241572	0.050340
701.442635	0.050379
701.643679	0.050577
701.844706	0.050654
702.045714	0.050572
702.246704	0.050443
702.447675	0.050603
702.648629	0.050514
702.849564	0.050459
703.050481	0.050293
703.251380	0.050242
703.452260	0.050046
703.653122	0.049995
703.853966	0.049799
704.054792	0.049597
704.255600	0.049461
704.456389	0.049482
704.657160	0.049578
704.857913	0.049492
705.058648	0.049525
705.259365	0.049521
705.460063	0.049330
705.660743	0.049600
705.861405	0.049652
706.062048	0.049835
706.262674	0.049778
706.463281	0.049681
706.663870	0.049638
706.864441	0.049679
707.064993	0.049670
707.265527	0.049749
707.466043	0.049622
707.666541	0.049801
707.867021	0.049771
708.067482	0.049742
708.267925	0.049872
708.468350	0.050021
708.668757	0.049838
708.869145	0.049930
709.069516	0.050125
709.269868	0.050137
709.470201	0.050039
709.670517	0.049930
709.870814	0.049969
710.071093	0.049761
710.271354	0.049587
710.471597	0.049884
710.671821	0.049823
710.872028	0.049712
711.072216	0.049734
711.272385	0.049882
711.472537	0.049888
711.672670	0.049967
711.872785	0.050146
712.072882	0.050357
712.272961	0.050116
712.473021	0.049974
712.673063	0.049944
712.873087	0.049999
713.073093	0.049831
713.273081	0.049810
713.473050	0.049719
713.673001	0.049594
713.872934	0.049507
714.072849	0.049733
714.272745	0.049929
714.472623	0.050114
714.672483	0.050104
714.872325	0.050145
715.072148	0.050225
715.271954	0.050248
715.471741	0.050447
715.671509	0.050522
715.871260	0.050373
716.070992	0.050398
716.270707	0.050371
716.470403	0.050341
716.670080	0.050193
716.869740	0.050153
717.069381	0.050165
717.269004	0.050063
717.468609	0.049843
717.668195	0.049844
717.867764	0.049755
718.067314	0.049574
718.266846	0.049429
718.466360	0.049597
718.665855	0.049541
718.865332	0.049550
719.064791	0.049302
719.264232	0.049509
719.463655	0.049412
719.663059	0.049229
719.862445	0.049372
720.061813	0.049472
720.261163	0.049389
720.460494	0.049496
720.659807	0.049192
720.859102	0.049366
721.058379	0.049266
721.257638	0.049244
721.456878	0.049426
721.656100	0.049334
721.855304	0.049240
722.054490	0.049156
722.253657	0.049082
722.452806	0.049459
722.651937	0.049457
722.851050	0.049324
723.050145	0.049352
723.249221	0.049315
723.448279	0.049256
723.647319	0.049338
723.846340	0.049487
724.045344	0.049536
724.244329	0.049434
724.443296	0.049276
724.642245	0.049319
724.841175	0.049213
725.040088	0.049071
725.238982	0.048950
725.437857	0.048918
725.636715	0.048928
725.835554	0.048791
726.034376	0.048619
726.233179	0.048540
726.431963	0.048491
726.630730	0.048497
726.829478	0.048530
727.028208	0.048583
727.226920	0.048524
727.425614	0.048398
727.624289	0.048282
727.822946	0.048137
728.021585	0.048243
728.220206	0.048248
728.418808	0.048173
728.617392	0.048130
728.815958	0.048106
729.014506	0.048106
729.213036	0.047947
729.411547	0.047917
729.610040	0.048229
729.808515	0.048272
730.006972	0.048244
730.205410	0.048376
730.403831	0.048340
730.602233	0.048312
730.800616	0.048330
730.998982	0.048521
731.197329	0.048698
731.395658	0.048665
731.593969	0.048538
731.792262	0.048638
731.990536	0.048418
732.188793	0.048502
732.387031	0.048467
732.585250	0.048327
732.783452	0.048118
732.981635	0.047883
733.179800	0.047718
733.377947	0.047864
733.576076	0.047739
733.774186	0.047912
733.972278	0.047783
734.170352	0.047639
734.368408	0.047460
734.566446	0.047488
734.764465	0.047443
734.962466	0.047332
735.160449	0.047145
735.358413	0.047015
735.556360	0.046884
735.754288	0.046949
735.952198	0.047118
736.150090	0.047398
736.347963	0.047484
736.545818	0.047454
736.743655	0.047584
736.941474	0.047590
737.139275	0.047605
737.337057	0.047611
737.534821	0.047471
737.732567	0.047547
737.930295	0.047430
738.128005	0.047374
738.325696	0.047381
738.523369	0.047344
738.721024	0.047322
738.918660	0.047433
739.116279	0.047383
739.313879	0.047562
739.511461	0.047212
739.709024	0.047086
739.906570	0.046971
740.104097	0.047075
740.301606	0.046910
740.499097	0.046849
740.696569	0.046785
740.894024	0.046783
741.091460	0.046539
741.288878	0.046627
741.486277	0.046689
741.683659	0.046691
741.881022	0.046427
742.078367	0.046509
742.275694	0.046437
742.473002	0.046371
742.670293	0.046393
742.867565	0.046403
743.064819	0.046307
743.262054	0.046273
743.459272	0.046148
743.656471	0.046272
743.853652	0.046332
744.050815	0.046292
744.247959	0.046342
744.445085	0.046262
744.642194	0.046197
744.839283	0.046321
745.036355	0.046345
745.233408	0.046413
745.430444	0.046344
745.627461	0.046283
745.824459	0.046353
746.021440	0.046301
746.218402	0.046147
746.415346	0.046162
746.612272	0.046139
746.809180	0.046009
747.006069	0.045916
747.202940	0.045958
747.399793	0.045805
747.596628	0.045563
747.793444	0.045319
747.990243	0.045357
748.187023	0.045469
748.383784	0.045328
748.580528	0.045357
748.777253	0.045330
748.973960	0.045352
749.170649	0.045355
749.367320	0.045541
749.563973	0.045538
749.760607	0.045360
749.957223	0.045176
750.153821	0.045222
750.350400	0.045221
750.546962	0.045321
750.743505	0.045242
750.940030	0.045199
751.136536	0.045145
751.333025	0.045186
751.529495	0.045497
751.725947	0.045639
751.922381	0.045640
752.118796	0.045513
752.315194	0.045648
752.511573	0.045738
752.707934	0.045979
752.904276	0.046081
753.100601	0.046170
753.296907	0.046059
753.493195	0.046017
753.689465	0.046089
753.885716	0.046077
754.081949	0.046127
754.278164	0.046054
754.474361	0.045873
754.670540	0.045846
754.866700	0.045802
755.062843	0.045979
755.258967	0.045794
755.455072	0.045768
755.651160	0.046037
755.847229	0.045713
756.043280	0.045736
756.239313	0.045703
756.435328	0.045543
756.631324	0.045675
756.827302	0.045387
757.023262	0.045581
757.219204	0.045569
757.415127	0.045550
757.611033	0.045660
757.806920	0.045613
758.002788	0.045560
758.198639	0.045643
758.394471	0.045400
758.590286	0.045449
758.786081	0.045373
758.981859	0.045363
759.177619	0.045193
759.373360	0.045079
759.569083	0.044969
759.764788	0.044987
759.960474	0.044965
760.156143	0.045003
760.351793	0.044924
760.547425	0.045039
760.743038	0.044931
760.938634	0.044922
761.134211	0.045024
761.329770	0.045082
761.525311	0.045154
761.720833	0.045291
761.916338	0.045240
762.111824	0.045269
762.307292	0.045203
762.502741	0.045288
762.698173	0.045349
762.893586	0.045320
763.088981	0.045233
763.284358	0.044938
763.479716	0.044868
763.675057	0.044808
763.870379	0.044745
764.065683	0.044634
764.260968	0.044531
764.456236	0.044440
764.651485	0.044265
764.846716	0.044397
765.041929	0.044537
765.237123	0.044435
765.432299	0.044550
765.627457	0.044484
765.822597	0.044418
766.017719	0.044527
766.212822	0.044420
766.407907	0.044405
766.602974	0.044266
766.798023	0.044313
766.993054	0.044349
767.188066	0.044423
767.383060	0.044723
767.578036	0.044805
767.772993	0.044718
767.967933	0.044877
768.162854	0.044973
768.357757	0.045035
768.552642	0.044992
768.747508	0.044958
768.942356	0.044824
769.137186	0.044602
769.331998	0.044608
769.526792	0.044627
769.721567	0.044748
769.916324	0.044812
770.111063	0.044751
770.305784	0.044797
770.500486	0.044812
770.695171	0.044914
770.889837	0.045156
771.084484	0.045083
771.279114	0.045051
771.473725	0.044804
771.668318	0.044858
771.862893	0.044826
772.057450	0.044805
772.251988	0.044774
772.446509	0.044560
772.641011	0.044376
772.835494	0.044591
773.029960	0.044662
773.224407	0.044754
773.418836	0.044716
773.613247	0.044779
773.807640	0.044784
774.002014	0.044808
774.196370	0.045148
774.390708	0.045028
774.585028	0.044955
774.779330	0.044759
774.973613	0.044830
775.167878	0.044752
775.362125	0.044789
775.556354	0.044572
775.750564	0.044667
775.944756	0.044333
776.138930	0.044687
776.333086	0.044658
776.527223	0.044811
776.721343	0.044937
776.915444	0.044836
777.109526	0.045049
777.303591	0.045126
777.497637	0.045029
777.691666	0.045195
777.885676	0.044851
778.079667	0.044786
778.273641	0.044721
778.467596	0.044367
778.661533	0.044628
778.855452	0.044411
779.049352	0.044575
779.243235	0.044551
779.437099	0.044678
779.630945	0.044849
779.824773	0.044964
780.018582	0.044918
780.212373	0.045028
780.406146	0.045064
780.599901	0.045325
780.793638	0.045161
780.987356	0.045468
781.181056	0.045511
781.374738	0.045616
781.568402	0.045528
781.762047	0.045782
781.955674	0.045946
782.149283	0.045937
782.342874	0.045826
782.536447	0.045942
782.730001	0.045623
782.923537	0.045566
783.117055	0.045308
783.310555	0.045372
783.504036	0.045303
783.697499	0.045371
783.890944	0.045251
784.084371	0.045216
784.277780	0.045404
784.471170	0.045589
784.664542	0.045500
784.857896	0.045680
785.051231	0.045767
785.244549	0.045789
785.437848	0.045753
785.631129	0.045863
785.824392	0.045697
786.017636	0.045748
786.210863	0.045647
786.404071	0.045749
786.597260	0.045812
786.790432	0.045854
786.983585	0.045912
787.176721	0.045867
787.369838	0.045692
787.562936	0.045759
787.756017	0.045620
787.949079	0.045692
788.142123	0.045740
788.335149	0.045986
788.528156	0.045913
788.721146	0.045829
788.914117	0.045919
789.107070	0.046129
789.300005	0.046309
789.492921	0.046329
789.685819	0.046357
789.878699	0.046440
790.071561	0.046350
790.264405	0.046393
790.457230	0.046432
790.650037	0.046366
790.842826	0.046505
791.035597	0.046511
791.228349	0.046494
791.421084	0.046499
791.613800	0.046307
791.806497	0.046295
791.999177	0.046370
792.191838	0.046643
792.384481	0.046645
792.577106	0.046523
792.769713	0.046615
792.962301	0.046545
793.154871	0.046541
793.347423	0.046481
793.539957	0.046716
793.732473	0.046730
793.924970	0.046649
794.117449	0.046674
794.309910	0.046879
794.502353	0.046997
794.694777	0.047327
794.887183	0.047269
795.079571	0.047660
795.271941	0.047472
795.464293	0.047638
795.656626	0.047485
795.848941	0.047638
796.041238	0.047376
796.233516	0.047401
796.425777	0.047348
796.618019	0.047397
796.810243	0.047298
797.002449	0.047349
797.194636	0.047401
797.386805	0.047734
797.578956	0.047774
797.771089	0.047787
797.963204	0.047650
798.155300	0.047802
798.347378	0.047995
798.539438	0.048113
798.731480	0.048251
798.923503	0.048286
799.115509	0.048462
799.307496	0.048434
799.499465	0.048574
799.691415	0.048675
799.883348	0.048725
800.075262	0.048639
800.267158	0.048570
800.459035	0.048430
800.650895	0.048226
800.842736	0.047891
801.034559	0.048134
801.226364	0.048143
801.418150	0.048177
801.609919	0.047988
801.801669	0.048233
801.993401	0.048236
802.185114	0.048375
802.376810	0.048279
802.568487	0.048385
802.760146	0.048195
802.951787	0.048391
803.143409	0.048480
803.335014	0.048715
803.526600	0.048606
803.718168	0.048749
803.909717	0.048650
804.101249	0.048986
804.292762	0.049197
804.484257	0.049434
804.675734	0.049465
804.867192	0.049441
805.058632	0.049489
805.250054	0.049671
805.441458	0.049501
805.632844	0.049631
805.824211	0.049696
806.015561	0.049571
806.206891	0.049468
806.398204	0.049408
806.589499	0.049396
806.780775	0.049359
806.972033	0.049401
807.163273	0.049565
807.354495	0.049568
807.545698	0.049485
807.736883	0.049396
807.928050	0.049426
808.119199	0.049580
808.310329	0.049873
808.501441	0.050044
808.692535	0.050049
808.883611	0.050324
809.074669	0.050520
809.265708	0.050480
809.456729	0.050903
809.647732	0.051120
809.838717	0.051081
810.029683	0.050832
810.220632	0.050758
810.411562	0.050725
810.602474	0.050681
810.793367	0.050690
810.984242	0.050765
811.175100	0.050627
811.365938	0.050554
811.556759	0.050537
811.747562	0.050564
811.938346	0.050704
812.129112	0.050778
812.319860	0.050767
812.510589	0.050767
812.701300	0.051101
812.891994	0.051206
813.082668	0.051185
813.273325	0.051276
813.463964	0.051407
813.654584	0.051263
813.845186	0.051484
814.035769	0.051592
814.226335	0.051640
814.416882	0.051514
814.607411	0.051388
814.797922	0.051521
814.988415	0.051711
815.178889	0.051919
815.369345	0.052172
815.559783	0.052240
815.750203	0.052193
815.940605	0.052296
816.130988	0.052399
816.321353	0.052501
816.511700	0.052594
816.702028	0.052695
816.892339	0.052779
817.082631	0.052772
817.272905	0.052625
817.463161	0.052787
817.653398	0.052797
817.843617	0.052701
818.033819	0.052903
818.224001	0.052934
818.414166	0.052699
818.604312	0.052717
818.794440	0.052844
818.984550	0.052976
819.174642	0.053049
819.364716	0.053164
819.554771	0.053249
819.744808	0.053241
819.934827	0.053517
820.124827	0.053783
820.314810	0.053988
820.504774	0.054000
820.694720	0.054008
820.884647	0.054067
821.074557	0.054253
821.264448	0.054460
821.454321	0.054357
821.644176	0.054243
821.834012	0.054280
822.023831	0.054161
822.213631	0.054271
822.403413	0.054547
822.593176	0.054556
822.782922	0.054311
822.972649	0.054431
823.162358	0.054465
823.352049	0.054276
823.541721	0.054423
823.731376	0.054276
823.921012	0.054341
824.110629	0.054216
824.300229	0.054316
824.489811	0.054393
824.679374	0.054313
824.868919	0.054620
825.058445	0.054989
825.247954	0.055046
825.437444	0.055315
825.626916	0.055383
825.816370	0.055475
826.005806	0.055469
826.195223	0.055807
826.384622	0.055947
826.574003	0.055953
826.763366	0.056044
826.952711	0.056091
827.142037	0.056168
827.331345	0.056179
827.520635	0.056201
827.709906	0.056443
827.899160	0.056330
828.088395	0.056466
828.277612	0.056439
828.466810	0.056702
828.655991	0.056734
828.845153	0.056584
829.034297	0.056601
829.223423	0.056732
829.412531	0.056546
829.601620	0.056601
829.790691	0.056612
829.979744	0.056831
830.168779	0.056525
830.357795	0.056566
830.546793	0.056903
830.735773	0.056963
830.924735	0.057212
831.113679	0.057381
831.302604	0.057370
831.491511	0.057635
831.680400	0.057561
831.869271	0.057681
832.058123	0.057802
832.246957	0.057575
832.435773	0.057613
832.624571	0.057691
832.813351	0.057915
833.002112	0.058134
833.190855	0.057820
833.379580	0.057971
833.568287	0.057879
833.756975	0.057911
833.945645	0.057979
834.134297	0.058056
834.322931	0.057762
834.511547	0.057765
834.700144	0.058048
834.888723	0.058198
835.077284	0.058054
835.265826	0.058267
835.454351	0.058277
835.642857	0.058553
835.831345	0.058606
836.019815	0.058898
836.208266	0.058839
836.396699	0.058617
836.585114	0.058669
836.773511	0.059029
836.961890	0.059008
837.150250	0.059275
837.338592	0.059373
837.526916	0.059574
837.715222	0.059731
837.903510	0.059704
838.091779	0.059672
838.280030	0.059842
838.468263	0.059864
838.656477	0.059931
838.844674	0.059926
839.032852	0.059887
839.221012	0.059971
839.409153	0.060022
839.597277	0.060260
839.785382	0.060587
839.973469	0.060786
840.161538	0.060588
840.349589	0.060588
840.537621	0.060514
840.725635	0.060655
840.913631	0.060675
841.101609	0.060838
841.289568	0.060803
841.477509	0.060791
841.665432	0.060663
841.853337	0.060810
842.041224	0.061019
842.229092	0.061284
842.416942	0.061451
842.604774	0.061411
842.792588	0.061199
842.980383	0.061533
843.168160	0.061754
843.355919	0.061957
843.543660	0.062261
843.731382	0.062541
843.919087	0.062609
844.106773	0.062630
844.294441	0.062969
844.482090	0.063160
844.669722	0.063243
844.857335	0.063141
845.044930	0.063194
845.232507	0.063251
845.420065	0.063218
845.607605	0.063328
845.795127	0.063479
845.982631	0.063493
846.170117	0.063362
846.357584	0.063406
846.545033	0.063530
846.732464	0.063547
846.919877	0.063721
847.107272	0.063822
847.294648	0.063946
847.482006	0.063942
847.669346	0.064086
847.856667	0.064362
848.043971	0.064529
848.231256	0.064687
848.418523	0.064840
848.605771	0.064923
848.793002	0.064906
848.980214	0.065130
849.167408	0.065255
849.354584	0.065232
849.541742	0.065474
849.728881	0.065483
849.916002	0.065676
850.103105	0.065805
850.290190	0.065834
850.477256	0.066129
850.664304	0.065844
850.851334	0.066134
851.038346	0.066177
851.225340	0.066373
851.412315	0.066390
851.599272	0.066422
851.786211	0.066465
851.973132	0.066695
852.160034	0.066680
852.346918	0.066993
852.533784	0.066842
852.720632	0.066764
852.907462	0.066612
853.094273	0.066697
853.281066	0.066539
853.467841	0.066716
853.654598	0.066570
853.841336	0.066746
854.028056	0.066630
854.214758	0.066799
854.401442	0.067065
854.588107	0.067025
854.774755	0.067161
854.961384	0.067245
855.147995	0.067194
855.334587	0.067289
855.521162	0.067280
855.707718	0.067467
855.894256	0.067510
856.080775	0.067503
856.267277	0.067571
856.453760	0.067688
856.640225	0.067818
856.826672	0.067906
857.013101	0.068003
857.199511	0.067909
857.385903	0.067803
857.572277	0.067928
857.758633	0.068134
857.944970	0.068468
858.131290	0.068506
858.317591	0.068667
858.503873	0.068712
858.690138	0.068814
858.876384	0.069256
859.062612	0.069706
859.248822	0.069988
859.435014	0.070072
859.621188	0.070088
859.807343	0.070132
859.993480	0.070202
860.179599	0.070414
860.365699	0.070268
860.551781	0.070290
860.737846	0.070115
860.923891	0.070047
861.109919	0.070279
861.295929	0.070403
861.481920	0.070274
861.667893	0.070382
861.853848	0.070501
862.039784	0.071065
862.225702	0.071135
862.411603	0.071402
862.597484	0.071560
862.783348	0.071592
862.969193	0.071622
863.155021	0.071740
863.340830	0.071859
863.526620	0.071968
863.712393	0.071672
863.898147	0.071603
864.083883	0.071686
864.269601	0.071668
864.455301	0.071606
864.640982	0.071546
864.826645	0.071789
865.012290	0.071515
865.197917	0.071272
865.383526	0.071456
865.569116	0.071679
865.754688	0.071869
865.940242	0.072104
866.125777	0.072425
866.311295	0.072700
866.496794	0.072874
866.682275	0.073328
866.867737	0.073567
867.053182	0.073706
867.238608	0.073647
867.424016	0.073392
867.609406	0.073061
867.794778	0.072860
867.980131	0.072710
868.165466	0.072699
868.350783	0.072936
868.536082	0.073170
868.721362	0.073255
868.906625	0.073269
869.091869	0.073604
869.277094	0.073880
869.462302	0.074123
869.647491	0.074528
869.832662	0.074446
870.017815	0.074373
870.202950	0.074677
870.388066	0.074633
870.573165	0.074877
870.758245	0.074703
870.943306	0.074641
871.128350	0.074744
871.313375	0.074762
871.498382	0.074928
871.683371	0.075040
871.868342	0.074540
872.053294	0.074642
872.238229	0.074648
872.423144	0.074839
872.608042	0.074972
872.792922	0.074837
872.977783	0.074758
873.162626	0.074835
873.347451	0.074815
873.532258	0.075200
873.717046	0.075397
873.901816	0.075541
874.086568	0.075671
874.271302	0.075711
874.456017	0.075752
874.640715	0.075651
874.825394	0.075912
875.010055	0.075907
875.194697	0.076022
875.379322	0.076033
875.563928	0.076140
875.748516	0.075940
875.933085	0.075972
876.117637	0.075971
876.302170	0.076090
876.486685	0.075812
876.671182	0.076026
876.855661	0.075953
877.040121	0.076006
877.224563	0.075945
877.408987	0.076027
877.593393	0.076301
877.777780	0.076543
877.962150	0.076726
878.146501	0.076929
878.330833	0.077044
878.515148	0.077165
878.699444	0.077110
878.883722	0.076882
879.067982	0.077498
879.252224	0.077651
879.436447	0.077853
879.620653	0.077801
879.804840	0.077851
879.989008	0.077734
880.173159	0.077608
880.357291	0.077747
880.541405	0.078362
880.725501	0.077773
880.909579	0.077548
881.093638	0.077347
881.277680	0.077343
881.461703	0.077546
881.645707	0.077630
881.829694	0.077701
882.013662	0.077530
882.197612	0.077106
882.381544	0.077153
882.565458	0.077168
882.749353	0.077379
882.933230	0.077457
883.117089	0.077481
883.300930	0.077573
883.484753	0.077428
883.668557	0.077793
883.852343	0.078350
884.036111	0.078448
884.219861	0.078766
884.403592	0.078728
884.587305	0.078937
884.771000	0.079183
884.954677	0.079164
885.138335	0.079416
885.321976	0.079119
885.505598	0.078707
885.689201	0.078766
885.872787	0.078393
886.056354	0.078274
886.239904	0.078303
886.423434	0.078046
886.606947	0.077872
886.790442	0.078012
886.973918	0.078265
887.157376	0.078396
887.340816	0.078281
887.524237	0.078231
887.707641	0.078419
887.891026	0.078323
888.074393	0.078415
888.257741	0.078315
888.441072	0.078252
888.624384	0.078229
888.807678	0.078093
888.990954	0.078221
889.174211	0.078446
889.357451	0.078252
889.540672	0.078221
889.723875	0.078058
889.907059	0.078195
890.090226	0.078265
890.273374	0.078389
890.456504	0.078488
890.639616	0.078750
890.822709	0.078603
891.005785	0.078535
891.188842	0.078522
891.371881	0.078405
891.554901	0.078474
891.737904	0.078366
891.920888	0.078246
892.103854	0.078478
892.286802	0.078065
892.469731	0.078418
892.652643	0.078815
892.835536	0.078979
893.018410	0.079341
893.201267	0.079145
893.384106	0.079038
893.566926	0.079106
893.749728	0.078808
893.932511	0.079223
894.115277	0.079174
894.298024	0.079093
894.480753	0.078936
894.663464	0.078585
894.846157	0.078767
895.028831	0.079093
895.211487	0.079071
895.394125	0.079056
895.576745	0.078737
895.759346	0.078638
895.941930	0.078465
896.124495	0.078520
896.307041	0.078315
896.489570	0.078335
896.672080	0.078041
896.854573	0.077872
897.037046	0.077541
897.219502	0.077432
897.401940	0.077410
897.584359	0.077181
897.766760	0.077021
897.949143	0.077040
898.131507	0.076710
898.313854	0.076718
898.496182	0.076454
898.678492	0.076864
898.860783	0.076932
899.043057	0.076865
899.225312	0.077101
899.407549	0.076974
899.589768	0.077003
899.771968	0.077390
899.954151	0.077142
900.136315	0.077304
900.318461	0.077492
900.500588	0.077641
900.682698	0.077921
900.864789	0.077864
901.046862	0.078260
901.228917	0.078273
901.410953	0.078354
901.592971	0.078571
901.774972	0.078596
901.956953	0.077927
902.138917	0.077568
902.320862	0.077186
902.502790	0.076625
902.684699	0.076290
902.866589	0.076309
903.048462	0.076037
903.230316	0.075822
903.412152	0.075594
903.593970	0.075657
903.775770	0.076107
903.957551	0.076037
904.139314	0.076441
904.321059	0.076394
904.502786	0.076196
904.684494	0.075993
904.866185	0.076166
905.047857	0.076191
905.229510	0.076190
905.411146	0.076094
905.592763	0.076122
905.774363	0.076194
905.955943	0.076038
906.137506	0.075904
906.319051	0.075721
906.500577	0.075612
906.682085	0.075547
906.863575	0.076113
907.045046	0.075637
907.226500	0.075817
907.407935	0.075438
907.589352	0.075546
907.770750	0.076020
907.952131	0.076151
908.133493	0.076222
908.314837	0.075987
908.496163	0.075364
908.677470	0.075595
908.858760	0.074978
909.040031	0.075556
909.221284	0.075522
909.402518	0.075017
909.583735	0.074796
909.764933	0.074071
909.946113	0.074007
910.127275	0.073920
910.308418	0.073836
910.489544	0.073821
910.670651	0.073285
910.851740	0.072950
911.032810	0.072418
911.213863	0.072373
911.394897	0.072372
911.575913	0.071905
911.756911	0.071531
911.937890	0.071184
912.118851	0.070876
912.299794	0.070594
912.480719	0.070429
912.661626	0.070452
912.842514	0.070021
913.023384	0.070064
913.204236	0.070562
913.385070	0.070724
913.565886	0.070446
913.746683	0.070230
913.927462	0.070181
914.108223	0.070035
914.288965	0.070395
914.469690	0.070398
914.650396	0.070126
914.831084	0.069978
915.011754	0.069607
915.192405	0.069506
915.373038	0.069346
915.553653	0.068844
915.734250	0.068742
915.914829	0.068592
916.095389	0.068536
916.275931	0.068639
916.456455	0.068171
916.636961	0.067893
916.817448	0.067840
916.997917	0.067864
917.178368	0.067797
917.358801	0.067660
917.539216	0.067102
917.719612	0.067347
917.899990	0.067204
918.080350	0.067080
918.260692	0.067209
918.441015	0.066930
918.621320	0.066998
918.801607	0.067258
918.981876	0.067347
919.162127	0.067510
919.342359	0.066941
919.522573	0.066675
919.702769	0.066473
919.882947	0.066139
920.063106	0.066272
920.243247	0.066188
920.423370	0.065768
920.603475	0.065571
920.783562	0.065449
920.963630	0.065726
921.143680	0.065622
921.323712	0.065658
921.503725	0.065693
921.683721	0.065317
921.863698	0.065230
922.043657	0.065015
922.223598	0.064433
922.403520	0.064011
922.583424	0.063379
922.763311	0.062954
922.943178	0.062981
923.123028	0.062417
923.302859	0.061880
923.482673	0.061897
923.662467	0.061936
923.842244	0.062311
924.022003	0.062013
924.201743	0.061824
924.381465	0.061745
924.561169	0.061503
924.740854	0.061549
924.920522	0.061961
925.100171	0.061193
925.279802	0.061514
925.459414	0.060535
925.639009	0.060324
925.818585	0.060146
925.998143	0.060071
926.177683	0.059900
926.357205	0.059989
926.536708	0.059872
926.716193	0.059737
926.895660	0.058995
927.075109	0.058987
927.254539	0.059140
927.433951	0.058615
927.613345	0.058013
927.792721	0.057803
927.972079	0.056880
928.151418	0.056400
928.330739	0.056418
928.510042	0.055918
928.689327	0.056315
928.868593	0.056332
929.047841	0.056182
929.227071	0.056249
929.406283	0.055583
929.585476	0.055939
929.764652	0.055544
929.943809	0.054925
930.122948	0.055064
930.302068	0.054392
930.481171	0.053763
930.660255	0.053781
930.839321	0.053823
931.018369	0.053956
931.197398	0.053947
931.376409	0.053569
931.555402	0.054045
931.734377	0.053162
931.913334	0.053127
932.092272	0.052816
932.271192	0.052515
932.450094	0.052197
932.628978	0.052382
932.807844	0.051995
932.986691	0.051608
933.165520	0.050501
933.344331	0.050779
933.523123	0.050322
933.701898	0.050263
933.880654	0.050293
934.059392	0.050148
934.238111	0.049240
934.416813	0.048758
934.595496	0.048496
934.774161	0.048753
934.952808	0.048039
935.131437	0.047388
935.310047	0.047053
935.488639	0.046681
935.667213	0.046314
935.845769	0.045872
936.024306	0.045527
936.202825	0.045513
936.381326	0.045154
936.559809	0.044817
936.738274	0.044989
936.916720	0.044851
937.095148	0.044796
937.273558	0.044485
937.451950	0.044812
937.630323	0.045012
937.808678	0.045052
937.987015	0.044583
938.165334	0.045974
938.343635	0.045872
938.521917	0.045049
938.700181	0.044525
938.878427	0.044243
939.056655	0.043648
939.234864	0.042568
939.413055	0.041936
939.591228	0.041839
939.769383	0.040069
939.947519	0.040122
940.125638	0.040530
940.303738	0.040093
940.481820	0.040499
940.659883	0.040659
940.837929	0.040800
941.015956	0.040302
941.193965	0.040194
941.371955	0.040126
941.549928	0.039574
941.727882	0.039698
941.905818	0.039731
942.083736	0.038314
942.261636	0.037879
942.439517	0.037247
942.617380	0.037475
942.795225	0.036891
942.973052	0.036252
943.150860	0.035223
943.328651	0.034621
943.506423	0.034509
943.684176	0.034907
943.861912	0.034733
944.039629	0.034643
944.217328	0.033690
944.395009	0.033368
944.572672	0.035220
944.750317	0.035597
944.927943	0.036609
945.105551	0.036668
945.283141	0.036397
945.460712	0.035577
945.638265	0.036240
945.815801	0.036781
945.993317	0.038053
946.170816	0.036856
946.348297	0.036895
946.525759	0.035227
946.703203	0.034904
946.880629	0.034813
947.058036	0.035033
947.235425	0.034180
947.412797	0.035046
947.590149	0.033366
947.767484	0.033509
947.944800	0.033309
948.122099	0.032950
948.299379	0.032452
948.476640	0.032537
948.653884	0.032310
948.831109	0.032942
949.008316	0.031626
949.185505	0.031387
949.362676	0.030371
949.539828	0.029944
949.716962	0.029352
949.894078	0.030367
950.071176	0.029926
950.248256	0.030907
950.425317	0.030838
950.602360	0.031497
950.779385	0.031757
950.956391	0.030732
951.133380	0.030228
951.310350	0.030666
951.487302	0.030683
951.664235	0.030155
951.841151	0.030370
952.018048	0.029601
952.194927	0.028823
952.371788	0.029271
952.548631	0.030536
952.725455	0.030571
952.902261	0.030420
953.079049	0.029295
953.255819	0.028794
953.432570	0.026640
953.609303	0.027913
953.786018	0.027961
953.962715	0.027770
954.139394	0.028358
954.316054	0.029463
954.492696	0.029686
954.669320	0.029966
954.845926	0.030843
955.022513	0.031612
955.199083	0.030663
955.375634	0.030302
955.552166	0.031262
955.728681	0.029579
955.905177	0.027561
956.081655	0.027215
956.258115	0.026944
956.434557	0.026063
956.610980	0.024890
956.787385	0.025042
956.963772	0.025966
957.140141	0.024572
957.316492	0.025254
957.492824	0.026579
957.669138	0.027207
957.845434	0.027075
958.021712	0.027946
958.197971	0.029439
958.374212	0.028457
958.550435	0.028157
958.726640	0.028620
958.902826	0.028946
959.078995	0.029633
959.255145	0.030834
959.431277	0.031102
959.607390	0.031383
959.783486	0.031804
959.959563	0.032710
960.135622	0.032855
960.311662	0.032658
960.487685	0.032890
960.663689	0.033299
960.839675	0.032177
961.015643	0.031994
961.191593	0.031316
961.367524	0.029775
961.543437	0.029638
961.719332	0.030003
961.895209	0.029628
962.071067	0.030192
962.246907	0.029000
962.422730	0.029683
962.598533	0.029990
962.774319	0.029261
962.950086	0.029567
963.125835	0.027500
963.301566	0.027612
963.477279	0.028536
963.652973	0.028134
963.828650	0.027560
964.004308	0.025049
964.179947	0.025562
964.355569	0.027373
964.531172	0.028868
964.706757	0.029664
964.882324	0.029678
965.057873	0.027493
965.233403	0.027636
965.408916	0.029742
965.584410	0.033603
965.759885	0.033363
965.935343	0.031285
966.110782	0.029948
966.286203	0.031569
966.461606	0.032058
966.636991	0.034077
966.812357	0.032958
966.987705	0.030756
967.163035	0.029880
967.338347	0.029905
967.513641	0.031413
967.688916	0.032084
967.864173	0.032640
968.039412	0.031072
968.214632	0.031294
968.389835	0.030185
968.565019	0.032024
968.740185	0.029176
968.915333	0.028560
969.090462	0.030298
969.265573	0.030211
969.440667	0.029821
969.615741	0.031268
969.790798	0.030974
969.965836	0.032675
970.140856	0.032321
970.315858	0.034438
970.490842	0.035530
970.665808	0.035022
970.840755	0.036335
971.015684	0.036583
971.190595	0.037883
971.365487	0.038219
971.540362	0.037363
971.715218	0.037953
971.890056	0.036010
972.064875	0.034836
972.239677	0.034397
972.414460	0.031448
972.589225	0.029377
972.763972	0.026686
972.938700	0.026522
973.113411	0.026772
973.288103	0.026403
973.462777	0.027592
973.637432	0.028809
973.812070	0.027874
973.986689	0.032075
974.161290	0.033450
974.335873	0.035170
974.510437	0.034779
974.684984	0.035458
974.859512	0.034477
975.034022	0.034126
975.208513	0.033294
975.382987	0.033985
975.557442	0.031884
975.731879	0.031432
975.906298	0.029024
976.080698	0.029471
976.255080	0.027674
976.429445	0.027330
976.603790	0.028391
976.778118	0.029810
976.952427	0.029599
977.126719	0.027677
977.300992	0.028850
977.475246	0.031753
977.649483	0.032004
977.823701	0.033591
977.997901	0.034691
978.172083	0.033318
978.346247	0.031516
978.520392	0.030161
978.694519	0.032289
978.868628	0.031058
979.042719	0.030100
979.216791	0.029810
979.390845	0.029089
979.564882	0.028861
979.738899	0.029969
979.912899	0.030533
980.086880	0.029864
980.260843	0.030290
980.434788	0.031535
980.608715	0.030251
980.782623	0.031111
980.956514	0.032701
981.130386	0.033764
981.304240	0.035274
981.478075	0.036116
981.651892	0.038336
981.825692	0.036135
981.999472	0.033792
982.173235	0.033473
982.346980	0.032590
982.520706	0.032331
982.694414	0.032729
982.868104	0.030773
983.041775	0.030477
983.215428	0.030601
983.389064	0.032136
983.562680	0.033537
983.736279	0.034628
983.909860	0.035751
984.083422	0.034638
984.256966	0.034276
984.430491	0.034509
984.603999	0.032836
984.777488	0.032929
984.950959	0.033199
985.124412	0.032777
985.297847	0.033429
985.471263	0.032937
985.644661	0.034163
985.818041	0.031350
985.991403	0.033841
986.164747	0.034779
986.338072	0.032857
986.511379	0.032534
986.684668	0.034043
986.857938	0.032961
987.031191	0.031484
987.204425	0.030881
987.377641	0.033353
987.550839	0.031164
987.724018	0.030684
987.897179	0.030713
988.070322	0.031286
988.243447	0.031011
988.416554	0.031285
988.589642	0.032095
988.762712	0.032678
988.935764	0.031832
989.108798	0.029888
989.281813	0.030166
989.454811	0.030839
989.627790	0.029835
989.800751	0.030271
989.973693	0.030824
990.146617	0.030843
990.319524	0.030660
990.492412	0.030795
990.665281	0.034214
990.838133	0.034693
991.010966	0.035782
991.183781	0.035936
991.356578	0.036197
991.529356	0.035433
991.702117	0.034339
991.874859	0.032940
992.047583	0.032557
992.220288	0.031749
992.392976	0.031313
992.565645	0.029943
992.738296	0.030266
992.910929	0.028506
993.083543	0.028254
993.256139	0.028556
993.428718	0.029093
993.601277	0.030313
993.773819	0.028935
993.946342	0.028708
994.118848	0.030365
994.291335	0.030034
994.463803	0.028737
994.636254	0.030265
994.808686	0.030763
994.981100	0.030858
995.153496	0.031439
995.325874	0.031283
995.498233	0.032274
995.670574	0.031123
995.842897	0.030928
996.015202	0.032802
996.187488	0.031649
996.359757	0.032972
996.532007	0.033740
996.704239	0.032087
996.876452	0.033030
997.048648	0.032725
997.220825	0.033113
997.392984	0.033028
997.565124	0.033333
997.737247	0.033964
997.909351	0.033611
998.081437	0.033057
998.253505	0.032965
998.425554	0.033497
998.597586	0.032533
998.769599	0.032567
998.941594	0.034607
999.113571	0.033466
999.285529	0.033688
999.457469	0.033619
999.629391	0.033316
999.801295	0.033374
999.973181	0.031912
1000.145048	0.032003
1000.316897	0.032654
1000.488728	0.031032
1000.660541	0.030227
1000.832335	0.029744
1001.004111	0.027901
1001.175869	0.027739
1001.347609	0.028900
1001.519331	0.030334
1001.691034	0.029850
1001.862719	0.029727
1002.034386	0.030192
1002.206035	0.031613
1002.377665	0.031911
1002.549277	0.032810
1002.720871	0.033479
1002.892447	0.032116
1003.064004	0.030378
1003.235544	0.030811
1003.407065	0.029380
1003.578568	0.027716
1003.750052	0.027931
1003.921519	0.027107
1004.092967	0.027242
1004.264397	0.026681
1004.435809	0.026481
1004.607202	0.027452
1004.778577	0.027071
1004.949934	0.028718
1005.121273	0.029181
1005.292594	0.029393
1005.463896	0.028831
1005.635180	0.027960
1005.806446	0.028248
1005.977694	0.029727
1006.148923	0.028805
1006.320135	0.030119
1006.491328	0.028847
1006.662503	0.028921
1006.833659	0.027785
1007.004798	0.028801
1007.175918	0.028165
1007.347020	0.028136
1007.518103	0.027475
1007.689169	0.028973
1007.860216	0.028495
1008.031245	0.027704
1008.202256	0.029726
1008.373248	0.031419
1008.544223	0.031060
1008.715179	0.031771
1008.886117	0.031038
1009.057036	0.031171
1009.227938	0.030270
1009.398821	0.029253
1009.569686	0.029937
1009.740533	0.028965
1009.911361	0.027604
1010.082172	0.027429
1010.252964	0.028804
1010.423738	0.030139
1010.594493	0.029037
1010.765231	0.029122
1010.935950	0.032802
1011.106651	0.033647
1011.277334	0.033543
1011.447998	0.033085
1011.618645	0.032901
1011.789273	0.033296
1011.959882	0.032531
1012.130474	0.033446
1012.301048	0.033907
1012.471603	0.030381
1012.642140	0.031405
1012.812658	0.030957
1012.983159	0.032935
1013.153641	0.032555
1013.324105	0.032410
1013.494551	0.033474
1013.664979	0.032793
1013.835388	0.031531
1014.005779	0.031875
1014.176152	0.030678
1014.346507	0.030504
1014.516843	0.029549
1014.687162	0.028744
1014.857462	0.028721
1015.027744	0.028583
1015.198007	0.029546
1015.368252	0.030549
1015.538480	0.031662
1015.708689	0.031256
1015.878879	0.031258
1016.049052	0.029866
1016.219206	0.033069
1016.389342	0.032086
1016.559460	0.032454
1016.729559	0.032168
1016.899641	0.032534
1017.069704	0.031255
1017.239749	0.030836
1017.409775	0.030839
1017.579784	0.031926
1017.749774	0.029228
1017.919746	0.030247
1018.089700	0.028118
1018.259635	0.028182
1018.429553	0.028117
1018.599452	0.029698
1018.769333	0.029725
1018.939195	0.030194
1019.109040	0.029971
1019.278866	0.031621
1019.448674	0.030925
1019.618464	0.032521
1019.788235	0.031761
1019.957989	0.031855
1020.127724	0.030840
1020.297441	0.031018
1020.467139	0.031936
1020.636820	0.032501
1020.806482	0.032336
1020.976126	0.031068
1021.145752	0.029894
1021.315359	0.030330
1021.484948	0.031146
1021.654519	0.029893
1021.824072	0.029603
1021.993607	0.028266
1022.163123	0.027647
1022.332621	0.028096
1022.502101	0.029467
1022.671563	0.030766
1022.841007	0.031414
1023.010432	0.030701
1023.179839	0.031025
1023.349228	0.031335
1023.518598	0.032109
1023.687951	0.031077
1023.857285	0.029776
1024.026601	0.028352
1024.195899	0.028118
1024.365178	0.026245
1024.534439	0.025538
1024.703682	0.025444
1024.872907	0.026362
1025.042114	0.025528
1025.211302	0.027233
1025.380472	0.026872
1025.549624	0.027729
1025.718758	0.027293
1025.887873	0.029871
1026.056970	0.030285
1026.226049	0.031763
1026.395110	0.030071
1026.564153	0.030216
1026.733177	0.028822
1026.902183	0.028538
1027.071171	0.029068
1027.240141	0.029025
1027.409092	0.027542
1027.578026	0.026468
1027.746940	0.025714
1027.915837	0.026915
1028.084716	0.026027
1028.253576	0.026881
1028.422418	0.027635
1028.591242	0.026454
1028.760048	0.026533
1028.928835	0.026124
1029.097604	0.026035
1029.266355	0.026347
1029.435088	0.024830
1029.603803	0.025258
1029.772499	0.024519
1029.941177	0.025009
1030.109837	0.025600
1030.278478	0.025640
1030.447102	0.024194
1030.615707	0.025504
1030.784294	0.024992
1030.952863	0.026212
1031.121413	0.027652
1031.289945	0.027935
1031.458460	0.028847
1031.626955	0.028316
1031.795433	0.027419
1031.963892	0.029391
1032.132334	0.027905
1032.300756	0.029445
1032.469161	0.028340
1032.637548	0.026821
1032.805916	0.026899
1032.974266	0.024535
1033.142598	0.024060
1033.310911	0.024848
1033.479207	0.024199
1033.647484	0.024310
1033.815743	0.021946
1033.983983	0.022359
1034.152206	0.022340
1034.320410	0.023072
1034.488596	0.025570
1034.656764	0.026433
1034.824914	0.026307
1034.993045	0.025803
1035.161158	0.026331
1035.329253	0.027539
1035.497330	0.027863
1035.665388	0.027756
1035.833428	0.027067
1036.001450	0.025645
1036.169454	0.025730
1036.337440	0.026298
1036.505407	0.028478
1036.673356	0.027835
1036.841287	0.027664
1037.009200	0.027958
1037.177094	0.027934
1037.344970	0.028326
1037.512828	0.028606
1037.680668	0.028421
1037.848489	0.027138
1038.016293	0.026350
1038.184078	0.026661
1038.351845	0.026837
1038.519593	0.026276
1038.687324	0.026139
1038.855036	0.025419
1039.022730	0.025124
1039.190406	0.025949
1039.358063	0.026746
1039.525702	0.026776
1039.693323	0.027145
1039.860926	0.027734
1040.028511	0.027376
1040.196077	0.027459
1040.363625	0.026473
1040.531155	0.027424
1040.698667	0.027594
1040.866161	0.027702
1041.033636	0.027871
1041.201093	0.028412
1041.368532	0.027620
1041.535952	0.028467
1041.703355	0.030270
1041.870739	0.033044
1042.038105	0.032480
1042.205452	0.031182
1042.372782	0.031529
1042.540093	0.030908
1042.707386	0.031192
1042.874661	0.031080
1043.041918	0.030828
1043.209156	0.029783
1043.376376	0.028481
1043.543578	0.028677
1043.710762	0.028772
1043.877927	0.028262
1044.045074	0.028393
1044.212203	0.028359
1044.379314	0.028272
1044.546407	0.026867
1044.713481	0.025759
1044.880537	0.025479
1045.047575	0.025392
1045.214595	0.024153
1045.381596	0.024596
1045.548579	0.024955
1045.715544	0.023672
1045.882491	0.025527
1046.049420	0.026401
1046.216330	0.026873
1046.383222	0.026969
1046.550096	0.027024
1046.716951	0.027787
1046.883789	0.027351
1047.050608	0.028278
1047.217409	0.028109
1047.384192	0.026911
1047.550956	0.028503
1047.717703	0.029187
1047.884431	0.030525
1048.051140	0.030740
1048.217832	0.031174
1048.384505	0.030869
1048.551161	0.029747
1048.717798	0.029801
1048.884416	0.030350
1049.051017	0.029524
1049.217599	0.029374
1049.384163	0.027571
1049.550709	0.027136
1049.717237	0.026665
1049.883746	0.026927
1050.050237	0.026056
1050.216710	0.025779
1050.383165	0.024706
1050.549601	0.023658
1050.716019	0.024767
1050.882420	0.024375
1051.048801	0.023247
1051.215165	0.024576
1051.381510	0.024448
1051.547837	0.025696
1051.714146	0.027307
1051.880437	0.026883
1052.046709	0.027443
1052.212964	0.025295
1052.379200	0.026593
1052.545417	0.026957
1052.711617	0.026327
1052.877798	0.027394
1053.043961	0.027277
1053.210106	0.024991
1053.376233	0.025650
1053.542341	0.026090
1053.708432	0.025982
1053.874504	0.024937
1054.040557	0.024928
1054.206593	0.023877
1054.372610	0.024814
1054.538609	0.023606
1054.704590	0.024108
1054.870553	0.024017
1055.036497	0.024507
1055.202424	0.024734
1055.368331	0.026253
1055.534221	0.027849
1055.700093	0.029096
1055.865946	0.026948
1056.031781	0.028744
1056.197598	0.029800
1056.363397	0.028894
1056.529177	0.028038
1056.694939	0.029742
1056.860683	0.028942
1057.026409	0.028707
1057.192116	0.027989
1057.357806	0.027309
1057.523477	0.027220
1057.689130	0.026613
1057.854764	0.024755
1058.020381	0.024353
1058.185979	0.024446
1058.351559	0.023179
1058.517120	0.023545
1058.682664	0.022803
1058.848189	0.023595
1059.013696	0.022203
1059.179185	0.024483
1059.344656	0.026973
1059.510108	0.026674
1059.675542	0.025239
1059.840958	0.026932
1060.006356	0.025900
1060.171735	0.027831
1060.337096	0.027626
1060.502439	0.028197
1060.667764	0.027592
1060.833071	0.027095
1060.998359	0.028771
1061.163629	0.028125
1061.328881	0.027719
1061.494115	0.028548
1061.659330	0.029120
1061.824527	0.030646
1061.989706	0.031306
1062.154867	0.030386
1062.320010	0.031128
1062.485134	0.029931
1062.650240	0.030004
1062.815328	0.030882
1062.980398	0.031568
1063.145449	0.031527
1063.310482	0.028148
1063.475497	0.026670
1063.640494	0.026021
1063.805473	0.026558
1063.970433	0.026633
1064.135375	0.025610
1064.300299	0.026852
1064.465204	0.025234
1064.630092	0.024654
1064.794961	0.026058
1064.959812	0.028269
1065.124645	0.029847
1065.289459	0.030580
1065.454256	0.030936
1065.619034	0.031253
1065.783793	0.029300
1065.948535	0.029329
1066.113258	0.029829
1066.277964	0.029798
1066.442651	0.027402
1066.607319	0.025880
1066.771970	0.023764
1066.936602	0.024350
1067.101216	0.027050
1067.265812	0.026471
1067.430389	0.025912
1067.594949	0.025689
1067.759490	0.027056
1067.924013	0.028877
1068.088518	0.030863
1068.253004	0.031428
1068.417472	0.032347
1068.581922	0.030401
1068.746354	0.030479
1068.910768	0.032855
1069.075163	0.032938
1069.239540	0.033466
1069.403899	0.031679
1069.568240	0.029168
1069.732562	0.031147
1069.896866	0.029498
1070.061152	0.029648
1070.225420	0.030266
1070.389670	0.028213
1070.553901	0.027130
1070.718114	0.024798
1070.882309	0.026078
1071.046486	0.028370
1071.210644	0.026873
1071.374784	0.028594
1071.538906	0.028358
1071.703010	0.027725
1071.867096	0.029287
1072.031163	0.028120
1072.195212	0.029865
1072.359243	0.029765
1072.523256	0.027486
1072.687250	0.027098
1072.851226	0.026378
1073.015184	0.027836
1073.179124	0.028768
1073.343045	0.028049
1073.506949	0.027879
1073.670834	0.028683
1073.834701	0.027750
1073.998549	0.027520
1074.162380	0.027535
1074.326192	0.026554
1074.489986	0.023985
1074.653761	0.023385
1074.817519	0.022438
1074.981258	0.024581
1075.144979	0.023689
1075.308682	0.024202
1075.472367	0.024413
1075.636033	0.024763
1075.799681	0.024121
1075.963311	0.027261
1076.126923	0.026339
1076.290516	0.025689
1076.454092	0.025183
1076.617649	0.025309
1076.781187	0.025717
1076.944708	0.026606
1077.108210	0.026496
1077.271695	0.028986
1077.435160	0.029574
1077.598608	0.030625
1077.762038	0.031217
1077.925449	0.032007
1078.088842	0.031817
1078.252217	0.033819
1078.415573	0.036727
1078.578912	0.036904
1078.742232	0.034783
1078.905534	0.032495
1079.068817	0.032513
1079.232083	0.031376
1079.395330	0.029971
1079.558559	0.030898
1079.721770	0.028838
1079.884962	0.025822
1080.048136	0.026557
1080.211293	0.029309
1080.374430	0.029355
1080.537550	0.027753
1080.700651	0.030631
1080.863735	0.030593
1081.026800	0.028107
1081.189846	0.027125
1081.352875	0.027846
1081.515885	0.028792
1081.678877	0.027497
1081.841851	0.027628
1082.004807	0.029087
1082.167744	0.028189
1082.330663	0.028383
1082.493564	0.027294
1082.656447	0.029029
1082.819312	0.031172
1082.982158	0.028761
1083.144986	0.028106
1083.307796	0.030167
1083.470587	0.031155
1083.633361	0.030869
1083.796116	0.032305
1083.958853	0.036027
1084.121571	0.034466
1084.284272	0.031909
1084.446954	0.033397
1084.609618	0.033190
1084.772264	0.030603
1084.934892	0.029947
1085.097501	0.030586
1085.260092	0.029995
1085.422665	0.027866
1085.585220	0.027276
1085.747756	0.025712
1085.910274	0.025763
1086.072774	0.026310
1086.235256	0.028629
1086.397720	0.026997
1086.560165	0.026489
1086.722592	0.027366
1086.885001	0.027526
1087.047392	0.026616
1087.209764	0.027379
1087.372119	0.025665
1087.534455	0.025938
1087.696772	0.025525
1087.859072	0.026385
1088.021353	0.025892
1088.183616	0.023477
1088.345861	0.024029
1088.508088	0.024977
1088.670296	0.026350
1088.832486	0.028743
1088.994658	0.026326
1089.156812	0.026477
1089.318948	0.026706
1089.481065	0.025311
1089.643164	0.027652
1089.805245	0.028916
1089.967308	0.030130
1090.129352	0.028554
1090.291378	0.025239
1090.453386	0.026434
1090.615376	0.025507
1090.777347	0.027626
1090.939301	0.029384
1091.101236	0.027262
1091.263153	0.023284
1091.425051	0.023319
1091.586932	0.024852
1091.748794	0.028795
1091.910638	0.030680
1092.072463	0.031611
1092.234271	0.030275
1092.396060	0.029688
1092.557831	0.030755
1092.719584	0.032596
1092.881319	0.032433
1093.043035	0.034308
1093.204733	0.029618
1093.366413	0.027090
1093.528075	0.025967
1093.689718	0.025436
1093.851343	0.026701
1094.012950	0.027215
1094.174539	0.028115
1094.336110	0.027759
1094.497662	0.026035
1094.659196	0.029422
1094.820712	0.030712
1094.982210	0.030891
1095.143689	0.030278
1095.305151	0.029791
1095.466594	0.032519
1095.628018	0.030168
1095.789425	0.031267
1095.950813	0.030234
1096.112183	0.029921
1096.273535	0.031810
1096.434869	0.032408
1096.596184	0.032241
1096.757482	0.032325
1096.918761	0.028609
1097.080021	0.030547
1097.241264	0.032315
1097.402488	0.029515
1097.563694	0.031183
1097.724882	0.029107
1097.886052	0.026814
1098.047203	0.026634
1098.208336	0.025605
1098.369451	0.024878
1098.530548	0.025689
1098.691627	0.021756
1098.852687	0.026018
1099.013729	0.021274
1099.174753	0.022978
1099.335758	0.025760
1099.496746	0.029152
1099.657715	0.031067
1099.818666	0.033109
1099.979599	0.033347
1100.140513	0.033486
1100.301409	0.033194
1100.462287	0.037239
1100.623147	0.037690
1100.783989	0.037746
1100.944812	0.033398
1101.105617	0.033843
1101.266404	0.030599
1101.427173	0.031035
1101.587923	0.031721
1101.748656	0.030144
1101.909370	0.029857
1102.070066	0.027393
1102.230743	0.024820
1102.391403	0.030971
1102.552044	0.028319
1102.712667	0.031603
1102.873271	0.030583
1103.033858	0.034336
1103.194426	0.034835
1103.354976	0.034507
1103.515508	0.035670
1103.676021	0.037981
1103.836517	0.033408
1103.996994	0.034332
1104.157453	0.033726
1104.317893	0.032923
1104.478316	0.027402
1104.638720	0.028380
1104.799106	0.027539
1104.959474	0.027535
1105.119823	0.031206
1105.280155	0.034054
1105.440468	0.031605
1105.600763	0.029689
1105.761039	0.027517
1105.921298	0.029307
1106.081538	0.027595
1106.241760	0.027732
1106.401964	0.025845
1106.562149	0.021790
1106.722316	0.020375
1106.882465	0.024136
1107.042596	0.026760
1107.202709	0.029592
1107.362803	0.029706
1107.522879	0.033467
1107.682937	0.028200
1107.842977	0.028621
1108.002999	0.028041
1108.163002	0.025125
1108.322987	0.026267
1108.482954	0.024837
1108.642902	0.025639
1108.802833	0.028432
1108.962745	0.023699
1109.122639	0.028555
1109.282515	0.027157
1109.442372	0.026597
1109.602211	0.029045
1109.762032	0.025680
1109.921835	0.024223
1110.081620	0.022290
1110.241386	0.019418
1110.401134	0.020395
1110.560864	0.019223
1110.720576	0.020169
1110.880269	0.017767
1111.039945	0.016116
1111.199602	0.019845
1111.359240	0.022254
1111.518861	0.023431
1111.678463	0.023663
1111.838047	0.025301
1111.997613	0.025335
1112.157161	0.030089
1112.316690	0.034646
1112.476202	0.039820
1112.635695	0.036103
1112.795169	0.031190
1112.954626	0.030665
1113.114064	0.035780
1113.273484	0.032528
1113.432886	0.034358
1113.592270	0.032104
1113.751635	0.029637
1113.910983	0.021378
1114.070312	0.023278
1114.229622	0.027567
1114.388915	0.027658
1114.548189	0.021287
1114.707445	0.025479
1114.866683	0.027336
1115.025903	0.025803
1115.185104	0.027793
1115.344287	0.030012
1115.503452	0.029001
1115.662599	0.028983
1115.821727	0.027441
1115.980838	0.030375
1116.139930	0.027739
1116.299004	0.027174
1116.458059	0.028322
1116.617097	0.024980
1116.776116	0.028177
1116.935117	0.030715
1117.094099	0.029714
1117.253064	0.032685
1117.412010	0.031616
1117.570938	0.031058
1117.729848	0.029294
1117.888740	0.026798
1118.047613	0.029680
1118.206468	0.029694
1118.365305	0.028598
1118.524124	0.029638
1118.682924	0.031666
1118.841707	0.030694
1119.000471	0.031058
1119.159216	0.032086
1119.317944	0.029995
1119.476653	0.030903
1119.635344	0.026595
1119.794017	0.021306
1119.952672	0.017476
1120.111308	0.011552
1120.269927	0.015420
1120.428527	0.020481
1120.587108	0.020917
1120.745672	0.026587
1120.904217	0.025716
1121.062744	0.023935
1121.221253	0.027652
1121.379744	0.028480
1121.538216	0.033517
1121.696671	0.032879
1121.855107	0.030418
1122.013524	0.028236
1122.171924	0.026362
1122.330305	0.026464
1122.488668	0.033730
1122.647013	0.031256
1122.805340	0.035325
1122.963648	0.034514
1123.121938	0.031117
1123.280210	0.029994
1123.438464	0.027479
1123.596700	0.028354
1123.754917	0.025406
1123.913116	0.020371
1124.071297	0.024414
1124.229459	0.026864
1124.387604	0.023022
1124.545730	0.019768
1124.703838	0.017646
1124.861928	0.021663
1125.019999	0.019055
1125.178052	0.023047
1125.336088	0.029791
1125.494104	0.025851
1125.652103	0.025705
1125.810083	0.026527
1125.968045	0.032166
1126.125989	0.034933
1126.283915	0.033978
1126.441823	0.033322
1126.599712	0.028944
1126.757583	0.026480
1126.915436	0.027703
1127.073270	0.026277
1127.231087	0.027295
1127.388885	0.026550
1127.546665	0.029392
1127.704426	0.028911
1127.862170	0.029428
1128.019895	0.030953
1128.177602	0.029185
1128.335291	0.032081
1128.492961	0.028796
1128.650614	0.028793
1128.808248	0.030294
1128.965864	0.022639
1129.123461	0.025167
1129.281041	0.022743
1129.438602	0.025196
1129.596145	0.027605
1129.753670	0.024019
1129.911176	0.029078
1130.068665	0.028775
1130.226135	0.029872
1130.383587	0.032242
1130.541020	0.029230
1130.698436	0.035092
1130.855833	0.032033
1131.013212	0.029498
1131.170573	0.030342
1131.327915	0.028291
1131.485239	0.027965
1131.642545	0.024561
1131.799833	0.026485
1131.957103	0.026420
1132.114354	0.026619
1132.271588	0.029613
1132.428803	0.031760
1132.585999	0.028648
1132.743178	0.029405
1132.900338	0.034880
1133.057480	0.031611
1133.214604	0.031294
1133.371710	0.034018
1133.528797	0.031083
1133.685866	0.026141
1133.842917	0.024463
1133.999950	0.033844
1134.156964	0.032212
1134.313960	0.029307
1134.470938	0.031708
1134.627898	0.029616
1134.784840	0.030010
1134.941763	0.035069
1135.098668	0.041987
1135.255555	0.038999
1135.412424	0.034307
1135.569274	0.035440
1135.726107	0.034623
1135.882921	0.042197
1136.039716	0.043968
1136.196494	0.040206
1136.353253	0.037337
1136.509995	0.037228
1136.666717	0.043180
1136.823422	0.043928
1136.980109	0.041691
1137.136777	0.043622
1137.293427	0.036821
1137.450059	0.038750
1137.606672	0.036850
1137.763267	0.037718
1137.919844	0.035297
1138.076403	0.032041
1138.232944	0.032578
1138.389466	0.035759
1138.545971	0.034625
1138.702457	0.038724
1138.858924	0.033643
1139.015374	0.037920
1139.171805	0.036345
1139.328218	0.032369
1139.484613	0.028848
1139.640990	0.025602
1139.797348	0.020714
1139.953688	0.020962
1140.110010	0.014320
1140.266314	0.015184
1140.422600	0.010588
1140.578867	0.008386
1140.735116	0.014698
1140.891347	0.017008
1141.047559	0.019742
1141.203754	0.017524
1141.359930	0.015966
1141.516088	0.019264
1141.672228	0.018802
1141.828349	0.022525
1141.984452	0.025501
1142.140537	0.027016
1142.296604	0.028754
1142.452653	0.024664
1142.608683	0.022416
1142.764695	0.023987
1142.920689	0.025031
1143.076665	0.026367
1143.232622	0.028723
1143.388562	0.031095
1143.544483	0.023723
1143.700385	0.024179
1143.856270	0.023217
1144.012136	0.026112
1144.167985	0.020796
1144.323814	0.018367
1144.479626	0.017470
1144.635420	0.015181
1144.791195	0.014333
1144.946952	0.015500
1145.102691	0.017364
1145.258411	0.019972
1145.414113	0.022634
1145.569798	0.029380
1145.725463	0.027556
1145.881111	0.028924
1146.036741	0.026788
1146.192352	0.024282
1146.347945	0.024361
1146.503519	0.024636
1146.659076	0.023661
1146.814614	0.026150
1146.970134	0.025595
1147.125636	0.028697
1147.281120	0.032589
1147.436585	0.032532
1147.592032	0.030795
1147.747461	0.036845
1147.902872	0.037785
1148.058265	0.043879
1148.213639	0.037987
1148.368995	0.038019
1148.524333	0.036060
1148.679653	0.033799
1148.834954	0.039077
1148.990237	0.041027
1149.145502	0.032751
1149.300749	0.029596
1149.455977	0.026855
1149.611188	0.032106
1149.766380	0.031337
1149.921553	0.033055
1150.076709	0.028116
1150.231846	0.022432
1150.386966	0.017474
1150.542066	0.020491
1150.697149	0.018486
1150.852214	0.013880
1151.007260	0.013040
1151.162288	0.012211
1151.317298	0.013600
1151.472289	0.016191
1151.627263	0.021340
1151.782218	0.024401
1151.937155	0.021810
1152.092073	0.015785
1152.246974	0.018100
1152.401856	0.024304
1152.556720	0.027117
1152.711566	0.025873
1152.866393	0.032025
1153.021203	0.022528
1153.175994	0.022555
1153.330767	0.026170
1153.485521	0.031399
1153.640258	0.034159
1153.794976	0.035306
1153.949676	0.028068
1154.104358	0.024860
1154.259021	0.018909
1154.413667	0.029731
1154.568294	0.028714
1154.722903	0.025274
1154.877493	0.025087
1155.032066	0.022696
1155.186620	0.017170
1155.341156	0.017725
1155.495674	0.021528
1155.650173	0.026273
1155.804654	0.021783
1155.959118	0.024788
1156.113562	0.024648
1156.267989	0.027312
1156.422397	0.028627
1156.576788	0.022587
1156.731160	0.026040
1156.885513	0.020713
1157.039849	0.018746
1157.194166	0.011116
1157.348465	0.007604
1157.502746	0.014243
1157.657009	0.014182
1157.811253	0.011908
1157.965479	0.012382
1158.119687	0.013974
1158.273877	0.018901
1158.428048	0.019455
1158.582201	0.025911
1158.736337	0.024175
1158.890453	0.019242
1159.044552	0.021307
1159.198632	0.022849
1159.352694	0.028216
1159.506738	0.026518
1159.660764	0.019439
1159.814771	0.014696
1159.968761	0.014407
1160.122732	0.012736
1160.276685	0.009896
1160.430619	0.001277
1160.584535	-0.002387
1160.738434	-0.002387
1160.892313	0.002120
1161.046175	0.005804
1161.200019	0.010435
1161.353844	0.009180
1161.507651	0.016652
1161.661440	0.013760
1161.815210	0.019846
1161.968962	0.026681
1162.122697	0.020392
1162.276412	0.009838
1162.430110	0.007520
1162.583789	-0.001415
1162.737451	-0.004537
1162.891094	-0.008273
1163.044718	-0.004519
1163.198325	-0.002711
1163.351913	-0.004188
1163.505483	-0.001567
1163.659035	0.004021
1163.812569	0.002866
1163.966084	0.008225
1164.119581	0.019935
1164.273060	0.028976
1164.426521	0.032187
1164.579964	0.029112
1164.733388	0.025552
1164.886794	0.025612
1165.040182	0.028705
1165.193551	0.039091
1165.346903	0.040953
1165.500236	0.039489
1165.653551	0.027106
1165.806848	0.022777
1165.960126	0.018820
1166.113386	0.021403
1166.266628	0.023190
1166.419852	0.018595
1166.573058	0.011981
1166.726245	0.011413
1166.879414	0.003236
1167.032565	0.009383
1167.185698	0.009927
1167.338812	0.019456
1167.491909	0.024533
1167.644987	0.028799
1167.798046	0.025826
1167.951088	0.025905
1168.104111	0.025375
1168.257117	0.029873
1168.410103	0.021485
1168.563072	0.022966
1168.716023	0.010214
1168.868955	0.009713
1169.021869	0.008967
1169.174765	0.022261
1169.327642	0.031483
1169.480501	0.033450
1169.633343	0.032121
1169.786165	0.041455
1169.938970	0.037000
1170.091757	0.051369
1170.244525	0.046159
1170.397275	0.038758
1170.550007	0.033327
1170.702720	0.023303
1170.855415	0.025401
1171.008092	0.021796
1171.160751	0.014685
1171.313392	0.014850
1171.466014	0.050799
1171.618619	-0.021867
1171.771205	-0.021867
1171.923772	-0.021867
