sample name	sample
index	45
start time	 02-11-2021  02:07:17 PM


Wavelength (nm)	Absorbance
494.344910	-0.337488
494.563924	-0.337488
494.782919	-0.337488
495.001897	-0.119345
495.220856	-0.279482
495.439797	-0.248286
495.658719	-0.197441
495.877624	-0.187822
496.096510	-0.179662
496.315378	-0.172396
496.534227	-0.066738
496.753059	-0.026194
496.971872	-0.034883
497.190667	0.065729
497.409444	0.051513
497.628203	0.049498
497.846943	0.050270
498.065665	0.054137
498.284369	0.056047
498.503055	0.054321
498.721723	0.055962
498.940372	0.057973
499.159003	0.056320
499.377616	0.058013
499.596210	0.058702
499.814787	0.059884
500.033345	0.059097
500.251885	0.058588
500.470406	0.058978
500.688910	0.057745
500.907395	0.057045
501.125862	0.057829
501.344311	0.056261
501.562742	0.055653
501.781154	0.054872
501.999548	0.053310
502.217924	0.052216
502.436282	0.052791
502.654621	0.053322
502.872942	0.051284
503.091245	0.049700
503.309530	0.051343
503.527797	0.049838
503.746045	0.050810
503.964275	0.051159
504.182487	0.052173
504.400681	0.052554
504.618856	0.051193
504.837013	0.053629
505.055152	0.053551
505.273273	0.054361
505.491376	0.055892
505.709460	0.055935
505.927526	0.055714
506.145574	0.056543
506.363604	0.056486
506.581615	0.057164
506.799608	0.056467
507.017583	0.057043
507.235540	0.055162
507.453478	0.055695
507.671399	0.055953
507.889301	0.054789
508.107185	0.054184
508.325050	0.052498
508.542898	0.052185
508.760727	0.052098
508.978538	0.053109
509.196330	0.051857
509.414105	0.051815
509.631861	0.051076
509.849599	0.052194
510.067319	0.052482
510.285021	0.053822
510.502704	0.055231
510.720369	0.054921
510.938016	0.054935
511.155645	0.057588
511.373255	0.058042
511.590848	0.058519
511.808422	0.059458
512.025977	0.059400
512.243515	0.057980
512.461034	0.056653
512.678536	0.057330
512.896018	0.055989
513.113483	0.054630
513.330930	0.053755
513.548358	0.052453
513.765768	0.052492
513.983160	0.054093
514.200533	0.054142
514.417889	0.054556
514.635226	0.054749
514.852545	0.055222
515.069845	0.055136
515.287128	0.054184
515.504392	0.055723
515.721638	0.055828
515.938866	0.053152
516.156075	0.053724
516.373267	0.053035
516.590440	0.052467
516.807594	0.053280
517.024731	0.054003
517.241850	0.054125
517.458950	0.052717
517.676032	0.052804
517.893095	0.052813
518.110141	0.051972
518.327168	0.051458
518.544177	0.050777
518.761168	0.050693
518.978141	0.050305
519.195095	0.051056
519.412031	0.051552
519.628949	0.052014
519.845849	0.052231
520.062731	0.052437
520.279594	0.053176
520.496439	0.053464
520.713266	0.053773
520.930074	0.054009
521.146865	0.054370
521.363637	0.054420
521.580391	0.052922
521.797127	0.053192
522.013844	0.053065
522.230543	0.053903
522.447224	0.054132
522.663887	0.054648
522.880532	0.054608
523.097158	0.054719
523.313766	0.054591
523.530356	0.055361
523.746928	0.055260
523.963481	0.056051
524.180017	0.055012
524.396534	0.053976
524.613032	0.052814
524.829513	0.052402
525.045975	0.053176
525.262420	0.052938
525.478845	0.052045
525.695253	0.051916
525.911643	0.052062
526.128014	0.052430
526.344367	0.053542
526.560702	0.053268
526.777018	0.054089
526.993316	0.053049
527.209597	0.054166
527.425858	0.055415
527.642102	0.055692
527.858328	0.055315
528.074535	0.054817
528.290724	0.054800
528.506894	0.055134
528.723047	0.055272
528.939181	0.054731
529.155297	0.055041
529.371395	0.054592
529.587475	0.053944
529.803536	0.053927
530.019579	0.054809
530.235604	0.055671
530.451611	0.055976
530.667600	0.055168
530.883570	0.055834
531.099522	0.055660
531.315456	0.055671
531.531372	0.055518
531.747269	0.055634
531.963148	0.055392
532.179009	0.054570
532.394852	0.055171
532.610676	0.056175
532.826482	0.055629
533.042271	0.055237
533.258040	0.055110
533.473792	0.055540
533.689525	0.055568
533.905240	0.054967
534.120937	0.056013
534.336616	0.054596
534.552277	0.053265
534.767919	0.054682
534.983543	0.055004
535.199149	0.055756
535.414736	0.056234
535.630306	0.056700
535.845857	0.056773
536.061390	0.056264
536.276904	0.057342
536.492401	0.057847
536.707879	0.056963
536.923339	0.057038
537.138781	0.057015
537.354204	0.057425
537.569610	0.057511
537.784997	0.057851
538.000366	0.057968
538.215716	0.058115
538.431049	0.058638
538.646363	0.058932
538.861659	0.058799
539.076937	0.057953
539.292196	0.058048
539.507438	0.058009
539.722661	0.058277
539.937866	0.058329
540.153052	0.057899
540.368221	0.057974
540.583371	0.057488
540.798503	0.057512
541.013617	0.058423
541.228712	0.058228
541.443789	0.058450
541.658848	0.057952
541.873889	0.057034
542.088912	0.056523
542.303916	0.056531
542.518902	0.056365
542.733870	0.056085
542.948820	0.055478
543.163752	0.055562
543.378665	0.055436
543.593560	0.055474
543.808437	0.055314
544.023295	0.055809
544.238136	0.055926
544.452958	0.056174
544.667762	0.056595
544.882548	0.056838
545.097315	0.056710
545.312064	0.055750
545.526795	0.056163
545.741508	0.056548
545.956203	0.056711
546.170879	0.056964
546.385537	0.056879
546.600177	0.056497
546.814799	0.056494
547.029402	0.056997
547.243988	0.058539
547.458555	0.058845
547.673103	0.058855
547.887634	0.059123
548.102146	0.058748
548.316640	0.058563
548.531116	0.058907
548.745574	0.058999
548.960013	0.058504
549.174435	0.058124
549.388838	0.057320
549.603222	0.057601
549.817589	0.056882
550.031937	0.056831
550.246267	0.057223
550.460579	0.057174
550.674873	0.057689
550.889148	0.057749
551.103405	0.057260
551.317644	0.058161
551.531865	0.057979
551.746068	0.057797
551.960252	0.057477
552.174418	0.057580
552.388566	0.057714
552.602696	0.057481
552.816807	0.057188
553.030900	0.057344
553.244975	0.057024
553.459032	0.056888
553.673070	0.056928
553.887091	0.057040
554.101093	0.056795
554.315077	0.056399
554.529042	0.056102
554.742990	0.056322
554.956919	0.055299
555.170830	0.054820
555.384722	0.054888
555.598597	0.055381
555.812453	0.055837
556.026291	0.056372
556.240111	0.056908
556.453913	0.056874
556.667696	0.056964
556.881461	0.058141
557.095208	0.058130
557.308937	0.058236
557.522647	0.058815
557.736339	0.058824
557.950013	0.059015
558.163669	0.058681
558.377307	0.058858
558.590926	0.059124
558.804527	0.058205
559.018110	0.058689
559.231675	0.058930
559.445221	0.058357
559.658749	0.057758
559.872259	0.057393
560.085751	0.057314
560.299225	0.057183
560.512680	0.056752
560.726117	0.057210
560.939536	0.057248
561.152937	0.057224
561.366319	0.057281
561.579683	0.057858
561.793029	0.058331
562.006357	0.058432
562.219667	0.058465
562.432958	0.058594
562.646231	0.059587
562.859486	0.059504
563.072723	0.059587
563.285941	0.059905
563.499141	0.059379
563.712323	0.059187
563.925487	0.059109
564.138632	0.059129
564.351760	0.059387
564.564869	0.058784
564.777960	0.059040
564.991032	0.058712
565.204087	0.058559
565.417123	0.059255
565.630141	0.059128
565.843140	0.059590
566.056122	0.059598
566.269085	0.059377
566.482030	0.059553
566.694957	0.059874
566.907866	0.060631
567.120756	0.060107
567.333628	0.059756
567.546482	0.059610
567.759318	0.059513
567.972135	0.059633
568.184935	0.059748
568.397716	0.060201
568.610478	0.059889
568.823223	0.059560
569.035949	0.059846
569.248657	0.059947
569.461347	0.059494
569.674019	0.059441
569.886672	0.059459
570.099308	0.059498
570.311925	0.059318
570.524523	0.059194
570.737104	0.059500
570.949666	0.060430
571.162210	0.060635
571.374736	0.061400
571.587244	0.061339
571.799733	0.061674
572.012205	0.061543
572.224658	0.060902
572.437092	0.060808
572.649509	0.060666
572.861907	0.059987
573.074287	0.059625
573.286649	0.059518
573.498993	0.059988
573.711318	0.059241
573.923625	0.059235
574.135914	0.059386
574.348185	0.059642
574.560438	0.059163
574.772672	0.059253
574.984888	0.059683
575.197086	0.059613
575.409266	0.059073
575.621427	0.059192
575.833570	0.058893
576.045695	0.058753
576.257802	0.058335
576.469890	0.058402
576.681961	0.058210
576.894013	0.058016
577.106046	0.057817
577.318062	0.057723
577.530059	0.058580
577.742039	0.058525
577.954000	0.058928
578.165942	0.059152
578.377867	0.059124
578.589773	0.059303
578.801661	0.059168
579.013531	0.059248
579.225382	0.059794
579.437216	0.058938
579.649031	0.059235
579.860828	0.058986
580.072606	0.059079
580.284367	0.059214
580.496109	0.059212
580.707833	0.058862
580.919539	0.058939
581.131227	0.058454
581.342896	0.058849
581.554547	0.059040
581.766180	0.059434
581.977795	0.059550
582.189391	0.059946
582.400969	0.060409
582.612529	0.060787
582.824071	0.060982
583.035595	0.061680
583.247100	0.061742
583.458587	0.062030
583.670056	0.061670
583.881506	0.062065
584.092939	0.062024
584.304353	0.061635
584.515749	0.062087
584.727127	0.062033
584.938486	0.061551
585.149828	0.061245
585.361151	0.061086
585.572456	0.061344
585.783742	0.060812
585.995011	0.061034
586.206261	0.060327
586.417493	0.060104
586.628706	0.060213
586.839902	0.060689
587.051079	0.061381
587.262238	0.061543
587.473379	0.061832
587.684502	0.062265
587.895606	0.061980
588.106692	0.062222
588.317760	0.062395
588.528810	0.062462
588.739841	0.062339
588.950855	0.061590
589.161850	0.061220
589.372827	0.060615
589.583785	0.059895
589.794726	0.060016
590.005648	0.060694
590.216552	0.060644
590.427437	0.060807
590.638305	0.060471
590.849154	0.061085
591.059985	0.061318
591.270798	0.061701
591.481592	0.062212
591.692369	0.062153
591.903127	0.061781
592.113867	0.061389
592.324588	0.060717
592.535292	0.061012
592.745977	0.061150
592.956644	0.060735
593.167293	0.060662
593.377923	0.060375
593.588536	0.060388
593.799130	0.060152
594.009706	0.059831
594.220263	0.060170
594.430803	0.059529
594.641324	0.058821
594.851827	0.059028
595.062312	0.059049
595.272778	0.059314
595.483227	0.059247
595.693657	0.059481
595.904069	0.059893
596.114462	0.059918
596.324838	0.059798
596.535195	0.059666
596.745534	0.059538
596.955855	0.059496
597.166157	0.058889
597.376441	0.058642
597.586707	0.058872
597.796955	0.059059
598.007185	0.058799
598.217396	0.058921
598.427589	0.059260
598.637764	0.059418
598.847921	0.058970
599.058060	0.059259
599.268180	0.059464
599.478282	0.059335
599.688366	0.059063
599.898431	0.059241
600.108479	0.059506
600.318508	0.059535
600.528519	0.058971
600.738511	0.059370
600.948486	0.059172
601.158442	0.059746
601.368380	0.059681
601.578300	0.060053
601.788202	0.060073
601.998085	0.060017
602.207950	0.060072
602.417797	0.060389
602.627626	0.060563
602.837436	0.061161
603.047228	0.060285
603.257002	0.060028
603.466758	0.059669
603.676496	0.059065
603.886215	0.058823
604.095916	0.059067
604.305599	0.058803
604.515264	0.058781
604.724910	0.058569
604.934538	0.058479
605.144148	0.058960
605.353740	0.059141
605.563314	0.059819
605.772869	0.060144
605.982406	0.059939
606.191925	0.060698
606.401425	0.060080
606.610908	0.060113
606.820372	0.060331
607.029818	0.059831
607.239246	0.059299
607.448655	0.059103
607.658047	0.058554
607.867420	0.058460
608.076775	0.058048
608.286111	0.058656
608.495430	0.058823
608.704730	0.058785
608.914012	0.059509
609.123275	0.060164
609.332521	0.059726
609.541748	0.060431
609.750957	0.060676
609.960148	0.060824
610.169321	0.060675
610.378475	0.060601
610.587611	0.060965
610.796729	0.060805
611.005829	0.060465
611.214910	0.061006
611.423974	0.060918
611.633019	0.060493
611.842045	0.060881
612.051054	0.060737
612.260044	0.060367
612.469017	0.060068
612.677970	0.060138
612.886906	0.060488
613.095824	0.060062
613.304723	0.059719
613.513604	0.060184
613.722467	0.060065
613.931311	0.060078
614.140138	0.060279
614.348946	0.060401
614.557736	0.059909
614.766507	0.059877
614.975261	0.060388
615.183996	0.060634
615.392713	0.060610
615.601412	0.060581
615.810092	0.060752
616.018754	0.061117
616.227399	0.061539
616.436024	0.061747
616.644632	0.061463
616.853222	0.061211
617.061793	0.061481
617.270346	0.061160
617.478880	0.061563
617.687397	0.061406
617.895895	0.061202
618.104375	0.060505
618.312837	0.060552
618.521281	0.060706
618.729706	0.061066
618.938113	0.061065
619.146502	0.061451
619.354873	0.061014
619.563226	0.061128
619.771560	0.061280
619.979876	0.061530
620.188174	0.061671
620.396453	0.062022
620.604715	0.061910
620.812958	0.061958
621.021183	0.061632
621.229390	0.061631
621.437578	0.061686
621.645748	0.061676
621.853900	0.061957
622.062034	0.061375
622.270150	0.061386
622.478247	0.061389
622.686326	0.061273
622.894387	0.061376
623.102430	0.061123
623.310454	0.061113
623.518461	0.061068
623.726449	0.061060
623.934418	0.062052
624.142370	0.061884
624.350303	0.062105
624.558218	0.062512
624.766115	0.062427
624.973994	0.062912
625.181855	0.063299
625.389697	0.063869
625.597521	0.064182
625.805327	0.063855
626.013114	0.064395
626.220883	0.064370
626.428634	0.064084
626.636367	0.064470
626.844082	0.064576
627.051778	0.064316
627.259457	0.063944
627.467117	0.063785
627.674758	0.063629
627.882382	0.063135
628.089987	0.063043
628.297574	0.063173
628.505143	0.063124
628.712694	0.063070
628.920226	0.063279
629.127740	0.063487
629.335236	0.063488
629.542714	0.063666
629.750174	0.063916
629.957615	0.064391
630.165038	0.064326
630.372443	0.064276
630.579829	0.063901
630.787198	0.063712
630.994548	0.063909
631.201880	0.064072
631.409194	0.064092
631.616489	0.064128
631.823766	0.063763
632.031025	0.063678
632.238266	0.063804
632.445489	0.064328
632.652693	0.064580
632.859879	0.064118
633.067047	0.063882
633.274197	0.064040
633.481329	0.063817
633.688442	0.063939
633.895537	0.064082
634.102614	0.064155
634.309672	0.064219
634.516713	0.064134
634.723735	0.064180
634.930739	0.064020
635.137724	0.063888
635.344692	0.064342
635.551641	0.064774
635.758572	0.065127
635.965485	0.065227
636.172379	0.065004
636.379256	0.064990
636.586114	0.065135
636.792954	0.065548
636.999775	0.065404
637.206579	0.065136
637.413364	0.064717
637.620131	0.064402
637.826880	0.064183
638.033610	0.063958
638.240323	0.064039
638.447017	0.063840
638.653692	0.063624
638.860350	0.063544
639.066990	0.063416
639.273611	0.063377
639.480214	0.063202
639.686798	0.063267
639.893365	0.063530
640.099913	0.063612
640.306443	0.063834
640.512955	0.063993
640.719449	0.064439
640.925924	0.064259
641.132381	0.064681
641.338820	0.064972
641.545241	0.064968
641.751644	0.065042
641.958028	0.064943
642.164394	0.064933
642.370742	0.064719
642.577071	0.064702
642.783383	0.065222
642.989676	0.065013
643.195951	0.065049
643.402207	0.065303
643.608446	0.065508
643.814666	0.065507
644.020868	0.065257
644.227052	0.065450
644.433218	0.065126
644.639365	0.065099
644.845494	0.065113
645.051605	0.065019
645.257698	0.064726
645.463772	0.064459
645.669828	0.064478
645.875866	0.064712
646.081886	0.064434
646.287888	0.064730
646.493871	0.064322
646.699836	0.063965
646.905783	0.063838
647.111712	0.063625
647.317622	0.063549
647.523514	0.063694
647.729388	0.064116
647.935244	0.064379
648.141082	0.064541
648.346901	0.064975
648.552702	0.065593
648.758485	0.065956
648.964250	0.066373
649.169996	0.066614
649.375724	0.066130
649.581434	0.065851
649.787126	0.065871
649.992800	0.065551
650.198455	0.065485
650.404092	0.065009
650.609711	0.064672
650.815311	0.064736
651.020894	0.064518
651.226458	0.065035
651.432004	0.064989
651.637532	0.064892
651.843041	0.065042
652.048532	0.064949
652.254006	0.065075
652.459460	0.065553
652.664897	0.065691
652.870315	0.065880
653.075716	0.065985
653.281097	0.066227
653.486461	0.066527
653.691807	0.066774
653.897134	0.066811
654.102443	0.066838
654.307734	0.066849
654.513006	0.066778
654.718261	0.066537
654.923497	0.066521
655.128715	0.066178
655.333915	0.066166
655.539096	0.066118
655.744259	0.066354
655.949404	0.066614
656.154531	0.066410
656.359640	0.066390
656.564730	0.066925
656.769802	0.067136
656.974856	0.067809
657.179892	0.067922
657.384909	0.067890
657.589908	0.067578
657.794889	0.067535
657.999852	0.067374
658.204797	0.067238
658.409723	0.066959
658.614631	0.066815
658.819521	0.066649
659.024393	0.066293
659.229246	0.066313
659.434081	0.066839
659.638898	0.066670
659.843697	0.067016
660.048478	0.067404
660.253240	0.067517
660.457984	0.067415
660.662710	0.067336
660.867417	0.067754
661.072107	0.067862
661.276778	0.067464
661.481431	0.067766
661.686066	0.067635
661.890682	0.067561
662.095281	0.067562
662.299861	0.067904
662.504422	0.067650
662.708966	0.067668
662.913491	0.067744
663.117999	0.067896
663.322488	0.068047
663.526958	0.068388
663.731411	0.068275
663.935845	0.068613
664.140261	0.068589
664.344659	0.068985
664.549038	0.068700
664.753400	0.068768
664.957743	0.069094
665.162068	0.068809
665.366375	0.068759
665.570663	0.068932
665.774933	0.068652
665.979185	0.068622
666.183419	0.068461
666.387635	0.068743
666.591832	0.068847
666.796011	0.068555
667.000172	0.068570
667.204315	0.068689
667.408439	0.068756
667.612545	0.068982
667.816634	0.068788
668.020703	0.068740
668.224755	0.068917
668.428788	0.069060
668.632803	0.069316
668.836800	0.069786
669.040779	0.069896
669.244739	0.070261
669.448681	0.070166
669.652605	0.070546
669.856511	0.070605
670.060399	0.070852
670.264268	0.070700
670.468119	0.070814
670.671952	0.070774
670.875767	0.070766
671.079563	0.070648
671.283341	0.070875
671.487101	0.070793
671.690843	0.071131
671.894567	0.070747
672.098272	0.070761
672.301959	0.070802
672.505628	0.070396
672.709278	0.070340
672.912911	0.070200
673.116525	0.070122
673.320121	0.070260
673.523699	0.070224
673.727258	0.070536
673.930799	0.070487
674.134322	0.070405
674.337827	0.070634
674.541314	0.070586
674.744782	0.070783
674.948232	0.070768
675.151664	0.071016
675.355078	0.071155
675.558474	0.071491
675.761851	0.071496
675.965210	0.071565
676.168551	0.071863
676.371873	0.071846
676.575178	0.072000
676.778464	0.072299
676.981732	0.072116
677.184981	0.072232
677.388213	0.072194
677.591426	0.072552
677.794621	0.072769
677.997798	0.072938
678.200956	0.073088
678.404097	0.072956
678.607219	0.073045
678.810323	0.073193
679.013408	0.073310
679.216476	0.073043
679.419525	0.072839
679.622556	0.072604
679.825569	0.072326
680.028563	0.072661
680.231540	0.072592
680.434498	0.072450
680.637438	0.072447
680.840359	0.072021
681.043263	0.072308
681.246148	0.072425
681.449015	0.072483
681.651864	0.072480
681.854694	0.072207
682.057506	0.072127
682.260301	0.071905
682.463076	0.071640
682.665834	0.071708
682.868573	0.071380
683.071295	0.071224
683.273998	0.071089
683.476682	0.071238
683.679349	0.071032
683.881997	0.071275
684.084627	0.071403
684.287239	0.071478
684.489833	0.071838
684.692408	0.071761
684.894965	0.071947
685.097504	0.071773
685.300025	0.071997
685.502527	0.072345
685.705012	0.072284
685.907478	0.072565
686.109925	0.072470
686.312355	0.072387
686.514766	0.072533
686.717159	0.072819
686.919534	0.073285
687.121891	0.073122
687.324230	0.073208
687.526550	0.073081
687.728852	0.073066
687.931136	0.073279
688.133401	0.073408
688.335649	0.073730
688.537878	0.073333
688.740089	0.073418
688.942281	0.073496
689.144456	0.073566
689.346612	0.073731
689.548750	0.073960
689.750870	0.074154
689.952971	0.074160
690.155055	0.073777
690.357120	0.074153
690.559167	0.073970
690.761195	0.073781
690.963206	0.073690
691.165198	0.073673
691.367172	0.073445
691.569128	0.073272
691.771065	0.073414
691.972984	0.073577
692.174885	0.073312
692.376768	0.073324
692.578633	0.073590
692.780479	0.073387
692.982308	0.073676
693.184118	0.073601
693.385909	0.073661
693.587683	0.073310
693.789438	0.073130
693.991175	0.073190
694.192894	0.073168
694.394595	0.072967
694.596277	0.072977
694.797941	0.072885
694.999587	0.072965
695.201215	0.073055
695.402824	0.073287
695.604416	0.073718
695.805989	0.073823
696.007543	0.074186
696.209080	0.074493
696.410598	0.074657
696.612099	0.074832
696.813580	0.074993
697.015044	0.074903
697.216490	0.074949
697.417917	0.074764
697.619326	0.075179
697.820717	0.075141
698.022089	0.075036
698.223444	0.075411
698.424780	0.075332
698.626098	0.075504
698.827397	0.075703
699.028679	0.075433
699.229942	0.075531
699.431187	0.075302
699.632414	0.075618
699.833622	0.075650
700.034813	0.075628
700.235985	0.075803
700.437139	0.075726
700.638274	0.075848
700.839392	0.076050
701.040491	0.076296
701.241572	0.076352
701.442635	0.076072
701.643679	0.076021
701.844706	0.075689
702.045714	0.075281
702.246704	0.075363
702.447675	0.075517
702.648629	0.075781
702.849564	0.075500
703.050481	0.075486
703.251380	0.075373
703.452260	0.075509
703.653122	0.075608
703.853966	0.075825
704.054792	0.075918
704.255600	0.075432
704.456389	0.075150
704.657160	0.075419
704.857913	0.075618
705.058648	0.075662
705.259365	0.075962
705.460063	0.076330
705.660743	0.076617
705.861405	0.076339
706.062048	0.076571
706.262674	0.076528
706.463281	0.076269
706.663870	0.076050
706.864441	0.076061
707.064993	0.075678
707.265527	0.075258
707.466043	0.074580
707.666541	0.074709
707.867021	0.074636
708.067482	0.074921
708.267925	0.074899
708.468350	0.074882
708.668757	0.075016
708.869145	0.074869
709.069516	0.074969
709.269868	0.075278
709.470201	0.075258
709.670517	0.075264
709.870814	0.075170
710.071093	0.075204
710.271354	0.075331
710.471597	0.075318
710.671821	0.075580
710.872028	0.075634
711.072216	0.075704
711.272385	0.075288
711.472537	0.075265
711.672670	0.075244
711.872785	0.075418
712.072882	0.075395
712.272961	0.075304
712.473021	0.075491
712.673063	0.075493
712.873087	0.075672
713.073093	0.076168
713.273081	0.076172
713.473050	0.075953
713.673001	0.075956
713.872934	0.075759
714.072849	0.075784
714.272745	0.075545
714.472623	0.075882
714.672483	0.075525
714.872325	0.075383
715.072148	0.075501
715.271954	0.075847
715.471741	0.075752
715.671509	0.075615
715.871260	0.075757
716.070992	0.075558
716.270707	0.075249
716.470403	0.075235
716.670080	0.075090
716.869740	0.074916
717.069381	0.074731
717.269004	0.074795
717.468609	0.074824
717.668195	0.074276
717.867764	0.074350
718.067314	0.073992
718.266846	0.074192
718.466360	0.074289
718.665855	0.074147
718.865332	0.073929
719.064791	0.073541
719.264232	0.073635
719.463655	0.074042
719.663059	0.074001
719.862445	0.074334
720.061813	0.074086
720.261163	0.074350
720.460494	0.074409
720.659807	0.074373
720.859102	0.074601
721.058379	0.074650
721.257638	0.074345
721.456878	0.074247
721.656100	0.073706
721.855304	0.073531
722.054490	0.073237
722.253657	0.073223
722.452806	0.073271
722.651937	0.073073
722.851050	0.072872
723.050145	0.073023
723.249221	0.073046
723.448279	0.073201
723.647319	0.073371
723.846340	0.073168
724.045344	0.073334
724.244329	0.073189
724.443296	0.073185
724.642245	0.073348
724.841175	0.073132
725.040088	0.073172
725.238982	0.073189
725.437857	0.072997
725.636715	0.073018
725.835554	0.072833
726.034376	0.072596
726.233179	0.072550
726.431963	0.072495
726.630730	0.072501
726.829478	0.072458
727.028208	0.072425
727.226920	0.072842
727.425614	0.073114
727.624289	0.072808
727.822946	0.072964
728.021585	0.072985
728.220206	0.072673
728.418808	0.072465
728.617392	0.072026
728.815958	0.071986
729.014506	0.071568
729.213036	0.070924
729.411547	0.070987
729.610040	0.070961
729.808515	0.070893
730.006972	0.071026
730.205410	0.071123
730.403831	0.071065
730.602233	0.070881
730.800616	0.070982
730.998982	0.071099
731.197329	0.070950
731.395658	0.070674
731.593969	0.070758
731.792262	0.070281
731.990536	0.070386
732.188793	0.070898
732.387031	0.070621
732.585250	0.070163
732.783452	0.070207
732.981635	0.070173
733.179800	0.070354
733.377947	0.069987
733.576076	0.070273
733.774186	0.070145
733.972278	0.069659
734.170352	0.069941
734.368408	0.070365
734.566446	0.070401
734.764465	0.070164
734.962466	0.070148
735.160449	0.070039
735.358413	0.069854
735.556360	0.069742
735.754288	0.069842
735.952198	0.069634
736.150090	0.069339
736.347963	0.069069
736.545818	0.069400
736.743655	0.069022
736.941474	0.069022
737.139275	0.068744
737.337057	0.068599
737.534821	0.068363
737.732567	0.068433
737.930295	0.068238
738.128005	0.068130
738.325696	0.067587
738.523369	0.067924
738.721024	0.067932
738.918660	0.068031
739.116279	0.068011
739.313879	0.067968
739.511461	0.067932
739.709024	0.068238
739.906570	0.068290
740.104097	0.068755
740.301606	0.068670
740.499097	0.068755
740.696569	0.068688
740.894024	0.068526
741.091460	0.068611
741.288878	0.068840
741.486277	0.068482
741.683659	0.068509
741.881022	0.068385
742.078367	0.068281
742.275694	0.068136
742.473002	0.068395
742.670293	0.068727
742.867565	0.068399
743.064819	0.068405
743.262054	0.068867
743.459272	0.068879
743.656471	0.068855
743.853652	0.068751
744.050815	0.068728
744.247959	0.068454
744.445085	0.068226
744.642194	0.068514
744.839283	0.068278
745.036355	0.067663
745.233408	0.067501
745.430444	0.067362
745.627461	0.067330
745.824459	0.067193
746.021440	0.067013
746.218402	0.066753
746.415346	0.066695
746.612272	0.066724
746.809180	0.066803
747.006069	0.066581
747.202940	0.066509
747.399793	0.066442
747.596628	0.066407
747.793444	0.066534
747.990243	0.066072
748.187023	0.066004
748.383784	0.065655
748.580528	0.065975
748.777253	0.066042
748.973960	0.065906
749.170649	0.065528
749.367320	0.065393
749.563973	0.065272
749.760607	0.065799
749.957223	0.065869
750.153821	0.065786
750.350400	0.065335
750.546962	0.065324
750.743505	0.065319
750.940030	0.065592
751.136536	0.065775
751.333025	0.065886
751.529495	0.065549
751.725947	0.065207
751.922381	0.065251
752.118796	0.064992
752.315194	0.064998
752.511573	0.064959
752.707934	0.064945
752.904276	0.064943
753.100601	0.064670
753.296907	0.064756
753.493195	0.065144
753.689465	0.065287
753.885716	0.065410
754.081949	0.065515
754.278164	0.065482
754.474361	0.065629
754.670540	0.065457
754.866700	0.065421
755.062843	0.065254
755.258967	0.064858
755.455072	0.064495
755.651160	0.064430
755.847229	0.064212
756.043280	0.064283
756.239313	0.064034
756.435328	0.064108
756.631324	0.064243
756.827302	0.064406
757.023262	0.064509
757.219204	0.064859
757.415127	0.065078
757.611033	0.065007
757.806920	0.064905
758.002788	0.064951
758.198639	0.064939
758.394471	0.064334
758.590286	0.064196
758.786081	0.064326
758.981859	0.064244
759.177619	0.064005
759.373360	0.064167
759.569083	0.064345
759.764788	0.063978
759.960474	0.063931
760.156143	0.064595
760.351793	0.064895
760.547425	0.064893
760.743038	0.064789
760.938634	0.064764
761.134211	0.064564
761.329770	0.064528
761.525311	0.065036
761.720833	0.064809
761.916338	0.064575
762.111824	0.064322
762.307292	0.064137
762.502741	0.064100
762.698173	0.064256
762.893586	0.064367
763.088981	0.064107
763.284358	0.063719
763.479716	0.063867
763.675057	0.064107
763.870379	0.064260
764.065683	0.064436
764.260968	0.064496
764.456236	0.064659
764.651485	0.064647
764.846716	0.064912
765.041929	0.065135
765.237123	0.065223
765.432299	0.065226
765.627457	0.065405
765.822597	0.065198
766.017719	0.065385
766.212822	0.065288
766.407907	0.065114
766.602974	0.065168
766.798023	0.065243
766.993054	0.065224
767.188066	0.065145
767.383060	0.065006
767.578036	0.064945
767.772993	0.064782
767.967933	0.064547
768.162854	0.064702
768.357757	0.064319
768.552642	0.064083
768.747508	0.064092
768.942356	0.063766
769.137186	0.063744
769.331998	0.063671
769.526792	0.063591
769.721567	0.063679
769.916324	0.063668
770.111063	0.063846
770.305784	0.063595
770.500486	0.063690
770.695171	0.063868
770.889837	0.063688
771.084484	0.063613
771.279114	0.063413
771.473725	0.063275
771.668318	0.062774
771.862893	0.062764
772.057450	0.062788
772.251988	0.062322
772.446509	0.062225
772.641011	0.062343
772.835494	0.062559
773.029960	0.062492
773.224407	0.062538
773.418836	0.062812
773.613247	0.062729
773.807640	0.062702
774.002014	0.062764
774.196370	0.062767
774.390708	0.062678
774.585028	0.062480
774.779330	0.062389
774.973613	0.062459
775.167878	0.062374
775.362125	0.062432
775.556354	0.062516
775.750564	0.062552
775.944756	0.062595
776.138930	0.062608
776.333086	0.062451
776.527223	0.062479
776.721343	0.062441
776.915444	0.062513
777.109526	0.062328
777.303591	0.062352
777.497637	0.061983
777.691666	0.061886
777.885676	0.061546
778.079667	0.061692
778.273641	0.061689
778.467596	0.061645
778.661533	0.061745
778.855452	0.062001
779.049352	0.061953
779.243235	0.062286
779.437099	0.062401
779.630945	0.062846
779.824773	0.062858
780.018582	0.063261
780.212373	0.063241
780.406146	0.063368
780.599901	0.063628
780.793638	0.063739
780.987356	0.064322
781.181056	0.064712
781.374738	0.064857
781.568402	0.065186
781.762047	0.065175
781.955674	0.065354
782.149283	0.065261
782.342874	0.065137
782.536447	0.065208
782.730001	0.064756
782.923537	0.064458
783.117055	0.064327
783.310555	0.063790
783.504036	0.063799
783.697499	0.063548
783.890944	0.063229
784.084371	0.063037
784.277780	0.063165
784.471170	0.063342
784.664542	0.063290
784.857896	0.062995
785.051231	0.063452
785.244549	0.062981
785.437848	0.062898
785.631129	0.063254
785.824392	0.063181
786.017636	0.063086
786.210863	0.062633
786.404071	0.062858
786.597260	0.063078
786.790432	0.062790
786.983585	0.062931
787.176721	0.063302
787.369838	0.063399
787.562936	0.063550
787.756017	0.063740
787.949079	0.064086
788.142123	0.063866
788.335149	0.063628
788.528156	0.063797
788.721146	0.063951
788.914117	0.063740
789.107070	0.063298
789.300005	0.063003
789.492921	0.062918
789.685819	0.062597
789.878699	0.062693
790.071561	0.062956
790.264405	0.062913
790.457230	0.062924
790.650037	0.062674
790.842826	0.062872
791.035597	0.063159
791.228349	0.062960
791.421084	0.063291
791.613800	0.063116
791.806497	0.063139
791.999177	0.063252
792.191838	0.062853
792.384481	0.063383
792.577106	0.063489
792.769713	0.063720
792.962301	0.063784
793.154871	0.063716
793.347423	0.063872
793.539957	0.063836
793.732473	0.064008
793.924970	0.064424
794.117449	0.064061
794.309910	0.063992
794.502353	0.063644
794.694777	0.063577
794.887183	0.063689
795.079571	0.063887
795.271941	0.063766
795.464293	0.063272
795.656626	0.063276
795.848941	0.063453
796.041238	0.063576
796.233516	0.063748
796.425777	0.064108
796.618019	0.063840
796.810243	0.063805
797.002449	0.063874
797.194636	0.064443
797.386805	0.064589
797.578956	0.064938
797.771089	0.065036
797.963204	0.064784
798.155300	0.064781
798.347378	0.064919
798.539438	0.064952
798.731480	0.065291
798.923503	0.064863
799.115509	0.064875
799.307496	0.064920
799.499465	0.064763
799.691415	0.064873
799.883348	0.064679
800.075262	0.065019
800.267158	0.064754
800.459035	0.064483
800.650895	0.064849
800.842736	0.064790
801.034559	0.064533
801.226364	0.064975
801.418150	0.065318
801.609919	0.065613
801.801669	0.065725
801.993401	0.065988
802.185114	0.065895
802.376810	0.065816
802.568487	0.065970
802.760146	0.066224
802.951787	0.065955
803.143409	0.065729
803.335014	0.065810
803.526600	0.065334
803.718168	0.065250
803.909717	0.065525
804.101249	0.065731
804.292762	0.065871
804.484257	0.065768
804.675734	0.065853
804.867192	0.066405
805.058632	0.066135
805.250054	0.066441
805.441458	0.066732
805.632844	0.066810
805.824211	0.066264
806.015561	0.066181
806.206891	0.066167
806.398204	0.066256
806.589499	0.065719
806.780775	0.065856
806.972033	0.065790
807.163273	0.065795
807.354495	0.065968
807.545698	0.066444
807.736883	0.066243
807.928050	0.066280
808.119199	0.066071
808.310329	0.066308
808.501441	0.066276
808.692535	0.066589
808.883611	0.066447
809.074669	0.066135
809.265708	0.066466
809.456729	0.066648
809.647732	0.066671
809.838717	0.066699
810.029683	0.067067
810.220632	0.067017
810.411562	0.067094
810.602474	0.067054
810.793367	0.067770
810.984242	0.067254
811.175100	0.067238
811.365938	0.067381
811.556759	0.067808
811.747562	0.067499
811.938346	0.067842
812.129112	0.067969
812.319860	0.068363
812.510589	0.068284
812.701300	0.068868
812.891994	0.068979
813.082668	0.069076
813.273325	0.069048
813.463964	0.069208
813.654584	0.068830
813.845186	0.068443
814.035769	0.068509
814.226335	0.068604
814.416882	0.068578
814.607411	0.068879
814.797922	0.068787
814.988415	0.068738
815.178889	0.069064
815.369345	0.069506
815.559783	0.069935
815.750203	0.069623
815.940605	0.069432
816.130988	0.069448
816.321353	0.069241
816.511700	0.069812
816.702028	0.070016
816.892339	0.069476
817.082631	0.069813
817.272905	0.069675
817.463161	0.070081
817.653398	0.070250
817.843617	0.070094
818.033819	0.070171
818.224001	0.069855
818.414166	0.069781
818.604312	0.069936
818.794440	0.069626
818.984550	0.069499
819.174642	0.069329
819.364716	0.069019
819.554771	0.068959
819.744808	0.069250
819.934827	0.069551
820.124827	0.069518
820.314810	0.069812
820.504774	0.070230
820.694720	0.070556
820.884647	0.070868
821.074557	0.071082
821.264448	0.071633
821.454321	0.071742
821.644176	0.071405
821.834012	0.071359
822.023831	0.071579
822.213631	0.071274
822.403413	0.071598
822.593176	0.071621
822.782922	0.071657
822.972649	0.071542
823.162358	0.071373
823.352049	0.071378
823.541721	0.071623
823.731376	0.071427
823.921012	0.071673
824.110629	0.071242
824.300229	0.071458
824.489811	0.071787
824.679374	0.071708
824.868919	0.071963
825.058445	0.072336
825.247954	0.072474
825.437444	0.072561
825.626916	0.072592
825.816370	0.072440
826.005806	0.071989
826.195223	0.071531
826.384622	0.071572
826.574003	0.071161
826.763366	0.071134
826.952711	0.070923
827.142037	0.070669
827.331345	0.070271
827.520635	0.070471
827.709906	0.070381
827.899160	0.070625
828.088395	0.070858
828.277612	0.070734
828.466810	0.070382
828.655991	0.070661
828.845153	0.070908
829.034297	0.071152
829.223423	0.071357
829.412531	0.071782
829.601620	0.071854
829.790691	0.071738
829.979744	0.072068
830.168779	0.072809
830.357795	0.072890
830.546793	0.073142
830.735773	0.073178
830.924735	0.073455
831.113679	0.073430
831.302604	0.073330
831.491511	0.073364
831.680400	0.073454
831.869271	0.072884
832.058123	0.073346
832.246957	0.073420
832.435773	0.073541
832.624571	0.073695
832.813351	0.073957
833.002112	0.074328
833.190855	0.074448
833.379580	0.074629
833.568287	0.074966
833.756975	0.074580
833.945645	0.074642
834.134297	0.074913
834.322931	0.074913
834.511547	0.074307
834.700144	0.074355
834.888723	0.074484
835.077284	0.074951
835.265826	0.074887
835.454351	0.074789
835.642857	0.074504
835.831345	0.074923
836.019815	0.074983
836.208266	0.075632
836.396699	0.075659
836.585114	0.075637
836.773511	0.075520
836.961890	0.075725
837.150250	0.076035
837.338592	0.076415
837.526916	0.076249
837.715222	0.076207
837.903510	0.076129
838.091779	0.076243
838.280030	0.076212
838.468263	0.076250
838.656477	0.076610
838.844674	0.076840
839.032852	0.077145
839.221012	0.077458
839.409153	0.077853
839.597277	0.078168
839.785382	0.078254
839.973469	0.078140
840.161538	0.078144
840.349589	0.077818
840.537621	0.077532
840.725635	0.077164
840.913631	0.076693
841.101609	0.076801
841.289568	0.076727
841.477509	0.077081
841.665432	0.077513
841.853337	0.077246
842.041224	0.077687
842.229092	0.078400
842.416942	0.078797
842.604774	0.078998
842.792588	0.078936
842.980383	0.079185
843.168160	0.078739
843.355919	0.079118
843.543660	0.079174
843.731382	0.079483
843.919087	0.079157
844.106773	0.079353
844.294441	0.079604
844.482090	0.079873
844.669722	0.079669
844.857335	0.080224
845.044930	0.080256
845.232507	0.081046
845.420065	0.081219
845.607605	0.081425
845.795127	0.081617
845.982631	0.081624
846.170117	0.081585
846.357584	0.082023
846.545033	0.081899
846.732464	0.081932
846.919877	0.081879
847.107272	0.082069
847.294648	0.082347
847.482006	0.082478
847.669346	0.082635
847.856667	0.082918
848.043971	0.082771
848.231256	0.083194
848.418523	0.083424
848.605771	0.083124
848.793002	0.082920
848.980214	0.083172
849.167408	0.083249
849.354584	0.083644
849.541742	0.083714
849.728881	0.083980
849.916002	0.084027
850.103105	0.083702
850.290190	0.084010
850.477256	0.083746
850.664304	0.083769
850.851334	0.083792
851.038346	0.083764
851.225340	0.083927
851.412315	0.084229
851.599272	0.084369
851.786211	0.084730
851.973132	0.085479
852.160034	0.085886
852.346918	0.085706
852.533784	0.086286
852.720632	0.086439
852.907462	0.086840
853.094273	0.086844
853.281066	0.087072
853.467841	0.087681
853.654598	0.087606
853.841336	0.087564
854.028056	0.087976
854.214758	0.087844
854.401442	0.088325
854.588107	0.087753
854.774755	0.088142
854.961384	0.088019
855.147995	0.087846
855.334587	0.087672
855.521162	0.088113
855.707718	0.088079
855.894256	0.087959
856.080775	0.087492
856.267277	0.087691
856.453760	0.087511
856.640225	0.087462
856.826672	0.087197
857.013101	0.087253
857.199511	0.087415
857.385903	0.087378
857.572277	0.087480
857.758633	0.087756
857.944970	0.087665
858.131290	0.087902
858.317591	0.088010
858.503873	0.088255
858.690138	0.088422
858.876384	0.087781
859.062612	0.087633
859.248822	0.087055
859.435014	0.086870
859.621188	0.087217
859.807343	0.086844
859.993480	0.087078
860.179599	0.087133
860.365699	0.087549
860.551781	0.087939
860.737846	0.088423
860.923891	0.088988
861.109919	0.089206
861.295929	0.088865
861.481920	0.089663
861.667893	0.089663
861.853848	0.089513
862.039784	0.089280
862.225702	0.089529
862.411603	0.089267
862.597484	0.089176
862.783348	0.089096
862.969193	0.089203
863.155021	0.088741
863.340830	0.088690
863.526620	0.088848
863.712393	0.088590
863.898147	0.088895
864.083883	0.089170
864.269601	0.089523
864.455301	0.089645
864.640982	0.090030
864.826645	0.089974
865.012290	0.089839
865.197917	0.089761
865.383526	0.089750
865.569116	0.089277
865.754688	0.089323
865.940242	0.089166
866.125777	0.089070
866.311295	0.088821
866.496794	0.089429
866.682275	0.089992
866.867737	0.090257
867.053182	0.090700
867.238608	0.090452
867.424016	0.090587
867.609406	0.090851
867.794778	0.090816
867.980131	0.091494
868.165466	0.091170
868.350783	0.090668
868.536082	0.090513
868.721362	0.090207
868.906625	0.090954
869.091869	0.090612
869.277094	0.090182
869.462302	0.090857
869.647491	0.090513
869.832662	0.090189
870.017815	0.090640
870.202950	0.091056
870.388066	0.091458
870.573165	0.091334
870.758245	0.092257
870.943306	0.092566
871.128350	0.092189
871.313375	0.092335
871.498382	0.093320
871.683371	0.093808
871.868342	0.093572
872.053294	0.093692
872.238229	0.093815
872.423144	0.092975
872.608042	0.093259
872.792922	0.093807
872.977783	0.093628
873.162626	0.092636
873.347451	0.092358
873.532258	0.092305
873.717046	0.092413
873.901816	0.092569
874.086568	0.093403
874.271302	0.093643
874.456017	0.093654
874.640715	0.094025
874.825394	0.094291
875.010055	0.093837
875.194697	0.094329
875.379322	0.094086
875.563928	0.093903
875.748516	0.093286
875.933085	0.093234
876.117637	0.092837
876.302170	0.092543
876.486685	0.092624
876.671182	0.092956
876.855661	0.092785
877.040121	0.092602
877.224563	0.092572
877.408987	0.092958
877.593393	0.092578
877.777780	0.092703
877.962150	0.093276
878.146501	0.093339
878.330833	0.093480
878.515148	0.093846
878.699444	0.093622
878.883722	0.093953
879.067982	0.093749
879.252224	0.093833
879.436447	0.094518
879.620653	0.094422
879.804840	0.094571
879.989008	0.094517
880.173159	0.094317
880.357291	0.095066
880.541405	0.094923
880.725501	0.095311
880.909579	0.095772
881.093638	0.095218
881.277680	0.095274
881.461703	0.095436
881.645707	0.095793
881.829694	0.095408
882.013662	0.095298
882.197612	0.095195
882.381544	0.094589
882.565458	0.094990
882.749353	0.095202
882.933230	0.094937
883.117089	0.095006
883.300930	0.094098
883.484753	0.094578
883.668557	0.094904
883.852343	0.095547
884.036111	0.095729
884.219861	0.095646
884.403592	0.094854
884.587305	0.095298
884.771000	0.094362
884.954677	0.095293
885.138335	0.095588
885.321976	0.095303
885.505598	0.094682
885.689201	0.095113
885.872787	0.094481
886.056354	0.095059
886.239904	0.094372
886.423434	0.095146
886.606947	0.095014
886.790442	0.094388
886.973918	0.094020
887.157376	0.093896
887.340816	0.093336
887.524237	0.093592
887.707641	0.093602
887.891026	0.093879
888.074393	0.093917
888.257741	0.093712
888.441072	0.093847
888.624384	0.094535
888.807678	0.094542
888.990954	0.094690
889.174211	0.094919
889.357451	0.094307
889.540672	0.094455
889.723875	0.094144
889.907059	0.094055
890.090226	0.093990
890.273374	0.093443
890.456504	0.093293
890.639616	0.093247
890.822709	0.092536
891.005785	0.093058
891.188842	0.093043
891.371881	0.093370
891.554901	0.093062
891.737904	0.093675
891.920888	0.093362
892.103854	0.093655
892.286802	0.094166
892.469731	0.094716
892.652643	0.094924
892.835536	0.094863
893.018410	0.094530
893.201267	0.094794
893.384106	0.094433
893.566926	0.094949
893.749728	0.094917
893.932511	0.094479
894.115277	0.093943
894.298024	0.093900
894.480753	0.093898
894.663464	0.093474
894.846157	0.093320
895.028831	0.093519
895.211487	0.093375
895.394125	0.093777
895.576745	0.093501
895.759346	0.093337
895.941930	0.093153
896.124495	0.092469
896.307041	0.093191
896.489570	0.093691
896.672080	0.093257
896.854573	0.092701
897.037046	0.092078
897.219502	0.092288
897.401940	0.092896
897.584359	0.092586
897.766760	0.093421
897.949143	0.092827
898.131507	0.091794
898.313854	0.091617
898.496182	0.091991
898.678492	0.091786
898.860783	0.091134
899.043057	0.090701
899.225312	0.090314
899.407549	0.089943
899.589768	0.089922
899.771968	0.090558
899.954151	0.091351
900.136315	0.091299
900.318461	0.091823
900.500588	0.092350
900.682698	0.092256
900.864789	0.092801
901.046862	0.093145
901.228917	0.093613
901.410953	0.094186
901.592971	0.093707
901.774972	0.093709
901.956953	0.093693
902.138917	0.093687
902.320862	0.093808
902.502790	0.093722
902.684699	0.093497
902.866589	0.093364
903.048462	0.092396
903.230316	0.091652
903.412152	0.091534
903.593970	0.091070
903.775770	0.090752
903.957551	0.090410
904.139314	0.090263
904.321059	0.089978
904.502786	0.089079
904.684494	0.089908
904.866185	0.089469
905.047857	0.089815
905.229510	0.090204
905.411146	0.090801
905.592763	0.090655
905.774363	0.090411
905.955943	0.089868
906.137506	0.090615
906.319051	0.089707
906.500577	0.090342
906.682085	0.090241
906.863575	0.089162
907.045046	0.087886
907.226500	0.087732
907.407935	0.087566
907.589352	0.087695
907.770750	0.087119
907.952131	0.087052
908.133493	0.087199
908.314837	0.086216
908.496163	0.086628
908.677470	0.086866
908.858760	0.087033
909.040031	0.086692
909.221284	0.086949
909.402518	0.087027
909.583735	0.087595
909.764933	0.087249
909.946113	0.087985
910.127275	0.087932
910.308418	0.088860
910.489544	0.088755
910.670651	0.088736
910.851740	0.088380
911.032810	0.088242
911.213863	0.087428
911.394897	0.087794
911.575913	0.087443
911.756911	0.087004
911.937890	0.086756
912.118851	0.086720
912.299794	0.087512
912.480719	0.087131
912.661626	0.087479
912.842514	0.087424
913.023384	0.087183
913.204236	0.087054
913.385070	0.087441
913.565886	0.086375
913.746683	0.087012
913.927462	0.086202
914.108223	0.085763
914.288965	0.085047
914.469690	0.084701
914.650396	0.084265
914.831084	0.084333
915.011754	0.084647
915.192405	0.085596
915.373038	0.084915
915.553653	0.084993
915.734250	0.085239
915.914829	0.084877
916.095389	0.085115
916.275931	0.085199
916.456455	0.085218
916.636961	0.084575
916.817448	0.083596
916.997917	0.083653
917.178368	0.083431
917.358801	0.082647
917.539216	0.082471
917.719612	0.081953
917.899990	0.081718
918.080350	0.081461
918.260692	0.080958
918.441015	0.081053
918.621320	0.080250
918.801607	0.079533
918.981876	0.079900
919.162127	0.080411
919.342359	0.080815
919.522573	0.081023
919.702769	0.080748
919.882947	0.080395
920.063106	0.079920
920.243247	0.079321
920.423370	0.079968
920.603475	0.080278
920.783562	0.080023
920.963630	0.079447
921.143680	0.078389
921.323712	0.077862
921.503725	0.078014
921.683721	0.078687
921.863698	0.078294
922.043657	0.078053
922.223598	0.077687
922.403520	0.077404
922.583424	0.077598
922.763311	0.078459
922.943178	0.078584
923.123028	0.079364
923.302859	0.077729
923.482673	0.078101
923.662467	0.077465
923.842244	0.076705
924.022003	0.076784
924.201743	0.076945
924.381465	0.075321
924.561169	0.074068
924.740854	0.072546
924.920522	0.072681
925.100171	0.072719
925.279802	0.073183
925.459414	0.073382
925.639009	0.073976
925.818585	0.073140
925.998143	0.073386
926.177683	0.074306
926.357205	0.074435
926.536708	0.074042
926.716193	0.074273
926.895660	0.073243
927.075109	0.072477
927.254539	0.071299
927.433951	0.070921
927.613345	0.071178
927.792721	0.070901
927.972079	0.070733
928.151418	0.070356
928.330739	0.069327
928.510042	0.069077
928.689327	0.069330
928.868593	0.068957
929.047841	0.067505
929.227071	0.066962
929.406283	0.066901
929.585476	0.066740
929.764652	0.067213
929.943809	0.066762
930.122948	0.067426
930.302068	0.067232
930.481171	0.066494
930.660255	0.066837
930.839321	0.067227
931.018369	0.066251
931.197398	0.066443
931.376409	0.065469
931.555402	0.066120
931.734377	0.065546
931.913334	0.065944
932.092272	0.064607
932.271192	0.065778
932.450094	0.064380
932.628978	0.063879
932.807844	0.062870
932.986691	0.064334
933.165520	0.064520
933.344331	0.063897
933.523123	0.063543
933.701898	0.065405
933.880654	0.064208
934.059392	0.063735
934.238111	0.065017
934.416813	0.064561
934.595496	0.064283
934.774161	0.063155
934.952808	0.063736
935.131437	0.062393
935.310047	0.061182
935.488639	0.060080
935.667213	0.060218
935.845769	0.058916
936.024306	0.059688
936.202825	0.057083
936.381326	0.056906
936.559809	0.054642
936.738274	0.054211
936.916720	0.055214
937.095148	0.055577
937.273558	0.055514
937.451950	0.054549
937.630323	0.054366
937.808678	0.055556
937.987015	0.055092
938.165334	0.056405
938.343635	0.056522
938.521917	0.056362
938.700181	0.056559
938.878427	0.056259
939.056655	0.055438
939.234864	0.054998
939.413055	0.053843
939.591228	0.054396
939.769383	0.053296
939.947519	0.054542
940.125638	0.052820
940.303738	0.051550
940.481820	0.050668
940.659883	0.051682
940.837929	0.048359
941.015956	0.048897
941.193965	0.047693
941.371955	0.046947
941.549928	0.044826
941.727882	0.045635
941.905818	0.046568
942.083736	0.046594
942.261636	0.045435
942.439517	0.046403
942.617380	0.044834
942.795225	0.044949
942.973052	0.045594
943.150860	0.046447
943.328651	0.045458
943.506423	0.043684
943.684176	0.043141
943.861912	0.042368
944.039629	0.042862
944.217328	0.042899
944.395009	0.042150
944.572672	0.042293
944.750317	0.040947
944.927943	0.039374
945.105551	0.038878
945.283141	0.040130
945.460712	0.042023
945.638265	0.041507
945.815801	0.043876
945.993317	0.045015
946.170816	0.043073
946.348297	0.043644
946.525759	0.044832
946.703203	0.046911
946.880629	0.045322
947.058036	0.044493
947.235425	0.046042
947.412797	0.045744
947.590149	0.042737
947.767484	0.043523
947.944800	0.044019
948.122099	0.045201
948.299379	0.045021
948.476640	0.045376
948.653884	0.044713
948.831109	0.042942
949.008316	0.040770
949.185505	0.043173
949.362676	0.041312
949.539828	0.042845
949.716962	0.041466
949.894078	0.039669
950.071176	0.040214
950.248256	0.042218
950.425317	0.043468
950.602360	0.042306
950.779385	0.040117
950.956391	0.045810
951.133380	0.041203
951.310350	0.039888
951.487302	0.043043
951.664235	0.041555
951.841151	0.038607
952.018048	0.037167
952.194927	0.037827
952.371788	0.037793
952.548631	0.032870
952.725455	0.032877
952.902261	0.032661
953.079049	0.030587
953.255819	0.031001
953.432570	0.031366
953.609303	0.030154
953.786018	0.030426
953.962715	0.032009
954.139394	0.037612
954.316054	0.035581
954.492696	0.036375
954.669320	0.036984
954.845926	0.038921
955.022513	0.038690
955.199083	0.042408
955.375634	0.043800
955.552166	0.041317
955.728681	0.035882
955.905177	0.038078
956.081655	0.037283
956.258115	0.034454
956.434557	0.032930
956.610980	0.034517
956.787385	0.031573
956.963772	0.030128
957.140141	0.029917
957.316492	0.032417
957.492824	0.034852
957.669138	0.037237
957.845434	0.040044
958.021712	0.039756
958.197971	0.041252
958.374212	0.042219
958.550435	0.040722
958.726640	0.046506
958.902826	0.044299
959.078995	0.042930
959.255145	0.038350
959.431277	0.035442
959.607390	0.037088
959.783486	0.037701
959.959563	0.037720
960.135622	0.040888
960.311662	0.035388
960.487685	0.035279
960.663689	0.033834
960.839675	0.036480
961.015643	0.038209
961.191593	0.041095
961.367524	0.040548
961.543437	0.044458
961.719332	0.045330
961.895209	0.049334
962.071067	0.046047
962.246907	0.046823
962.422730	0.049880
962.598533	0.052158
962.774319	0.051107
962.950086	0.044228
963.125835	0.043139
963.301566	0.037560
963.477279	0.033936
963.652973	0.039673
963.828650	0.041317
964.004308	0.039121
964.179947	0.039216
964.355569	0.037797
964.531172	0.040106
964.706757	0.035347
964.882324	0.037767
965.057873	0.037905
965.233403	0.039131
965.408916	0.036181
965.584410	0.036714
965.759885	0.036208
965.935343	0.031649
966.110782	0.034920
966.286203	0.030240
966.461606	0.033754
966.636991	0.034354
966.812357	0.030641
966.987705	0.032331
967.163035	0.033432
967.338347	0.033053
967.513641	0.036216
967.688916	0.034016
967.864173	0.041976
968.039412	0.038268
968.214632	0.038945
968.389835	0.040456
968.565019	0.036970
968.740185	0.037432
968.915333	0.038997
969.090462	0.038171
969.265573	0.042602
969.440667	0.040146
969.615741	0.045636
969.790798	0.044046
969.965836	0.038979
970.140856	0.042312
970.315858	0.041528
970.490842	0.040942
970.665808	0.044411
970.840755	0.042168
971.015684	0.047603
971.190595	0.045050
971.365487	0.046684
971.540362	0.045882
971.715218	0.050432
971.890056	0.052024
972.064875	0.049569
972.239677	0.048981
972.414460	0.046745
972.589225	0.041398
972.763972	0.039042
972.938700	0.040503
973.113411	0.047118
973.288103	0.045396
973.462777	0.047442
973.637432	0.048802
973.812070	0.048146
973.986689	0.048477
974.161290	0.048635
974.335873	0.047607
974.510437	0.050679
974.684984	0.047099
974.859512	0.050855
975.034022	0.046741
975.208513	0.048162
975.382987	0.043910
975.557442	0.045928
975.731879	0.044478
975.906298	0.049268
976.080698	0.047218
976.255080	0.045288
976.429445	0.039243
976.603790	0.041105
976.778118	0.038345
976.952427	0.042803
977.126719	0.038293
977.300992	0.042320
977.475246	0.041265
977.649483	0.037905
977.823701	0.040449
977.997901	0.038262
978.172083	0.041231
978.346247	0.040647
978.520392	0.037969
978.694519	0.036456
978.868628	0.041158
979.042719	0.039186
979.216791	0.039163
979.390845	0.038542
979.564882	0.043316
979.738899	0.039082
979.912899	0.041773
980.086880	0.045485
980.260843	0.048326
980.434788	0.043292
980.608715	0.047707
980.782623	0.047984
980.956514	0.048142
981.130386	0.044893
981.304240	0.046619
981.478075	0.044128
981.651892	0.045783
981.825692	0.046901
981.999472	0.044329
982.173235	0.039691
982.346980	0.035800
982.520706	0.036402
982.694414	0.036840
982.868104	0.035236
983.041775	0.039000
983.215428	0.034204
983.389064	0.034387
983.562680	0.038075
983.736279	0.037198
983.909860	0.041913
984.083422	0.043837
984.256966	0.047018
984.430491	0.044772
984.603999	0.042414
984.777488	0.040862
984.950959	0.038548
985.124412	0.036456
985.297847	0.034945
985.471263	0.036026
985.644661	0.037576
985.818041	0.036594
985.991403	0.038020
986.164747	0.039528
986.338072	0.037611
986.511379	0.038907
986.684668	0.038030
986.857938	0.045010
987.031191	0.044024
987.204425	0.041307
987.377641	0.039439
987.550839	0.042428
987.724018	0.042093
987.897179	0.042284
988.070322	0.044962
988.243447	0.044973
988.416554	0.044000
988.589642	0.045273
988.762712	0.046936
988.935764	0.047887
989.108798	0.043712
989.281813	0.040788
989.454811	0.047143
989.627790	0.045637
989.800751	0.045947
989.973693	0.042996
990.146617	0.039502
990.319524	0.037858
990.492412	0.041193
990.665281	0.040189
990.838133	0.042985
991.010966	0.040829
991.183781	0.035943
991.356578	0.038100
991.529356	0.037145
991.702117	0.039108
991.874859	0.039983
992.047583	0.034223
992.220288	0.035501
992.392976	0.033929
992.565645	0.034068
992.738296	0.038666
992.910929	0.038592
993.083543	0.039135
993.256139	0.039931
993.428718	0.039165
993.601277	0.043638
993.773819	0.044040
993.946342	0.045701
994.118848	0.047529
994.291335	0.048088
994.463803	0.043475
994.636254	0.045114
994.808686	0.044028
994.981100	0.046884
995.153496	0.040823
995.325874	0.040913
995.498233	0.038968
995.670574	0.038040
995.842897	0.034967
996.015202	0.036730
996.187488	0.035499
996.359757	0.035314
996.532007	0.033952
996.704239	0.040667
996.876452	0.038617
997.048648	0.039468
997.220825	0.038296
997.392984	0.043542
997.565124	0.046067
997.737247	0.047526
997.909351	0.049750
998.081437	0.050098
998.253505	0.046077
998.425554	0.048710
998.597586	0.049719
998.769599	0.050129
998.941594	0.046955
999.113571	0.044913
999.285529	0.044212
999.457469	0.042080
999.629391	0.040323
999.801295	0.041005
999.973181	0.040586
1000.145048	0.038666
1000.316897	0.037419
1000.488728	0.037721
1000.660541	0.040987
1000.832335	0.040748
1001.004111	0.040007
1001.175869	0.042421
1001.347609	0.043586
1001.519331	0.044236
1001.691034	0.041365
1001.862719	0.041197
1002.034386	0.041643
1002.206035	0.041541
1002.377665	0.040976
1002.549277	0.046979
1002.720871	0.043721
1002.892447	0.045125
1003.064004	0.045350
1003.235544	0.049529
1003.407065	0.049316
1003.578568	0.049953
1003.750052	0.048662
1003.921519	0.046047
1004.092967	0.041310
1004.264397	0.044434
1004.435809	0.041906
1004.607202	0.041631
1004.778577	0.041328
1004.949934	0.043682
1005.121273	0.043825
1005.292594	0.042420
1005.463896	0.048885
1005.635180	0.050529
1005.806446	0.047506
1005.977694	0.048122
1006.148923	0.049758
1006.320135	0.050282
1006.491328	0.048520
1006.662503	0.047717
1006.833659	0.051150
1007.004798	0.050474
1007.175918	0.047786
1007.347020	0.051316
1007.518103	0.052699
1007.689169	0.051834
1007.860216	0.046796
1008.031245	0.049313
1008.202256	0.045983
1008.373248	0.041534
1008.544223	0.037276
1008.715179	0.041458
1008.886117	0.037882
1009.057036	0.034114
1009.227938	0.035344
1009.398821	0.037402
1009.569686	0.036646
1009.740533	0.039574
1009.911361	0.042026
1010.082172	0.042417
1010.252964	0.039714
1010.423738	0.041016
1010.594493	0.042686
1010.765231	0.040508
1010.935950	0.043396
1011.106651	0.043457
1011.277334	0.044346
1011.447998	0.040652
1011.618645	0.037637
1011.789273	0.036208
1011.959882	0.035474
1012.130474	0.036226
1012.301048	0.038189
1012.471603	0.035678
1012.642140	0.035349
1012.812658	0.032696
1012.983159	0.032377
1013.153641	0.032970
1013.324105	0.036162
1013.494551	0.035663
1013.664979	0.035986
1013.835388	0.036709
1014.005779	0.038572
1014.176152	0.035655
1014.346507	0.038108
1014.516843	0.041021
1014.687162	0.045498
1014.857462	0.047043
1015.027744	0.046491
1015.198007	0.043902
1015.368252	0.041593
1015.538480	0.040404
1015.708689	0.041243
1015.878879	0.042263
1016.049052	0.041574
1016.219206	0.037659
1016.389342	0.033053
1016.559460	0.032008
1016.729559	0.037261
1016.899641	0.035368
1017.069704	0.037787
1017.239749	0.039175
1017.409775	0.037478
1017.579784	0.038499
1017.749774	0.042112
1017.919746	0.045406
1018.089700	0.048302
1018.259635	0.045111
1018.429553	0.046376
1018.599452	0.043627
1018.769333	0.043565
1018.939195	0.042171
1019.109040	0.041633
1019.278866	0.037029
1019.448674	0.035493
1019.618464	0.031604
1019.788235	0.032837
1019.957989	0.030545
1020.127724	0.032249
1020.297441	0.031766
1020.467139	0.034867
1020.636820	0.034248
1020.806482	0.036881
1020.976126	0.032925
1021.145752	0.035753
1021.315359	0.033875
1021.484948	0.034083
1021.654519	0.034516
1021.824072	0.033377
1021.993607	0.029922
1022.163123	0.031981
1022.332621	0.033594
1022.502101	0.034972
1022.671563	0.035724
1022.841007	0.035908
1023.010432	0.036761
1023.179839	0.036058
1023.349228	0.035791
1023.518598	0.034297
1023.687951	0.031966
1023.857285	0.030263
1024.026601	0.030456
1024.195899	0.031812
1024.365178	0.032887
1024.534439	0.037915
1024.703682	0.035747
1024.872907	0.038153
1025.042114	0.042797
1025.211302	0.045621
1025.380472	0.047651
1025.549624	0.048350
1025.718758	0.046794
1025.887873	0.046675
1026.056970	0.039999
1026.226049	0.042492
1026.395110	0.037815
1026.564153	0.038292
1026.733177	0.034903
1026.902183	0.032941
1027.071171	0.036725
1027.240141	0.036320
1027.409092	0.038736
1027.578026	0.042715
1027.746940	0.040812
1027.915837	0.045456
1028.084716	0.043835
1028.253576	0.047375
1028.422418	0.045685
1028.591242	0.040985
1028.760048	0.043976
1028.928835	0.045052
1029.097604	0.043433
1029.266355	0.046288
1029.435088	0.048894
1029.603803	0.047093
1029.772499	0.046011
1029.941177	0.051057
1030.109837	0.050841
1030.278478	0.046252
1030.447102	0.038486
1030.615707	0.038018
1030.784294	0.038790
1030.952863	0.036435
1031.121413	0.038000
1031.289945	0.036267
1031.458460	0.032871
1031.626955	0.033194
1031.795433	0.032612
1031.963892	0.033262
1032.132334	0.034413
1032.300756	0.029244
1032.469161	0.025555
1032.637548	0.022485
1032.805916	0.026284
1032.974266	0.026700
1033.142598	0.030635
1033.310911	0.029973
1033.479207	0.031436
1033.647484	0.029452
1033.815743	0.031498
1033.983983	0.034524
1034.152206	0.039334
1034.320410	0.035815
1034.488596	0.035407
1034.656764	0.031335
1034.824914	0.032843
1034.993045	0.030000
1035.161158	0.028131
1035.329253	0.026889
1035.497330	0.026073
1035.665388	0.023016
1035.833428	0.027219
1036.001450	0.028686
1036.169454	0.030259
1036.337440	0.033045
1036.505407	0.037604
1036.673356	0.039322
1036.841287	0.036479
1037.009200	0.033715
1037.177094	0.032243
1037.344970	0.024867
1037.512828	0.021512
1037.680668	0.018743
1037.848489	0.020602
1038.016293	0.019687
1038.184078	0.020445
1038.351845	0.023860
1038.519593	0.026824
1038.687324	0.028557
1038.855036	0.031950
1039.022730	0.034483
1039.190406	0.035981
1039.358063	0.031209
1039.525702	0.031788
1039.693323	0.032374
1039.860926	0.035389
1040.028511	0.034726
1040.196077	0.037181
1040.363625	0.034459
1040.531155	0.035209
1040.698667	0.035599
1040.866161	0.036916
1041.033636	0.036716
1041.201093	0.034759
1041.368532	0.033123
1041.535952	0.033519
1041.703355	0.032347
1041.870739	0.034193
1042.038105	0.033688
1042.205452	0.036786
1042.372782	0.038720
1042.540093	0.037494
1042.707386	0.039259
1042.874661	0.039597
1043.041918	0.038467
1043.209156	0.037145
1043.376376	0.033465
1043.543578	0.033530
1043.710762	0.032827
1043.877927	0.033667
1044.045074	0.036800
1044.212203	0.033890
1044.379314	0.031492
1044.546407	0.032026
1044.713481	0.031448
1044.880537	0.034688
1045.047575	0.035562
1045.214595	0.033988
1045.381596	0.032694
1045.548579	0.026320
1045.715544	0.030472
1045.882491	0.032279
1046.049420	0.032792
1046.216330	0.032109
1046.383222	0.027920
1046.550096	0.028468
1046.716951	0.026859
1046.883789	0.022885
1047.050608	0.027349
1047.217409	0.028319
1047.384192	0.029341
1047.550956	0.029612
1047.717703	0.030548
1047.884431	0.036772
1048.051140	0.034085
1048.217832	0.033550
1048.384505	0.034890
1048.551161	0.035508
1048.717798	0.033167
1048.884416	0.030374
1049.051017	0.032776
1049.217599	0.035789
1049.384163	0.032733
1049.550709	0.030544
1049.717237	0.033942
1049.883746	0.036048
1050.050237	0.035884
1050.216710	0.032346
1050.383165	0.033649
1050.549601	0.032157
1050.716019	0.030302
1050.882420	0.036562
1051.048801	0.037941
1051.215165	0.036494
1051.381510	0.031597
1051.547837	0.029074
1051.714146	0.031857
1051.880437	0.030354
1052.046709	0.025097
1052.212964	0.025566
1052.379200	0.019644
1052.545417	0.020193
1052.711617	0.020219
1052.877798	0.023622
1053.043961	0.026405
1053.210106	0.026742
1053.376233	0.030465
1053.542341	0.031355
1053.708432	0.032302
1053.874504	0.033632
1054.040557	0.033578
1054.206593	0.033341
1054.372610	0.030691
1054.538609	0.031817
1054.704590	0.032685
1054.870553	0.031117
1055.036497	0.033888
1055.202424	0.030348
1055.368331	0.027226
1055.534221	0.029262
1055.700093	0.030086
1055.865946	0.035044
1056.031781	0.033342
1056.197598	0.033267
1056.363397	0.033382
1056.529177	0.032317
1056.694939	0.033491
1056.860683	0.038147
1057.026409	0.034879
1057.192116	0.032732
1057.357806	0.034131
1057.523477	0.031152
1057.689130	0.027798
1057.854764	0.024357
1058.020381	0.028302
1058.185979	0.028290
1058.351559	0.029766
1058.517120	0.030853
1058.682664	0.031324
1058.848189	0.026654
1059.013696	0.028925
1059.179185	0.027507
1059.344656	0.026667
1059.510108	0.021421
1059.675542	0.021112
1059.840958	0.016559
1060.006356	0.017015
1060.171735	0.014872
1060.337096	0.019084
1060.502439	0.022696
1060.667764	0.024470
1060.833071	0.027812
1060.998359	0.028045
1061.163629	0.033263
1061.328881	0.034905
1061.494115	0.037069
1061.659330	0.041502
1061.824527	0.039793
1061.989706	0.034962
1062.154867	0.036534
1062.320010	0.034209
1062.485134	0.040443
1062.650240	0.036290
1062.815328	0.036002
1062.980398	0.033753
1063.145449	0.033423
1063.310482	0.030106
1063.475497	0.035177
1063.640494	0.031711
1063.805473	0.034259
1063.970433	0.029173
1064.135375	0.029750
1064.300299	0.027340
1064.465204	0.027325
1064.630092	0.022189
1064.794961	0.026114
1064.959812	0.023916
1065.124645	0.026145
1065.289459	0.025770
1065.454256	0.026895
1065.619034	0.022665
1065.783793	0.023840
1065.948535	0.023849
1066.113258	0.026475
1066.277964	0.024042
1066.442651	0.023581
1066.607319	0.020923
1066.771970	0.018777
1066.936602	0.023506
1067.101216	0.029511
1067.265812	0.032584
1067.430389	0.032669
1067.594949	0.036368
1067.759490	0.038385
1067.924013	0.047412
1068.088518	0.054462
1068.253004	0.059347
1068.417472	0.058380
1068.581922	0.059545
1068.746354	0.060277
1068.910768	0.063234
1069.075163	0.063383
1069.239540	0.064843
1069.403899	0.047875
1069.568240	0.046613
1069.732562	0.044745
1069.896866	0.037173
1070.061152	0.034284
1070.225420	0.031736
1070.389670	0.026994
1070.553901	0.024827
1070.718114	0.022827
1070.882309	0.035380
1071.046486	0.036856
1071.210644	0.031228
1071.374784	0.036941
1071.538906	0.034928
1071.703010	0.038786
1071.867096	0.036641
1072.031163	0.032299
1072.195212	0.031987
1072.359243	0.030263
1072.523256	0.025630
1072.687250	0.032145
1072.851226	0.033547
1073.015184	0.034682
1073.179124	0.031581
1073.343045	0.039047
1073.506949	0.044880
1073.670834	0.047723
1073.834701	0.043879
1073.998549	0.047027
1074.162380	0.048617
1074.326192	0.050031
1074.489986	0.054521
1074.653761	0.053568
1074.817519	0.052635
1074.981258	0.050031
1075.144979	0.043480
1075.308682	0.042634
1075.472367	0.043019
1075.636033	0.040952
1075.799681	0.039658
1075.963311	0.039246
1076.126923	0.037587
1076.290516	0.035412
1076.454092	0.038148
1076.617649	0.041673
1076.781187	0.039384
1076.944708	0.037080
1077.108210	0.035971
1077.271695	0.031464
1077.435160	0.027751
1077.598608	0.028319
1077.762038	0.027530
1077.925449	0.027056
1078.088842	0.022958
1078.252217	0.025229
1078.415573	0.026966
1078.578912	0.029940
1078.742232	0.028566
1078.905534	0.032617
1079.068817	0.033783
1079.232083	0.033078
1079.395330	0.028451
1079.558559	0.034653
1079.721770	0.039386
1079.884962	0.036784
1080.048136	0.029804
1080.211293	0.033724
1080.374430	0.029251
1080.537550	0.030846
1080.700651	0.031289
1080.863735	0.030208
1081.026800	0.026826
1081.189846	0.016872
1081.352875	0.018244
1081.515885	0.025998
1081.678877	0.020993
1081.841851	0.018754
1082.004807	0.014878
1082.167744	0.014598
1082.330663	0.024716
1082.493564	0.027830
1082.656447	0.032442
1082.819312	0.033006
1082.982158	0.031578
1083.144986	0.031733
1083.307796	0.038424
1083.470587	0.052526
1083.633361	0.053022
1083.796116	0.043868
1083.958853	0.038131
1084.121571	0.037809
1084.284272	0.042985
1084.446954	0.045872
1084.609618	0.044135
1084.772264	0.039646
1084.934892	0.030806
1085.097501	0.029286
1085.260092	0.034786
1085.422665	0.041126
1085.585220	0.042873
1085.747756	0.037959
1085.910274	0.036083
1086.072774	0.042432
1086.235256	0.045373
1086.397720	0.042770
1086.560165	0.047493
1086.722592	0.043466
1086.885001	0.040069
1087.047392	0.032323
1087.209764	0.034060
1087.372119	0.030494
1087.534455	0.026224
1087.696772	0.018385
1087.859072	0.018533
1088.021353	0.011130
1088.183616	0.018018
1088.345861	0.013743
1088.508088	0.023566
1088.670296	0.019161
1088.832486	0.019688
1088.994658	0.022075
1089.156812	0.030716
1089.318948	0.031729
1089.481065	0.033436
1089.643164	0.025319
1089.805245	0.028118
1089.967308	0.027402
1090.129352	0.030410
1090.291378	0.023510
1090.453386	0.024776
1090.615376	0.024819
1090.777347	0.026381
1090.939301	0.030520
1091.101236	0.034660
1091.263153	0.032997
1091.425051	0.031213
1091.586932	0.033307
1091.748794	0.041403
1091.910638	0.050637
1092.072463	0.047877
1092.234271	0.046034
1092.396060	0.044931
1092.557831	0.043582
1092.719584	0.050569
1092.881319	0.046809
1093.043035	0.044104
1093.204733	0.052126
1093.366413	0.048529
1093.528075	0.050129
1093.689718	0.048986
1093.851343	0.060717
1094.012950	0.063356
1094.174539	0.063358
1094.336110	0.061011
1094.497662	0.059676
1094.659196	0.052315
1094.820712	0.045604
1094.982210	0.042494
1095.143689	0.042490
1095.305151	0.025171
1095.466594	0.019083
1095.628018	0.021582
1095.789425	0.031269
1095.950813	0.037200
1096.112183	0.035190
1096.273535	0.032353
1096.434869	0.032758
1096.596184	0.038174
1096.757482	0.048948
1096.918761	0.053386
1097.080021	0.054150
1097.241264	0.050903
1097.402488	0.048756
1097.563694	0.054685
1097.724882	0.054771
1097.886052	0.064915
1098.047203	0.057456
1098.208336	0.062452
1098.369451	0.061034
1098.530548	0.060421
1098.691627	0.059993
1098.852687	0.063339
1099.013729	0.057942
1099.174753	0.058856
1099.335758	0.050025
1099.496746	0.056505
1099.657715	0.048344
1099.818666	0.048352
1099.979599	0.040260
1100.140513	0.038616
1100.301409	0.042603
1100.462287	0.040223
1100.623147	0.042432
1100.783989	0.045000
1100.944812	0.042868
1101.105617	0.040564
1101.266404	0.043957
1101.427173	0.048699
1101.587923	0.051994
1101.748656	0.050705
1101.909370	0.051343
1102.070066	0.045599
1102.230743	0.043043
1102.391403	0.048201
1102.552044	0.053376
1102.712667	0.057269
1102.873271	0.063325
1103.033858	0.069349
1103.194426	0.058882
1103.354976	0.054303
1103.515508	0.065546
1103.676021	0.059656
1103.836517	0.057526
1103.996994	0.057177
1104.157453	0.047116
1104.317893	0.032999
1104.478316	0.027582
1104.638720	0.023829
1104.799106	0.029461
1104.959474	0.023273
1105.119823	0.029381
1105.280155	0.014915
1105.440468	0.010801
1105.600763	0.012466
1105.761039	0.018177
1105.921298	0.018246
1106.081538	0.017956
1106.241760	0.025763
1106.401964	0.027750
1106.562149	0.026696
1106.722316	0.045586
1106.882465	0.045187
1107.042596	0.044972
1107.202709	0.051340
1107.362803	0.047257
1107.522879	0.046979
1107.682937	0.037754
1107.842977	0.032385
1108.002999	0.038693
1108.163002	0.025944
1108.322987	0.019995
1108.482954	0.015464
1108.642902	0.002994
1108.802833	-0.005287
1108.962745	0.000766
1109.122639	-0.003451
1109.282515	0.002679
1109.442372	-0.009499
1109.602211	-0.003495
1109.762032	0.014822
1109.921835	0.020632
1110.081620	0.030380
1110.241386	0.039868
1110.401134	0.047075
1110.560864	0.058540
1110.720576	0.057888
1110.880269	0.062282
1111.039945	0.073392
1111.199602	0.060183
1111.359240	0.063001
1111.518861	0.058503
1111.678463	0.062105
1111.838047	0.050621
1111.997613	0.054310
1112.157161	0.046144
1112.316690	0.047480
1112.476202	0.031166
1112.635695	0.038229
1112.795169	0.032021
1112.954626	0.030020
1113.114064	0.038337
1113.273484	0.046856
1113.432886	0.036242
1113.592270	0.041419
1113.751635	0.046932
1113.910983	0.045495
1114.070312	0.037051
1114.229622	0.040544
1114.388915	0.045061
1114.548189	0.032259
1114.707445	0.020553
1114.866683	0.018615
1115.025903	0.028381
1115.185104	0.023745
1115.344287	0.033739
1115.503452	0.032268
1115.662599	0.038044
1115.821727	0.032722
1115.980838	0.038288
1116.139930	0.044219
1116.299004	0.054406
1116.458059	0.054102
1116.617097	0.057844
1116.776116	0.044986
1116.935117	0.056576
1117.094099	0.053713
1117.253064	0.060679
1117.412010	0.054906
1117.570938	0.063351
1117.729848	0.056143
1117.888740	0.030750
1118.047613	0.027820
1118.206468	0.048911
1118.365305	0.043066
1118.524124	0.042370
1118.682924	0.046571
1118.841707	0.058144
1119.000471	0.029975
1119.159216	0.035961
1119.317944	0.048687
1119.476653	0.052537
1119.635344	0.030671
1119.794017	0.027152
1119.952672	0.021875
1120.111308	0.022167
1120.269927	0.020256
1120.428527	0.041676
1120.587108	0.041415
1120.745672	0.045055
1120.904217	0.035854
1121.062744	0.046425
1121.221253	0.037376
1121.379744	0.050482
1121.538216	0.045541
1121.696671	0.038399
1121.855107	0.044516
1122.013524	0.029522
1122.171924	0.035151
1122.330305	0.048003
1122.488668	0.036062
1122.647013	0.043011
1122.805340	0.024755
1122.963648	0.021893
1123.121938	0.021625
1123.280210	0.026865
1123.438464	0.039109
1123.596700	0.029309
1123.754917	0.016127
1123.913116	0.017000
1124.071297	0.027406
1124.229459	0.052877
1124.387604	0.056661
1124.545730	0.051965
1124.703838	0.034883
1124.861928	0.031795
1125.019999	0.038160
1125.178052	0.035247
1125.336088	0.047019
1125.494104	0.043496
1125.652103	0.020769
1125.810083	0.020821
1125.968045	0.034811
1126.125989	0.039924
1126.283915	0.040335
1126.441823	0.044585
1126.599712	0.051590
1126.757583	0.037543
1126.915436	0.036887
1127.073270	0.047404
1127.231087	0.047752
1127.388885	0.042695
1127.546665	0.036191
1127.704426	0.035080
1127.862170	0.030699
1128.019895	0.037530
1128.177602	0.041846
1128.335291	0.027572
1128.492961	0.038777
1128.650614	0.044855
1128.808248	0.048746
1128.965864	0.057475
1129.123461	0.059579
1129.281041	0.066728
1129.438602	0.060732
1129.596145	0.069984
1129.753670	0.081646
1129.911176	0.058340
1130.068665	0.041800
1130.226135	0.040992
1130.383587	0.030260
1130.541020	0.042317
1130.698436	0.043756
1130.855833	0.047454
1131.013212	0.048236
1131.170573	0.049440
1131.327915	0.051420
1131.485239	0.057087
1131.642545	0.047708
1131.799833	0.063630
1131.957103	0.031563
1132.114354	0.030810
1132.271588	0.033138
1132.428803	0.035497
1132.585999	0.043531
1132.743178	0.051930
1132.900338	0.061637
1133.057480	0.052389
1133.214604	0.059550
1133.371710	0.077793
1133.528797	0.058009
1133.685866	0.048199
1133.842917	0.052679
1133.999950	0.048514
1134.156964	0.043085
1134.313960	0.038769
1134.470938	0.040541
1134.627898	0.043168
1134.784840	0.040519
1134.941763	0.042188
1135.098668	0.038219
1135.255555	0.036492
1135.412424	0.041596
1135.569274	0.043292
1135.726107	0.041848
1135.882921	0.057522
1136.039716	0.043405
1136.196494	0.040343
1136.353253	0.066516
1136.509995	0.079657
1136.666717	0.068762
1136.823422	0.048787
1136.980109	0.049958
1137.136777	0.057883
1137.293427	0.046866
1137.450059	0.048917
1137.606672	0.057518
1137.763267	0.033755
1137.919844	0.026315
1138.076403	0.032016
1138.232944	0.065814
1138.389466	0.064468
1138.545971	0.056250
1138.702457	0.053795
1138.858924	0.047425
1139.015374	0.042242
1139.171805	0.072539
1139.328218	0.082424
1139.484613	0.069564
1139.640990	0.053515
1139.797348	0.060056
1139.953688	0.062403
1140.110010	0.060098
1140.266314	0.056508
1140.422600	0.049862
1140.578867	0.024319
1140.735116	0.009911
1140.891347	0.029854
1141.047559	0.007229
1141.203754	0.009203
1141.359930	0.013657
1141.516088	0.049406
1141.672228	0.053550
1141.828349	0.084211
1141.984452	0.075352
1142.140537	0.075022
1142.296604	0.051949
1142.452653	0.081036
1142.608683	0.052982
1142.764695	0.058482
1142.920689	0.017846
1143.076665	0.037496
1143.232622	0.009275
1143.388562	0.007360
1143.544483	0.011323
1143.700385	0.017801
1143.856270	0.007465
1144.012136	0.030681
1144.167985	0.013592
1144.323814	0.018245
1144.479626	0.012989
1144.635420	0.014717
1144.791195	0.028456
1144.946952	0.031563
1145.102691	0.028573
1145.258411	0.028943
1145.414113	0.014308
1145.569798	0.023893
1145.725463	0.018279
1145.881111	-0.005450
1146.036741	-0.000145
1146.192352	0.001956
1146.347945	0.012226
1146.503519	0.009955
1146.659076	0.011551
1146.814614	0.032198
1146.970134	0.028687
1147.125636	0.041451
1147.281120	0.068654
1147.436585	0.075830
1147.592032	0.080428
1147.747461	0.053319
1147.902872	0.048427
1148.058265	0.057057
1148.213639	0.056759
1148.368995	0.061342
1148.524333	0.074729
1148.679653	0.044953
1148.834954	0.024066
1148.990237	0.004312
1149.145502	0.027330
1149.300749	0.037447
1149.455977	0.034872
1149.611188	0.001213
1149.766380	-0.001662
1149.921553	-0.005554
1150.076709	-0.000858
1150.231846	0.013035
1150.386966	0.018096
1150.542066	0.000904
1150.697149	-0.002352
1150.852214	-0.027760
1151.007260	-0.027026
1151.162288	-0.046577
1151.317298	-0.047912
1151.472289	-0.053766
1151.627263	-0.050782
1151.782218	-0.044936
1151.937155	-0.036900
1152.092073	-0.036641
1152.246974	-0.022956
1152.401856	-0.002428
1152.556720	0.013708
1152.711566	-0.004407
1152.866393	0.027109
1153.021203	0.024032
1153.175994	0.024521
1153.330767	0.014562
1153.485521	0.007477
1153.640258	-0.001288
1153.794976	-0.014865
1153.949676	-0.018573
1154.104358	-0.013623
1154.259021	-0.016422
1154.413667	-0.031450
1154.568294	-0.029497
1154.722903	-0.013924
1154.877493	0.004624
1155.032066	0.007035
1155.186620	-0.000157
1155.341156	0.001609
1155.495674	0.003954
1155.650173	-0.012684
1155.804654	-0.008843
1155.959118	-0.020945
1156.113562	-0.035215
1156.267989	-0.029386
1156.422397	-0.011311
1156.576788	-0.001977
1156.731160	-0.014722
1156.885513	0.012576
1157.039849	0.022013
1157.194166	0.053058
1157.348465	0.071010
1157.502746	0.063967
1157.657009	0.030901
1157.811253	0.031995
1157.965479	0.021897
1158.119687	0.041825
1158.273877	0.018262
1158.428048	0.014617
1158.582201	-0.003393
1158.736337	-0.007730
1158.890453	-0.008005
1159.044552	0.007943
1159.198632	-0.013986
1159.352694	0.007739
1159.506738	0.024725
1159.660764	0.029891
1159.814771	0.039745
1159.968761	0.030522
1160.122732	0.027905
1160.276685	0.037486
1160.430619	0.036014
1160.584535	0.046076
1160.738434	0.031088
1160.892313	-0.005408
1161.046175	0.017275
1161.200019	0.009658
1161.353844	0.025651
1161.507651	0.011347
1161.661440	0.027752
1161.815210	0.035390
1161.968962	0.043333
1162.122697	0.064311
1162.276412	0.076940
1162.430110	0.021330
1162.583789	0.010101
1162.737451	-0.020163
1162.891094	-0.004457
1163.044718	-0.008201
1163.198325	-0.029715
1163.351913	-0.026194
1163.505483	-0.021395
1163.659035	-0.027107
1163.812569	-0.028264
1163.966084	-0.028107
1164.119581	-0.019272
1164.273060	-0.047634
1164.426521	-0.071950
1164.579964	-0.051387
1164.733388	-0.042860
1164.886794	-0.058024
1165.040182	-0.043916
1165.193551	-0.008855
1165.346903	-0.006305
1165.500236	0.026438
1165.653551	0.066093
1165.806848	0.084863
1165.960126	0.079883
1166.113386	0.051150
1166.266628	0.030128
1166.419852	0.006750
1166.573058	0.024047
1166.726245	0.001306
1166.879414	-0.024490
1167.032565	-0.021252
1167.185698	-0.010517
1167.338812	-0.006890
1167.491909	-0.025109
1167.644987	0.035783
1167.798046	0.089928
1167.951088	0.063490
1168.104111	0.096913
1168.257117	0.140349
1168.410103	0.144178
1168.563072	0.122149
1168.716023	0.102761
1168.868955	0.146897
1169.021869	0.065308
1169.174765	0.025488
1169.327642	0.028609
1169.480501	0.031474
1169.633343	0.001219
1169.786165	-0.021844
1169.938970	0.006488
1170.091757	-0.010285
1170.244525	-0.020763
1170.397275	0.016387
1170.550007	0.022160
1170.702720	0.011325
1170.855415	0.013795
1171.008092	0.007178
1171.160751	0.015932
1171.313392	-0.010494
1171.466014	0.084729
1171.618619	-0.025771
1171.771205	-0.025771
1171.923772	-0.025771
