sample name	sample
index	322
start time	 02-25-2021  03:26:10 PM
880	-0.016585
Peak Time (s)	92.536
Peak Height 	-0.01658
calc peak height	90,93
Baseline Time (s)	10.536
Baseline Value 	-0.003444
subtract baseline	10,4
Abs	-0.001348
Peak Time (s)	90.038
Peak Height 	-0.001348
calc peak height	90,93
Baseline Time (s)	8.537
Baseline Value 	0.002168
subtract baseline	10,3
PK_550	-0.000858
Peak Time (s)	91.535
Peak Height 	-8.5829E-4
calc peak height	90,93
Baseline Time (s)	10.536
Baseline Value 	2.9571E-4
subtract baseline	10,2
PK_880	-0.001571
Peak Time (s)	91.535
Peak Height 	-0.001571
calc peak height	90,93
Baseline Time (s)	10.536
Baseline Value 	0.001492
subtract baseline	10,1


Time (s)	A880-A510	A880-A775	A880-A975	A880	I510	I775	I975	I880	
0.037500	-0.004389	-0.000363	-0.001568	0.007747	6758.791595	44415.728102	3993.875528	23589.037206
0.535500	-0.001029	-0.000278	0.002153	0.004449	6817.142087	44739.582113	4010.795079	23746.178529
1.035500	-0.001544	-0.000796	-0.004751	0.003948	6817.020345	44737.937796	3995.350076	23770.149298
1.536000	0.000099	0.000014	-0.005000	0.002043	6848.477619	44999.631997	3999.322791	23861.561618
2.036500	-0.000713	0.000478	-0.002653	0.003672	6826.810827	44887.116120	4001.051742	23783.371147
2.536500	-0.001955	0.000304	-0.000202	0.001562	6834.502537	45074.187111	4012.088264	23884.698495
3.036500	0.001690	0.000109	-0.002181	-0.000165	6882.457442	45222.873775	4011.476004	23968.021983
3.537000	-0.002672	0.000810	-0.000347	0.001231	6831.068798	45155.317717	4012.540555	23900.623508
4.037500	-0.001641	0.000306	0.002291	0.001159	6840.858984	45113.445095	4019.156582	23904.086900
4.535000	-0.001066	-0.000618	-0.003327	0.000040	6855.943632	45132.402104	4008.196024	23958.106266
5.035500	0.000827	0.000218	-0.000482	0.000684	6867.105643	45151.031077	4013.544101	23927.027352
5.535500	-0.001380	-0.000761	0.001903	0.000297	6850.863405	45093.640797	4020.319630	23945.709588
6.035500	-0.001162	-0.000118	-0.000654	0.000376	6852.094862	45148.224636	4013.874984	23941.858755
6.536000	-0.000483	0.000233	-0.001906	0.000469	6857.319064	45173.387884	4010.603490	23937.398370
7.036500	-0.000448	0.000175	-0.000378	0.000399	6858.259307	45174.511519	4014.492735	23940.787615
7.536500	-0.000411	-0.000059	-0.000235	0.000011	6862.057582	45189.443182	4015.787417	23959.509017
8.037000	-0.000385	0.000209	0.001928	0.000032	6862.104470	45213.503047	4021.032573	23958.509946
8.537500	-0.000207	-0.000404	0.000000	-0.000819	6871.306004	45236.609951	4018.391585	23999.646110
9.037500	-0.000616	-0.000897	0.005822	-0.000606	6865.742168	45168.025730	4032.209818	23989.359830
9.535000	0.001066	-0.000321	0.000448	-0.000258	6877.687106	45190.116007	4018.115097	23972.522770
10.035500	-0.000719	0.001074	0.003541	0.000864	6851.692677	45216.633130	4022.946882	23918.309293
10.535500	0.000000	0.000000	-0.000577	0.000000	6865.826706	45196.246606	4014.980642	23960.037686
11.036000	0.000091	0.000676	-0.001717	0.000859	6858.961105	45178.472156	4010.114154	23918.571325
11.536000	0.000101	0.000465	-0.000664	0.000428	6862.903010	45199.847437	4013.723830	23939.359928
12.036000	0.001087	-0.000484	0.001846	-0.000447	6879.576435	45192.721525	4022.005840	23981.667971
12.536500	-0.000799	0.000340	-0.000148	0.001277	6847.301056	45105.345165	4012.912769	23898.426658
13.037000	-0.000856	-0.000553	0.002092	-0.001678	6873.185057	45305.651298	4025.638719	24041.269516
13.537500	-0.000774	0.000643	0.004774	0.000962	6850.330041	45165.234927	4025.742105	23913.597737
14.048000	-0.000631	0.000172	0.003564	0.001065	6850.686078	45109.582641	4022.511253	23908.630312
14.535000	0.000211	0.000263	-0.001729	0.003148	6839.639584	44916.862110	4004.541644	23808.458240
15.035500	0.000048	-0.000426	-0.003650	0.001153	6855.959788	45043.191930	4004.722492	23904.423383
15.544000	-0.000910	-0.000643	0.002745	-0.000032	6857.983657	45137.011763	4023.195414	23961.605845
16.036000	0.000211	0.000839	0.001372	0.001123	6857.681327	45168.636373	4016.996598	23905.849176
16.536000	-0.001839	-0.000440	-0.003085	0.002774	6824.785031	44885.109672	4002.171291	23826.422722
17.036500	0.002641	-0.000232	-0.001155	0.000678	6883.427973	45107.915692	4011.920946	23927.306049
17.537000	0.003787	0.000576	0.002959	-0.002139	6919.196826	45460.909335	4028.916910	24063.669324
18.037000	0.000420	0.000925	0.001415	-0.000226	6871.609421	45308.241289	4020.404838	23970.953069
18.537500	-0.002201	-0.000383	-0.000167	0.001164	6835.845607	45046.140517	4013.140490	23903.851340
19.037500	-0.001859	-0.000015	0.003493	0.001580	6835.193416	45041.565484	4021.072767	23883.850222
19.535000	-0.000702	-0.000975	0.001656	0.001038	6850.291107	45001.101173	4017.899994	23909.924501
20.035500	-0.000055	0.001084	-0.000931	0.002117	6846.447772	45095.992675	4008.969886	23858.002688
20.535500	-0.002514	-0.000184	0.002394	0.001445	6830.584101	45038.285931	4018.710900	23890.353681
21.036000	-0.001983	0.000018	-0.004375	0.001083	6838.499928	45092.891579	4003.139444	23907.784895
21.539000	-0.002026	-0.000089	0.002196	0.001643	6833.157639	45028.317158	4017.742815	23880.817280
22.037000	-0.000594	0.000021	-0.001771	0.001476	6847.358172	45055.134593	4008.488279	23888.852779
22.537000	0.000730	0.000138	0.004552	0.001785	6856.406984	45036.594116	4023.171298	23873.981485
23.037000	-0.001632	-0.000442	0.003394	0.001446	6838.392218	45013.269498	4021.158647	23890.282964
23.537500	-0.001366	-0.000477	0.002197	0.001095	6843.879521	45043.790414	4019.083027	23907.180697
24.035000	-0.002008	-0.000585	0.001989	0.001139	6837.780492	45029.091408	4018.467170	23905.051830
24.535500	-0.002336	-0.000605	0.004268	0.001305	6833.406115	45011.110925	4023.651992	23897.094900
25.036000	-0.001051	-0.000070	-0.000534	0.001543	6842.699004	45039.854937	4011.326193	23885.610482
25.536000	-0.000016	0.000007	0.004310	0.001046	6856.346113	45095.439638	4024.393923	23909.571322
26.036500	-0.000114	-0.000178	-0.000680	0.001455	6851.820299	45037.850265	4011.185384	23889.840118
26.537000	0.000592	-0.000716	0.001869	0.001267	6859.792896	45004.023741	4017.860850	23898.893424
27.037000	0.000692	0.000482	0.003280	0.001562	6858.060833	45091.481949	4020.595446	23884.719911
27.537000	-0.000734	-0.000028	0.003414	0.001469	6846.172517	45051.013006	4021.149782	23889.167602
28.037000	0.002222	0.000124	0.004653	-0.002144	6905.070653	45417.127715	4033.122905	24063.868971
28.535000	0.001321	0.000858	0.002634	0.000758	6870.863304	45205.948830	4020.981259	23923.455460
29.062000	-0.001839	-0.000186	0.004509	-0.000036	6849.735657	45181.670043	4027.549792	23961.785038
29.535500	-0.000576	-0.000059	0.004087	0.000165	6859.209530	45174.491744	4026.013635	23952.068902
30.035500	-0.000695	-0.000710	-0.000985	0.000429	6855.786760	45085.734905	4012.941017	23939.310115
30.536000	-0.000747	0.000079	0.000096	0.000748	6852.483212	45131.337210	4014.799502	23923.946583
31.036500	0.001358	-0.000315	0.000338	0.000155	6876.602590	45150.634908	4016.836183	23952.537890
31.537000	-0.001041	0.000735	-0.002463	0.002881	6830.904861	44988.345021	4003.413832	23821.301857
32.037000	0.000495	0.000324	0.000538	0.002492	6848.006114	44986.123844	4011.624852	23839.958736
32.542500	0.001444	-0.000137	0.001881	0.002748	6854.177971	44916.877161	4014.273569	23827.677837
33.034500	0.001136	-0.000186	0.001680	0.000281	6873.485065	45150.919474	4019.812719	23946.478330
33.535500	0.002066	0.000356	0.000719	0.000722	6877.866211	45160.725263	4016.382239	23925.187890
34.035500	0.000949	-0.000052	-0.001352	0.000681	6868.222274	45125.105940	4011.432953	23927.144215
34.536000	0.001240	0.000451	0.001682	-0.000964	6885.585837	45333.951825	4022.872794	24006.654026
35.036500	-0.003087	-0.001015	-0.000503	0.001147	6828.143274	44986.774111	4012.365956	23904.705601
35.536500	-0.002118	-0.000698	0.003065	0.001630	6832.450703	44970.677761	4019.900320	23881.420370
36.036500	-0.000383	0.000572	0.000259	0.002299	6841.917708	45028.771080	4011.417478	23849.250038
36.537000	-0.000271	0.000423	-0.002676	0.002204	6843.746760	45023.533183	4004.532710	23853.791733
37.037000	-0.000406	0.000361	-0.002406	0.002309	6841.616712	45007.381461	4004.931277	23848.744564
37.534500	-0.002553	-0.000752	-0.003219	0.001643	6828.472532	44964.152366	4004.577035	23880.780734
38.035000	-0.001176	-0.000211	-0.002087	0.001779	6839.493878	45003.435473	4006.987583	23874.275557
38.535000	0.000850	0.000019	0.003877	0.002563	6850.531776	44949.782347	4019.604226	23836.547289
39.035500	-0.000857	-0.000340	-0.002545	0.001864	6841.562066	44982.666074	4005.672003	23870.141879
39.535500	-0.001127	0.000424	-0.001380	0.002363	6834.736487	45008.280150	4007.286087	23846.183651
40.036000	-0.002954	-0.000660	-0.000283	0.001572	6825.556198	44979.957027	4011.867893	23884.207037
40.535500	-0.000945	0.000624	-0.000535	0.002728	6833.107193	44992.245122	4008.446656	23828.613493
41.039500	0.000548	0.000285	0.002518	0.002427	6849.059997	44988.642332	4016.610941	23843.102760
41.537000	-0.000868	-0.000425	0.003663	0.001577	6844.026461	45002.181302	4021.496811	23883.986997
42.037000	-0.001745	-0.000025	-0.000552	0.001692	6835.208831	45029.783880	4010.922358	23878.462117
42.535000	-0.001229	0.000295	0.004545	0.002500	6832.618840	44982.562692	4021.396282	23839.573341
43.035000	0.000107	0.000274	0.003695	0.002401	6845.356784	44990.085505	4019.553428	23844.328065
43.535500	-0.001946	-0.000321	-0.003857	0.001865	6831.895797	44984.397733	4002.502621	23870.121181
44.036000	0.000391	-0.000225	0.001967	0.002202	6849.657345	44961.099867	4015.813633	23853.893886
44.535500	0.001149	0.000157	0.005891	0.000451	6872.077764	45167.673635	4029.762519	23938.269954
45.036500	0.001358	0.000339	0.004125	-0.001755	6893.769507	45400.164703	4030.850825	24045.014315
45.536500	-0.000719	-0.000251	0.002187	0.000539	6854.590532	45119.537553	4020.421811	23933.998326
46.036500	-0.001847	-0.000141	0.004421	0.000360	6846.137092	45147.528629	4026.354055	23942.626627
46.537000	-0.000615	0.000544	-0.000424	0.001787	6844.397173	45075.658209	4011.002144	23873.858458
47.037500	0.002695	0.000548	0.004017	0.000750	6883.262849	45176.627117	4024.399414	23923.820157
47.537500	0.001314	0.000142	0.000796	0.000633	6871.926228	45148.646990	4016.788173	23929.497813
48.066500	0.000579	0.000643	0.001275	0.000944	6862.567526	45167.062644	4017.198481	23914.485054
48.535500	-0.001629	-0.000150	0.002778	0.003140	6823.405498	44877.778992	4015.503493	23808.844055
49.036000	-0.001244	0.000253	0.005014	0.002467	6832.776601	44981.719814	4022.631009	23841.186356
49.571000	-0.000672	-0.000215	0.006822	0.003212	6831.244791	44864.598398	4025.245781	23805.413001
50.036500	0.001202	0.000466	0.002847	0.000893	6868.594468	45154.828309	4021.174724	23916.949442
50.536500	-0.002659	0.000016	-0.001580	0.001667	6827.334903	45036.194357	4008.488142	23879.664349
51.037500	0.003182	0.000224	0.002042	-0.002311	6915.269348	45443.221897	4027.076242	24072.012910
51.537500	-0.000924	0.000511	0.003554	0.002907	6831.710911	44964.163609	4017.970691	23820.044367
52.037000	0.000074	0.000898	0.003378	0.000357	6863.290471	45248.847893	4023.794746	23942.786414
52.535000	-0.000392	0.001211	0.004362	0.006291	6806.517096	44705.650467	4011.687355	23658.266085
53.035500	-0.013512	-0.009712	0.002987	0.102734	5953.664811	35571.835881	3798.679212	19539.502323
53.535000	-0.026429	-0.018251	0.002463	0.060278	6162.842953	38217.135830	3884.152739	21240.557855
54.036000	-0.029258	-0.028367	-0.000442	-0.098925	7541.678597	52639.207406	4286.431633	29328.186755
54.536000	-0.010018	-0.034180	0.009515	-0.164914	8530.425370	60015.888714	4540.770744	33652.551973
55.036500	-0.017751	-0.023453	-0.002712	-0.133191	8048.522158	57325.083342	4388.188268	31491.607801
55.536500	-0.014899	-0.013913	-0.003996	-0.105219	7763.771713	55067.938245	4294.853625	29712.857014
56.036500	-0.001339	-0.013678	-0.001326	-0.127257	8172.258758	57807.709484	4373.263327	31104.641073
56.537500	-0.005354	-0.002798	-0.002557	-0.048516	7271.693620	49879.912498	4134.817621	26440.230629
57.037500	-0.001465	-0.003039	-0.006349	-0.044313	7268.593981	49402.747589	4113.302510	26214.226330
57.535000	-0.003179	-0.003521	-0.001501	-0.042424	7233.176916	49150.188768	4121.219536	26113.391701
58.035500	-0.009012	-0.007213	-0.006972	-0.055035	7300.050020	50107.591191	4140.543180	26795.098413
58.536000	-0.005475	-0.005685	-0.002021	-0.031383	7104.588603	47768.163325	4090.595568	25532.551566
59.036000	-0.004662	-0.005584	-0.002185	-0.016141	6969.865638	46234.427959	4051.035416	24754.641110
59.536000	-0.004346	-0.004150	0.004413	-0.008236	6900.774242	45595.065505	4047.743403	24361.768377
60.036500	-0.007967	-0.006113	-0.002259	-0.005164	6840.836750	45104.105734	4023.507810	24211.036998
60.537000	-0.006939	-0.005513	-0.002494	-0.000022	6804.445696	44666.104803	4010.365923	23961.080009
61.037500	-0.012148	-0.005807	-0.003667	-0.002888	6783.881207	44913.657778	4014.487846	24100.050642
61.537500	-0.012534	-0.006216	-0.003366	-0.010149	6844.554242	45579.990012	4033.088116	24456.181843
62.035000	-0.008954	-0.005873	-0.005670	-0.017329	6941.450590	46323.951411	4045.255686	24814.261306
62.535000	-0.005423	-0.002559	-0.008094	-0.015861	6960.316121	46508.562271	4035.533315	24740.605068
63.035500	-0.010550	-0.005139	-0.005529	-0.019034	6942.455163	46567.984689	4049.898808	24900.189837
63.536000	-0.003451	0.001071	-0.005641	-0.020270	7019.205758	47321.281696	4052.733778	24962.664627
64.035500	-0.001587	-0.000850	-0.004574	-0.046628	7290.300102	49886.460287	4124.259762	26338.443830
64.536500	-0.001236	-0.001730	-0.006119	-0.051098	7338.392956	50275.588332	4132.157940	26580.138727
65.038000	-0.001703	-0.002506	-0.005792	-0.053350	7356.343738	50436.557324	4139.167954	26702.886609
65.536000	-0.005568	-0.002465	-0.008428	-0.049113	7275.473960	49980.442279	4120.580526	26472.498722
66.037000	-0.001889	-0.003032	-0.007216	-0.054355	7364.593961	50488.884518	4138.026991	26757.860191
66.537500	-0.004683	-0.002773	-0.002406	-0.052325	7316.174123	50295.541552	4145.618453	26646.905539
67.035000	-0.002903	-0.002592	-0.006381	-0.053576	7346.540706	50451.863677	4138.179281	26715.237385
67.535500	-0.005987	-0.002694	-0.005104	-0.047856	7258.935370	49819.884162	4126.138164	26404.577743
68.035500	-0.001776	-0.002678	-0.007187	-0.052373	7345.771070	50311.156239	4132.720606	26649.558470
68.536000	-0.002632	-0.003716	-0.003931	-0.051848	7331.907503	50141.134119	4140.144079	26620.921681
69.036000	-0.004106	-0.003852	-0.001361	-0.051055	7309.264845	50040.444614	4145.002751	26577.790507
69.536500	-0.007968	-0.004778	-0.006246	-0.045395	7215.414034	49332.580447	4116.467020	26272.196721
70.037000	-0.002006	-0.003934	-0.005425	-0.048966	7309.374878	49805.954203	4128.269968	26464.565882
70.537500	-0.001626	-0.003534	-0.004959	-0.048145	7304.991557	49760.623244	4127.312332	26420.218680
71.037500	-0.004932	-0.003886	-0.004904	-0.047509	7265.915796	49654.289381	4125.741610	26385.867049
71.535000	-0.006448	-0.004865	-0.006336	-0.041650	7193.785484	48925.640689	4106.262887	26072.198178
72.035000	-0.003858	-0.004182	-0.004899	-0.045690	7258.573552	49427.774478	4120.865052	26288.048221
72.535000	-0.006354	-0.004302	-0.009152	-0.043124	7209.010106	49141.467374	4102.709724	26150.677062
73.036000	-0.006411	-0.004567	-0.004902	-0.044491	7221.784315	49258.769315	4117.646233	26223.785018
73.536000	-0.007943	-0.004928	-0.010381	-0.037719	7141.472062	48505.167289	4085.317051	25864.043965
74.036500	-0.007037	-0.004731	-0.003483	-0.042223	7193.623622	49000.457297	4115.375650	26102.665823
74.536500	-0.006546	-0.004697	-0.005506	-0.040472	7181.414052	48818.944219	4105.337785	26009.600513
75.036500	-0.007585	-0.005439	-0.004066	-0.041279	7179.175256	48825.853296	4111.304955	26052.463209
75.537000	-0.006406	-0.004794	-0.009084	-0.039906	7177.300996	48749.009623	4094.418092	25979.599566
76.037500	-0.005028	-0.003673	-0.006747	-0.038045	7172.637283	48671.201544	4095.668828	25881.257332
76.535000	-0.006338	-0.004522	-0.006413	-0.035696	7137.481737	48336.129954	4090.391430	25757.700915
77.035500	-0.005806	-0.003954	-0.004451	-0.036520	7150.478333	48481.677068	4097.694096	25800.983506
77.535500	-0.005823	-0.004291	-0.006604	-0.035785	7143.268010	48369.632691	4090.125167	25762.383593
78.036000	-0.004986	-0.003638	-0.003202	-0.034213	7136.226120	48273.630921	4094.915845	25680.029360
78.536000	-0.006952	-0.003311	-0.004496	-0.031306	7089.872839	48005.590146	4083.947386	25528.570603
79.036500	-0.005107	-0.004304	-0.008000	-0.033516	7128.409554	48131.873365	4080.588807	25643.636555
79.537000	-0.005130	-0.004351	-0.005836	-0.032539	7118.868239	48025.576563	4083.667215	25592.689265
80.037000	-0.005990	-0.003460	-0.005668	-0.031430	7100.158987	48003.016342	4081.227438	25535.017154
80.537500	-0.004321	-0.003733	-0.005649	-0.030918	7111.146587	47921.683898	4079.950934	25508.437217
81.035000	-0.005330	-0.003369	-0.005302	-0.029991	7092.774400	47863.545718	4078.448964	25460.380228
81.535000	-0.003885	-0.003203	-0.009020	-0.029180	7098.782468	47797.003412	4066.799356	25418.448314
82.035500	-0.003641	-0.002468	-0.003808	-0.027899	7088.958980	47740.633421	4076.902961	25352.323033
82.536000	-0.004309	-0.003478	-0.005560	-0.028274	7086.193392	47675.272282	4073.353998	25371.674471
83.036500	-0.004605	-0.003195	-0.002028	-0.027408	7075.224913	47615.331947	4080.235237	25327.037828
83.536500	-0.009146	-0.003674	-0.011687	-0.021480	6977.723855	46962.067220	4040.582440	25024.016321
84.036500	-0.003890	-0.002527	-0.001763	-0.025179	7060.970723	47455.236723	4075.160480	25212.612925
84.537000	-0.005364	-0.002967	-0.003659	-0.024076	7036.849072	47297.667256	4067.456612	25156.236623
85.034500	-0.004815	-0.003239	-0.010465	-0.024918	7049.849374	47355.825926	4052.290128	25199.246626
85.537500	-0.004061	-0.002900	-0.003998	-0.024085	7049.105629	47305.372555	4066.611295	25156.648940
86.035000	-0.002989	-0.003026	-0.003287	-0.023503	7053.698194	47233.147842	4066.940079	25126.949794
86.535500	-0.001619	-0.002231	-0.002862	-0.022014	7052.587690	47162.634115	4064.221715	25051.135482
87.036000	-0.003448	-0.002455	-0.007158	-0.022373	7038.826991	47176.273666	4054.215849	25069.387804
87.536000	-0.008209	-0.003025	-0.006433	-0.016248	6938.394579	46500.648543	4040.639315	24759.986529
88.036500	-0.004819	-0.002657	-0.004439	-0.020983	7013.115623	47014.664589	4057.584119	24998.801297
88.536500	-0.004116	-0.002278	-0.001544	-0.020788	7017.829634	47033.277942	4064.456717	24988.897007
89.037000	-0.003383	-0.002398	-0.000415	-0.020301	7020.123372	46971.858287	4066.098067	24964.243318
89.537000	-0.006504	-0.001926	-0.006807	-0.014353	6936.667062	46420.988705	4034.984540	24665.153527
90.037500	-0.003510	-0.001845	-0.001348	-0.019072	7007.526786	46903.427913	4060.580778	24902.085940
90.535000	-0.002084	-0.001633	-0.004486	-0.018173	7012.424004	46834.094529	4050.357796	24856.777384
91.037500	-0.002281	-0.001602	-0.001738	-0.017909	7008.146121	46810.546502	4056.637224	24843.447906
91.535500	-0.001571	-0.000858	-0.002052	-0.017143	7007.623775	46808.340286	4053.901268	24804.933092
92.036000	-0.002065	-0.001489	-0.005599	-0.017027	7001.976685	46733.132213	4044.676495	24799.109183
92.536000	-0.003537	-0.001432	-0.003262	-0.016585	6984.296118	46694.321046	4049.438615	24776.898637
93.036500	-0.003111	-0.002102	-0.001503	-0.016775	6989.981499	46646.063418	4054.361150	24786.457813
93.536500	-0.004341	-0.001498	-0.005005	-0.015705	6968.799750	46599.268392	4042.851525	24732.749511
94.036500	-0.002894	-0.001879	-0.006904	-0.015694	6982.014485	46559.987738	4038.081503	24732.237118
94.537000	-0.002967	-0.001395	-0.004964	-0.015406	6978.681539	46579.595618	4042.205079	24717.784610
95.037500	-0.001562	-0.000995	-0.005446	-0.014376	6982.140476	46516.452984	4038.430719	24666.302517
95.534500	-0.004581	-0.001228	-0.002655	-0.014489	6955.462679	46504.505889	4045.696944	24671.955480
96.065000	-0.005209	-0.001585	-0.001653	-0.014085	6946.028481	46428.252936	4047.198243	24651.761634
96.535500	-0.003735	-0.001506	-0.004480	-0.012322	6943.395159	46260.245375	4035.720687	24563.957844
97.035500	-0.005311	-0.001971	-0.003842	-0.013788	6942.384015	46359.994169	4040.965395	24636.925687
97.536000	-0.004183	-0.001020	-0.005018	-0.008001	6900.120569	45879.921360	4023.701946	24350.214107
98.067000	-0.002176	-0.001248	-0.002479	-0.012378	6958.148276	46291.488337	4040.848789	24566.722674
98.536500	-0.002897	-0.001263	-0.012514	-0.012131	6949.295417	46265.353999	4015.453160	24554.445570
