sample name	sample
index	275
start time	 02-25-2021  11:51:18 AM
880	-0.047402
Peak Time (s)	92.038
Peak Height 	-0.0474
calc peak height	90,93
Baseline Time (s)	10.537
Baseline Value 	-0.004512
subtract baseline	10,4
Abs	-0.009047
Peak Time (s)	92.535
Peak Height 	-0.009047
calc peak height	90,93
Baseline Time (s)	11.534
Baseline Value 	0.001907
subtract baseline	10,3
PK_550	-0.008781
Peak Time (s)	90.037
Peak Height 	-0.008781
calc peak height	90,93
Baseline Time (s)	9.537
Baseline Value 	1.7515E-4
subtract baseline	10,2
PK_880	-0.009717
Peak Time (s)	91.037
Peak Height 	-0.009717
calc peak height	90,93
Baseline Time (s)	9.537
Baseline Value 	0.001035
subtract baseline	10,1


Time (s)	A880-A510	A880-A775	A880-A975	A880	I510	I775	I975	I880	
0.036500	-0.000599	0.000251	-0.003586	0.002371	6867.727202	45895.042666	3983.894312	24221.159160
0.537500	-0.000647	-0.001130	-0.001863	0.003727	6855.036641	45625.267596	3984.807400	24154.753829
1.037500	-0.002334	-0.000979	-0.000237	0.003262	6844.027103	45685.818592	3990.016269	24177.491960
1.537500	-0.002004	-0.000662	0.000430	0.002246	6856.159546	45817.189250	3994.230080	24227.297776
2.035000	-0.000207	-0.000101	-0.002830	0.001367	6880.384609	45959.596322	3988.273719	24270.445876
2.535500	-0.001025	0.000044	-0.002671	0.001466	6872.054493	45964.056236	3988.421344	24265.564306
3.035500	-0.000145	0.000001	0.001381	-0.000278	6895.918380	46132.959591	4002.978289	24351.505890
3.536000	-0.000374	-0.000710	-0.002091	0.000607	6885.768451	45974.534448	3992.020124	24307.858388
4.039000	-0.000259	-0.000466	0.001452	0.000406	6888.646394	46018.651830	4001.429050	24317.754224
4.537000	0.000727	0.000362	0.002012	0.000949	6892.676839	46046.889442	4001.471052	24290.991701
5.037000	0.000197	-0.000083	-0.000559	0.000444	6892.448770	46052.850977	3996.270152	24315.880621
5.537000	-0.001413	-0.000169	-0.000616	0.000098	6880.951423	46078.693753	3996.994129	24332.935644
6.037000	-0.000708	-0.000101	-0.000340	0.000435	6884.297117	46051.979554	3996.842889	24316.335137
6.535000	0.001591	0.000457	0.001503	0.000683	6902.989470	46082.777548	4000.859016	24304.131850
7.035500	0.000012	0.000918	0.003638	0.000750	6887.986544	46121.950625	4006.090126	24300.821089
7.535000	0.000579	0.000643	-0.002832	0.000762	6893.031987	46093.319536	3989.779218	24300.203411
8.036000	0.001662	0.000062	0.000936	0.000469	6905.595667	46064.772822	3999.969753	24314.670056
8.536000	-0.000063	-0.000211	-0.000030	-0.000116	6895.189062	46095.765330	3999.009259	24343.506761
9.036500	0.001770	0.000529	0.003742	0.000685	6904.607202	46089.757376	4006.516958	24304.012428
9.536500	0.000000	0.000000	-0.002885	-0.000357	6897.957466	46140.694736	3992.445304	24355.384638
10.037000	-0.000289	-0.000843	0.000688	-0.000655	6898.039386	46086.597265	4002.178727	24370.115094
10.537500	0.000408	0.000066	-0.000765	0.000000	6898.418497	46111.753958	3996.868279	24337.769631
11.034500	0.000596	-0.000104	0.001225	0.000258	6897.779497	46069.255587	4001.228906	24325.037347
11.534500	-0.000225	0.000691	0.000000	0.000875	6884.695398	46086.938118	3996.591499	24294.672154
12.035500	-0.001828	-0.000521	-0.000840	0.000052	6877.600740	46048.356768	3996.547690	24335.212178
12.535500	0.000899	-0.000692	0.003483	-0.000753	6909.794002	46111.288959	4009.511965	24374.948508
13.036000	0.002021	0.000407	-0.000747	-0.001230	6924.449933	46268.205851	4000.010102	24398.525764
13.539000	0.000676	-0.000033	-0.001980	0.000486	6896.434105	46053.600800	3992.598421	24313.800909
14.036500	-0.001695	0.000536	-0.003359	0.004797	6835.971203	45683.806377	3978.444794	24102.466990
14.536500	-0.001832	-0.000819	-0.003992	0.002153	6858.543010	45810.862874	3983.426683	24231.829244
15.037000	-0.003900	-0.000570	-0.003169	0.002835	6833.784731	45768.187439	3983.777483	24198.397000
15.535000	0.002256	0.000919	0.001375	0.001420	6902.330757	46055.510494	3998.680028	24267.867274
16.038000	-0.001995	-0.000240	-0.002955	0.005110	6830.468683	45576.784343	3978.669589	24087.210636
16.535500	0.001431	-0.000518	-0.000364	0.000185	6906.077597	46035.376639	3997.409686	24328.647503
17.035500	-0.001883	-0.000242	0.002213	0.002545	6854.545570	45829.173388	3997.956052	24212.606967
17.535500	-0.001368	-0.000160	-0.001842	0.000797	6875.013367	46010.187939	3992.166338	24298.475641
18.036500	-0.000385	-0.000111	0.002531	0.002177	6871.419347	45878.430083	3999.684624	24230.674266
18.536000	-0.000174	0.000161	-0.003778	0.001916	6875.704147	45931.158813	3984.548866	24243.498660
19.036500	-0.001574	-0.000060	-0.000000	0.002155	6860.864022	45885.678988	3993.378445	24231.750492
19.537000	0.000428	-0.000801	-0.003942	0.001267	6887.060037	45900.175442	3985.752866	24275.369323
20.037500	0.000860	-0.001246	-0.005869	0.001312	6890.582662	45851.761569	3980.857081	24273.165499
20.534500	-0.000443	0.000761	-0.001461	0.002556	6867.463459	45927.225258	3988.722930	24212.080466
21.035000	0.001064	-0.000133	-0.000133	0.001866	6887.396558	45906.959915	3993.770042	24245.918736
21.535500	-0.002113	-0.000765	-0.004198	0.001339	6863.366165	45896.664534	3984.937673	24271.851910
22.035500	-0.002424	-0.000289	-0.003207	0.001705	6857.242778	45907.554005	3986.491199	24253.843237
22.536000	-0.000178	-0.000277	-0.000331	0.001391	6880.422012	45939.717114	3994.462087	24269.253335
23.039000	0.000214	-0.000163	-0.000973	0.001784	6880.420480	45912.228410	3991.871965	24249.976433
23.536000	-0.000426	-0.000240	0.001155	0.001688	6875.477658	45913.968400	3997.450104	24254.661701
24.036500	-0.001868	0.000072	0.001901	0.002380	6856.172788	45876.500046	3997.587298	24220.722661
24.537000	-0.001254	-0.000573	0.000415	0.001624	6868.558054	45887.416250	3995.750985	24257.831838
25.034500	0.002366	0.000358	0.005904	0.002325	6895.073298	45910.171718	4007.840491	24223.400529
25.535000	-0.002365	-0.000483	-0.000595	0.001254	6861.847645	45932.933173	3994.144803	24275.995485
26.035000	0.000285	-0.000601	-0.001504	0.001454	6884.064304	45901.437927	3991.368807	24266.170642
26.535500	-0.001251	-0.000460	0.005412	0.001479	6869.902112	45913.039206	4008.742389	24264.968379
27.036000	-0.000286	-0.000556	0.000093	0.001575	6877.779549	45893.935419	3995.067873	24260.234919
27.536500	0.000190	-0.001034	0.004374	0.001132	6886.128095	45890.505225	4006.987961	24282.029628
28.036000	0.000691	-0.000098	0.002906	-0.001588	6915.529731	46253.613522	4010.169755	24416.259918
28.537000	0.001499	0.000383	-0.002786	0.000886	6900.297797	46055.296680	3989.583653	24294.129378
29.037000	0.001900	-0.000259	0.002929	0.000077	6911.352888	46071.747927	4005.997189	24333.951228
29.537000	-0.000180	-0.000662	-0.004055	0.000041	6892.689389	46035.398411	3988.525556	24335.730017
30.037500	0.001116	0.000398	-0.001773	0.000706	6898.444535	46074.682946	3992.567694	24302.998471
30.535000	0.001372	-0.000086	0.002767	0.000383	6903.725409	46058.678039	4004.811969	24318.891482
31.035500	-0.001585	0.000848	-0.000113	0.005338	6832.105832	45661.355343	3985.152105	24076.108299
31.564500	-0.001743	-0.000529	-0.003269	0.000198	6877.056506	46033.060595	3990.097639	24328.030191
32.036000	-0.000345	-0.000970	-0.000968	0.002640	6867.582385	45747.925301	3989.742932	24207.935928
32.538500	-0.000951	-0.000187	-0.003941	0.001379	6873.529039	45949.903180	3985.477739	24269.886526
33.044500	-0.002386	-0.001085	-0.000599	0.004180	6835.311403	45585.214689	3986.823958	24132.599991
33.537000	0.000998	-0.000027	0.000284	0.001200	6892.868693	45983.508017	3996.487734	24278.688362
34.037000	-0.003098	0.000286	0.000795	0.003518	6834.862923	45785.199836	3991.956863	24164.964159
34.537000	-0.001479	-0.000031	-0.000128	0.000849	6873.535709	46017.864178	3996.332879	24295.931271
35.035000	-0.002805	0.000149	-0.000507	0.004449	6829.138311	45680.066494	3986.384508	24119.475629
35.535000	-0.002212	-0.000396	0.002265	0.002299	6853.793969	45838.201285	3998.704816	24224.656820
36.035500	-0.000843	-0.000302	0.000455	0.002043	6868.482163	45872.824452	3994.799648	24237.229226
36.536000	0.000629	-0.000041	-0.000865	0.002845	6874.559402	45819.334255	3989.489355	24197.908367
37.039000	-0.000061	0.000202	-0.001730	0.003155	6865.500758	45812.715970	3986.558057	24182.715849
37.536500	-0.000673	0.000639	0.001191	0.003208	6859.488194	45850.625318	3993.723082	24180.117213
38.036500	-0.003175	-0.000273	-0.000738	0.002531	6843.035377	45827.464141	3990.589230	24213.290489
38.537000	-0.001844	-0.000116	-0.000755	0.002495	6855.351027	45846.493843	3990.637686	24215.040254
39.037000	-0.001605	0.000890	-0.004142	0.003354	6849.757694	45860.995900	3980.076230	24172.959737
39.537500	-0.001710	0.000042	-0.000734	0.002720	6854.534651	45839.920731	3990.129639	24204.052880
40.035000	-0.001142	0.000121	0.001510	0.002367	6862.844362	45882.549235	3996.634912	24221.334802
40.535500	-0.000017	0.000297	0.001959	0.003020	6867.115426	45835.480684	3996.122217	24189.323057
41.035500	-0.001254	-0.000488	0.001835	0.002540	6860.268403	45805.368517	3997.016748	24212.854112
41.536000	0.001296	0.000805	0.001701	0.003201	6877.380131	45867.803518	3995.022877	24180.483896
42.036000	-0.000434	-0.000098	-0.004660	0.002718	6866.074884	45826.297147	3980.368795	24204.122367
42.536500	-0.000052	-0.000112	-0.003160	0.002451	6871.951871	45851.232061	3984.752178	24217.216644
43.036500	-0.000241	-0.000010	-0.001261	0.002569	6869.177834	45849.724451	3989.189509	24211.444863
43.537000	0.000143	0.000121	0.001448	0.002743	6871.082777	45845.490180	3995.537379	24202.928254
44.034500	0.000098	0.000605	-0.003189	0.003343	6865.238547	45834.040201	3982.466568	24173.543603
44.540500	-0.000485	-0.000187	-0.004270	0.002221	6870.116990	45866.641888	3982.568370	24228.519201
45.035500	0.001412	0.000091	0.003555	-0.001293	6919.437346	46242.961468	4011.068864	24401.636854
45.535000	0.000403	0.000159	0.004050	-0.000504	6902.982603	46171.210745	4010.320995	24362.655518
46.035500	-0.000999	-0.000205	-0.000750	0.003198	6856.636980	45768.400137	3988.894086	24180.617211
46.538500	-0.000985	-0.000359	0.001687	0.000013	6885.615828	46068.263954	4003.016005	24337.128826
47.036000	-0.000930	0.000068	0.001198	0.000743	6879.476087	46038.198315	3999.936995	24301.140121
47.536500	-0.001291	0.000492	0.000036	0.000868	6875.078932	46067.924859	3996.700359	24295.020277
48.036500	-0.001865	0.000256	-0.002089	0.002856	6851.909086	45847.597940	3986.410880	24197.364032
48.546000	-0.000370	0.000775	-0.003075	0.001221	6880.224081	46060.886436	3988.027132	24277.619025
49.040500	-0.002833	-0.000442	0.000655	0.004177	6831.321621	45648.676772	3989.958414	24132.754874
49.535000	-0.000731	0.000091	0.001519	0.002608	6864.386103	45855.768751	3996.052036	24209.508211
50.053500	-0.000676	0.000472	0.001076	0.004235	6850.186312	45732.863376	3990.865338	24129.882622
50.535500	0.001029	-0.000988	-0.002282	-0.000101	6905.015760	46017.216841	3993.314358	24342.765123
51.036000	-0.006332	-0.001018	-0.006585	0.005179	6791.161987	45493.760249	3969.564280	24083.833695
51.536000	0.001242	0.000073	0.003430	-0.001654	6921.182156	46277.077650	4011.668575	24419.482097
52.036500	-0.002838	-0.000385	0.001739	0.005879	6816.039933	45487.220681	3988.415716	24049.749396
52.536500	-0.005344	-0.004934	0.007024	0.000116	6845.244577	45606.301944	4016.327843	24332.047968
53.037000	-0.032094	-0.017929	-0.016851	0.198502	5263.982951	29167.566643	3571.224206	16479.488488
53.537500	-0.022286	-0.021649	-0.016766	-0.093405	7599.025208	53858.647484	4209.862600	29477.633270
54.037500	-0.038283	-0.141471	-0.018962	-0.302903	10216.442895	65535.000000	5008.037661	45943.186072
54.535000	-0.075254	-0.243807	-0.050895	-0.405239	11398.925545	65535.000000	5378.118870	57375.754654
55.035500	-0.043213	-0.158236	-0.008289	-0.319669	10417.575563	65535.000000	5145.184980	47636.627291
55.535500	-0.035198	-0.150924	-0.004597	-0.312356	10429.690317	65535.000000	5126.584176	46889.950190
56.038500	-0.035354	-0.115192	-0.007252	-0.276624	9835.372748	65535.000000	4938.663397	43416.930656
56.535500	-0.023429	-0.105111	-0.009781	-0.266543	9864.727990	65535.000000	4880.466913	42487.662161
57.036500	-0.018450	-0.102028	-0.008581	-0.263461	9895.049314	65535.000000	4871.923134	42207.796870
57.536500	-0.012214	-0.093236	-0.002418	-0.254668	9854.196825	65535.000000	4860.049489	41420.327574
58.037000	-0.010914	-0.062680	-0.006793	-0.216968	9298.002916	64513.785285	4679.541958	38218.932868
58.537000	-0.007267	-0.038167	0.000797	-0.179063	8815.482246	62644.468743	4559.911285	35268.527370
59.035000	-0.009371	-0.024157	-0.007624	-0.139757	8280.798060	59266.762166	4387.696006	32469.180347
59.535000	-0.011215	-0.017165	-0.007373	-0.106294	7863.491754	55936.492312	4278.547296	30277.688665
60.035500	-0.013801	-0.015460	-0.012823	-0.087108	7622.569620	53845.981310	4202.806521	29095.275707
60.535500	-0.009082	-0.010893	-0.009601	-0.075601	7549.893690	53039.084461	4178.287537	28410.778326
61.036000	-0.015432	-0.011649	-0.013174	-0.061574	7338.419834	51362.734985	4127.723982	27600.535620
61.536500	-0.013319	-0.007916	-0.006574	-0.024078	6993.994552	47741.606469	4043.771067	25558.902947
62.036500	-0.012391	-0.010852	-0.011335	-0.039935	7153.887121	49094.162798	4073.235808	26400.837219
62.537000	-0.014206	-0.011140	-0.011029	-0.038142	7118.992303	48873.653817	4069.244313	26304.094398
63.037500	-0.013872	-0.009660	-0.011233	-0.037472	7115.754617	48959.325599	4066.904239	26268.035762
63.537000	-0.014258	-0.007208	-0.013926	-0.025058	6994.367438	47915.909332	4027.185480	25610.005930
64.035500	-0.009042	-0.004812	-0.013901	-0.043908	7225.593657	50170.509501	4077.026780	26616.645989
64.535000	-0.006906	-0.004236	-0.019732	-0.046038	7267.942185	50465.648340	4067.083280	26733.182613
65.035500	-0.008457	-0.005137	-0.014359	-0.046148	7253.584188	50379.156771	4081.844500	26739.182676
65.562500	-0.008211	-0.005521	-0.011893	-0.047751	7272.013738	50512.487953	4092.923627	26827.320452
66.036000	-0.005829	-0.005047	-0.012066	-0.047544	7293.770503	50541.766581	4091.883347	26815.887436
66.545000	-0.007974	-0.005349	-0.008309	-0.048572	7282.575585	50621.341476	4105.030639	26872.520234
67.037000	-0.012888	-0.006531	-0.011099	-0.045442	7202.822290	50150.409412	4088.787347	26700.534814
67.537000	-0.008193	-0.004925	-0.009246	-0.049860	7293.289166	50809.624139	4105.998277	26943.660407
68.037500	-0.009030	-0.006074	-0.010401	-0.052485	7311.265937	50972.672472	4110.073688	27089.357677
68.537500	-0.010081	-0.006718	-0.009723	-0.054289	7318.861004	51101.059864	4116.976496	27189.944046
69.035000	-0.012270	-0.006337	-0.013192	-0.050947	7263.398880	50773.823907	4098.120705	27003.876109
69.535500	-0.012537	-0.007542	-0.015010	-0.057147	7322.923219	51327.113044	4110.217871	27350.215103
70.038500	-0.010915	-0.006720	-0.013815	-0.057068	7338.531250	51409.987687	4113.320705	27345.794754
70.536000	-0.009582	-0.007153	-0.013584	-0.057844	7359.970121	51448.280479	4116.125396	27389.485003
71.036500	-0.012754	-0.007050	-0.015756	-0.053797	7287.037317	51009.749363	4098.907185	27162.462051
71.536500	-0.010113	-0.006759	-0.013358	-0.057854	7354.659503	51493.375633	4116.783254	27390.029070
72.036500	-0.010541	-0.006716	-0.012125	-0.056065	7332.159190	51298.555527	4115.230865	27289.412166
72.537000	-0.009783	-0.006774	-0.015284	-0.057670	7356.153169	51471.206254	4110.912774	27379.684761
73.037500	-0.011990	-0.007630	-0.017711	-0.055353	7310.340516	51117.882836	4097.809497	27249.494273
73.535000	-0.009022	-0.006607	-0.011786	-0.058020	7367.461183	51528.881101	4121.641927	27399.384536
74.035500	-0.013342	-0.007635	-0.019440	-0.055780	7301.036015	51164.745044	4094.240170	27273.442061
74.536000	-0.011295	-0.006472	-0.016695	-0.057681	7340.896778	51506.093315	4107.030070	27380.284659
75.035500	-0.012590	-0.006580	-0.018717	-0.054460	7295.321730	51135.307735	4092.605361	27199.495936
75.536500	-0.008702	-0.006003	-0.015200	-0.056536	7355.597868	51430.513188	4107.998827	27315.852343
76.036500	-0.009106	-0.006226	-0.015726	-0.056134	7347.401500	51360.778416	4105.430119	27293.270576
76.536500	-0.010396	-0.005596	-0.013899	-0.055689	7329.817032	51381.463770	4109.256998	27268.311207
77.037000	-0.010311	-0.005339	-0.018113	-0.053204	7305.611732	51133.609163	4090.826078	27129.396673
77.537500	-0.007596	-0.005630	-0.010537	-0.055403	7355.338572	51345.838550	4117.816098	27252.330272
78.035000	-0.009609	-0.005606	-0.014301	-0.052758	7308.185221	51054.610927	4100.052279	27104.550317
78.535000	-0.007179	-0.005404	-0.014602	-0.055475	7360.311335	51379.000709	4106.718036	27256.329855
79.035500	-0.007455	-0.005684	-0.017297	-0.053693	7339.399801	51149.657539	4094.395026	27156.688437
79.538000	-0.007703	-0.006534	-0.012626	-0.056584	7366.272021	51376.732840	4115.282334	27318.563633
80.036000	-0.011714	-0.005615	-0.012922	-0.052430	7283.759757	51017.223067	4102.946689	27086.267248
80.536000	-0.006489	-0.006328	-0.014446	-0.055886	7371.542222	51321.883550	4108.288018	27279.399383
81.036500	-0.008396	-0.005785	-0.011387	-0.055466	7347.831255	51335.534656	4115.619225	27255.825763
81.537000	-0.007876	-0.005815	-0.018678	-0.055708	7355.584182	51359.210344	4096.132015	27269.395132
82.037000	-0.007451	-0.005911	-0.012773	-0.056038	7363.277572	51385.283469	4113.353445	27287.915412
82.534500	-0.007751	-0.006268	-0.018321	-0.055864	7358.446660	51326.060454	4097.539396	27278.154014
83.035000	-0.009607	-0.006891	-0.011885	-0.056308	7344.085007	51306.116848	4116.579271	27303.062906
83.535500	-0.009223	-0.006867	-0.010439	-0.056117	7346.041038	51287.560202	4120.083909	27292.316751
84.035500	-0.006915	-0.006748	-0.013513	-0.055629	7364.567923	51246.525459	4110.162047	27264.968108
84.536000	-0.008947	-0.007010	-0.016250	-0.055705	7344.663679	51225.811046	4102.797927	27269.202557
85.036000	-0.005947	-0.006523	-0.012226	-0.055194	7370.004434	51223.189671	4112.525498	27240.579156
85.539000	-0.008228	-0.006713	-0.009617	-0.055512	7350.014812	51237.354867	4120.690677	27258.401837
86.036500	-0.009889	-0.007760	-0.017685	-0.053874	7316.616872	50939.800429	4093.829725	27166.805573
86.537000	-0.009011	-0.007722	-0.014623	-0.055383	7340.751616	51110.940873	4106.402714	27251.154030
87.037000	-0.009446	-0.008083	-0.009472	-0.055170	7334.187209	51047.418182	4120.140181	27239.244388
87.537500	-0.008891	-0.007512	-0.011421	-0.054501	7333.028779	51036.607117	4112.837445	27201.810490
88.035500	-0.009829	-0.007941	-0.014132	-0.051524	7293.578254	50660.877416	4097.124820	27035.924521
88.535000	-0.009636	-0.008314	-0.009999	-0.054063	7321.072823	50899.557439	4115.580838	27177.361766
89.038500	-0.009029	-0.008861	-0.011246	-0.052467	7311.088758	50663.376055	4107.680716	27088.324314
89.536000	-0.011277	-0.009190	-0.010463	-0.053521	7299.082652	50743.136308	4112.777558	27147.063928
90.036500	-0.012524	-0.008781	-0.011645	-0.051197	7263.356982	50532.908717	4103.069147	27017.775255
90.536500	-0.009841	-0.009269	-0.010549	-0.052129	7299.533702	50581.596408	4108.674278	27069.544828
91.037000	-0.009717	-0.009000	-0.011096	-0.051636	7295.818730	50556.964206	4105.796841	27042.126454
91.537000	-0.010234	-0.009101	-0.012615	-0.051101	7285.272842	50487.334427	4100.130946	27012.446319
92.037500	-0.012902	-0.009069	-0.016643	-0.047402	7221.984320	50087.667085	4079.059261	26808.104193
92.535000	-0.010896	-0.009922	-0.009047	-0.050878	7276.421960	50373.169966	4109.369473	27000.068084
93.035000	-0.012744	-0.009434	-0.014562	-0.047562	7225.122844	50065.378906	4085.130798	26816.906205
93.535500	-0.010519	-0.009223	-0.012002	-0.048113	7252.627689	50148.102248	4093.615827	26847.253947
94.036000	-0.014147	-0.010244	-0.014331	-0.045192	7188.026583	49721.613955	4079.335077	26686.837843
94.536000	-0.011730	-0.010172	-0.008724	-0.047315	7232.701952	49958.595534	4100.419380	26803.291233
95.036000	-0.012729	-0.010073	-0.011565	-0.046056	7210.417209	49833.172733	4089.188187	26734.136049
95.536500	-0.013483	-0.010825	-0.014678	-0.048390	7225.992878	50004.270185	4087.065919	26862.483506
96.034000	-0.016551	-0.011771	-0.013310	-0.049458	7206.290318	50017.568077	4093.714703	26921.466441
96.564500	-0.014251	-0.011283	-0.014823	-0.048928	7223.729378	50013.008883	4088.138664	26892.203672
97.037000	-0.013023	-0.011146	-0.007406	-0.047514	7221.892519	49874.808030	4104.602464	26814.266540
97.534500	-0.013294	-0.011702	-0.013269	-0.048782	7231.740563	49951.807967	4091.979968	26884.135330
98.035500	-0.014702	-0.010821	-0.011165	-0.046584	7196.225175	49809.415306	4091.721435	26763.128423
98.567000	-0.014142	-0.011319	-0.008308	-0.047712	7212.813865	49877.560748	4102.659305	26825.153771
99.036000	-0.014774	-0.010927	-0.014072	-0.046564	7195.319913	49795.892961	4083.751597	26762.018867
