sample name	sample
index	796
start time	 03-31-2021  02:36:33 PM


Wavelength (nm)	Absorbance
494.344910	NaN
494.563924	NaN
494.782919	NaN
495.001897	0.443002
495.220856	NaN
495.439797	NaN
495.658719	NaN
495.877624	-0.584125
496.096510	-0.280928
496.315378	NaN
496.534227	NaN
496.753059	NaN
496.971872	0.073758
497.190667	0.014377
497.409444	0.004022
497.628203	0.009539
497.846943	0.009112
498.065665	0.007875
498.284369	0.006987
498.503055	0.006149
498.721723	0.006810
498.940372	0.007591
499.159003	0.007007
499.377616	0.008206
499.596210	0.007569
499.814787	0.008251
500.033345	0.009181
500.251885	0.008553
500.470406	0.008980
500.688910	0.008977
500.907395	0.008801
501.125862	0.010116
501.344311	0.010026
501.562742	0.009438
501.781154	0.009379
501.999548	0.009082
502.217924	0.008903
502.436282	0.009095
502.654621	0.008651
502.872942	0.008619
503.091245	0.007536
503.309530	0.007356
503.527797	0.007723
503.746045	0.008976
503.964275	0.008824
504.182487	0.009577
504.400681	0.008925
504.618856	0.008266
504.837013	0.007534
505.055152	0.007329
505.273273	0.007030
505.491376	0.006915
505.709460	0.005426
505.927526	0.005512
506.145574	0.005441
506.363604	0.005340
506.581615	0.005869
506.799608	0.006777
507.017583	0.007786
507.235540	0.008172
507.453478	0.008744
507.671399	0.008572
507.889301	0.008657
508.107185	0.009184
508.325050	0.010140
508.542898	0.010175
508.760727	0.009764
508.978538	0.009598
509.196330	0.009503
509.414105	0.008553
509.631861	0.008608
509.849599	0.008807
510.067319	0.008773
510.285021	0.008377
510.502704	0.008188
510.720369	0.007442
510.938016	0.007408
511.155645	0.007949
511.373255	0.008369
511.590848	0.009356
511.808422	0.008771
512.025977	0.007843
512.243515	0.007868
512.461034	0.007943
512.678536	0.008838
512.896018	0.008509
513.113483	0.007831
513.330930	0.008245
513.548358	0.007321
513.765768	0.007831
513.983160	0.008053
514.200533	0.008925
514.417889	0.009095
514.635226	0.008717
514.852545	0.008850
515.069845	0.008822
515.287128	0.008304
515.504392	0.008491
515.721638	0.007675
515.938866	0.007640
516.156075	0.007094
516.373267	0.007139
516.590440	0.007521
516.807594	0.007433
517.024731	0.007718
517.241850	0.008393
517.458950	0.008067
517.676032	0.008995
517.893095	0.009125
518.110141	0.009028
518.327168	0.009337
518.544177	0.009577
518.761168	0.009514
518.978141	0.009755
519.195095	0.009218
519.412031	0.009557
519.628949	0.009250
519.845849	0.009407
520.062731	0.009094
520.279594	0.008694
520.496439	0.008547
520.713266	0.008751
520.930074	0.008501
521.146865	0.008039
521.363637	0.008470
521.580391	0.008320
521.797127	0.007945
522.013844	0.007922
522.230543	0.008273
522.447224	0.008407
522.663887	0.008231
522.880532	0.008296
523.097158	0.008972
523.313766	0.008849
523.530356	0.008937
523.746928	0.009265
523.963481	0.009079
524.180017	0.008834
524.396534	0.008648
524.613032	0.008637
524.829513	0.008593
525.045975	0.008736
525.262420	0.008093
525.478845	0.008136
525.695253	0.008381
525.911643	0.009595
526.128014	0.009757
526.344367	0.010126
526.560702	0.010043
526.777018	0.009846
526.993316	0.009804
527.209597	0.010357
527.425858	0.010783
527.642102	0.010967
527.858328	0.010775
528.074535	0.010700
528.290724	0.010849
528.506894	0.011299
528.723047	0.011118
528.939181	0.011586
529.155297	0.011710
529.371395	0.012177
529.587475	0.012441
529.803536	0.012403
530.019579	0.012382
530.235604	0.011798
530.451611	0.012119
530.667600	0.013360
530.883570	0.012765
531.099522	0.013078
531.315456	0.012842
531.531372	0.012753
531.747269	0.012611
531.963148	0.013056
532.179009	0.013501
532.394852	0.013287
532.610676	0.012972
532.826482	0.013568
533.042271	0.013619
533.258040	0.013474
533.473792	0.013435
533.689525	0.013553
533.905240	0.013175
534.120937	0.013374
534.336616	0.013632
534.552277	0.014157
534.767919	0.014262
534.983543	0.014533
535.199149	0.014415
535.414736	0.014323
535.630306	0.014800
535.845857	0.015329
536.061390	0.015725
536.276904	0.015471
536.492401	0.014867
536.707879	0.014871
536.923339	0.014414
537.138781	0.014878
537.354204	0.014929
537.569610	0.014338
537.784997	0.014383
538.000366	0.013828
538.215716	0.014006
538.431049	0.014046
538.646363	0.014436
538.861659	0.014779
539.076937	0.014661
539.292196	0.015129
539.507438	0.015768
539.722661	0.015679
539.937866	0.015548
540.153052	0.015581
540.368221	0.015395
540.583371	0.015238
540.798503	0.015439
541.013617	0.015376
541.228712	0.015567
541.443789	0.015569
541.658848	0.015735
541.873889	0.016272
542.088912	0.016503
542.303916	0.016908
542.518902	0.016665
542.733870	0.016663
542.948820	0.017165
543.163752	0.017352
543.378665	0.017384
543.593560	0.017603
543.808437	0.017459
544.023295	0.017753
544.238136	0.017749
544.452958	0.017931
544.667762	0.017979
544.882548	0.017686
545.097315	0.017329
545.312064	0.017502
545.526795	0.017358
545.741508	0.017555
545.956203	0.017206
546.170879	0.017422
546.385537	0.017430
546.600177	0.017358
546.814799	0.017564
547.029402	0.017796
547.243988	0.017413
547.458555	0.017484
547.673103	0.017725
547.887634	0.018040
548.102146	0.018393
548.316640	0.018673
548.531116	0.018487
548.745574	0.018607
548.960013	0.018606
549.174435	0.019106
549.388838	0.019587
549.603222	0.019412
549.817589	0.019547
550.031937	0.019282
550.246267	0.019288
550.460579	0.020088
550.674873	0.020133
550.889148	0.020252
551.103405	0.020212
551.317644	0.019906
551.531865	0.019864
551.746068	0.019680
551.960252	0.019737
552.174418	0.020292
552.388566	0.019731
552.602696	0.019669
552.816807	0.019877
553.030900	0.019894
553.244975	0.020111
553.459032	0.020230
553.673070	0.020170
553.887091	0.020903
554.101093	0.020574
554.315077	0.020673
554.529042	0.021183
554.742990	0.020998
554.956919	0.020997
555.170830	0.021267
555.384722	0.021591
555.598597	0.021942
555.812453	0.021522
556.026291	0.020880
556.240111	0.020968
556.453913	0.020694
556.667696	0.020538
556.881461	0.020234
557.095208	0.020086
557.308937	0.020226
557.522647	0.020311
557.736339	0.020506
557.950013	0.020987
558.163669	0.021273
558.377307	0.021457
558.590926	0.021564
558.804527	0.021752
559.018110	0.021487
559.231675	0.021328
559.445221	0.020819
559.658749	0.020386
559.872259	0.020652
560.085751	0.020826
560.299225	0.020807
560.512680	0.021232
560.726117	0.021693
560.939536	0.021803
561.152937	0.021554
561.366319	0.022209
561.579683	0.022680
561.793029	0.022540
562.006357	0.022452
562.219667	0.022078
562.432958	0.021953
562.646231	0.021642
562.859486	0.022211
563.072723	0.022707
563.285941	0.022598
563.499141	0.022606
563.712323	0.022708
563.925487	0.022663
564.138632	0.023073
564.351760	0.023012
564.564869	0.023401
564.777960	0.023216
564.991032	0.023112
565.204087	0.023441
565.417123	0.023454
565.630141	0.023687
565.843140	0.023403
566.056122	0.023339
566.269085	0.023355
566.482030	0.023144
566.694957	0.023462
566.907866	0.023745
567.120756	0.023632
567.333628	0.023719
567.546482	0.023319
567.759318	0.023705
567.972135	0.023927
568.184935	0.024266
568.397716	0.024603
568.610478	0.024297
568.823223	0.023931
569.035949	0.023821
569.248657	0.023447
569.461347	0.023774
569.674019	0.023584
569.886672	0.023487
570.099308	0.023573
570.311925	0.023165
570.524523	0.023263
570.737104	0.023384
570.949666	0.023560
571.162210	0.023740
571.374736	0.023999
571.587244	0.024066
571.799733	0.024315
572.012205	0.023961
572.224658	0.024417
572.437092	0.024390
572.649509	0.024804
572.861907	0.025025
573.074287	0.025468
573.286649	0.025186
573.498993	0.025691
573.711318	0.025652
573.923625	0.025781
574.135914	0.025765
574.348185	0.025747
574.560438	0.025887
574.772672	0.025333
574.984888	0.025297
575.197086	0.025436
575.409266	0.025344
575.621427	0.025287
575.833570	0.025176
576.045695	0.025096
576.257802	0.025443
576.469890	0.025266
576.681961	0.025464
576.894013	0.025303
577.106046	0.025423
577.318062	0.025270
577.530059	0.025420
577.742039	0.025863
577.954000	0.026056
578.165942	0.026027
578.377867	0.025520
578.589773	0.025678
578.801661	0.025899
579.013531	0.025654
579.225382	0.025504
579.437216	0.025396
579.649031	0.025265
579.860828	0.025352
580.072606	0.025104
580.284367	0.025280
580.496109	0.025732
580.707833	0.025525
580.919539	0.026011
581.131227	0.026405
581.342896	0.026375
581.554547	0.026431
581.766180	0.026420
581.977795	0.027012
582.189391	0.027578
582.400969	0.027432
582.612529	0.027527
582.824071	0.027399
583.035595	0.027459
583.247100	0.027738
583.458587	0.027577
583.670056	0.027682
583.881506	0.027479
584.092939	0.027431
584.304353	0.027536
584.515749	0.027833
584.727127	0.028068
584.938486	0.027936
585.149828	0.028127
585.361151	0.028319
585.572456	0.028405
585.783742	0.028062
585.995011	0.027740
586.206261	0.027422
586.417493	0.027098
586.628706	0.026698
586.839902	0.026740
587.051079	0.026334
587.262238	0.026537
587.473379	0.026370
587.684502	0.026475
587.895606	0.026634
588.106692	0.027078
588.317760	0.027324
588.528810	0.027167
588.739841	0.027193
588.950855	0.027446
589.161850	0.027504
589.372827	0.027602
589.583785	0.027361
589.794726	0.027589
590.005648	0.027389
590.216552	0.027527
590.427437	0.027550
590.638305	0.027596
590.849154	0.027899
591.059985	0.027838
591.270798	0.027793
591.481592	0.028462
591.692369	0.028673
591.903127	0.028759
592.113867	0.028644
592.324588	0.029138
592.535292	0.029485
592.745977	0.029253
592.956644	0.029271
593.167293	0.029415
593.377923	0.029264
593.588536	0.028931
593.799130	0.029015
594.009706	0.029049
594.220263	0.029131
594.430803	0.028672
594.641324	0.028675
594.851827	0.028520
595.062312	0.028348
595.272778	0.028498
595.483227	0.028573
595.693657	0.028663
595.904069	0.028559
596.114462	0.028279
596.324838	0.028730
596.535195	0.028854
596.745534	0.028840
596.955855	0.029022
597.166157	0.029131
597.376441	0.029196
597.586707	0.029098
597.796955	0.029505
598.007185	0.030028
598.217396	0.029874
598.427589	0.029939
598.637764	0.030363
598.847921	0.030414
599.058060	0.030299
599.268180	0.030332
599.478282	0.030331
599.688366	0.030165
599.898431	0.029798
600.108479	0.029818
600.318508	0.029948
600.528519	0.029721
600.738511	0.029791
600.948486	0.029846
601.158442	0.029839
601.368380	0.030037
601.578300	0.030155
601.788202	0.030522
601.998085	0.030726
602.207950	0.030616
602.417797	0.030612
602.627626	0.030676
602.837436	0.030440
603.047228	0.030749
603.257002	0.030397
603.466758	0.030428
603.676496	0.030292
603.886215	0.030417
604.095916	0.030209
604.305599	0.030525
604.515264	0.030501
604.724910	0.030696
604.934538	0.030810
605.144148	0.030989
605.353740	0.031054
605.563314	0.031250
605.772869	0.031188
605.982406	0.031519
606.191925	0.031733
606.401425	0.031903
606.610908	0.031721
606.820372	0.031643
607.029818	0.032000
607.239246	0.031994
607.448655	0.032007
607.658047	0.032125
607.867420	0.032091
608.076775	0.031901
608.286111	0.031743
608.495430	0.031929
608.704730	0.031935
608.914012	0.032035
609.123275	0.031859
609.332521	0.031652
609.541748	0.031585
609.750957	0.031516
609.960148	0.031747
610.169321	0.032065
610.378475	0.032311
610.587611	0.032273
610.796729	0.032082
611.005829	0.032311
611.214910	0.032542
611.423974	0.032478
611.633019	0.032551
611.842045	0.032484
612.051054	0.032377
612.260044	0.032378
612.469017	0.032437
612.677970	0.032442
612.886906	0.032457
613.095824	0.032405
613.304723	0.032460
613.513604	0.032888
613.722467	0.032724
613.931311	0.033028
614.140138	0.033334
614.348946	0.033421
614.557736	0.033613
614.766507	0.033641
614.975261	0.033833
615.183996	0.034092
615.392713	0.033859
615.601412	0.033886
615.810092	0.033663
616.018754	0.033403
616.227399	0.033297
616.436024	0.033387
616.644632	0.033368
616.853222	0.033547
617.061793	0.033412
617.270346	0.033660
617.478880	0.033915
617.687397	0.033943
617.895895	0.034107
618.104375	0.034503
618.312837	0.034614
618.521281	0.034911
618.729706	0.034844
618.938113	0.035091
619.146502	0.034907
619.354873	0.035068
619.563226	0.035202
619.771560	0.035108
619.979876	0.035150
620.188174	0.034921
620.396453	0.034963
620.604715	0.035005
620.812958	0.034930
621.021183	0.034937
621.229390	0.034649
621.437578	0.034687
621.645748	0.034787
621.853900	0.034741
622.062034	0.034831
622.270150	0.034701
622.478247	0.034836
622.686326	0.035035
622.894387	0.035100
623.102430	0.035351
623.310454	0.035387
623.518461	0.035363
623.726449	0.035179
623.934418	0.035151
624.142370	0.035105
624.350303	0.034900
624.558218	0.034693
624.766115	0.034743
624.973994	0.034743
625.181855	0.034905
625.389697	0.035041
625.597521	0.035206
625.805327	0.035314
626.013114	0.035622
626.220883	0.035720
626.428634	0.035816
626.636367	0.035809
626.844082	0.035869
627.051778	0.035615
627.259457	0.035571
627.467117	0.035674
627.674758	0.035443
627.882382	0.035462
628.089987	0.035534
628.297574	0.035386
628.505143	0.035605
628.712694	0.035751
628.920226	0.036043
629.127740	0.036343
629.335236	0.036119
629.542714	0.036538
629.750174	0.036431
629.957615	0.036733
630.165038	0.037081
630.372443	0.037205
630.579829	0.037141
630.787198	0.037122
630.994548	0.037002
631.201880	0.037385
631.409194	0.037537
631.616489	0.037669
631.823766	0.037631
632.031025	0.037708
632.238266	0.037679
632.445489	0.037857
632.652693	0.037825
632.859879	0.037949
633.067047	0.037942
633.274197	0.037816
633.481329	0.038045
633.688442	0.037935
633.895537	0.037880
634.102614	0.037764
634.309672	0.037616
634.516713	0.037636
634.723735	0.037635
634.930739	0.037600
635.137724	0.037677
635.344692	0.037672
635.551641	0.037766
635.758572	0.038060
635.965485	0.038302
636.172379	0.038414
636.379256	0.038513
636.586114	0.038437
636.792954	0.038435
636.999775	0.038407
637.206579	0.038490
637.413364	0.038585
637.620131	0.038402
637.826880	0.038395
638.033610	0.038386
638.240323	0.038572
638.447017	0.038547
638.653692	0.038557
638.860350	0.038739
639.066990	0.038688
639.273611	0.038711
639.480214	0.038724
639.686798	0.038651
639.893365	0.038765
640.099913	0.038669
640.306443	0.038899
640.512955	0.039074
640.719449	0.039094
640.925924	0.039173
641.132381	0.039115
641.338820	0.039047
641.545241	0.039263
641.751644	0.039381
641.958028	0.039530
642.164394	0.039679
642.370742	0.039735
642.577071	0.039782
642.783383	0.039817
642.989676	0.040030
643.195951	0.040460
643.402207	0.040322
643.608446	0.040407
643.814666	0.040203
644.020868	0.040233
644.227052	0.040135
644.433218	0.040235
644.639365	0.040304
644.845494	0.040222
645.051605	0.040104
645.257698	0.040241
645.463772	0.040038
645.669828	0.040237
645.875866	0.040201
646.081886	0.040369
646.287888	0.040197
646.493871	0.040260
646.699836	0.040452
646.905783	0.040361
647.111712	0.040463
647.317622	0.040615
647.523514	0.040912
647.729388	0.040975
647.935244	0.041254
648.141082	0.041327
648.346901	0.041154
648.552702	0.040982
648.758485	0.041286
648.964250	0.041266
649.169996	0.041463
649.375724	0.041062
649.581434	0.040971
649.787126	0.040747
649.992800	0.040790
650.198455	0.040967
650.404092	0.041286
650.609711	0.040885
650.815311	0.040895
651.020894	0.040749
651.226458	0.041228
651.432004	0.041417
651.637532	0.041491
651.843041	0.041689
652.048532	0.041944
652.254006	0.041907
652.459460	0.042232
652.664897	0.042483
652.870315	0.042660
653.075716	0.042566
653.281097	0.042618
653.486461	0.042725
653.691807	0.042795
653.897134	0.042691
654.102443	0.042811
654.307734	0.042920
654.513006	0.043022
654.718261	0.043064
654.923497	0.043133
655.128715	0.043180
655.333915	0.043247
655.539096	0.043386
655.744259	0.043471
655.949404	0.043474
656.154531	0.043395
656.359640	0.043314
656.564730	0.043367
656.769802	0.043458
656.974856	0.043536
657.179892	0.043534
657.384909	0.043428
657.589908	0.043342
657.794889	0.043341
657.999852	0.043446
658.204797	0.043637
658.409723	0.043997
658.614631	0.043971
658.819521	0.044142
659.024393	0.044354
659.229246	0.044315
659.434081	0.044565
659.638898	0.044811
659.843697	0.045003
660.048478	0.045045
660.253240	0.044769
660.457984	0.044833
660.662710	0.044796
660.867417	0.044800
661.072107	0.045130
661.276778	0.044986
661.481431	0.044933
661.686066	0.044963
661.890682	0.044919
662.095281	0.044951
662.299861	0.045016
662.504422	0.045121
662.708966	0.045090
662.913491	0.045062
663.117999	0.045246
663.322488	0.045300
663.526958	0.045394
663.731411	0.045463
663.935845	0.045704
664.140261	0.045851
664.344659	0.045855
664.549038	0.046018
664.753400	0.046129
664.957743	0.046328
665.162068	0.046496
665.366375	0.046449
665.570663	0.046628
665.774933	0.046729
665.979185	0.046713
666.183419	0.046852
666.387635	0.046961
666.591832	0.046981
666.796011	0.047028
667.000172	0.046998
667.204315	0.047158
667.408439	0.047035
667.612545	0.046812
667.816634	0.047084
668.020703	0.046990
668.224755	0.047081
668.428788	0.047117
668.632803	0.047177
668.836800	0.047151
669.040779	0.047269
669.244739	0.047522
669.448681	0.047911
669.652605	0.047818
669.856511	0.048079
670.060399	0.048051
670.264268	0.048188
670.468119	0.048208
670.671952	0.048195
670.875767	0.048356
671.079563	0.048347
671.283341	0.048373
671.487101	0.048491
671.690843	0.048539
671.894567	0.048578
672.098272	0.048701
672.301959	0.048808
672.505628	0.049100
672.709278	0.049169
672.912911	0.049239
673.116525	0.049331
673.320121	0.049271
673.523699	0.049334
673.727258	0.049445
673.930799	0.049541
674.134322	0.049595
674.337827	0.049604
674.541314	0.049449
674.744782	0.049369
674.948232	0.049241
675.151664	0.049259
675.355078	0.049131
675.558474	0.049097
675.761851	0.049047
675.965210	0.048702
676.168551	0.048709
676.371873	0.048814
676.575178	0.048870
676.778464	0.049110
676.981732	0.049218
677.184981	0.049544
677.388213	0.049798
677.591426	0.049868
677.794621	0.050384
677.997798	0.050460
678.200956	0.050350
678.404097	0.050589
678.607219	0.050687
678.810323	0.050761
679.013408	0.050571
679.216476	0.050591
679.419525	0.050585
679.622556	0.050622
679.825569	0.050651
680.028563	0.050856
680.231540	0.050978
680.434498	0.050954
680.637438	0.051169
680.840359	0.051243
681.043263	0.051124
681.246148	0.051142
681.449015	0.051170
681.651864	0.051256
681.854694	0.051367
682.057506	0.051500
682.260301	0.051377
682.463076	0.051511
682.665834	0.051731
682.868573	0.051853
683.071295	0.052218
683.273998	0.052498
683.476682	0.052697
683.679349	0.052636
683.881997	0.052650
684.084627	0.052998
684.287239	0.053035
684.489833	0.053141
684.692408	0.053267
684.894965	0.053160
685.097504	0.052971
685.300025	0.053070
685.502527	0.053401
685.705012	0.053400
685.907478	0.053338
686.109925	0.053314
686.312355	0.053301
686.514766	0.053312
686.717159	0.053407
686.919534	0.053546
687.121891	0.053383
687.324230	0.053292
687.526550	0.053343
687.728852	0.053409
687.931136	0.053322
688.133401	0.053396
688.335649	0.053647
688.537878	0.053761
688.740089	0.053731
688.942281	0.053966
689.144456	0.053959
689.346612	0.054071
689.548750	0.054003
689.750870	0.054252
689.952971	0.054390
690.155055	0.054352
690.357120	0.054419
690.559167	0.054505
690.761195	0.054443
690.963206	0.054511
691.165198	0.054500
691.367172	0.054576
691.569128	0.054593
691.771065	0.054613
691.972984	0.054713
692.174885	0.054863
692.376768	0.055019
692.578633	0.055267
692.780479	0.055496
692.982308	0.055652
693.184118	0.055774
693.385909	0.055844
693.587683	0.055962
693.789438	0.055908
693.991175	0.055791
694.192894	0.055651
694.394595	0.055583
694.596277	0.055344
694.797941	0.055235
694.999587	0.055424
695.201215	0.055500
695.402824	0.055431
695.604416	0.055638
695.805989	0.055667
696.007543	0.055803
696.209080	0.055754
696.410598	0.055976
696.612099	0.056046
696.813580	0.055932
697.015044	0.056126
697.216490	0.056162
697.417917	0.056070
697.619326	0.056035
697.820717	0.056100
698.022089	0.056214
698.223444	0.056372
698.424780	0.056373
698.626098	0.056515
698.827397	0.056377
699.028679	0.056555
699.229942	0.056597
699.431187	0.056759
699.632414	0.056929
699.833622	0.056922
700.034813	0.056943
700.235985	0.057158
700.437139	0.057111
700.638274	0.057135
700.839392	0.057117
701.040491	0.057198
701.241572	0.057502
701.442635	0.057577
701.643679	0.057820
701.844706	0.058037
702.045714	0.058065
702.246704	0.058215
702.447675	0.058260
702.648629	0.058296
702.849564	0.058345
703.050481	0.058044
703.251380	0.057974
703.452260	0.057786
703.653122	0.057639
703.853966	0.057631
704.054792	0.057703
704.255600	0.057641
704.456389	0.057503
704.657160	0.057664
704.857913	0.057581
705.058648	0.057635
705.259365	0.057666
705.460063	0.057507
705.660743	0.057568
705.861405	0.057500
706.062048	0.057590
706.262674	0.057776
706.463281	0.057571
706.663870	0.057604
706.864441	0.057474
707.064993	0.057546
707.265527	0.057724
707.466043	0.057516
707.666541	0.057359
707.867021	0.057300
708.067482	0.057058
708.267925	0.057238
708.468350	0.057301
708.668757	0.057218
708.869145	0.057354
709.069516	0.057322
709.269868	0.057445
709.470201	0.057467
709.670517	0.057391
709.870814	0.057571
710.071093	0.057393
710.271354	0.057510
710.471597	0.057752
710.671821	0.057793
710.872028	0.057739
711.072216	0.057866
711.272385	0.057945
711.472537	0.058092
711.672670	0.058154
711.872785	0.058165
712.072882	0.058053
712.272961	0.058092
712.473021	0.057856
712.673063	0.057921
712.873087	0.057974
713.073093	0.058024
713.273081	0.058033
713.473050	0.057968
713.673001	0.057895
713.872934	0.057973
714.072849	0.057881
714.272745	0.057889
714.472623	0.057866
714.672483	0.057755
714.872325	0.057623
715.072148	0.057609
715.271954	0.057358
715.471741	0.057396
715.671509	0.057385
715.871260	0.057125
716.070992	0.057112
716.270707	0.056970
716.470403	0.056629
716.670080	0.056711
716.869740	0.056528
717.069381	0.056581
717.269004	0.056480
717.468609	0.056420
717.668195	0.056377
717.867764	0.056332
718.067314	0.056341
718.266846	0.056539
718.466360	0.056451
718.665855	0.056438
718.865332	0.056523
719.064791	0.056560
719.264232	0.056364
719.463655	0.056412
719.663059	0.056249
719.862445	0.056183
720.061813	0.056144
720.261163	0.056094
720.460494	0.056096
720.659807	0.055939
720.859102	0.056013
721.058379	0.056073
721.257638	0.055967
721.456878	0.056126
721.656100	0.056214
721.855304	0.056131
722.054490	0.056097
722.253657	0.055983
722.452806	0.056190
722.651937	0.055973
722.851050	0.056036
723.050145	0.056158
723.249221	0.056230
723.448279	0.055960
723.647319	0.056009
723.846340	0.055988
724.045344	0.056054
724.244329	0.056025
724.443296	0.055936
724.642245	0.055842
724.841175	0.055619
725.040088	0.055377
725.238982	0.055503
725.437857	0.055328
725.636715	0.055136
725.835554	0.055174
726.034376	0.054840
726.233179	0.054924
726.431963	0.054858
726.630730	0.054953
726.829478	0.054754
727.028208	0.054684
727.226920	0.054773
727.425614	0.055029
727.624289	0.054974
727.822946	0.055105
728.021585	0.054779
728.220206	0.054716
728.418808	0.054554
728.617392	0.054654
728.815958	0.054423
729.014506	0.054235
729.213036	0.053887
729.411547	0.053689
729.610040	0.053538
729.808515	0.053833
730.006972	0.053823
730.205410	0.053793
730.403831	0.053683
730.602233	0.053796
730.800616	0.053669
730.998982	0.053695
731.197329	0.053808
731.395658	0.053832
731.593969	0.053655
731.792262	0.053573
731.990536	0.053586
732.188793	0.053825
732.387031	0.053789
732.585250	0.053955
732.783452	0.053896
732.981635	0.053692
733.179800	0.053569
733.377947	0.053534
733.576076	0.053424
733.774186	0.053275
733.972278	0.053212
734.170352	0.052987
734.368408	0.052912
734.566446	0.052819
734.764465	0.052814
734.962466	0.052844
735.160449	0.052781
735.358413	0.052724
735.556360	0.052939
735.754288	0.052756
735.952198	0.052602
736.150090	0.052381
736.347963	0.052178
736.545818	0.051929
736.743655	0.051753
736.941474	0.051720
737.139275	0.051668
737.337057	0.051313
737.534821	0.051063
737.732567	0.051235
737.930295	0.051187
738.128005	0.051432
738.325696	0.051441
738.523369	0.051526
738.721024	0.051433
738.918660	0.051346
739.116279	0.051371
739.313879	0.051282
739.511461	0.051137
739.709024	0.050952
739.906570	0.050689
740.104097	0.050617
740.301606	0.050546
740.499097	0.050511
740.696569	0.050462
740.894024	0.050446
741.091460	0.050515
741.288878	0.050650
741.486277	0.050733
741.683659	0.050796
741.881022	0.050857
742.078367	0.050706
742.275694	0.050555
742.473002	0.050443
742.670293	0.050411
742.867565	0.050356
743.064819	0.050326
743.262054	0.050316
743.459272	0.050474
743.656471	0.050466
743.853652	0.050648
744.050815	0.050617
744.247959	0.050583
744.445085	0.050493
744.642194	0.050574
744.839283	0.050300
745.036355	0.050144
745.233408	0.049765
745.430444	0.049703
745.627461	0.049393
745.824459	0.049324
746.021440	0.049246
746.218402	0.049378
746.415346	0.049204
746.612272	0.049360
746.809180	0.049434
747.006069	0.049616
747.202940	0.049465
747.399793	0.049477
747.596628	0.049542
747.793444	0.049340
747.990243	0.049066
748.187023	0.049004
748.383784	0.048759
748.580528	0.048694
748.777253	0.048468
748.973960	0.048309
749.170649	0.048180
749.367320	0.047977
749.563973	0.047907
749.760607	0.047810
749.957223	0.047659
750.153821	0.047725
750.350400	0.047702
750.546962	0.047608
750.743505	0.047631
750.940030	0.047515
751.136536	0.047423
751.333025	0.047567
751.529495	0.047469
751.725947	0.047341
751.922381	0.047008
752.118796	0.047053
752.315194	0.047103
752.511573	0.046982
752.707934	0.047005
752.904276	0.046930
753.100601	0.046629
753.296907	0.046656
753.493195	0.046555
753.689465	0.046610
753.885716	0.046526
754.081949	0.046427
754.278164	0.046521
754.474361	0.046406
754.670540	0.046554
754.866700	0.046785
755.062843	0.046743
755.258967	0.047037
755.455072	0.047349
755.651160	0.047221
755.847229	0.047248
756.043280	0.047253
756.239313	0.047465
756.435328	0.047503
756.631324	0.047384
756.827302	0.047291
757.023262	0.047160
757.219204	0.046910
757.415127	0.046866
757.611033	0.046746
757.806920	0.046683
758.002788	0.046405
758.198639	0.046052
758.394471	0.045918
758.590286	0.046106
758.786081	0.045732
758.981859	0.045568
759.177619	0.045440
759.373360	0.045184
759.569083	0.044892
759.764788	0.044641
759.960474	0.044706
760.156143	0.044557
760.351793	0.044229
760.547425	0.044309
760.743038	0.044142
760.938634	0.043913
761.134211	0.043922
761.329770	0.043925
761.525311	0.043987
761.720833	0.043821
761.916338	0.043877
762.111824	0.043841
762.307292	0.043631
762.502741	0.043646
762.698173	0.043653
762.893586	0.043623
763.088981	0.043623
763.284358	0.043691
763.479716	0.043722
763.675057	0.043698
763.870379	0.043569
764.065683	0.043635
764.260968	0.043450
764.456236	0.043268
764.651485	0.042989
764.846716	0.042862
765.041929	0.042629
765.237123	0.042603
765.432299	0.042647
765.627457	0.042681
765.822597	0.042713
766.017719	0.042846
766.212822	0.042860
766.407907	0.042951
766.602974	0.042674
766.798023	0.042696
766.993054	0.042496
767.188066	0.042092
767.383060	0.041918
767.578036	0.041836
767.772993	0.041787
767.967933	0.041715
768.162854	0.041631
768.357757	0.041954
768.552642	0.041826
768.747508	0.041886
768.942356	0.042055
769.137186	0.042212
769.331998	0.042133
769.526792	0.042136
769.721567	0.042191
769.916324	0.042333
770.111063	0.041899
770.305784	0.041819
770.500486	0.041879
770.695171	0.041900
770.889837	0.041662
771.084484	0.041450
771.279114	0.041334
771.473725	0.041202
771.668318	0.041218
771.862893	0.041419
772.057450	0.041579
772.251988	0.041316
772.446509	0.041322
772.641011	0.041189
772.835494	0.041540
773.029960	0.041548
773.224407	0.041530
773.418836	0.041319
773.613247	0.041308
773.807640	0.041311
774.002014	0.041346
774.196370	0.041314
774.390708	0.041532
774.585028	0.041317
774.779330	0.041029
774.973613	0.041144
775.167878	0.041289
775.362125	0.041314
775.556354	0.041273
775.750564	0.041384
775.944756	0.041350
776.138930	0.041527
776.333086	0.041416
776.527223	0.041751
776.721343	0.041803
776.915444	0.041941
777.109526	0.041896
777.303591	0.041818
777.497637	0.041772
777.691666	0.041695
777.885676	0.041381
778.079667	0.041410
778.273641	0.041243
778.467596	0.041013
778.661533	0.040979
778.855452	0.040971
779.049352	0.041026
779.243235	0.040837
779.437099	0.040868
779.630945	0.040905
779.824773	0.040915
780.018582	0.040961
780.212373	0.041011
780.406146	0.040908
780.599901	0.040734
780.793638	0.040741
780.987356	0.041002
781.181056	0.041010
781.374738	0.041083
781.568402	0.041172
781.762047	0.041079
781.955674	0.041217
782.149283	0.041092
782.342874	0.041356
782.536447	0.041408
782.730001	0.041202
782.923537	0.041223
783.117055	0.040881
783.310555	0.040726
783.504036	0.040897
783.697499	0.041113
783.890944	0.041269
784.084371	0.041334
784.277780	0.041257
784.471170	0.041403
784.664542	0.041338
784.857896	0.041723
785.051231	0.041903
785.244549	0.041927
785.437848	0.041648
785.631129	0.041688
785.824392	0.041574
786.017636	0.041716
786.210863	0.041574
786.404071	0.041528
786.597260	0.041529
786.790432	0.041544
786.983585	0.041485
787.176721	0.041531
787.369838	0.041241
787.562936	0.041271
787.756017	0.041069
787.949079	0.040984
788.142123	0.041068
788.335149	0.040819
788.528156	0.040570
788.721146	0.040537
788.914117	0.040487
789.107070	0.040441
789.300005	0.040528
789.492921	0.040566
789.685819	0.040612
789.878699	0.040643
790.071561	0.040888
790.264405	0.041148
790.457230	0.041074
790.650037	0.041311
790.842826	0.041467
791.035597	0.041467
791.228349	0.041541
791.421084	0.041647
791.613800	0.041489
791.806497	0.041277
791.999177	0.041226
792.191838	0.041199
792.384481	0.040980
792.577106	0.041041
792.769713	0.041055
792.962301	0.041164
793.154871	0.041317
793.347423	0.041387
793.539957	0.041649
793.732473	0.041748
793.924970	0.041675
794.117449	0.041782
794.309910	0.042132
794.502353	0.042339
794.694777	0.042384
794.887183	0.042283
795.079571	0.042490
795.271941	0.042422
795.464293	0.042422
795.656626	0.042786
795.848941	0.042879
796.041238	0.042768
796.233516	0.042812
796.425777	0.042873
796.618019	0.043121
796.810243	0.043476
797.002449	0.043608
797.194636	0.043727
797.386805	0.043734
797.578956	0.043914
797.771089	0.043776
797.963204	0.043728
798.155300	0.043627
798.347378	0.043790
798.539438	0.043445
798.731480	0.043487
798.923503	0.043497
799.115509	0.043646
799.307496	0.043465
799.499465	0.043586
799.691415	0.043718
799.883348	0.043811
800.075262	0.043773
800.267158	0.043878
800.459035	0.044125
800.650895	0.044064
800.842736	0.044106
801.034559	0.044256
801.226364	0.044387
801.418150	0.044290
801.609919	0.044549
801.801669	0.044595
801.993401	0.044866
802.185114	0.044842
802.376810	0.045211
802.568487	0.045387
802.760146	0.045695
802.951787	0.045830
803.143409	0.046148
803.335014	0.046154
803.526600	0.046536
803.718168	0.046696
803.909717	0.046818
804.101249	0.046792
804.292762	0.046744
804.484257	0.046662
804.675734	0.046789
804.867192	0.046474
805.058632	0.046674
805.250054	0.046371
805.441458	0.046350
805.632844	0.046366
805.824211	0.046517
806.015561	0.046694
806.206891	0.046736
806.398204	0.046708
806.589499	0.047025
806.780775	0.046811
806.972033	0.046994
807.163273	0.047093
807.354495	0.047154
807.545698	0.047245
807.736883	0.047200
807.928050	0.047289
808.119199	0.047376
808.310329	0.047456
808.501441	0.047638
808.692535	0.047722
808.883611	0.047653
809.074669	0.047851
809.265708	0.047795
809.456729	0.047903
809.647732	0.047917
809.838717	0.048061
810.029683	0.048105
810.220632	0.048026
810.411562	0.048183
810.602474	0.048465
810.793367	0.048493
810.984242	0.048673
811.175100	0.048671
811.365938	0.048960
811.556759	0.049101
811.747562	0.049221
811.938346	0.049548
812.129112	0.049525
812.319860	0.049385
812.510589	0.049451
812.701300	0.049637
812.891994	0.049817
813.082668	0.049756
813.273325	0.049826
813.463964	0.049952
813.654584	0.050098
813.845186	0.050303
814.035769	0.050484
814.226335	0.050636
814.416882	0.050691
814.607411	0.051148
814.797922	0.051439
814.988415	0.051572
815.178889	0.051731
815.369345	0.051750
815.559783	0.051581
815.750203	0.051994
815.940605	0.052214
816.130988	0.052403
816.321353	0.052169
816.511700	0.052068
816.702028	0.052177
816.892339	0.052244
817.082631	0.052512
817.272905	0.053003
817.463161	0.052939
817.653398	0.053178
817.843617	0.053234
818.033819	0.053326
818.224001	0.053657
818.414166	0.053842
818.604312	0.053785
818.794440	0.053796
818.984550	0.053997
819.174642	0.054120
819.364716	0.054026
819.554771	0.054015
819.744808	0.054054
819.934827	0.054039
820.124827	0.054085
820.314810	0.054344
820.504774	0.054364
820.694720	0.054364
820.884647	0.054345
821.074557	0.054497
821.264448	0.054594
821.454321	0.054770
821.644176	0.055042
821.834012	0.055231
822.023831	0.055337
822.213631	0.055637
822.403413	0.055333
822.593176	0.055424
822.782922	0.055398
822.972649	0.055725
823.162358	0.055884
823.352049	0.055824
823.541721	0.055850
823.731376	0.055891
823.921012	0.055696
824.110629	0.055884
824.300229	0.056031
824.489811	0.056273
824.679374	0.056154
824.868919	0.056418
825.058445	0.056745
825.247954	0.056708
825.437444	0.056947
825.626916	0.057396
825.816370	0.057770
826.005806	0.057944
826.195223	0.058382
826.384622	0.058829
826.574003	0.058839
826.763366	0.058881
826.952711	0.059164
827.142037	0.059325
827.331345	0.059441
827.520635	0.059790
827.709906	0.059960
827.899160	0.059998
828.088395	0.059949
828.277612	0.060024
828.466810	0.060051
828.655991	0.060263
828.845153	0.060305
829.034297	0.060442
829.223423	0.060442
829.412531	0.060405
829.601620	0.060281
829.790691	0.060618
829.979744	0.061053
830.168779	0.061121
830.357795	0.061270
830.546793	0.061621
830.735773	0.061778
830.924735	0.062115
831.113679	0.062302
831.302604	0.062391
831.491511	0.062628
831.680400	0.062787
831.869271	0.063315
832.058123	0.063619
832.246957	0.063558
832.435773	0.063745
832.624571	0.063897
832.813351	0.064152
833.002112	0.064356
833.190855	0.064141
833.379580	0.064267
833.568287	0.064272
833.756975	0.064128
833.945645	0.064238
834.134297	0.064353
834.322931	0.064273
834.511547	0.064579
834.700144	0.064938
834.888723	0.065325
835.077284	0.065295
835.265826	0.065556
835.454351	0.065936
835.642857	0.066365
835.831345	0.066387
836.019815	0.066514
836.208266	0.066698
836.396699	0.066789
836.585114	0.067071
836.773511	0.067422
836.961890	0.067434
837.150250	0.067595
837.338592	0.067817
837.526916	0.068151
837.715222	0.068320
837.903510	0.068447
838.091779	0.068649
838.280030	0.068609
838.468263	0.068525
838.656477	0.068622
838.844674	0.068778
839.032852	0.068939
839.221012	0.068867
839.409153	0.069189
839.597277	0.069398
839.785382	0.069432
839.973469	0.069750
840.161538	0.070183
840.349589	0.070533
840.537621	0.070788
840.725635	0.071052
840.913631	0.071801
841.101609	0.072165
841.289568	0.072286
841.477509	0.072889
841.665432	0.072998
841.853337	0.073102
842.041224	0.073167
842.229092	0.073224
842.416942	0.073169
842.604774	0.072916
842.792588	0.072820
842.980383	0.073020
843.168160	0.072909
843.355919	0.073063
843.543660	0.073086
843.731382	0.073329
843.919087	0.073550
844.106773	0.073862
844.294441	0.074414
844.482090	0.074766
844.669722	0.075120
844.857335	0.075192
845.044930	0.075407
845.232507	0.075839
845.420065	0.076067
845.607605	0.076404
845.795127	0.076477
845.982631	0.076522
846.170117	0.076559
846.357584	0.076550
846.545033	0.076828
846.732464	0.077014
846.919877	0.077241
847.107272	0.077446
847.294648	0.077318
847.482006	0.077606
847.669346	0.077670
847.856667	0.078013
848.043971	0.078217
848.231256	0.078533
848.418523	0.078772
848.605771	0.078781
848.793002	0.078886
848.980214	0.079116
849.167408	0.079261
849.354584	0.079314
849.541742	0.079477
849.728881	0.079821
849.916002	0.079923
850.103105	0.079977
850.290190	0.080190
850.477256	0.080587
850.664304	0.080990
850.851334	0.081019
851.038346	0.081264
851.225340	0.081338
851.412315	0.081220
851.599272	0.081282
851.786211	0.081599
851.973132	0.081742
852.160034	0.081714
852.346918	0.081715
852.533784	0.081955
852.720632	0.082080
852.907462	0.082176
853.094273	0.082454
853.281066	0.082574
853.467841	0.082571
853.654598	0.082913
853.841336	0.083057
854.028056	0.083315
854.214758	0.083641
854.401442	0.083701
854.588107	0.083809
854.774755	0.083887
854.961384	0.083886
855.147995	0.084242
855.334587	0.084217
855.521162	0.084323
855.707718	0.084499
855.894256	0.084384
856.080775	0.084421
856.267277	0.084800
856.453760	0.085015
856.640225	0.085421
856.826672	0.085714
857.013101	0.085905
857.199511	0.086425
857.385903	0.086560
857.572277	0.087182
857.758633	0.087700
857.944970	0.087758
858.131290	0.088201
858.317591	0.088480
858.503873	0.088357
858.690138	0.088777
858.876384	0.088921
859.062612	0.089115
859.248822	0.089049
859.435014	0.089349
859.621188	0.089619
859.807343	0.089619
859.993480	0.089787
860.179599	0.089793
860.365699	0.089801
860.551781	0.089425
860.737846	0.089598
860.923891	0.089608
861.109919	0.089721
861.295929	0.089737
861.481920	0.089766
861.667893	0.089677
861.853848	0.089893
862.039784	0.089931
862.225702	0.090383
862.411603	0.090519
862.597484	0.090520
862.783348	0.090335
862.969193	0.090400
863.155021	0.090547
863.340830	0.090659
863.526620	0.090670
863.712393	0.090701
863.898147	0.090966
864.083883	0.091142
864.269601	0.091304
864.455301	0.091617
864.640982	0.091676
864.826645	0.092081
865.012290	0.092338
865.197917	0.092544
865.383526	0.092781
865.569116	0.092692
865.754688	0.092714
865.940242	0.093024
866.125777	0.093259
866.311295	0.093550
866.496794	0.093670
866.682275	0.093879
866.867737	0.094011
867.053182	0.094390
867.238608	0.094512
867.424016	0.094550
867.609406	0.094817
867.794778	0.094608
867.980131	0.094897
868.165466	0.094877
868.350783	0.094853
868.536082	0.094919
868.721362	0.094888
868.906625	0.094984
869.091869	0.095267
869.277094	0.095147
869.462302	0.095478
869.647491	0.095462
869.832662	0.095790
870.017815	0.096217
870.202950	0.096626
870.388066	0.096693
870.573165	0.096895
870.758245	0.097193
870.943306	0.097415
871.128350	0.097699
871.313375	0.097608
871.498382	0.097655
871.683371	0.097610
871.868342	0.097665
872.053294	0.097696
872.238229	0.097839
872.423144	0.097723
872.608042	0.097767
872.792922	0.097661
872.977783	0.097751
873.162626	0.097681
873.347451	0.097593
873.532258	0.097915
873.717046	0.098352
873.901816	0.098327
874.086568	0.098136
874.271302	0.098485
874.456017	0.098744
874.640715	0.099020
874.825394	0.099232
875.010055	0.099458
875.194697	0.099402
875.379322	0.099382
875.563928	0.099244
875.748516	0.099678
875.933085	0.099579
876.117637	0.099741
876.302170	0.099937
876.486685	0.099922
876.671182	0.100105
876.855661	0.099984
877.040121	0.099624
877.224563	0.100166
877.408987	0.099839
877.593393	0.099860
877.777780	0.099947
877.962150	0.100234
878.146501	0.100483
878.330833	0.100496
878.515148	0.100743
878.699444	0.100863
878.883722	0.100710
879.067982	0.101190
879.252224	0.101343
879.436447	0.101404
879.620653	0.101186
879.804840	0.101043
879.989008	0.101049
880.173159	0.101379
880.357291	0.101687
880.541405	0.101432
880.725501	0.101818
880.909579	0.101947
881.093638	0.101854
881.277680	0.102032
881.461703	0.102242
881.645707	0.102601
881.829694	0.102308
882.013662	0.102286
882.197612	0.102668
882.381544	0.102312
882.565458	0.102376
882.749353	0.102335
882.933230	0.102332
883.117089	0.102499
883.300930	0.102635
883.484753	0.102556
883.668557	0.102874
883.852343	0.103010
884.036111	0.103220
884.219861	0.103320
884.403592	0.103707
884.587305	0.103555
884.771000	0.103351
884.954677	0.103062
885.138335	0.103443
885.321976	0.103470
885.505598	0.103510
885.689201	0.103728
885.872787	0.103497
886.056354	0.103744
886.239904	0.104140
886.423434	0.104524
886.606947	0.104809
886.790442	0.104720
886.973918	0.104511
887.157376	0.104726
887.340816	0.104246
887.524237	0.104448
887.707641	0.104180
887.891026	0.103986
888.074393	0.103506
888.257741	0.103496
888.441072	0.103243
888.624384	0.103614
888.807678	0.103881
888.990954	0.104037
889.174211	0.104111
889.357451	0.103958
889.540672	0.104258
889.723875	0.104456
889.907059	0.104293
890.090226	0.104478
890.273374	0.104140
890.456504	0.103702
890.639616	0.103927
890.822709	0.103808
891.005785	0.103756
891.188842	0.103647
891.371881	0.103359
891.554901	0.103112
891.737904	0.103041
891.920888	0.103008
892.103854	0.102821
892.286802	0.102642
892.469731	0.102815
892.652643	0.102835
892.835536	0.102641
893.018410	0.102879
893.201267	0.102997
893.384106	0.103129
893.566926	0.103074
893.749728	0.103355
893.932511	0.103375
894.115277	0.103343
894.298024	0.103409
894.480753	0.103273
894.663464	0.103423
894.846157	0.103607
895.028831	0.103653
895.211487	0.103530
895.394125	0.103350
895.576745	0.103494
895.759346	0.103282
895.941930	0.103300
896.124495	0.103309
896.307041	0.102871
896.489570	0.102811
896.672080	0.102422
896.854573	0.102007
897.037046	0.102017
897.219502	0.101736
897.401940	0.101806
897.584359	0.101573
897.766760	0.101585
897.949143	0.101609
898.131507	0.101234
898.313854	0.101257
898.496182	0.101570
898.678492	0.101203
898.860783	0.100906
899.043057	0.100248
899.225312	0.099894
899.407549	0.100196
899.589768	0.100212
899.771968	0.100207
899.954151	0.100270
900.136315	0.100435
900.318461	0.100784
900.500588	0.101236
900.682698	0.101305
900.864789	0.101461
901.046862	0.100784
901.228917	0.100637
901.410953	0.100333
901.592971	0.100108
901.774972	0.099787
901.956953	0.099818
902.138917	0.099626
902.320862	0.099774
902.502790	0.099836
902.684699	0.099559
902.866589	0.099668
903.048462	0.099576
903.230316	0.099535
903.412152	0.099476
903.593970	0.098872
903.775770	0.098038
903.957551	0.097548
904.139314	0.097295
904.321059	0.097546
904.502786	0.097154
904.684494	0.097077
904.866185	0.096792
905.047857	0.097103
905.229510	0.096837
905.411146	0.096917
905.592763	0.097060
905.774363	0.096908
905.955943	0.096734
906.137506	0.096619
906.319051	0.096951
906.500577	0.097076
906.682085	0.096782
906.863575	0.096966
907.045046	0.097140
907.226500	0.097218
907.407935	0.097472
907.589352	0.097295
907.770750	0.097623
907.952131	0.097248
908.133493	0.097076
908.314837	0.096622
908.496163	0.096567
908.677470	0.096664
908.858760	0.096347
909.040031	0.096110
909.221284	0.095692
909.402518	0.095516
909.583735	0.095077
909.764933	0.094653
909.946113	0.094905
910.127275	0.094840
910.308418	0.094449
910.489544	0.094105
910.670651	0.093397
910.851740	0.093520
911.032810	0.093338
911.213863	0.093424
911.394897	0.093367
911.575913	0.092888
911.756911	0.092476
911.937890	0.092145
912.118851	0.092377
912.299794	0.092258
912.480719	0.092244
912.661626	0.091655
912.842514	0.091352
913.023384	0.091340
913.204236	0.090991
913.385070	0.090730
913.565886	0.090448
913.746683	0.090127
913.927462	0.090294
914.108223	0.089843
914.288965	0.089867
914.469690	0.089864
914.650396	0.089234
914.831084	0.088918
915.011754	0.088830
915.192405	0.088854
915.373038	0.088407
915.553653	0.087790
915.734250	0.087993
915.914829	0.087452
916.095389	0.087296
916.275931	0.087557
916.456455	0.087452
916.636961	0.087262
916.817448	0.086536
916.997917	0.086876
917.178368	0.086688
917.358801	0.085519
917.539216	0.085542
917.719612	0.084998
917.899990	0.084394
918.080350	0.084200
918.260692	0.084202
918.441015	0.083867
918.621320	0.083051
918.801607	0.083149
918.981876	0.083710
919.162127	0.083614
919.342359	0.083433
919.522573	0.083419
919.702769	0.083394
919.882947	0.082871
920.063106	0.083255
920.243247	0.083111
920.423370	0.082845
920.603475	0.082327
920.783562	0.081545
920.963630	0.081039
921.143680	0.080123
921.323712	0.079697
921.503725	0.079396
921.683721	0.078525
921.863698	0.077922
922.043657	0.077512
922.223598	0.077075
922.403520	0.076572
922.583424	0.076322
922.763311	0.076862
922.943178	0.076489
923.123028	0.075956
923.302859	0.076055
923.482673	0.076035
923.662467	0.075744
923.842244	0.075337
924.022003	0.075131
924.201743	0.075257
924.381465	0.074606
924.561169	0.074299
924.740854	0.073927
924.920522	0.073685
925.100171	0.073294
925.279802	0.072972
925.459414	0.072825
925.639009	0.072561
925.818585	0.072103
925.998143	0.072221
926.177683	0.071844
926.357205	0.071781
926.536708	0.071039
926.716193	0.070900
926.895660	0.070128
927.075109	0.069756
927.254539	0.069621
927.433951	0.068738
927.613345	0.067515
927.792721	0.066593
927.972079	0.065992
928.151418	0.065651
928.330739	0.065280
928.510042	0.065243
928.689327	0.064983
928.868593	0.064586
929.047841	0.064756
929.227071	0.064752
929.406283	0.065598
929.585476	0.065579
929.764652	0.065106
929.943809	0.064070
930.122948	0.063865
930.302068	0.063417
930.481171	0.062806
930.660255	0.062186
930.839321	0.061894
931.018369	0.060335
931.197398	0.060289
931.376409	0.060430
931.555402	0.060822
931.734377	0.060030
931.913334	0.059799
932.092272	0.059702
932.271192	0.059100
932.450094	0.058827
932.628978	0.058898
932.807844	0.057733
932.986691	0.057651
933.165520	0.057662
933.344331	0.057220
933.523123	0.056542
933.701898	0.055588
933.880654	0.055684
934.059392	0.054792
934.238111	0.054339
934.416813	0.054079
934.595496	0.053310
934.774161	0.051900
934.952808	0.051495
935.131437	0.051427
935.310047	0.051527
935.488639	0.051090
935.667213	0.051558
935.845769	0.051224
936.024306	0.050962
936.202825	0.050276
936.381326	0.050952
936.559809	0.050440
936.738274	0.050375
936.916720	0.050033
937.095148	0.049811
937.273558	0.048805
937.451950	0.048916
937.630323	0.049272
937.808678	0.048868
937.987015	0.047881
938.165334	0.048033
938.343635	0.046571
938.521917	0.046074
938.700181	0.045207
938.878427	0.044965
939.056655	0.044114
939.234864	0.043001
939.413055	0.042685
939.591228	0.041954
939.769383	0.041514
939.947519	0.040972
940.125638	0.040292
940.303738	0.040073
940.481820	0.039753
940.659883	0.038785
940.837929	0.037365
941.015956	0.036726
941.193965	0.035846
941.371955	0.035482
941.549928	0.035021
941.727882	0.034990
941.905818	0.034265
942.083736	0.033634
942.261636	0.033325
942.439517	0.033390
942.617380	0.033869
942.795225	0.034505
942.973052	0.033231
943.150860	0.033400
943.328651	0.032842
943.506423	0.032213
943.684176	0.031201
943.861912	0.030312
944.039629	0.029998
944.217328	0.028618
944.395009	0.027392
944.572672	0.027297
944.750317	0.026919
944.927943	0.026270
945.105551	0.025437
945.283141	0.026384
945.460712	0.026318
945.638265	0.025197
945.815801	0.025201
945.993317	0.025442
946.170816	0.025224
946.348297	0.024606
946.525759	0.024201
946.703203	0.026039
946.880629	0.025345
947.058036	0.025604
947.235425	0.026401
947.412797	0.025206
947.590149	0.025299
947.767484	0.024771
947.944800	0.023759
948.122099	0.024282
948.299379	0.021856
948.476640	0.020740
948.653884	0.020986
948.831109	0.020409
949.008316	0.020172
949.185505	0.019221
949.362676	0.018557
949.539828	0.018777
949.716962	0.016330
949.894078	0.016910
950.071176	0.016459
950.248256	0.015782
950.425317	0.014432
950.602360	0.013276
950.779385	0.011985
950.956391	0.010788
951.133380	0.010729
951.310350	0.011577
951.487302	0.010960
951.664235	0.010562
951.841151	0.009752
952.018048	0.009840
952.194927	0.011371
952.371788	0.012062
952.548631	0.014113
952.725455	0.012647
952.902261	0.011655
953.079049	0.009814
953.255819	0.009802
953.432570	0.009785
953.609303	0.010523
953.786018	0.008304
953.962715	0.007695
954.139394	0.006763
954.316054	0.007440
954.492696	0.008271
954.669320	0.009616
954.845926	0.008257
955.022513	0.010370
955.199083	0.009273
955.375634	0.009887
955.552166	0.009550
955.728681	0.009733
955.905177	0.008807
956.081655	0.008696
956.258115	0.006128
956.434557	0.007629
956.610980	0.004114
956.787385	0.004260
956.963772	0.007099
957.140141	0.006314
957.316492	0.005801
957.492824	0.006941
957.669138	0.006170
957.845434	0.008358
958.021712	0.008399
958.197971	0.009799
958.374212	0.008782
958.550435	0.005207
958.726640	0.007118
958.902826	0.006867
959.078995	0.006698
959.255145	0.007027
959.431277	0.006780
959.607390	0.006679
959.783486	0.004879
959.959563	0.006124
960.135622	0.006895
960.311662	0.005177
960.487685	0.006511
960.663689	0.008303
960.839675	0.007799
961.015643	0.008842
961.191593	0.006868
961.367524	0.007537
961.543437	0.006877
961.719332	0.006773
961.895209	0.008064
962.071067	0.005670
962.246907	0.005322
962.422730	0.004845
962.598533	0.003961
962.774319	0.005339
962.950086	0.005160
963.125835	0.004682
963.301566	0.004382
963.477279	0.003744
963.652973	0.005394
963.828650	0.003841
964.004308	0.003721
964.179947	0.003164
964.355569	0.004105
964.531172	0.004862
964.706757	0.004885
964.882324	0.005367
965.057873	0.006674
965.233403	0.004448
965.408916	0.006230
965.584410	0.007523
965.759885	0.008476
965.935343	0.006012
966.110782	0.004301
966.286203	0.003454
966.461606	0.003743
966.636991	0.000774
966.812357	0.002424
966.987705	0.000139
967.163035	0.000509
967.338347	0.000873
967.513641	0.002321
967.688916	0.002567
967.864173	0.002784
968.039412	0.004201
968.214632	0.005690
968.389835	0.004549
968.565019	0.005163
968.740185	0.004558
968.915333	0.003731
969.090462	0.004980
969.265573	0.006372
969.440667	0.005904
969.615741	0.003769
969.790798	0.003395
969.965836	0.002882
970.140856	0.003243
970.315858	0.002598
970.490842	0.002281
970.665808	-0.001111
970.840755	-0.001841
971.015684	-0.000766
971.190595	-0.000216
971.365487	-0.000044
971.540362	0.001705
971.715218	0.001886
971.890056	0.001286
972.064875	0.002906
972.239677	0.004343
972.414460	0.005169
972.589225	0.005849
972.763972	0.006191
972.938700	0.005361
973.113411	0.004793
973.288103	0.003683
973.462777	0.004458
973.637432	0.001769
973.812070	0.002144
973.986689	0.003034
974.161290	0.003814
974.335873	0.004704
974.510437	0.006363
974.684984	0.009864
974.859512	0.010124
975.034022	0.010104
975.208513	0.011089
975.382987	0.012728
975.557442	0.010674
975.731879	0.008513
975.906298	0.006649
976.080698	0.007422
976.255080	0.005268
976.429445	0.005100
976.603790	0.003136
976.778118	0.003856
976.952427	0.002075
977.126719	0.002904
977.300992	0.003854
977.475246	0.005693
977.649483	0.003628
977.823701	0.002389
977.997901	0.002643
978.172083	0.004161
978.346247	0.003858
978.520392	0.004441
978.694519	0.002852
978.868628	0.003563
979.042719	0.002629
979.216791	0.001746
979.390845	0.000938
979.564882	0.000751
979.738899	0.001217
979.912899	0.001534
980.086880	0.000888
980.260843	0.001813
980.434788	0.000312
980.608715	-0.000600
980.782623	-0.000751
980.956514	0.000454
981.130386	-0.000317
981.304240	-0.000248
981.478075	-0.002301
981.651892	-0.002234
981.825692	-0.000662
981.999472	0.000507
982.173235	0.001659
982.346980	0.002559
982.520706	0.001555
982.694414	0.002712
982.868104	0.001349
983.041775	0.003109
983.215428	0.003477
983.389064	0.002199
983.562680	0.000885
983.736279	0.001621
983.909860	0.002488
984.083422	0.002418
984.256966	0.003067
984.430491	0.005510
984.603999	0.004732
984.777488	0.005009
984.950959	0.005533
985.124412	0.006868
985.297847	0.003358
985.471263	0.003262
985.644661	0.004229
985.818041	0.002826
985.991403	0.000147
986.164747	0.000409
986.338072	-0.001586
986.511379	-0.002639
986.684668	-0.003651
986.857938	-0.002128
987.031191	-0.003591
987.204425	-0.005142
987.377641	-0.005321
987.550839	-0.004272
987.724018	-0.002949
987.897179	-0.000877
988.070322	-0.001023
988.243447	-0.001115
988.416554	-0.000107
988.589642	0.000769
988.762712	0.001210
988.935764	0.002306
989.108798	0.001953
989.281813	-0.001230
989.454811	-0.002221
989.627790	-0.001580
989.800751	-0.000628
989.973693	-0.002384
990.146617	-0.001841
990.319524	-0.000224
990.492412	0.000527
990.665281	0.000810
990.838133	0.003702
991.010966	0.003660
991.183781	0.002557
991.356578	0.001122
991.529356	0.001762
991.702117	0.000757
991.874859	0.000522
992.047583	-0.001361
992.220288	-0.001328
992.392976	-0.002977
992.565645	-0.002654
992.738296	-0.000676
992.910929	0.000454
993.083543	0.001780
993.256139	0.003632
993.428718	0.002412
993.601277	0.002128
993.773819	0.001320
993.946342	0.001580
994.118848	0.000756
994.291335	-0.002267
994.463803	-0.002830
994.636254	-0.003894
994.808686	-0.005766
994.981100	-0.005157
995.153496	-0.004830
995.325874	-0.003080
995.498233	-0.004189
995.670574	-0.004196
995.842897	-0.001698
996.015202	-0.002092
996.187488	-0.000647
996.359757	0.000178
996.532007	0.001248
996.704239	0.002836
996.876452	0.001031
997.048648	0.002328
997.220825	0.000725
997.392984	0.000636
997.565124	0.001055
997.737247	-0.000680
997.909351	-0.001400
998.081437	-0.003894
998.253505	-0.005536
998.425554	-0.005991
998.597586	-0.007298
998.769599	-0.004465
998.941594	-0.005795
999.113571	-0.005944
999.285529	-0.007182
999.457469	-0.005134
999.629391	-0.003359
999.801295	-0.002707
999.973181	-0.001175
1000.145048	-0.000100
1000.316897	0.000245
1000.488728	-0.000233
1000.660541	-0.000614
1000.832335	0.000647
1001.004111	-0.001723
1001.175869	-0.002855
1001.347609	-0.003505
1001.519331	-0.003944
1001.691034	-0.003216
1001.862719	-0.003984
1002.034386	-0.002788
1002.206035	-0.002219
1002.377665	-0.004666
1002.549277	-0.002690
1002.720871	-0.002007
1002.892447	-0.001071
1003.064004	-0.000029
1003.235544	-0.002351
1003.407065	-0.002179
1003.578568	-0.002675
1003.750052	-0.002708
1003.921519	-0.001223
1004.092967	-0.002839
1004.264397	-0.003592
1004.435809	-0.004789
1004.607202	-0.005310
1004.778577	-0.001812
1004.949934	-0.002213
1005.121273	-0.002325
1005.292594	-0.003631
1005.463896	-0.001916
1005.635180	-0.002323
1005.806446	-0.001702
1005.977694	-0.000426
1006.148923	-0.000841
1006.320135	-0.002553
1006.491328	-0.001562
1006.662503	-0.001779
1006.833659	-0.000616
1007.004798	-0.002334
1007.175918	-0.001288
1007.347020	-0.002799
1007.518103	-0.004448
1007.689169	-0.003758
1007.860216	-0.004073
1008.031245	-0.006142
1008.202256	-0.005651
1008.373248	-0.005629
1008.544223	-0.003542
1008.715179	-0.003956
1008.886117	-0.003232
1009.057036	-0.002051
1009.227938	-0.002675
1009.398821	-0.003711
1009.569686	-0.001223
1009.740533	-0.002387
1009.911361	-0.001154
1010.082172	-0.002975
1010.252964	-0.002918
1010.423738	-0.002204
1010.594493	-0.002424
1010.765231	-0.003868
1010.935950	-0.002345
1011.106651	-0.003756
1011.277334	-0.001510
1011.447998	-0.002227
1011.618645	-0.001814
1011.789273	-0.001923
1011.959882	-0.000929
1012.130474	-0.000602
1012.301048	0.001009
1012.471603	-0.000967
1012.642140	0.000639
1012.812658	-0.001087
1012.983159	-0.001245
1013.153641	-0.002408
1013.324105	-0.002799
1013.494551	-0.004824
1013.664979	-0.003973
1013.835388	-0.002223
1014.005779	-0.000670
1014.176152	-0.001897
1014.346507	-0.003409
1014.516843	-0.003325
1014.687162	-0.001340
1014.857462	-0.001170
1015.027744	0.000497
1015.198007	-0.001895
1015.368252	-0.004705
1015.538480	-0.004441
1015.708689	-0.005554
1015.878879	-0.002750
1016.049052	-0.003658
1016.219206	-0.004287
1016.389342	-0.003628
1016.559460	-0.004931
1016.729559	-0.004598
1016.899641	-0.004084
1017.069704	-0.004393
1017.239749	-0.004934
1017.409775	-0.007329
1017.579784	-0.007966
1017.749774	-0.007640
1017.919746	-0.009381
1018.089700	-0.009970
1018.259635	-0.011599
1018.429553	-0.011058
1018.599452	-0.011891
1018.769333	-0.010598
1018.939195	-0.010532
1019.109040	-0.010303
1019.278866	-0.009597
1019.448674	-0.008952
1019.618464	-0.008090
1019.788235	-0.007623
1019.957989	-0.008083
1020.127724	-0.008389
1020.297441	-0.008333
1020.467139	-0.005921
1020.636820	-0.004893
1020.806482	-0.006425
1020.976126	-0.007191
1021.145752	-0.008056
1021.315359	-0.006424
1021.484948	-0.006588
1021.654519	-0.004804
1021.824072	-0.004543
1021.993607	-0.003703
1022.163123	-0.004521
1022.332621	-0.005084
1022.502101	-0.005354
1022.671563	-0.005513
1022.841007	-0.004090
1023.010432	-0.003434
1023.179839	-0.004105
1023.349228	-0.005596
1023.518598	-0.008232
1023.687951	-0.007898
1023.857285	-0.005845
1024.026601	-0.005137
1024.195899	-0.004915
1024.365178	-0.006055
1024.534439	-0.005998
1024.703682	-0.006445
1024.872907	-0.006563
1025.042114	-0.005438
1025.211302	-0.005692
1025.380472	-0.006082
1025.549624	-0.006533
1025.718758	-0.007679
1025.887873	-0.008264
1026.056970	-0.009571
1026.226049	-0.009422
1026.395110	-0.007997
1026.564153	-0.008564
1026.733177	-0.009287
1026.902183	-0.009450
1027.071171	-0.008882
1027.240141	-0.005852
1027.409092	-0.005685
1027.578026	-0.006193
1027.746940	-0.006321
1027.915837	-0.007429
1028.084716	-0.006270
1028.253576	-0.004698
1028.422418	-0.004847
1028.591242	-0.004429
1028.760048	-0.005481
1028.928835	-0.006108
1029.097604	-0.004752
1029.266355	-0.004281
1029.435088	-0.003218
1029.603803	-0.004380
1029.772499	-0.005354
1029.941177	-0.005222
1030.109837	-0.004969
1030.278478	-0.007105
1030.447102	-0.007370
1030.615707	-0.007050
1030.784294	-0.007106
1030.952863	-0.007084
1031.121413	-0.007781
1031.289945	-0.007817
1031.458460	-0.009534
1031.626955	-0.009940
1031.795433	-0.007921
1031.963892	-0.007192
1032.132334	-0.008571
1032.300756	-0.008790
1032.469161	-0.008909
1032.637548	-0.008029
1032.805916	-0.007949
1032.974266	-0.007447
1033.142598	-0.008284
1033.310911	-0.010106
1033.479207	-0.012401
1033.647484	-0.012320
1033.815743	-0.013015
1033.983983	-0.014112
1034.152206	-0.015077
1034.320410	-0.015715
1034.488596	-0.015057
1034.656764	-0.015306
1034.824914	-0.013969
1034.993045	-0.011373
1035.161158	-0.010821
1035.329253	-0.009838
1035.497330	-0.009490
1035.665388	-0.009221
1035.833428	-0.007257
1036.001450	-0.007197
1036.169454	-0.007039
1036.337440	-0.006777
1036.505407	-0.006765
1036.673356	-0.006898
1036.841287	-0.006978
1037.009200	-0.006993
1037.177094	-0.005611
1037.344970	-0.006160
1037.512828	-0.006535
1037.680668	-0.005758
1037.848489	-0.005252
1038.016293	-0.005649
1038.184078	-0.005496
1038.351845	-0.005457
1038.519593	-0.005255
1038.687324	-0.007228
1038.855036	-0.008180
1039.022730	-0.007416
1039.190406	-0.008061
1039.358063	-0.008331
1039.525702	-0.007704
1039.693323	-0.005750
1039.860926	-0.007213
1040.028511	-0.006773
1040.196077	-0.005824
1040.363625	-0.005822
1040.531155	-0.006686
1040.698667	-0.006392
1040.866161	-0.006989
1041.033636	-0.007520
1041.201093	-0.009245
1041.368532	-0.008873
1041.535952	-0.009402
1041.703355	-0.008832
1041.870739	-0.008662
1042.038105	-0.008514
1042.205452	-0.009909
1042.372782	-0.010171
1042.540093	-0.010746
1042.707386	-0.011108
1042.874661	-0.011512
1043.041918	-0.011769
1043.209156	-0.012521
1043.376376	-0.011168
1043.543578	-0.010524
1043.710762	-0.008539
1043.877927	-0.008246
1044.045074	-0.006885
1044.212203	-0.008190
1044.379314	-0.009262
1044.546407	-0.008333
1044.713481	-0.007953
1044.880537	-0.010107
1045.047575	-0.011264
1045.214595	-0.010450
1045.381596	-0.010378
1045.548579	-0.011956
1045.715544	-0.010064
1045.882491	-0.007952
1046.049420	-0.009055
1046.216330	-0.008683
1046.383222	-0.008520
1046.550096	-0.007032
1046.716951	-0.008256
1046.883789	-0.008607
1047.050608	-0.008964
1047.217409	-0.009220
1047.384192	-0.009946
1047.550956	-0.009505
1047.717703	-0.009744
1047.884431	-0.007597
1048.051140	-0.007132
1048.217832	-0.006015
1048.384505	-0.004921
1048.551161	-0.003839
1048.717798	-0.003801
1048.884416	-0.002969
1049.051017	-0.004274
1049.217599	-0.005645
1049.384163	-0.008088
1049.550709	-0.008790
1049.717237	-0.010117
1049.883746	-0.012147
1050.050237	-0.012022
1050.216710	-0.011788
1050.383165	-0.011766
1050.549601	-0.010387
1050.716019	-0.008824
1050.882420	-0.008007
1051.048801	-0.009435
1051.215165	-0.008014
1051.381510	-0.005996
1051.547837	-0.005995
1051.714146	-0.006820
1051.880437	-0.006733
1052.046709	-0.007939
1052.212964	-0.008805
1052.379200	-0.006814
1052.545417	-0.006285
1052.711617	-0.008339
1052.877798	-0.009092
1053.043961	-0.011058
1053.210106	-0.011128
1053.376233	-0.012815
1053.542341	-0.010486
1053.708432	-0.009212
1053.874504	-0.010137
1054.040557	-0.010797
1054.206593	-0.009169
1054.372610	-0.009991
1054.538609	-0.007801
1054.704590	-0.007289
1054.870553	-0.006163
1055.036497	-0.007494
1055.202424	-0.007707
1055.368331	-0.008607
1055.534221	-0.008821
1055.700093	-0.009368
1055.865946	-0.008140
1056.031781	-0.009508
1056.197598	-0.010125
1056.363397	-0.010433
1056.529177	-0.012080
1056.694939	-0.012377
1056.860683	-0.011995
1057.026409	-0.011526
1057.192116	-0.010876
1057.357806	-0.010607
1057.523477	-0.010500
1057.689130	-0.010467
1057.854764	-0.010651
1058.020381	-0.009340
1058.185979	-0.008836
1058.351559	-0.009749
1058.517120	-0.008802
1058.682664	-0.008945
1058.848189	-0.009595
1059.013696	-0.010116
1059.179185	-0.009688
1059.344656	-0.009438
1059.510108	-0.008019
1059.675542	-0.008893
1059.840958	-0.008603
1060.006356	-0.010016
1060.171735	-0.010165
1060.337096	-0.009917
1060.502439	-0.008538
1060.667764	-0.008838
1060.833071	-0.008567
1060.998359	-0.011547
1061.163629	-0.009336
1061.328881	-0.009009
1061.494115	-0.007575
1061.659330	-0.008477
1061.824527	-0.008229
1061.989706	-0.008412
1062.154867	-0.008377
1062.320010	-0.009219
1062.485134	-0.007274
1062.650240	-0.008511
1062.815328	-0.008237
1062.980398	-0.009517
1063.145449	-0.009290
1063.310482	-0.009998
1063.475497	-0.009566
1063.640494	-0.009557
1063.805473	-0.009098
1063.970433	-0.009237
1064.135375	-0.010613
1064.300299	-0.011833
1064.465204	-0.011585
1064.630092	-0.012406
1064.794961	-0.012009
1064.959812	-0.012562
1065.124645	-0.013040
1065.289459	-0.010988
1065.454256	-0.010138
1065.619034	-0.008167
1065.783793	-0.008783
1065.948535	-0.007543
1066.113258	-0.005739
1066.277964	-0.006276
1066.442651	-0.005618
1066.607319	-0.002633
1066.771970	-0.003984
1066.936602	-0.004625
1067.101216	-0.004655
1067.265812	-0.003149
1067.430389	-0.003960
1067.594949	-0.004064
1067.759490	-0.003259
1067.924013	-0.004425
1068.088518	-0.006603
1068.253004	-0.006836
1068.417472	-0.005121
1068.581922	-0.004924
1068.746354	-0.007253
1068.910768	-0.005232
1069.075163	-0.004766
1069.239540	-0.005018
1069.403899	-0.004015
1069.568240	-0.003948
1069.732562	-0.002623
1069.896866	-0.005125
1070.061152	-0.006146
1070.225420	-0.004194
1070.389670	-0.005118
1070.553901	-0.006319
1070.718114	-0.005420
1070.882309	-0.005520
1071.046486	-0.006121
1071.210644	-0.007758
1071.374784	-0.007328
1071.538906	-0.008279
1071.703010	-0.007875
1071.867096	-0.008014
1072.031163	-0.007495
1072.195212	-0.008444
1072.359243	-0.006131
1072.523256	-0.004816
1072.687250	-0.004848
1072.851226	-0.004760
1073.015184	-0.002816
1073.179124	-0.002771
1073.343045	-0.003853
1073.506949	-0.004266
1073.670834	-0.004454
1073.834701	-0.005664
1073.998549	-0.005918
1074.162380	-0.004974
1074.326192	-0.005072
1074.489986	-0.007655
1074.653761	-0.008410
1074.817519	-0.007489
1074.981258	-0.005641
1075.144979	-0.007487
1075.308682	-0.008915
1075.472367	-0.011211
1075.636033	-0.010505
1075.799681	-0.009471
1075.963311	-0.005944
1076.126923	-0.005554
1076.290516	-0.005294
1076.454092	-0.004996
1076.617649	-0.002489
1076.781187	0.000076
1076.944708	0.002156
1077.108210	0.003913
1077.271695	0.003864
1077.435160	0.001155
1077.598608	0.002506
1077.762038	0.002332
1077.925449	0.002422
1078.088842	0.001677
1078.252217	-0.000373
1078.415573	-0.000410
1078.578912	-0.003109
1078.742232	-0.002947
1078.905534	-0.001995
1079.068817	0.000264
1079.232083	0.000698
1079.395330	-0.000464
1079.558559	-0.003976
1079.721770	-0.002606
1079.884962	-0.002978
1080.048136	-0.003780
1080.211293	-0.002115
1080.374430	-0.004011
1080.537550	-0.005922
1080.700651	-0.004620
1080.863735	-0.003980
1081.026800	0.000847
1081.189846	0.001883
1081.352875	0.003961
1081.515885	0.005238
1081.678877	0.004089
1081.841851	0.004367
1082.004807	0.003897
1082.167744	0.001084
1082.330663	-0.002493
1082.493564	-0.002464
1082.656447	-0.002751
1082.819312	-0.003624
1082.982158	-0.002809
1083.144986	-0.002848
1083.307796	-0.000453
1083.470587	-0.001614
1083.633361	-0.001106
1083.796116	0.001146
1083.958853	0.000761
1084.121571	-0.001712
1084.284272	-0.002183
1084.446954	-0.002968
1084.609618	-0.003270
1084.772264	-0.005364
1084.934892	-0.004045
1085.097501	-0.002785
1085.260092	-0.000005
1085.422665	-0.000791
1085.585220	-0.002887
1085.747756	-0.003012
1085.910274	-0.003453
1086.072774	-0.001474
1086.235256	0.000497
1086.397720	0.001580
1086.560165	0.003334
1086.722592	-0.000605
1086.885001	0.003086
1087.047392	0.006201
1087.209764	0.007509
1087.372119	0.009501
1087.534455	0.005835
1087.696772	0.003354
1087.859072	0.001764
1088.021353	0.000988
1088.183616	0.001520
1088.345861	-0.002551
1088.508088	-0.002841
1088.670296	-0.004188
1088.832486	-0.005857
1088.994658	-0.007763
1089.156812	-0.005021
1089.318948	-0.004906
1089.481065	-0.008460
1089.643164	-0.008214
1089.805245	-0.007141
1089.967308	-0.007032
1090.129352	-0.006226
1090.291378	-0.004934
1090.453386	0.000165
1090.615376	-0.000113
1090.777347	0.002114
1090.939301	0.002864
1091.101236	0.003615
1091.263153	0.003875
1091.425051	0.005219
1091.586932	0.003802
1091.748794	0.000805
1091.910638	-0.001232
1092.072463	-0.002055
1092.234271	-0.003939
1092.396060	-0.003399
1092.557831	-0.003052
1092.719584	-0.003381
1092.881319	-0.006253
1093.043035	-0.005345
1093.204733	-0.003773
1093.366413	-0.003929
1093.528075	-0.005579
1093.689718	-0.005895
1093.851343	-0.005165
1094.012950	-0.006105
1094.174539	-0.004757
1094.336110	-0.001529
1094.497662	0.000898
1094.659196	0.001308
1094.820712	0.001136
1094.982210	0.004213
1095.143689	0.005577
1095.305151	0.006632
1095.466594	0.008318
1095.628018	0.008156
1095.789425	0.006747
1095.950813	0.004768
1096.112183	0.006475
1096.273535	0.006779
1096.434869	0.002094
1096.596184	-0.002537
1096.757482	-0.004070
1096.918761	-0.005503
1097.080021	-0.007131
1097.241264	-0.006467
1097.402488	-0.004685
1097.563694	-0.005719
1097.724882	-0.004767
1097.886052	-0.002857
1098.047203	0.000198
1098.208336	0.001591
1098.369451	0.000186
1098.530548	-0.000812
1098.691627	-0.000245
1098.852687	-0.001280
1099.013729	-0.002098
1099.174753	-0.003039
1099.335758	-0.001885
1099.496746	-0.001304
1099.657715	-0.002096
1099.818666	0.001153
1099.979599	0.001207
1100.140513	0.000941
1100.301409	-0.000269
1100.462287	-0.001496
1100.623147	-0.002802
1100.783989	-0.002930
1100.944812	-0.002321
1101.105617	-0.002970
1101.266404	-0.004920
1101.427173	-0.000658
1101.587923	-0.001040
1101.748656	0.002650
1101.909370	0.005677
1102.070066	0.005841
1102.230743	0.006894
1102.391403	0.004073
1102.552044	0.003565
1102.712667	0.004116
1102.873271	0.002009
1103.033858	0.003678
1103.194426	0.001435
1103.354976	0.003742
1103.515508	0.004848
1103.676021	0.001896
1103.836517	0.005859
1103.996994	0.006536
1104.157453	0.007358
1104.317893	0.007026
1104.478316	0.006313
1104.638720	0.005575
1104.799106	0.002061
1104.959474	0.004585
1105.119823	0.006965
1105.280155	0.007404
1105.440468	0.009600
1105.600763	0.010136
1105.761039	0.012252
1105.921298	0.010012
1106.081538	0.009792
1106.241760	0.010110
1106.401964	0.010194
1106.562149	0.010765
1106.722316	0.011569
1106.882465	0.012935
1107.042596	0.010869
1107.202709	0.007228
1107.362803	0.009232
1107.522879	0.008486
1107.682937	0.007013
1107.842977	0.004276
1108.002999	0.004768
1108.163002	0.003003
1108.322987	0.002756
1108.482954	0.003586
1108.642902	0.006936
1108.802833	0.005457
1108.962745	0.005269
1109.122639	0.005771
1109.282515	0.005211
1109.442372	0.000894
1109.602211	0.001333
1109.762032	-0.001525
1109.921835	-0.003204
1110.081620	-0.005709
1110.241386	-0.003078
1110.401134	-0.000868
1110.560864	0.000292
1110.720576	0.002768
1110.880269	0.008489
1111.039945	0.003504
1111.199602	0.006544
1111.359240	0.009387
1111.518861	0.010171
1111.678463	0.009574
1111.838047	0.007939
1111.997613	0.009200
1112.157161	0.008466
1112.316690	0.008244
1112.476202	0.013316
1112.635695	0.012354
1112.795169	0.009217
1112.954626	0.011089
1113.114064	0.009730
1113.273484	0.010032
1113.432886	0.006946
1113.592270	0.005356
1113.751635	0.005477
1113.910983	0.003275
1114.070312	-0.001325
1114.229622	-0.000500
1114.388915	0.000344
1114.548189	-0.002103
1114.707445	-0.004563
1114.866683	-0.003450
1115.025903	-0.003368
1115.185104	-0.004975
1115.344287	-0.008119
1115.503452	-0.005746
1115.662599	-0.004821
1115.821727	-0.007246
1115.980838	-0.005251
1116.139930	-0.003017
1116.299004	-0.002716
1116.458059	-0.001978
1116.617097	-0.001322
1116.776116	-0.000103
1116.935117	0.000297
1117.094099	0.002231
1117.253064	-0.000677
1117.412010	-0.000800
1117.570938	0.000070
1117.729848	0.002114
1117.888740	0.004116
1118.047613	0.002865
1118.206468	0.006690
1118.365305	0.009728
1118.524124	0.012960
1118.682924	0.015920
1118.841707	0.015537
1119.000471	0.016221
1119.159216	0.010982
1119.317944	0.012561
1119.476653	0.015206
1119.635344	0.016488
1119.794017	0.014560
1119.952672	0.012251
1120.111308	0.018797
1120.269927	0.022914
1120.428527	0.020337
1120.587108	0.024256
1120.745672	0.024191
1120.904217	0.020420
1121.062744	0.019434
1121.221253	0.018514
1121.379744	0.014926
1121.538216	0.010317
1121.696671	0.008698
1121.855107	0.009234
1122.013524	0.009670
1122.171924	0.004082
1122.330305	0.007704
1122.488668	0.008303
1122.647013	0.009607
1122.805340	0.012573
1122.963648	0.009563
1123.121938	0.009448
1123.280210	0.009109
1123.438464	0.006856
1123.596700	0.013054
1123.754917	0.010556
1123.913116	0.007661
1124.071297	0.008365
1124.229459	0.006364
1124.387604	0.004856
1124.545730	0.002113
1124.703838	0.008846
1124.861928	0.011982
1125.019999	0.006706
1125.178052	0.008070
1125.336088	0.009015
1125.494104	0.006480
1125.652103	0.009301
1125.810083	0.012049
1125.968045	0.015516
1126.125989	0.012598
1126.283915	0.013919
1126.441823	0.014256
1126.599712	0.017421
1126.757583	0.024745
1126.915436	0.024781
1127.073270	0.028028
1127.231087	0.026497
1127.388885	0.024842
1127.546665	0.023208
1127.704426	0.018059
1127.862170	0.019071
1128.019895	0.014031
1128.177602	0.006570
1128.335291	0.006481
1128.492961	0.003396
1128.650614	0.007475
1128.808248	0.009696
1128.965864	0.008146
1129.123461	0.013306
1129.281041	0.013011
1129.438602	0.014714
1129.596145	0.013111
1129.753670	0.011543
1129.911176	0.010353
1130.068665	0.007489
1130.226135	0.008104
1130.383587	0.010482
1130.541020	0.004449
1130.698436	0.004286
1130.855833	0.002806
1131.013212	0.006488
1131.170573	0.009804
1131.327915	0.008410
1131.485239	0.009665
1131.642545	0.006082
1131.799833	0.004650
1131.957103	0.008529
1132.114354	0.010702
1132.271588	0.012908
1132.428803	0.011412
1132.585999	0.004467
1132.743178	0.005189
1132.900338	0.007935
1133.057480	0.007722
1133.214604	0.004806
1133.371710	0.001698
1133.528797	-0.000070
1133.685866	-0.001151
1133.842917	-0.003093
1133.999950	0.006826
1134.156964	0.007061
1134.313960	0.002610
1134.470938	0.000530
1134.627898	0.001222
1134.784840	-0.002397
1134.941763	-0.002593
1135.098668	-0.000469
1135.255555	-0.002281
1135.412424	-0.004913
1135.569274	-0.007072
1135.726107	-0.005214
1135.882921	-0.001086
1136.039716	-0.002959
1136.196494	0.007091
1136.353253	0.005235
1136.509995	0.002055
1136.666717	0.004294
1136.823422	0.004046
1136.980109	0.006122
1137.136777	0.008952
1137.293427	0.008758
1137.450059	0.014078
1137.606672	0.007527
1137.763267	0.011656
1137.919844	0.010176
1138.076403	0.012533
1138.232944	0.019051
1138.389466	0.019730
1138.545971	0.019670
1138.702457	0.020806
1138.858924	0.023526
1139.015374	0.025928
1139.171805	0.028430
1139.328218	0.031997
1139.484613	0.032269
1139.640990	0.023789
1139.797348	0.021149
1139.953688	0.018739
1140.110010	0.016257
1140.266314	0.013341
1140.422600	0.017399
1140.578867	0.008379
1140.735116	0.006207
1140.891347	0.006921
1141.047559	0.009475
1141.203754	0.010385
1141.359930	0.009034
1141.516088	0.009581
1141.672228	0.005083
1141.828349	0.002656
1141.984452	0.009158
1142.140537	0.010325
1142.296604	0.006108
1142.452653	0.000194
1142.608683	0.005931
1142.764695	0.004774
1142.920689	0.002043
1143.076665	0.010582
1143.232622	0.007780
1143.388562	0.016660
1143.544483	0.019765
1143.700385	0.022602
1143.856270	0.029834
1144.012136	0.023585
1144.167985	0.029043
1144.323814	0.037877
1144.479626	0.026758
1144.635420	0.028799
1144.791195	0.020860
1144.946952	0.018350
1145.102691	0.020813
1145.258411	0.021884
1145.414113	0.017864
1145.569798	0.012541
1145.725463	0.006720
1145.881111	0.010754
1146.036741	0.015930
1146.192352	0.011607
1146.347945	0.011095
1146.503519	0.015545
1146.659076	0.015298
1146.814614	0.017653
1146.970134	0.015794
1147.125636	0.011709
1147.281120	0.012472
1147.436585	0.009348
1147.592032	0.009783
1147.747461	0.017359
1147.902872	0.006729
1148.058265	0.008199
1148.213639	0.010480
1148.368995	0.009100
1148.524333	0.014001
1148.679653	0.014303
1148.834954	0.011684
1148.990237	0.015432
1149.145502	0.011203
1149.300749	0.015357
1149.455977	0.006375
1149.611188	0.003560
1149.766380	0.009183
1149.921553	0.005232
1150.076709	0.003558
1150.231846	0.009101
1150.386966	0.010604
1150.542066	0.007541
1150.697149	0.014426
1150.852214	0.017711
1151.007260	0.022881
1151.162288	0.022148
1151.317298	0.017493
1151.472289	0.021297
1151.627263	0.014309
1151.782218	0.010484
1151.937155	0.006492
1152.092073	0.009577
1152.246974	0.011829
1152.401856	0.011599
1152.556720	0.010446
1152.711566	0.022313
1152.866393	0.028650
1153.021203	0.029433
1153.175994	0.025097
1153.330767	0.033105
1153.485521	0.019849
1153.640258	0.011676
1153.794976	0.014563
1153.949676	0.024632
1154.104358	0.020081
1154.259021	0.011103
1154.413667	0.004222
1154.568294	0.009358
1154.722903	0.003855
1154.877493	0.008699
1155.032066	0.019990
1155.186620	0.014996
1155.341156	0.007850
1155.495674	0.006455
1155.650173	0.009262
1155.804654	0.018227
1155.959118	0.021562
1156.113562	0.022904
1156.267989	0.028600
1156.422397	0.019781
1156.576788	0.025339
1156.731160	0.020103
1156.885513	0.019870
1157.039849	0.017719
1157.194166	0.021156
1157.348465	0.013891
1157.502746	0.013102
1157.657009	0.010259
1157.811253	0.017477
1157.965479	0.015920
1158.119687	0.023558
1158.273877	0.033022
1158.428048	0.034082
1158.582201	0.018966
1158.736337	0.025394
1158.890453	0.025477
1159.044552	0.019482
1159.198632	0.022543
1159.352694	0.017962
1159.506738	0.015723
1159.660764	0.015554
1159.814771	0.019464
1159.968761	0.033178
1160.122732	0.034330
1160.276685	0.035090
1160.430619	0.036725
1160.584535	0.028462
1160.738434	0.033794
1160.892313	0.034146
1161.046175	0.027724
1161.200019	0.024324
1161.353844	0.022819
1161.507651	0.016105
1161.661440	0.018827
1161.815210	0.014276
1161.968962	0.015860
1162.122697	0.019092
1162.276412	0.017670
1162.430110	0.021927
1162.583789	0.015660
1162.737451	0.016874
1162.891094	0.014537
1163.044718	0.013343
1163.198325	0.011999
1163.351913	0.015972
1163.505483	0.007618
1163.659035	0.011974
1163.812569	0.012506
1163.966084	0.015283
1164.119581	0.011158
1164.273060	0.020311
1164.426521	0.013780
1164.579964	0.014642
1164.733388	0.024998
1164.886794	0.021129
1165.040182	0.015574
1165.193551	0.018146
1165.346903	0.016235
1165.500236	0.015516
1165.653551	0.004302
1165.806848	0.010259
1165.960126	0.013224
1166.113386	0.001441
1166.266628	0.006031
1166.419852	0.001192
1166.573058	-0.007410
1166.726245	0.006939
1166.879414	0.016520
1167.032565	0.018442
1167.185698	0.012740
1167.338812	0.011315
1167.491909	0.004018
1167.644987	0.007930
1167.798046	0.011270
1167.951088	-0.003476
1168.104111	-0.009417
1168.257117	-0.022171
1168.410103	-0.023668
1168.563072	-0.022070
1168.716023	-0.014887
1168.868955	-0.012798
1169.021869	-0.013419
1169.174765	-0.027531
1169.327642	-0.011546
1169.480501	-0.003956
1169.633343	0.002455
1169.786165	0.010641
1169.938970	0.009818
1170.091757	-0.000665
1170.244525	-0.002406
1170.397275	-0.004087
1170.550007	0.013388
1170.702720	0.010715
1170.855415	0.002758
1171.008092	-0.002942
1171.160751	-0.009016
1171.313392	-0.009194
1171.466014	0.057055
1171.618619	-0.037185
1171.771205	-0.037185
1171.923772	-0.037185
