sample name	sample
index	449
start time	 03-11-2021  11:09:21 AM


Wavelength (nm)	Absorbance
494.344910	-0.353959
494.563924	-0.353959
494.782919	-0.353959
495.001897	-0.154780
495.220856	-0.054109
495.439797	-0.025305
495.658719	0.043905
495.877624	0.206945
496.096510	0.272034
496.315378	0.343321
496.534227	0.343311
496.753059	0.049570
496.971872	0.051366
497.190667	0.034084
497.409444	0.032810
497.628203	0.035102
497.846943	0.029966
498.065665	0.028757
498.284369	0.028513
498.503055	0.027557
498.721723	0.028764
498.940372	0.029282
499.159003	0.029355
499.377616	0.028777
499.596210	0.028017
499.814787	0.028746
500.033345	0.028959
500.251885	0.029050
500.470406	0.029477
500.688910	0.029282
500.907395	0.030163
501.125862	0.029506
501.344311	0.029143
501.562742	0.029377
501.781154	0.028525
501.999548	0.029544
502.217924	0.028917
502.436282	0.029083
502.654621	0.028816
502.872942	0.028035
503.091245	0.028246
503.309530	0.029487
503.527797	0.028896
503.746045	0.030163
503.964275	0.029220
504.182487	0.030201
504.400681	0.030303
504.618856	0.029837
504.837013	0.029490
505.055152	0.029995
505.273273	0.029765
505.491376	0.029657
505.709460	0.029140
505.927526	0.028677
506.145574	0.028559
506.363604	0.028239
506.581615	0.028181
506.799608	0.028641
507.017583	0.028124
507.235540	0.028131
507.453478	0.027849
507.671399	0.027555
507.889301	0.027672
508.107185	0.027517
508.325050	0.027750
508.542898	0.027602
508.760727	0.027910
508.978538	0.028399
509.196330	0.028738
509.414105	0.028756
509.631861	0.029345
509.849599	0.029853
510.067319	0.029429
510.285021	0.028660
510.502704	0.028945
510.720369	0.028200
510.938016	0.027942
511.155645	0.026945
511.373255	0.027150
511.590848	0.027235
511.808422	0.026702
512.025977	0.026698
512.243515	0.026999
512.461034	0.027033
512.678536	0.026202
512.896018	0.026266
513.113483	0.026693
513.330930	0.026284
513.548358	0.025875
513.765768	0.026390
513.983160	0.026157
514.200533	0.025801
514.417889	0.025659
514.635226	0.025691
514.852545	0.024965
515.069845	0.025056
515.287128	0.025297
515.504392	0.025235
515.721638	0.024991
515.938866	0.025401
516.156075	0.025270
516.373267	0.025868
516.590440	0.026275
516.807594	0.026899
517.024731	0.026603
517.241850	0.026928
517.458950	0.026833
517.676032	0.026976
517.893095	0.027127
518.110141	0.027582
518.327168	0.027246
518.544177	0.026912
518.761168	0.027175
518.978141	0.027330
519.195095	0.026852
519.412031	0.026790
519.628949	0.026393
519.845849	0.026000
520.062731	0.025915
520.279594	0.026089
520.496439	0.026087
520.713266	0.025967
520.930074	0.025301
521.146865	0.025125
521.363637	0.025215
521.580391	0.025862
521.797127	0.025445
522.013844	0.025844
522.230543	0.025125
522.447224	0.025519
522.663887	0.025338
522.880532	0.025625
523.097158	0.025905
523.313766	0.025839
523.530356	0.025175
523.746928	0.025338
523.963481	0.025190
524.180017	0.025671
524.396534	0.025804
524.613032	0.025613
524.829513	0.025571
525.045975	0.025712
525.262420	0.025996
525.478845	0.025818
525.695253	0.025790
525.911643	0.025552
526.128014	0.025893
526.344367	0.025126
526.560702	0.025046
526.777018	0.024925
526.993316	0.024583
527.209597	0.024341
527.425858	0.024292
527.642102	0.024400
527.858328	0.024425
528.074535	0.023733
528.290724	0.023951
528.506894	0.023998
528.723047	0.024156
528.939181	0.024260
529.155297	0.024028
529.371395	0.023967
529.587475	0.024227
529.803536	0.024070
530.019579	0.024556
530.235604	0.024721
530.451611	0.025065
530.667600	0.024532
530.883570	0.024608
531.099522	0.024722
531.315456	0.025031
531.531372	0.024649
531.747269	0.024599
531.963148	0.024101
532.179009	0.024207
532.394852	0.023998
532.610676	0.024672
532.826482	0.024822
533.042271	0.025252
533.258040	0.024841
533.473792	0.025202
533.689525	0.025277
533.905240	0.025309
534.120937	0.024977
534.336616	0.025198
534.552277	0.025234
534.767919	0.024697
534.983543	0.024018
535.199149	0.024019
535.414736	0.024148
535.630306	0.023729
535.845857	0.023841
536.061390	0.024023
536.276904	0.023349
536.492401	0.023128
536.707879	0.023334
536.923339	0.023571
537.138781	0.023808
537.354204	0.023308
537.569610	0.023513
537.784997	0.023873
538.000366	0.023831
538.215716	0.023463
538.431049	0.023058
538.646363	0.022924
538.861659	0.023085
539.076937	0.023035
539.292196	0.023350
539.507438	0.023284
539.722661	0.022942
539.937866	0.022787
540.153052	0.023549
540.368221	0.023401
540.583371	0.023494
540.798503	0.023326
541.013617	0.023381
541.228712	0.023473
541.443789	0.023256
541.658848	0.023330
541.873889	0.023441
542.088912	0.022998
542.303916	0.023277
542.518902	0.023192
542.733870	0.023204
542.948820	0.023072
543.163752	0.022603
543.378665	0.023179
543.593560	0.022721
543.808437	0.022556
544.023295	0.022747
544.238136	0.022928
544.452958	0.022663
544.667762	0.022267
544.882548	0.022391
545.097315	0.022522
545.312064	0.021980
545.526795	0.022250
545.741508	0.022432
545.956203	0.022509
546.170879	0.022536
546.385537	0.022913
546.600177	0.023354
546.814799	0.023094
547.029402	0.022903
547.243988	0.023168
547.458555	0.023184
547.673103	0.023063
547.887634	0.023019
548.102146	0.022991
548.316640	0.022701
548.531116	0.022387
548.745574	0.022815
548.960013	0.022921
549.174435	0.022599
549.388838	0.022544
549.603222	0.022503
549.817589	0.021942
550.031937	0.021650
550.246267	0.021710
550.460579	0.021965
550.674873	0.021858
550.889148	0.021677
551.103405	0.021770
551.317644	0.021808
551.531865	0.021902
551.746068	0.022101
551.960252	0.022233
552.174418	0.022220
552.388566	0.021778
552.602696	0.021669
552.816807	0.021809
553.030900	0.021874
553.244975	0.021934
553.459032	0.021836
553.673070	0.021672
553.887091	0.021776
554.101093	0.022161
554.315077	0.022436
554.529042	0.022583
554.742990	0.022560
554.956919	0.022853
555.170830	0.022555
555.384722	0.022398
555.598597	0.022630
555.812453	0.022379
556.026291	0.021949
556.240111	0.021625
556.453913	0.021793
556.667696	0.022116
556.881461	0.022172
557.095208	0.022127
557.308937	0.022499
557.522647	0.022670
557.736339	0.022952
557.950013	0.023295
558.163669	0.023502
558.377307	0.022944
558.590926	0.022665
558.804527	0.022341
559.018110	0.022493
559.231675	0.022264
559.445221	0.022063
559.658749	0.021811
559.872259	0.021571
560.085751	0.021732
560.299225	0.021620
560.512680	0.021708
560.726117	0.021697
560.939536	0.021541
561.152937	0.021296
561.366319	0.021453
561.579683	0.021357
561.793029	0.021412
562.006357	0.021204
562.219667	0.021455
562.432958	0.021105
562.646231	0.020961
562.859486	0.021019
563.072723	0.021167
563.285941	0.020898
563.499141	0.021042
563.712323	0.020813
563.925487	0.020744
564.138632	0.020504
564.351760	0.020782
564.564869	0.020932
564.777960	0.020906
564.991032	0.020804
565.204087	0.020821
565.417123	0.020704
565.630141	0.020771
565.843140	0.020613
566.056122	0.020655
566.269085	0.020264
566.482030	0.020170
566.694957	0.020169
566.907866	0.020247
567.120756	0.020381
567.333628	0.020258
567.546482	0.020237
567.759318	0.020465
567.972135	0.020600
568.184935	0.020629
568.397716	0.020580
568.610478	0.020507
568.823223	0.020515
569.035949	0.020251
569.248657	0.020312
569.461347	0.020131
569.674019	0.020013
569.886672	0.019750
570.099308	0.019854
570.311925	0.019980
570.524523	0.019941
570.737104	0.019864
570.949666	0.019888
571.162210	0.019745
571.374736	0.019959
571.587244	0.020000
571.799733	0.020059
572.012205	0.020079
572.224658	0.019827
572.437092	0.019744
572.649509	0.019997
572.861907	0.019812
573.074287	0.020029
573.286649	0.019941
573.498993	0.019915
573.711318	0.019763
573.923625	0.019818
574.135914	0.019850
574.348185	0.019664
574.560438	0.019409
574.772672	0.019488
574.984888	0.019267
575.197086	0.019223
575.409266	0.019059
575.621427	0.019050
575.833570	0.018581
576.045695	0.018653
576.257802	0.018716
576.469890	0.018623
576.681961	0.018809
576.894013	0.018758
577.106046	0.018685
577.318062	0.018612
577.530059	0.018809
577.742039	0.019270
577.954000	0.019096
578.165942	0.019442
578.377867	0.019599
578.589773	0.019641
578.801661	0.019744
579.013531	0.019611
579.225382	0.019525
579.437216	0.019655
579.649031	0.019463
579.860828	0.019224
580.072606	0.018883
580.284367	0.018541
580.496109	0.018176
580.707833	0.018103
580.919539	0.017956
581.131227	0.018153
581.342896	0.017915
581.554547	0.017625
581.766180	0.017772
581.977795	0.017567
582.189391	0.017565
582.400969	0.017364
582.612529	0.017558
582.824071	0.017589
583.035595	0.017419
583.247100	0.017306
583.458587	0.017726
583.670056	0.017741
583.881506	0.017795
584.092939	0.017662
584.304353	0.018283
584.515749	0.018233
584.727127	0.018384
584.938486	0.018400
585.149828	0.018389
585.361151	0.018216
585.572456	0.018363
585.783742	0.018456
585.995011	0.018526
586.206261	0.018199
586.417493	0.017904
586.628706	0.017677
586.839902	0.017821
587.051079	0.017828
587.262238	0.017861
587.473379	0.017590
587.684502	0.017892
587.895606	0.017868
588.106692	0.018003
588.317760	0.017992
588.528810	0.018399
588.739841	0.018323
588.950855	0.018396
589.161850	0.017990
589.372827	0.018231
589.583785	0.017782
589.794726	0.017740
590.005648	0.017421
590.216552	0.017428
590.427437	0.017093
590.638305	0.017106
590.849154	0.017068
591.059985	0.017134
591.270798	0.017028
591.481592	0.017150
591.692369	0.017334
591.903127	0.017411
592.113867	0.017522
592.324588	0.017601
592.535292	0.017407
592.745977	0.017168
592.956644	0.017228
593.167293	0.016953
593.377923	0.016990
593.588536	0.016904
593.799130	0.016978
594.009706	0.016625
594.220263	0.016473
594.430803	0.016501
594.641324	0.016746
594.851827	0.016974
595.062312	0.017158
595.272778	0.016965
595.483227	0.017146
595.693657	0.016828
595.904069	0.016961
596.114462	0.017087
596.324838	0.017206
596.535195	0.017288
596.745534	0.017082
596.955855	0.017045
597.166157	0.017312
597.376441	0.017277
597.586707	0.017718
597.796955	0.018107
598.007185	0.017937
598.217396	0.018039
598.427589	0.018267
598.637764	0.018590
598.847921	0.018685
599.058060	0.018678
599.268180	0.018508
599.478282	0.018578
599.688366	0.018329
599.898431	0.018694
600.108479	0.018449
600.318508	0.018141
600.528519	0.017941
600.738511	0.017923
600.948486	0.017913
601.158442	0.017968
601.368380	0.017549
601.578300	0.017453
601.788202	0.017075
601.998085	0.017117
602.207950	0.017054
602.417797	0.017053
602.627626	0.016832
602.837436	0.016405
603.047228	0.016134
603.257002	0.016588
603.466758	0.016467
603.676496	0.016403
603.886215	0.016277
604.095916	0.016120
604.305599	0.016105
604.515264	0.016253
604.724910	0.016460
604.934538	0.016441
605.144148	0.016113
605.353740	0.016243
605.563314	0.016292
605.772869	0.016128
605.982406	0.016088
606.191925	0.016208
606.401425	0.016105
606.610908	0.016238
606.820372	0.016486
607.029818	0.016455
607.239246	0.016579
607.448655	0.016779
607.658047	0.016642
607.867420	0.016608
608.076775	0.016382
608.286111	0.016440
608.495430	0.016023
608.704730	0.016022
608.914012	0.015989
609.123275	0.015888
609.332521	0.015552
609.541748	0.016051
609.750957	0.016017
609.960148	0.016071
610.169321	0.016060
610.378475	0.016328
610.587611	0.016072
610.796729	0.016093
611.005829	0.016081
611.214910	0.016455
611.423974	0.016507
611.633019	0.016675
611.842045	0.016603
612.051054	0.016745
612.260044	0.016736
612.469017	0.016880
612.677970	0.016884
612.886906	0.016833
613.095824	0.016534
613.304723	0.016218
613.513604	0.016229
613.722467	0.016238
613.931311	0.016167
614.140138	0.016285
614.348946	0.016212
614.557736	0.016188
614.766507	0.016196
614.975261	0.016263
615.183996	0.016354
615.392713	0.016042
615.601412	0.016199
615.810092	0.016104
616.018754	0.015883
616.227399	0.015823
616.436024	0.015653
616.644632	0.015732
616.853222	0.015598
617.061793	0.015609
617.270346	0.015918
617.478880	0.015773
617.687397	0.015722
617.895895	0.015955
618.104375	0.016071
618.312837	0.016338
618.521281	0.015894
618.729706	0.015966
618.938113	0.016017
619.146502	0.015824
619.354873	0.015821
619.563226	0.015764
619.771560	0.015492
619.979876	0.015557
620.188174	0.015291
620.396453	0.015642
620.604715	0.015805
620.812958	0.015896
621.021183	0.015988
621.229390	0.016074
621.437578	0.016387
621.645748	0.016693
621.853900	0.016796
622.062034	0.017160
622.270150	0.016990
622.478247	0.016975
622.686326	0.016840
622.894387	0.016850
623.102430	0.016705
623.310454	0.016304
623.518461	0.016043
623.726449	0.015780
623.934418	0.015429
624.142370	0.015620
624.350303	0.015429
624.558218	0.015488
624.766115	0.015412
624.973994	0.015393
625.181855	0.015591
625.389697	0.015773
625.597521	0.015977
625.805327	0.016083
626.013114	0.016020
626.220883	0.016213
626.428634	0.016300
626.636367	0.016323
626.844082	0.016296
627.051778	0.016166
627.259457	0.015879
627.467117	0.015556
627.674758	0.015571
627.882382	0.015369
628.089987	0.015318
628.297574	0.015032
628.505143	0.014961
628.712694	0.014903
628.920226	0.014862
629.127740	0.014967
629.335236	0.015162
629.542714	0.015086
629.750174	0.015128
629.957615	0.015084
630.165038	0.014943
630.372443	0.015124
630.579829	0.015025
630.787198	0.015071
630.994548	0.015140
631.201880	0.015073
631.409194	0.015164
631.616489	0.015266
631.823766	0.015399
632.031025	0.015651
632.238266	0.015503
632.445489	0.015859
632.652693	0.015925
632.859879	0.015906
633.067047	0.015938
633.274197	0.015764
633.481329	0.015887
633.688442	0.015732
633.895537	0.015832
634.102614	0.015682
634.309672	0.015526
634.516713	0.015601
634.723735	0.015541
634.930739	0.015543
635.137724	0.015540
635.344692	0.015345
635.551641	0.015470
635.758572	0.015322
635.965485	0.015450
636.172379	0.015508
636.379256	0.015378
636.586114	0.015529
636.792954	0.015322
636.999775	0.015373
637.206579	0.015456
637.413364	0.015526
637.620131	0.015422
637.826880	0.015383
638.033610	0.015253
638.240323	0.015158
638.447017	0.015029
638.653692	0.015222
638.860350	0.015262
639.066990	0.015071
639.273611	0.014747
639.480214	0.014926
639.686798	0.014932
639.893365	0.014861
640.099913	0.014944
640.306443	0.014874
640.512955	0.014781
640.719449	0.014722
640.925924	0.014902
641.132381	0.014890
641.338820	0.014707
641.545241	0.014619
641.751644	0.014622
641.958028	0.014561
642.164394	0.014582
642.370742	0.014502
642.577071	0.014580
642.783383	0.014454
642.989676	0.014774
643.195951	0.014801
643.402207	0.015012
643.608446	0.015041
643.814666	0.015230
644.020868	0.015458
644.227052	0.015574
644.433218	0.015533
644.639365	0.015736
644.845494	0.015633
645.051605	0.015828
645.257698	0.015831
645.463772	0.015824
645.669828	0.015692
645.875866	0.015504
646.081886	0.015686
646.287888	0.015658
646.493871	0.015631
646.699836	0.015533
646.905783	0.015366
647.111712	0.015190
647.317622	0.015251
647.523514	0.015235
647.729388	0.015035
647.935244	0.014943
648.141082	0.014887
648.346901	0.014870
648.552702	0.014907
648.758485	0.015005
648.964250	0.015085
649.169996	0.015053
649.375724	0.015214
649.581434	0.015539
649.787126	0.015485
649.992800	0.015603
650.198455	0.015623
650.404092	0.015410
650.609711	0.015407
650.815311	0.015318
651.020894	0.015404
651.226458	0.015262
651.432004	0.014987
651.637532	0.014893
651.843041	0.014831
652.048532	0.014707
652.254006	0.014683
652.459460	0.014694
652.664897	0.014739
652.870315	0.014635
653.075716	0.014460
653.281097	0.014574
653.486461	0.014456
653.691807	0.014263
653.897134	0.014158
654.102443	0.014230
654.307734	0.014034
654.513006	0.014032
654.718261	0.014064
654.923497	0.014212
655.128715	0.014190
655.333915	0.014305
655.539096	0.014577
655.744259	0.014760
655.949404	0.014740
656.154531	0.014720
656.359640	0.014840
656.564730	0.014827
656.769802	0.014814
656.974856	0.014888
657.179892	0.014852
657.384909	0.014675
657.589908	0.014486
657.794889	0.014464
657.999852	0.014570
658.204797	0.014536
658.409723	0.014548
658.614631	0.014577
658.819521	0.014585
659.024393	0.014710
659.229246	0.014826
659.434081	0.014987
659.638898	0.015079
659.843697	0.015029
660.048478	0.015089
660.253240	0.015022
660.457984	0.014926
660.662710	0.014762
660.867417	0.014611
661.072107	0.014435
661.276778	0.014315
661.481431	0.014238
661.686066	0.014114
661.890682	0.014034
662.095281	0.014135
662.299861	0.014137
662.504422	0.014096
662.708966	0.014204
662.913491	0.014416
663.117999	0.014635
663.322488	0.014704
663.526958	0.014802
663.731411	0.014783
663.935845	0.014530
664.140261	0.014513
664.344659	0.014704
664.549038	0.014729
664.753400	0.014732
664.957743	0.014480
665.162068	0.014545
665.366375	0.014588
665.570663	0.014552
665.774933	0.014761
665.979185	0.014825
666.183419	0.014750
666.387635	0.014621
666.591832	0.014513
666.796011	0.014693
667.000172	0.014505
667.204315	0.014559
667.408439	0.014507
667.612545	0.014586
667.816634	0.014584
668.020703	0.014550
668.224755	0.014582
668.428788	0.014480
668.632803	0.014383
668.836800	0.014508
669.040779	0.014393
669.244739	0.014415
669.448681	0.014344
669.652605	0.014310
669.856511	0.014337
670.060399	0.014287
670.264268	0.014300
670.468119	0.014296
670.671952	0.014337
670.875767	0.014368
671.079563	0.014236
671.283341	0.014212
671.487101	0.014107
671.690843	0.013920
671.894567	0.013764
672.098272	0.013695
672.301959	0.013694
672.505628	0.013436
672.709278	0.013452
672.912911	0.013564
673.116525	0.013393
673.320121	0.013435
673.523699	0.013541
673.727258	0.013748
673.930799	0.014019
674.134322	0.014062
674.337827	0.014271
674.541314	0.014288
674.744782	0.014243
674.948232	0.014223
675.151664	0.014348
675.355078	0.014334
675.558474	0.014257
675.761851	0.014233
675.965210	0.014035
676.168551	0.014039
676.371873	0.013990
676.575178	0.014070
676.778464	0.014309
676.981732	0.014170
677.184981	0.014188
677.388213	0.014326
677.591426	0.014213
677.794621	0.014361
677.997798	0.014219
678.200956	0.014234
678.404097	0.014182
678.607219	0.014259
678.810323	0.014069
679.013408	0.014119
679.216476	0.013943
679.419525	0.013795
679.622556	0.013606
679.825569	0.013627
680.028563	0.013505
680.231540	0.013467
680.434498	0.013319
680.637438	0.013617
680.840359	0.013507
681.043263	0.013583
681.246148	0.013667
681.449015	0.013798
681.651864	0.013781
681.854694	0.013839
682.057506	0.013812
682.260301	0.013730
682.463076	0.013782
682.665834	0.013793
682.868573	0.013774
683.071295	0.013799
683.273998	0.013763
683.476682	0.013889
683.679349	0.013934
683.881997	0.014010
684.084627	0.014131
684.287239	0.014113
684.489833	0.014139
684.692408	0.014214
684.894965	0.014258
685.097504	0.014211
685.300025	0.014176
685.502527	0.014264
685.705012	0.014353
685.907478	0.014333
686.109925	0.014298
686.312355	0.014400
686.514766	0.014232
686.717159	0.014361
686.919534	0.014578
687.121891	0.014554
687.324230	0.014468
687.526550	0.014423
687.728852	0.014314
687.931136	0.014273
688.133401	0.014054
688.335649	0.014064
688.537878	0.013891
688.740089	0.013765
688.942281	0.013672
689.144456	0.013471
689.346612	0.013325
689.548750	0.013422
689.750870	0.013359
689.952971	0.013622
690.155055	0.013573
690.357120	0.013510
690.559167	0.013497
690.761195	0.013443
690.963206	0.013471
691.165198	0.013425
691.367172	0.013326
691.569128	0.013268
691.771065	0.013235
691.972984	0.013285
692.174885	0.013362
692.376768	0.013291
692.578633	0.013462
692.780479	0.013619
692.982308	0.013503
693.184118	0.013576
693.385909	0.013665
693.587683	0.013583
693.789438	0.013497
693.991175	0.013537
694.192894	0.013675
694.394595	0.013767
694.596277	0.013762
694.797941	0.014024
694.999587	0.013970
695.201215	0.014033
695.402824	0.013902
695.604416	0.014171
695.805989	0.014184
696.007543	0.014104
696.209080	0.013935
696.410598	0.013872
696.612099	0.013870
696.813580	0.013781
697.015044	0.013683
697.216490	0.013845
697.417917	0.013745
697.619326	0.013754
697.820717	0.013741
698.022089	0.013730
698.223444	0.013764
698.424780	0.013805
698.626098	0.013946
698.827397	0.014095
699.028679	0.014031
699.229942	0.014009
699.431187	0.013956
699.632414	0.014104
699.833622	0.014202
700.034813	0.014301
700.235985	0.014225
700.437139	0.014194
700.638274	0.014114
700.839392	0.014114
701.040491	0.014067
701.241572	0.014211
701.442635	0.014135
701.643679	0.014155
701.844706	0.014113
702.045714	0.014368
702.246704	0.014379
702.447675	0.014387
702.648629	0.014427
702.849564	0.014502
703.050481	0.014490
703.251380	0.014573
703.452260	0.014553
703.653122	0.014506
703.853966	0.014165
704.054792	0.014150
704.255600	0.014141
704.456389	0.014048
704.657160	0.014021
704.857913	0.013910
705.058648	0.013816
705.259365	0.013840
705.460063	0.013810
705.660743	0.013902
705.861405	0.013981
706.062048	0.013854
706.262674	0.013826
706.463281	0.013657
706.663870	0.013483
706.864441	0.013349
707.064993	0.013137
707.265527	0.013088
707.466043	0.013007
707.666541	0.012871
707.867021	0.013014
708.067482	0.013015
708.267925	0.013198
708.468350	0.013324
708.668757	0.013381
708.869145	0.013450
709.069516	0.013543
709.269868	0.013608
709.470201	0.013727
709.670517	0.013687
709.870814	0.013653
710.071093	0.013675
710.271354	0.013742
710.471597	0.013831
710.671821	0.013970
710.872028	0.013959
711.072216	0.014036
711.272385	0.013959
711.472537	0.013831
711.672670	0.013988
711.872785	0.014005
712.072882	0.013972
712.272961	0.013957
712.473021	0.013839
712.673063	0.013791
712.873087	0.013585
713.073093	0.013655
713.273081	0.013730
713.473050	0.013705
713.673001	0.013534
713.872934	0.013426
714.072849	0.013345
714.272745	0.013385
714.472623	0.013317
714.672483	0.013320
714.872325	0.013139
715.072148	0.013056
715.271954	0.013103
715.471741	0.013115
715.671509	0.013286
715.871260	0.013341
716.070992	0.013211
716.270707	0.013403
716.470403	0.013433
716.670080	0.013452
716.869740	0.013487
717.069381	0.013423
717.269004	0.013375
717.468609	0.013092
717.668195	0.012965
717.867764	0.013030
718.067314	0.012890
718.266846	0.012865
718.466360	0.012816
718.665855	0.012899
718.865332	0.012908
719.064791	0.012961
719.264232	0.013077
719.463655	0.013104
719.663059	0.013177
719.862445	0.013114
720.061813	0.013348
720.261163	0.013597
720.460494	0.013467
720.659807	0.013339
720.859102	0.013457
721.058379	0.013481
721.257638	0.013472
721.456878	0.013439
721.656100	0.013485
721.855304	0.013251
722.054490	0.012960
722.253657	0.012974
722.452806	0.013083
722.651937	0.013096
722.851050	0.012954
723.050145	0.012854
723.249221	0.012735
723.448279	0.012728
723.647319	0.012581
723.846340	0.012657
724.045344	0.012826
724.244329	0.012636
724.443296	0.012491
724.642245	0.012592
724.841175	0.012731
725.040088	0.012560
725.238982	0.012453
725.437857	0.012570
725.636715	0.012426
725.835554	0.012073
726.034376	0.012148
726.233179	0.012102
726.431963	0.012137
726.630730	0.011978
726.829478	0.012252
727.028208	0.012273
727.226920	0.012372
727.425614	0.012412
727.624289	0.012454
727.822946	0.012544
728.021585	0.012612
728.220206	0.012624
728.418808	0.012554
728.617392	0.012604
728.815958	0.012657
729.014506	0.012543
729.213036	0.012666
729.411547	0.012786
729.610040	0.012831
729.808515	0.012879
730.006972	0.012781
730.205410	0.013069
730.403831	0.013028
730.602233	0.013017
730.800616	0.013080
730.998982	0.012975
731.197329	0.012956
731.395658	0.012915
731.593969	0.012903
731.792262	0.012966
731.990536	0.012888
732.188793	0.012796
732.387031	0.012823
732.585250	0.012915
732.783452	0.012946
732.981635	0.012860
733.179800	0.012788
733.377947	0.012854
733.576076	0.012674
733.774186	0.012544
733.972278	0.012643
734.170352	0.012549
734.368408	0.012395
734.566446	0.012485
734.764465	0.012544
734.962466	0.012473
735.160449	0.012455
735.358413	0.012598
735.556360	0.012630
735.754288	0.012563
735.952198	0.012574
736.150090	0.012490
736.347963	0.012353
736.545818	0.012229
736.743655	0.012274
736.941474	0.011967
737.139275	0.011859
737.337057	0.011806
737.534821	0.011883
737.732567	0.011889
737.930295	0.011906
738.128005	0.011960
738.325696	0.012178
738.523369	0.012242
738.721024	0.012397
738.918660	0.012368
739.116279	0.012343
739.313879	0.012282
739.511461	0.012278
739.709024	0.012300
739.906570	0.012259
740.104097	0.012049
740.301606	0.011996
740.499097	0.011998
740.696569	0.011944
740.894024	0.011984
741.091460	0.011934
741.288878	0.012155
741.486277	0.012224
741.683659	0.012304
741.881022	0.012453
742.078367	0.012440
742.275694	0.012478
742.473002	0.012652
742.670293	0.012677
742.867565	0.012625
743.064819	0.012417
743.262054	0.012422
743.459272	0.012445
743.656471	0.012557
743.853652	0.012517
744.050815	0.012518
744.247959	0.012650
744.445085	0.012638
744.642194	0.012723
744.839283	0.012772
745.036355	0.012785
745.233408	0.012754
745.430444	0.012654
745.627461	0.012886
745.824459	0.012865
746.021440	0.012860
746.218402	0.013000
746.415346	0.013069
746.612272	0.013122
746.809180	0.013200
747.006069	0.013199
747.202940	0.013307
747.399793	0.013356
747.596628	0.013455
747.793444	0.013422
747.990243	0.013427
748.187023	0.013371
748.383784	0.013295
748.580528	0.013267
748.777253	0.013189
748.973960	0.013108
749.170649	0.013046
749.367320	0.013011
749.563973	0.013018
749.760607	0.013014
749.957223	0.013088
750.153821	0.013058
750.350400	0.013000
750.546962	0.013113
750.743505	0.013079
750.940030	0.012814
751.136536	0.012900
751.333025	0.013021
751.529495	0.013075
751.725947	0.013050
751.922381	0.013097
752.118796	0.013226
752.315194	0.013303
752.511573	0.013545
752.707934	0.013825
752.904276	0.013966
753.100601	0.014036
753.296907	0.014137
753.493195	0.014234
753.689465	0.014350
753.885716	0.014513
754.081949	0.014542
754.278164	0.014597
754.474361	0.014632
754.670540	0.014419
754.866700	0.014143
755.062843	0.014123
755.258967	0.014144
755.455072	0.014173
755.651160	0.014234
755.847229	0.014331
756.043280	0.014268
756.239313	0.014340
756.435328	0.014450
756.631324	0.014693
756.827302	0.014722
757.023262	0.014697
757.219204	0.014944
757.415127	0.014844
757.611033	0.014793
757.806920	0.014770
758.002788	0.014689
758.198639	0.014810
758.394471	0.014796
758.590286	0.014767
758.786081	0.014712
758.981859	0.014568
759.177619	0.014613
759.373360	0.014580
759.569083	0.014571
759.764788	0.014516
759.960474	0.014460
760.156143	0.014264
760.351793	0.014343
760.547425	0.014360
760.743038	0.014357
760.938634	0.014374
761.134211	0.014509
761.329770	0.014630
761.525311	0.014600
761.720833	0.014686
761.916338	0.014922
762.111824	0.014985
762.307292	0.015180
762.502741	0.015330
762.698173	0.015470
762.893586	0.015346
763.088981	0.015311
763.284358	0.015571
763.479716	0.015635
763.675057	0.015685
763.870379	0.015602
764.065683	0.015528
764.260968	0.015250
764.456236	0.015086
764.651485	0.015085
764.846716	0.015095
765.041929	0.014913
765.237123	0.014744
765.432299	0.014683
765.627457	0.014640
765.822597	0.014498
766.017719	0.014348
766.212822	0.014005
766.407907	0.013910
766.602974	0.013673
766.798023	0.013601
766.993054	0.013502
767.188066	0.013500
767.383060	0.013480
767.578036	0.013588
767.772993	0.014064
767.967933	0.014477
768.162854	0.014518
768.357757	0.014745
768.552642	0.014850
768.747508	0.015136
768.942356	0.015094
769.137186	0.015138
769.331998	0.015249
769.526792	0.015234
769.721567	0.015124
769.916324	0.015229
770.111063	0.015233
770.305784	0.015204
770.500486	0.015215
770.695171	0.015293
770.889837	0.015417
771.084484	0.015339
771.279114	0.015300
771.473725	0.015182
771.668318	0.015025
771.862893	0.015019
772.057450	0.015016
772.251988	0.014832
772.446509	0.014731
772.641011	0.014604
772.835494	0.014582
773.029960	0.014440
773.224407	0.014666
773.418836	0.014925
773.613247	0.014907
773.807640	0.014999
774.002014	0.014912
774.196370	0.014944
774.390708	0.014858
774.585028	0.014793
774.779330	0.014761
774.973613	0.014578
775.167878	0.014506
775.362125	0.014268
775.556354	0.014211
775.750564	0.014293
775.944756	0.014373
776.138930	0.014484
776.333086	0.014295
776.527223	0.014287
776.721343	0.014424
776.915444	0.014367
777.109526	0.014769
777.303591	0.014827
777.497637	0.014969
777.691666	0.014749
777.885676	0.014657
778.079667	0.015062
778.273641	0.015151
778.467596	0.015186
778.661533	0.015284
778.855452	0.015175
779.049352	0.015169
779.243235	0.015157
779.437099	0.015208
779.630945	0.015360
779.824773	0.015317
780.018582	0.015411
780.212373	0.015517
780.406146	0.015399
780.599901	0.015437
780.793638	0.015357
780.987356	0.015389
781.181056	0.015568
781.374738	0.015566
781.568402	0.015712
781.762047	0.015628
781.955674	0.015653
782.149283	0.015773
782.342874	0.015759
782.536447	0.015831
782.730001	0.015577
782.923537	0.015584
783.117055	0.015582
783.310555	0.015476
783.504036	0.015532
783.697499	0.015398
783.890944	0.015482
784.084371	0.015296
784.277780	0.015377
784.471170	0.015646
784.664542	0.015704
784.857896	0.015583
785.051231	0.015613
785.244549	0.015699
785.437848	0.015875
785.631129	0.015932
785.824392	0.016301
786.017636	0.016189
786.210863	0.016135
786.404071	0.016074
786.597260	0.016371
786.790432	0.016332
786.983585	0.016074
787.176721	0.015763
787.369838	0.015692
787.562936	0.015581
787.756017	0.015471
787.949079	0.015438
788.142123	0.015427
788.335149	0.015247
788.528156	0.015180
788.721146	0.015262
788.914117	0.015437
789.107070	0.015312
789.300005	0.015216
789.492921	0.015274
789.685819	0.015441
789.878699	0.015376
790.071561	0.015372
790.264405	0.015438
790.457230	0.015415
790.650037	0.015355
790.842826	0.015459
791.035597	0.015468
791.228349	0.015597
791.421084	0.015522
791.613800	0.015668
791.806497	0.015736
791.999177	0.015723
792.191838	0.015650
792.384481	0.015871
792.577106	0.015835
792.769713	0.015862
792.962301	0.015799
793.154871	0.015664
793.347423	0.015649
793.539957	0.015543
793.732473	0.015407
793.924970	0.015345
794.117449	0.015064
794.309910	0.014949
794.502353	0.014811
794.694777	0.014790
794.887183	0.014748
795.079571	0.014686
795.271941	0.014548
795.464293	0.014630
795.656626	0.014640
795.848941	0.014652
796.041238	0.014564
796.233516	0.014620
796.425777	0.014628
796.618019	0.014584
796.810243	0.014615
797.002449	0.014841
797.194636	0.014669
797.386805	0.014728
797.578956	0.014599
797.771089	0.014496
797.963204	0.014308
798.155300	0.014176
798.347378	0.014259
798.539438	0.014390
798.731480	0.014115
798.923503	0.014325
799.115509	0.014404
799.307496	0.014561
799.499465	0.014920
799.691415	0.015122
799.883348	0.015325
800.075262	0.015239
800.267158	0.014936
800.459035	0.014858
800.650895	0.014547
800.842736	0.014470
801.034559	0.014426
801.226364	0.014182
801.418150	0.014043
801.609919	0.014004
801.801669	0.013963
801.993401	0.013898
802.185114	0.014097
802.376810	0.014257
802.568487	0.014127
802.760146	0.014047
802.951787	0.014018
803.143409	0.014136
803.335014	0.013918
803.526600	0.013886
803.718168	0.014167
803.909717	0.014179
804.101249	0.014230
804.292762	0.014122
804.484257	0.014251
804.675734	0.014269
804.867192	0.014188
805.058632	0.014220
805.250054	0.014359
805.441458	0.014199
805.632844	0.014263
805.824211	0.014157
806.015561	0.014428
806.206891	0.014568
806.398204	0.014659
806.589499	0.014651
806.780775	0.014687
806.972033	0.014722
807.163273	0.014866
807.354495	0.014918
807.545698	0.014944
807.736883	0.014970
807.928050	0.014726
808.119199	0.014742
808.310329	0.015042
808.501441	0.015172
808.692535	0.015297
808.883611	0.015207
809.074669	0.015201
809.265708	0.015362
809.456729	0.015483
809.647732	0.015491
809.838717	0.015498
810.029683	0.015471
810.220632	0.015638
810.411562	0.015583
810.602474	0.015731
810.793367	0.015727
810.984242	0.015836
811.175100	0.015723
811.365938	0.015820
811.556759	0.015925
811.747562	0.015530
811.938346	0.015284
812.129112	0.015151
812.319860	0.014911
812.510589	0.014781
812.701300	0.014539
812.891994	0.014733
813.082668	0.014716
813.273325	0.014681
813.463964	0.014983
813.654584	0.014833
813.845186	0.014797
814.035769	0.014721
814.226335	0.014828
814.416882	0.014683
814.607411	0.014253
814.797922	0.014227
814.988415	0.014012
815.178889	0.013716
815.369345	0.013914
815.559783	0.013863
815.750203	0.013792
815.940605	0.013802
816.130988	0.013792
816.321353	0.014082
816.511700	0.014145
816.702028	0.014221
816.892339	0.014277
817.082631	0.014165
817.272905	0.014176
817.463161	0.014169
817.653398	0.013916
817.843617	0.013976
818.033819	0.013637
818.224001	0.013336
818.414166	0.013230
818.604312	0.013374
818.794440	0.013308
818.984550	0.013060
819.174642	0.013037
819.364716	0.012924
819.554771	0.012876
819.744808	0.012901
819.934827	0.012961
820.124827	0.013018
820.314810	0.012862
820.504774	0.012743
820.694720	0.012938
820.884647	0.012693
821.074557	0.012824
821.264448	0.012674
821.454321	0.012552
821.644176	0.012256
821.834012	0.012131
822.023831	0.012116
822.213631	0.012182
822.403413	0.011987
822.593176	0.012276
822.782922	0.012179
822.972649	0.012265
823.162358	0.012439
823.352049	0.012616
823.541721	0.012540
823.731376	0.012585
823.921012	0.012462
824.110629	0.012484
824.300229	0.012498
824.489811	0.012419
824.679374	0.012297
824.868919	0.012065
825.058445	0.012044
825.247954	0.012000
825.437444	0.011585
825.626916	0.011601
825.816370	0.011637
826.005806	0.011494
826.195223	0.011690
826.384622	0.011828
826.574003	0.011871
826.763366	0.011823
826.952711	0.011894
827.142037	0.012046
827.331345	0.012104
827.520635	0.012219
827.709906	0.012164
827.899160	0.011839
828.088395	0.011852
828.277612	0.011891
828.466810	0.011904
828.655991	0.012055
828.845153	0.012113
829.034297	0.012065
829.223423	0.012012
829.412531	0.011972
829.601620	0.012186
829.790691	0.012066
829.979744	0.012202
830.168779	0.012009
830.357795	0.011786
830.546793	0.011974
830.735773	0.011969
830.924735	0.011759
831.113679	0.011795
831.302604	0.011800
831.491511	0.011797
831.680400	0.011579
831.869271	0.011727
832.058123	0.011747
832.246957	0.011391
832.435773	0.011278
832.624571	0.011495
832.813351	0.011682
833.002112	0.011463
833.190855	0.011615
833.379580	0.011544
833.568287	0.011421
833.756975	0.011470
833.945645	0.011446
834.134297	0.011408
834.322931	0.011048
834.511547	0.010577
834.700144	0.010658
834.888723	0.010206
835.077284	0.010319
835.265826	0.010312
835.454351	0.010074
835.642857	0.010096
835.831345	0.009797
836.019815	0.009709
836.208266	0.010028
836.396699	0.010205
836.585114	0.010309
836.773511	0.010254
836.961890	0.010254
837.150250	0.010501
837.338592	0.010596
837.526916	0.010817
837.715222	0.011017
837.903510	0.011079
838.091779	0.011033
838.280030	0.011301
838.468263	0.011429
838.656477	0.011545
838.844674	0.011260
839.032852	0.011112
839.221012	0.011167
839.409153	0.011150
839.597277	0.010953
839.785382	0.010666
839.973469	0.010467
840.161538	0.010259
840.349589	0.010199
840.537621	0.010423
840.725635	0.010482
840.913631	0.010346
841.101609	0.010261
841.289568	0.010050
841.477509	0.010042
841.665432	0.010098
841.853337	0.009945
842.041224	0.010032
842.229092	0.009891
842.416942	0.009833
842.604774	0.010029
842.792588	0.010051
842.980383	0.010372
843.168160	0.010394
843.355919	0.010197
843.543660	0.010323
843.731382	0.010133
843.919087	0.010018
844.106773	0.010104
844.294441	0.010046
844.482090	0.010003
844.669722	0.009722
844.857335	0.009767
845.044930	0.009866
845.232507	0.009892
845.420065	0.009879
845.607605	0.010081
845.795127	0.010055
845.982631	0.010180
846.170117	0.010393
846.357584	0.010566
846.545033	0.010584
846.732464	0.010672
846.919877	0.010907
847.107272	0.011168
847.294648	0.011359
847.482006	0.011656
847.669346	0.011556
847.856667	0.011312
848.043971	0.011464
848.231256	0.011385
848.418523	0.011559
848.605771	0.011501
848.793002	0.011482
848.980214	0.011150
849.167408	0.010939
849.354584	0.010900
849.541742	0.011049
849.728881	0.010762
849.916002	0.010993
850.103105	0.011073
850.290190	0.010967
850.477256	0.010945
850.664304	0.011075
850.851334	0.011017
851.038346	0.010966
851.225340	0.011104
851.412315	0.011223
851.599272	0.011260
851.786211	0.010888
851.973132	0.011025
852.160034	0.010954
852.346918	0.010897
852.533784	0.010865
852.720632	0.011226
852.907462	0.011042
853.094273	0.011333
853.281066	0.011317
853.467841	0.011421
853.654598	0.011382
853.841336	0.011297
854.028056	0.011461
854.214758	0.011601
854.401442	0.011452
854.588107	0.011557
854.774755	0.011422
854.961384	0.011200
855.147995	0.011498
855.334587	0.011586
855.521162	0.011466
855.707718	0.011423
855.894256	0.011499
856.080775	0.011505
856.267277	0.011398
856.453760	0.011373
856.640225	0.011484
856.826672	0.011307
857.013101	0.011138
857.199511	0.011177
857.385903	0.010883
857.572277	0.010611
857.758633	0.010230
857.944970	0.010182
858.131290	0.009912
858.317591	0.010069
858.503873	0.009926
858.690138	0.009842
858.876384	0.009988
859.062612	0.010369
859.248822	0.010620
859.435014	0.010916
859.621188	0.011078
859.807343	0.011212
859.993480	0.011078
860.179599	0.011222
860.365699	0.011378
860.551781	0.011268
860.737846	0.010998
860.923891	0.010896
861.109919	0.010858
861.295929	0.010874
861.481920	0.010917
861.667893	0.010809
861.853848	0.010749
862.039784	0.010623
862.225702	0.010778
862.411603	0.010610
862.597484	0.010580
862.783348	0.010764
862.969193	0.010686
863.155021	0.010912
863.340830	0.011034
863.526620	0.011005
863.712393	0.011178
863.898147	0.010964
864.083883	0.011144
864.269601	0.010890
864.455301	0.010500
864.640982	0.010503
864.826645	0.010420
865.012290	0.010465
865.197917	0.010567
865.383526	0.010519
865.569116	0.010890
865.754688	0.011061
865.940242	0.011286
866.125777	0.011379
866.311295	0.011556
866.496794	0.011540
866.682275	0.011515
866.867737	0.011412
867.053182	0.011293
867.238608	0.010950
867.424016	0.011037
867.609406	0.011217
867.794778	0.011414
867.980131	0.011187
868.165466	0.011205
868.350783	0.011145
868.536082	0.011298
868.721362	0.011429
868.906625	0.011573
869.091869	0.011523
869.277094	0.011347
869.462302	0.011363
869.647491	0.011433
869.832662	0.011380
870.017815	0.011102
870.202950	0.011086
870.388066	0.010940
870.573165	0.010787
870.758245	0.010685
870.943306	0.010673
871.128350	0.010549
871.313375	0.010328
871.498382	0.010084
871.683371	0.010416
871.868342	0.010178
872.053294	0.010334
872.238229	0.010502
872.423144	0.010284
872.608042	0.010302
872.792922	0.010419
872.977783	0.010816
873.162626	0.011003
873.347451	0.010868
873.532258	0.010986
873.717046	0.010915
873.901816	0.010770
874.086568	0.011027
874.271302	0.010793
874.456017	0.010873
874.640715	0.010790
874.825394	0.010753
875.010055	0.010633
875.194697	0.010277
875.379322	0.010087
875.563928	0.010419
875.748516	0.010279
875.933085	0.010680
876.117637	0.010384
876.302170	0.010179
876.486685	0.009901
876.671182	0.009975
876.855661	0.010141
877.040121	0.010270
877.224563	0.009964
877.408987	0.009792
877.593393	0.009519
877.777780	0.009666
877.962150	0.009970
878.146501	0.010206
878.330833	0.010241
878.515148	0.010258
878.699444	0.010086
878.883722	0.010020
879.067982	0.010589
879.252224	0.010602
879.436447	0.010464
879.620653	0.010365
879.804840	0.010411
879.989008	0.010510
880.173159	0.010693
880.357291	0.010894
880.541405	0.011096
880.725501	0.010983
880.909579	0.010712
881.093638	0.010801
881.277680	0.010632
881.461703	0.010644
881.645707	0.010588
881.829694	0.010530
882.013662	0.010586
882.197612	0.010524
882.381544	0.010096
882.565458	0.010378
882.749353	0.010146
882.933230	0.009997
883.117089	0.009948
883.300930	0.009943
883.484753	0.009557
883.668557	0.009432
883.852343	0.009298
884.036111	0.009553
884.219861	0.009809
884.403592	0.010091
884.587305	0.010320
884.771000	0.010474
884.954677	0.010384
885.138335	0.010745
885.321976	0.010709
885.505598	0.010720
885.689201	0.010712
885.872787	0.010327
886.056354	0.010345
886.239904	0.010448
886.423434	0.010016
886.606947	0.009908
886.790442	0.009651
886.973918	0.009525
887.157376	0.009419
887.340816	0.009402
887.524237	0.009584
887.707641	0.009595
887.891026	0.009690
888.074393	0.009987
888.257741	0.010190
888.441072	0.010468
888.624384	0.010483
888.807678	0.010647
888.990954	0.010538
889.174211	0.010469
889.357451	0.010213
889.540672	0.009902
889.723875	0.009741
889.907059	0.009652
890.090226	0.009793
890.273374	0.009930
890.456504	0.010099
890.639616	0.010001
890.822709	0.009874
891.005785	0.010117
891.188842	0.010045
891.371881	0.009965
891.554901	0.009963
891.737904	0.009883
891.920888	0.010256
892.103854	0.010247
892.286802	0.010364
892.469731	0.010354
892.652643	0.010195
892.835536	0.010335
893.018410	0.010622
893.201267	0.010526
893.384106	0.010284
893.566926	0.009894
893.749728	0.009791
893.932511	0.009777
894.115277	0.010220
894.298024	0.010244
894.480753	0.010283
894.663464	0.010334
894.846157	0.010433
895.028831	0.010458
895.211487	0.010417
895.394125	0.010115
895.576745	0.010071
895.759346	0.009760
895.941930	0.009546
896.124495	0.009217
896.307041	0.008805
896.489570	0.008980
896.672080	0.009138
896.854573	0.009085
897.037046	0.009359
897.219502	0.009163
897.401940	0.009400
897.584359	0.009711
897.766760	0.010060
897.949143	0.010397
898.131507	0.010338
898.313854	0.010188
898.496182	0.009917
898.678492	0.009771
898.860783	0.009968
899.043057	0.009540
899.225312	0.009362
899.407549	0.009126
899.589768	0.008618
899.771968	0.008389
899.954151	0.008254
900.136315	0.008147
900.318461	0.008257
900.500588	0.008417
900.682698	0.008395
900.864789	0.008290
901.046862	0.008097
901.228917	0.008369
901.410953	0.008309
901.592971	0.008252
901.774972	0.008721
901.956953	0.008460
902.138917	0.008103
902.320862	0.008171
902.502790	0.008270
902.684699	0.008664
902.866589	0.008908
903.048462	0.008841
903.230316	0.009029
903.412152	0.008939
903.593970	0.009004
903.775770	0.009018
903.957551	0.009115
904.139314	0.008992
904.321059	0.008635
904.502786	0.008287
904.684494	0.008367
904.866185	0.007985
905.047857	0.007945
905.229510	0.007942
905.411146	0.008081
905.592763	0.008153
905.774363	0.008193
905.955943	0.008335
906.137506	0.008356
906.319051	0.008540
906.500577	0.008747
906.682085	0.008514
906.863575	0.008782
907.045046	0.008995
907.226500	0.009042
907.407935	0.008975
907.589352	0.008890
907.770750	0.008806
907.952131	0.008482
908.133493	0.008264
908.314837	0.008187
908.496163	0.007819
908.677470	0.007533
908.858760	0.007372
909.040031	0.007317
909.221284	0.007213
909.402518	0.007209
909.583735	0.007109
909.764933	0.007025
909.946113	0.007309
910.127275	0.007227
910.308418	0.007218
910.489544	0.007205
910.670651	0.007484
910.851740	0.007645
911.032810	0.007754
911.213863	0.008040
911.394897	0.008521
911.575913	0.008283
911.756911	0.008659
911.937890	0.008558
912.118851	0.008176
912.299794	0.007663
912.480719	0.007473
912.661626	0.007447
912.842514	0.007220
913.023384	0.007007
913.204236	0.006898
913.385070	0.006133
913.565886	0.005723
913.746683	0.005898
913.927462	0.005752
914.108223	0.005888
914.288965	0.005743
914.469690	0.005858
914.650396	0.005617
914.831084	0.005448
915.011754	0.006209
915.192405	0.006414
915.373038	0.006324
915.553653	0.006740
915.734250	0.006333
915.914829	0.006303
916.095389	0.006103
916.275931	0.006079
916.456455	0.006077
916.636961	0.005836
916.817448	0.005836
916.997917	0.005735
917.178368	0.005462
917.358801	0.005736
917.539216	0.005513
917.719612	0.005168
917.899990	0.005067
918.080350	0.005288
918.260692	0.004993
918.441015	0.005029
918.621320	0.005510
918.801607	0.005874
918.981876	0.005447
919.162127	0.005193
919.342359	0.005172
919.522573	0.005279
919.702769	0.005342
919.882947	0.005196
920.063106	0.004969
920.243247	0.004099
920.423370	0.003651
920.603475	0.003619
920.783562	0.003674
920.963630	0.003969
921.143680	0.003780
921.323712	0.003745
921.503725	0.003897
921.683721	0.003885
921.863698	0.003886
922.043657	0.004000
922.223598	0.004090
922.403520	0.004234
922.583424	0.003894
922.763311	0.003599
922.943178	0.003495
923.123028	0.003201
923.302859	0.002922
923.482673	0.003222
923.662467	0.002898
923.842244	0.002543
924.022003	0.002554
924.201743	0.002369
924.381465	0.002350
924.561169	0.001884
924.740854	0.001503
924.920522	0.001522
925.100171	0.001164
925.279802	0.000982
925.459414	0.001262
925.639009	0.001131
925.818585	0.000808
925.998143	0.000560
926.177683	0.000554
926.357205	0.000908
926.536708	0.001077
926.716193	0.000731
926.895660	0.000895
927.075109	0.000803
927.254539	0.000685
927.433951	0.000588
927.613345	0.000925
927.792721	0.000975
927.972079	0.000999
928.151418	0.001070
928.330739	0.001036
928.510042	0.001002
928.689327	0.000870
928.868593	0.000368
929.047841	0.000755
929.227071	0.000547
929.406283	0.000181
929.585476	-0.000377
929.764652	-0.000877
929.943809	-0.000386
930.122948	-0.000703
930.302068	-0.000645
930.481171	-0.000373
930.660255	-0.000898
930.839321	-0.001334
931.018369	-0.001391
931.197398	-0.000950
931.376409	-0.001022
931.555402	-0.002099
931.734377	-0.002162
931.913334	-0.002397
932.092272	-0.002436
932.271192	-0.002376
932.450094	-0.002062
932.628978	-0.002350
932.807844	-0.002795
932.986691	-0.002894
933.165520	-0.002525
933.344331	-0.002911
933.523123	-0.002878
933.701898	-0.002862
933.880654	-0.002887
934.059392	-0.003174
934.238111	-0.002767
934.416813	-0.003185
934.595496	-0.003827
934.774161	-0.003524
934.952808	-0.002917
935.131437	-0.003362
935.310047	-0.003649
935.488639	-0.003518
935.667213	-0.003582
935.845769	-0.003731
936.024306	-0.003673
936.202825	-0.002973
936.381326	-0.003169
936.559809	-0.003654
936.738274	-0.003362
936.916720	-0.003162
937.095148	-0.003830
937.273558	-0.004370
937.451950	-0.005348
937.630323	-0.005437
937.808678	-0.005913
937.987015	-0.006111
938.165334	-0.006480
938.343635	-0.006855
938.521917	-0.007012
938.700181	-0.006755
938.878427	-0.006362
939.056655	-0.005140
939.234864	-0.005638
939.413055	-0.005698
939.591228	-0.006092
939.769383	-0.006364
939.947519	-0.006927
940.125638	-0.007667
940.303738	-0.007935
940.481820	-0.008418
940.659883	-0.009301
940.837929	-0.008571
941.015956	-0.008309
941.193965	-0.007867
941.371955	-0.007284
941.549928	-0.006993
941.727882	-0.006086
941.905818	-0.005955
942.083736	-0.005192
942.261636	-0.005561
942.439517	-0.005332
942.617380	-0.006017
942.795225	-0.006285
942.973052	-0.005970
943.150860	-0.006122
943.328651	-0.007149
943.506423	-0.007935
943.684176	-0.007926
943.861912	-0.007755
944.039629	-0.008279
944.217328	-0.008244
944.395009	-0.008773
944.572672	-0.009741
944.750317	-0.009822
944.927943	-0.009957
945.105551	-0.008509
945.283141	-0.008936
945.460712	-0.008355
945.638265	-0.008677
945.815801	-0.007990
945.993317	-0.007533
946.170816	-0.006911
946.348297	-0.007038
946.525759	-0.006733
946.703203	-0.007019
946.880629	-0.007344
947.058036	-0.007636
947.235425	-0.007965
947.412797	-0.007573
947.590149	-0.007389
947.767484	-0.007379
947.944800	-0.005902
948.122099	-0.006435
948.299379	-0.006655
948.476640	-0.006728
948.653884	-0.006652
948.831109	-0.005739
949.008316	-0.007473
949.185505	-0.007773
949.362676	-0.008241
949.539828	-0.008621
949.716962	-0.007652
949.894078	-0.007615
950.071176	-0.006871
950.248256	-0.007014
950.425317	-0.007309
950.602360	-0.006022
950.779385	-0.006208
950.956391	-0.006138
951.133380	-0.007323
951.310350	-0.007741
951.487302	-0.008378
951.664235	-0.007372
951.841151	-0.006491
952.018048	-0.006433
952.194927	-0.007321
952.371788	-0.006158
952.548631	-0.004196
952.725455	-0.002519
952.902261	-0.001474
953.079049	-0.000109
953.255819	0.000208
953.432570	0.000949
953.609303	0.001984
953.786018	0.002628
953.962715	0.002281
954.139394	0.000377
954.316054	-0.001415
954.492696	-0.001883
954.669320	-0.002288
954.845926	-0.002962
955.022513	-0.004294
955.199083	-0.003885
955.375634	-0.002546
955.552166	-0.003444
955.728681	-0.002743
955.905177	-0.001607
956.081655	-0.002161
956.258115	-0.002566
956.434557	-0.003314
956.610980	-0.003047
956.787385	-0.003177
956.963772	-0.003851
957.140141	-0.003243
957.316492	-0.002033
957.492824	-0.002189
957.669138	-0.000780
957.845434	0.000147
958.021712	0.000631
958.197971	0.002741
958.374212	0.002766
958.550435	0.003932
958.726640	0.005727
958.902826	0.005580
959.078995	0.005168
959.255145	0.006570
959.431277	0.006121
959.607390	0.008254
959.783486	0.007989
959.959563	0.007217
960.135622	0.007687
960.311662	0.009060
960.487685	0.009099
960.663689	0.010238
960.839675	0.008001
961.015643	0.009489
961.191593	0.008609
961.367524	0.007785
961.543437	0.010079
961.719332	0.009238
961.895209	0.007336
962.071067	0.008019
962.246907	0.009220
962.422730	0.011450
962.598533	0.013311
962.774319	0.013558
962.950086	0.014988
963.125835	0.015039
963.301566	0.015779
963.477279	0.016694
963.652973	0.017358
963.828650	0.017010
964.004308	0.016879
964.179947	0.015510
964.355569	0.014547
964.531172	0.014563
964.706757	0.014659
964.882324	0.014544
965.057873	0.013510
965.233403	0.014462
965.408916	0.014899
965.584410	0.014773
965.759885	0.015581
965.935343	0.017626
966.110782	0.018182
966.286203	0.018229
966.461606	0.019794
966.636991	0.020306
966.812357	0.019549
966.987705	0.020218
967.163035	0.020601
967.338347	0.020467
967.513641	0.019411
967.688916	0.019857
967.864173	0.019493
968.039412	0.018532
968.214632	0.019546
968.389835	0.018486
968.565019	0.017421
968.740185	0.017294
968.915333	0.017418
969.090462	0.017796
969.265573	0.018169
969.440667	0.020043
969.615741	0.020100
969.790798	0.020790
969.965836	0.020373
970.140856	0.022209
970.315858	0.021883
970.490842	0.022016
970.665808	0.022551
970.840755	0.021500
971.015684	0.021181
971.190595	0.021746
971.365487	0.021225
971.540362	0.022670
971.715218	0.022207
971.890056	0.021796
972.064875	0.021193
972.239677	0.021021
972.414460	0.021242
972.589225	0.020001
972.763972	0.020415
972.938700	0.020137
973.113411	0.020981
973.288103	0.022401
973.462777	0.024799
973.637432	0.027037
973.812070	0.026982
973.986689	0.025414
974.161290	0.025695
974.335873	0.024324
974.510437	0.024031
974.684984	0.024138
974.859512	0.023487
975.034022	0.023068
975.208513	0.021360
975.382987	0.021718
975.557442	0.022319
975.731879	0.022794
975.906298	0.023731
976.080698	0.025265
976.255080	0.023058
976.429445	0.022665
976.603790	0.022612
976.778118	0.023536
976.952427	0.023587
977.126719	0.025003
977.300992	0.025540
977.475246	0.025317
977.649483	0.024515
977.823701	0.027325
977.997901	0.028142
978.172083	0.025916
978.346247	0.025944
978.520392	0.025956
978.694519	0.024772
978.868628	0.021926
979.042719	0.021935
979.216791	0.022616
979.390845	0.021877
979.564882	0.020695
979.738899	0.023151
979.912899	0.022486
980.086880	0.023465
980.260843	0.024551
980.434788	0.027053
980.608715	0.028316
980.782623	0.028060
980.956514	0.026828
981.130386	0.026355
981.304240	0.026437
981.478075	0.028543
981.651892	0.026308
981.825692	0.024312
981.999472	0.022571
982.173235	0.023597
982.346980	0.025508
982.520706	0.025242
982.694414	0.026250
982.868104	0.024064
983.041775	0.022314
983.215428	0.026007
983.389064	0.027083
983.562680	0.027568
983.736279	0.026015
983.909860	0.024460
984.083422	0.026060
984.256966	0.026595
984.430491	0.029367
984.603999	0.028099
984.777488	0.026770
984.950959	0.027440
985.124412	0.029071
985.297847	0.028675
985.471263	0.026744
985.644661	0.026525
985.818041	0.025693
985.991403	0.023474
986.164747	0.023930
986.338072	0.023923
986.511379	0.023157
986.684668	0.023917
986.857938	0.025098
987.031191	0.027573
987.204425	0.028270
987.377641	0.029001
987.550839	0.029982
987.724018	0.031350
987.897179	0.030483
988.070322	0.032483
988.243447	0.031318
988.416554	0.029676
988.589642	0.030099
988.762712	0.029673
988.935764	0.028468
989.108798	0.027485
989.281813	0.027083
989.454811	0.027250
989.627790	0.026583
989.800751	0.026440
989.973693	0.026823
990.146617	0.026225
990.319524	0.024448
990.492412	0.025338
990.665281	0.024930
990.838133	0.024979
991.010966	0.023958
991.183781	0.022610
991.356578	0.022817
991.529356	0.022794
991.702117	0.021581
991.874859	0.022343
992.047583	0.021601
992.220288	0.023271
992.392976	0.023731
992.565645	0.023596
992.738296	0.023817
992.910929	0.023738
993.083543	0.024188
993.256139	0.025268
993.428718	0.025718
993.601277	0.026325
993.773819	0.025097
993.946342	0.024004
994.118848	0.025759
994.291335	0.027327
994.463803	0.027608
994.636254	0.028017
994.808686	0.026622
994.981100	0.025631
995.153496	0.026327
995.325874	0.027104
995.498233	0.028886
995.670574	0.028310
995.842897	0.027381
996.015202	0.026969
996.187488	0.025449
996.359757	0.025804
996.532007	0.025472
996.704239	0.023563
996.876452	0.022107
997.048648	0.020790
997.220825	0.020540
997.392984	0.020776
997.565124	0.020131
997.737247	0.021374
997.909351	0.021195
998.081437	0.022305
998.253505	0.022389
998.425554	0.022589
998.597586	0.022649
998.769599	0.022633
998.941594	0.021040
999.113571	0.020525
999.285529	0.019778
999.457469	0.020357
999.629391	0.020773
999.801295	0.022851
999.973181	0.024603
1000.145048	0.024921
1000.316897	0.025808
1000.488728	0.026577
1000.660541	0.027709
1000.832335	0.028306
1001.004111	0.029131
1001.175869	0.028676
1001.347609	0.027386
1001.519331	0.025928
1001.691034	0.025109
1001.862719	0.023829
1002.034386	0.022087
1002.206035	0.021921
1002.377665	0.021808
1002.549277	0.022003
1002.720871	0.022201
1002.892447	0.022033
1003.064004	0.020679
1003.235544	0.021575
1003.407065	0.021803
1003.578568	0.023195
1003.750052	0.022403
1003.921519	0.021519
1004.092967	0.022496
1004.264397	0.021599
1004.435809	0.021104
1004.607202	0.022964
1004.778577	0.021970
1004.949934	0.022175
1005.121273	0.023368
1005.292594	0.023136
1005.463896	0.024814
1005.635180	0.021665
1005.806446	0.022852
1005.977694	0.023856
1006.148923	0.022324
1006.320135	0.021980
1006.491328	0.021262
1006.662503	0.019799
1006.833659	0.019801
1007.004798	0.017962
1007.175918	0.020382
1007.347020	0.018414
1007.518103	0.018601
1007.689169	0.020654
1007.860216	0.020144
1008.031245	0.021195
1008.202256	0.020918
1008.373248	0.021822
1008.544223	0.023308
1008.715179	0.021222
1008.886117	0.023649
1009.057036	0.021950
1009.227938	0.022457
1009.398821	0.023405
1009.569686	0.023375
1009.740533	0.023629
1009.911361	0.023459
1010.082172	0.022694
1010.252964	0.023503
1010.423738	0.022228
1010.594493	0.024197
1010.765231	0.023140
1010.935950	0.023749
1011.106651	0.023337
1011.277334	0.024015
1011.447998	0.023725
1011.618645	0.024539
1011.789273	0.024147
1011.959882	0.024819
1012.130474	0.023991
1012.301048	0.024209
1012.471603	0.023477
1012.642140	0.024143
1012.812658	0.024180
1012.983159	0.024435
1013.153641	0.024031
1013.324105	0.024504
1013.494551	0.023147
1013.664979	0.023065
1013.835388	0.022860
1014.005779	0.022514
1014.176152	0.022120
1014.346507	0.022309
1014.516843	0.022936
1014.687162	0.023177
1014.857462	0.023296
1015.027744	0.025192
1015.198007	0.025005
1015.368252	0.025406
1015.538480	0.026078
1015.708689	0.024573
1015.878879	0.024228
1016.049052	0.023958
1016.219206	0.023334
1016.389342	0.023854
1016.559460	0.024011
1016.729559	0.024750
1016.899641	0.024828
1017.069704	0.025862
1017.239749	0.029553
1017.409775	0.030851
1017.579784	0.031069
1017.749774	0.028920
1017.919746	0.027768
1018.089700	0.027187
1018.259635	0.027911
1018.429553	0.026559
1018.599452	0.023897
1018.769333	0.021873
1018.939195	0.020499
1019.109040	0.019420
1019.278866	0.021018
1019.448674	0.020912
1019.618464	0.020053
1019.788235	0.018917
1019.957989	0.018297
1020.127724	0.019393
1020.297441	0.019385
1020.467139	0.019225
1020.636820	0.019571
1020.806482	0.019380
1020.976126	0.019638
1021.145752	0.018877
1021.315359	0.018554
1021.484948	0.019439
1021.654519	0.020368
1021.824072	0.019329
1021.993607	0.020269
1022.163123	0.019795
1022.332621	0.020294
1022.502101	0.021326
1022.671563	0.022140
1022.841007	0.021483
1023.010432	0.022568
1023.179839	0.022736
1023.349228	0.023756
1023.518598	0.022143
1023.687951	0.022569
1023.857285	0.023188
1024.026601	0.023874
1024.195899	0.024765
1024.365178	0.026271
1024.534439	0.025446
1024.703682	0.022889
1024.872907	0.023055
1025.042114	0.024560
1025.211302	0.025856
1025.380472	0.025469
1025.549624	0.023678
1025.718758	0.023395
1025.887873	0.022833
1026.056970	0.024049
1026.226049	0.026248
1026.395110	0.024963
1026.564153	0.024251
1026.733177	0.023318
1026.902183	0.022105
1027.071171	0.022817
1027.240141	0.022090
1027.409092	0.022179
1027.578026	0.020622
1027.746940	0.019921
1027.915837	0.019730
1028.084716	0.019831
1028.253576	0.019768
1028.422418	0.021137
1028.591242	0.020751
1028.760048	0.020179
1028.928835	0.019141
1029.097604	0.019790
1029.266355	0.019762
1029.435088	0.020566
1029.603803	0.021224
1029.772499	0.021253
1029.941177	0.020341
1030.109837	0.019989
1030.278478	0.021080
1030.447102	0.022707
1030.615707	0.023321
1030.784294	0.021840
1030.952863	0.020467
1031.121413	0.019182
1031.289945	0.018725
1031.458460	0.019387
1031.626955	0.018995
1031.795433	0.017412
1031.963892	0.017221
1032.132334	0.016433
1032.300756	0.017591
1032.469161	0.019320
1032.637548	0.020411
1032.805916	0.019656
1032.974266	0.020333
1033.142598	0.021464
1033.310911	0.023033
1033.479207	0.021975
1033.647484	0.022578
1033.815743	0.023826
1033.983983	0.023663
1034.152206	0.024282
1034.320410	0.026347
1034.488596	0.024833
1034.656764	0.024862
1034.824914	0.024817
1034.993045	0.024491
1035.161158	0.024414
1035.329253	0.023809
1035.497330	0.022332
1035.665388	0.021204
1035.833428	0.019740
1036.001450	0.019186
1036.169454	0.018753
1036.337440	0.018090
1036.505407	0.018740
1036.673356	0.018566
1036.841287	0.018971
1037.009200	0.020645
1037.177094	0.021025
1037.344970	0.020232
1037.512828	0.022548
1037.680668	0.023788
1037.848489	0.023039
1038.016293	0.023846
1038.184078	0.024616
1038.351845	0.024539
1038.519593	0.023170
1038.687324	0.022995
1038.855036	0.025219
1039.022730	0.025772
1039.190406	0.024748
1039.358063	0.027111
1039.525702	0.025059
1039.693323	0.024289
1039.860926	0.022243
1040.028511	0.022770
1040.196077	0.022326
1040.363625	0.021019
1040.531155	0.019196
1040.698667	0.018884
1040.866161	0.017126
1041.033636	0.018113
1041.201093	0.017717
1041.368532	0.019685
1041.535952	0.017970
1041.703355	0.019332
1041.870739	0.020200
1042.038105	0.020681
1042.205452	0.020152
1042.372782	0.020442
1042.540093	0.019749
1042.707386	0.020033
1042.874661	0.020318
1043.041918	0.021382
1043.209156	0.020171
1043.376376	0.018120
1043.543578	0.018403
1043.710762	0.019168
1043.877927	0.019476
1044.045074	0.018941
1044.212203	0.018693
1044.379314	0.017069
1044.546407	0.018303
1044.713481	0.018231
1044.880537	0.018809
1045.047575	0.017336
1045.214595	0.017790
1045.381596	0.016753
1045.548579	0.019091
1045.715544	0.019243
1045.882491	0.020189
1046.049420	0.020952
1046.216330	0.020626
1046.383222	0.020271
1046.550096	0.020954
1046.716951	0.020514
1046.883789	0.022612
1047.050608	0.021129
1047.217409	0.019581
1047.384192	0.019709
1047.550956	0.017915
1047.717703	0.017064
1047.884431	0.018907
1048.051140	0.019350
1048.217832	0.018886
1048.384505	0.016582
1048.551161	0.016786
1048.717798	0.018071
1048.884416	0.017427
1049.051017	0.017753
1049.217599	0.017171
1049.384163	0.016284
1049.550709	0.016077
1049.717237	0.015661
1049.883746	0.016574
1050.050237	0.016831
1050.216710	0.016450
1050.383165	0.015837
1050.549601	0.014593
1050.716019	0.016113
1050.882420	0.016234
1051.048801	0.013830
1051.215165	0.013686
1051.381510	0.013026
1051.547837	0.012391
1051.714146	0.013146
1051.880437	0.014573
1052.046709	0.015768
1052.212964	0.016788
1052.379200	0.017104
1052.545417	0.017904
1052.711617	0.017687
1052.877798	0.018306
1053.043961	0.018061
1053.210106	0.017773
1053.376233	0.016034
1053.542341	0.015866
1053.708432	0.014776
1053.874504	0.014820
1054.040557	0.016336
1054.206593	0.017065
1054.372610	0.017556
1054.538609	0.017087
1054.704590	0.015714
1054.870553	0.017765
1055.036497	0.018277
1055.202424	0.020806
1055.368331	0.019353
1055.534221	0.018318
1055.700093	0.017893
1055.865946	0.018021
1056.031781	0.020028
1056.197598	0.020919
1056.363397	0.018546
1056.529177	0.017733
1056.694939	0.014713
1056.860683	0.016918
1057.026409	0.017376
1057.192116	0.016661
1057.357806	0.016034
1057.523477	0.015869
1057.689130	0.016124
1057.854764	0.015365
1058.020381	0.016933
1058.185979	0.016095
1058.351559	0.014197
1058.517120	0.014325
1058.682664	0.015085
1058.848189	0.015891
1059.013696	0.015413
1059.179185	0.014480
1059.344656	0.014666
1059.510108	0.013133
1059.675542	0.014691
1059.840958	0.015360
1060.006356	0.016272
1060.171735	0.016752
1060.337096	0.017014
1060.502439	0.017424
1060.667764	0.016958
1060.833071	0.017835
1060.998359	0.017438
1061.163629	0.017072
1061.328881	0.016039
1061.494115	0.015670
1061.659330	0.014595
1061.824527	0.013659
1061.989706	0.011537
1062.154867	0.012973
1062.320010	0.014096
1062.485134	0.016589
1062.650240	0.018178
1062.815328	0.018653
1062.980398	0.018660
1063.145449	0.020987
1063.310482	0.020782
1063.475497	0.020689
1063.640494	0.021347
1063.805473	0.021647
1063.970433	0.020167
1064.135375	0.017908
1064.300299	0.018519
1064.465204	0.019412
1064.630092	0.018191
1064.794961	0.018767
1064.959812	0.019218
1065.124645	0.019488
1065.289459	0.017757
1065.454256	0.017431
1065.619034	0.019865
1065.783793	0.018926
1065.948535	0.017843
1066.113258	0.015437
1066.277964	0.015519
1066.442651	0.015438
1066.607319	0.013410
1066.771970	0.014553
1066.936602	0.013154
1067.101216	0.011190
1067.265812	0.009295
1067.430389	0.010727
1067.594949	0.012098
1067.759490	0.010828
1067.924013	0.012632
1068.088518	0.014500
1068.253004	0.015050
1068.417472	0.016685
1068.581922	0.015808
1068.746354	0.017834
1068.910768	0.016162
1069.075163	0.018316
1069.239540	0.017853
1069.403899	0.017553
1069.568240	0.015731
1069.732562	0.015473
1069.896866	0.014230
1070.061152	0.017244
1070.225420	0.017244
1070.389670	0.016794
1070.553901	0.013981
1070.718114	0.014440
1070.882309	0.014542
1071.046486	0.013899
1071.210644	0.013635
1071.374784	0.013953
1071.538906	0.009506
1071.703010	0.011212
1071.867096	0.011312
1072.031163	0.011163
1072.195212	0.011040
1072.359243	0.010835
1072.523256	0.011438
1072.687250	0.011526
1072.851226	0.011621
1073.015184	0.011625
1073.179124	0.009447
1073.343045	0.008811
1073.506949	0.008210
1073.670834	0.009470
1073.834701	0.009163
1073.998549	0.008770
1074.162380	0.007629
1074.326192	0.007735
1074.489986	0.009452
1074.653761	0.008838
1074.817519	0.008518
1074.981258	0.009294
1075.144979	0.010018
1075.308682	0.010417
1075.472367	0.009857
1075.636033	0.010671
1075.799681	0.010722
1075.963311	0.012180
1076.126923	0.013118
1076.290516	0.014275
1076.454092	0.015614
1076.617649	0.013209
1076.781187	0.012479
1076.944708	0.014305
1077.108210	0.014930
1077.271695	0.015185
1077.435160	0.013688
1077.598608	0.014214
1077.762038	0.013917
1077.925449	0.015435
1078.088842	0.015476
1078.252217	0.015606
1078.415573	0.017165
1078.578912	0.017002
1078.742232	0.017859
1078.905534	0.018346
1079.068817	0.018791
1079.232083	0.017815
1079.395330	0.015450
1079.558559	0.015502
1079.721770	0.015041
1079.884962	0.013322
1080.048136	0.011250
1080.211293	0.009910
1080.374430	0.009746
1080.537550	0.009075
1080.700651	0.009106
1080.863735	0.009880
1081.026800	0.011359
1081.189846	0.010078
1081.352875	0.008373
1081.515885	0.010093
1081.678877	0.011807
1081.841851	0.013059
1082.004807	0.012113
1082.167744	0.011722
1082.330663	0.011146
1082.493564	0.010728
1082.656447	0.012469
1082.819312	0.014003
1082.982158	0.015067
1083.144986	0.014491
1083.307796	0.014630
1083.470587	0.015482
1083.633361	0.017413
1083.796116	0.018569
1083.958853	0.019279
1084.121571	0.020967
1084.284272	0.022111
1084.446954	0.020344
1084.609618	0.020344
1084.772264	0.017604
1084.934892	0.018557
1085.097501	0.018078
1085.260092	0.017098
1085.422665	0.015190
1085.585220	0.014465
1085.747756	0.015758
1085.910274	0.016030
1086.072774	0.015511
1086.235256	0.018654
1086.397720	0.015657
1086.560165	0.016231
1086.722592	0.014965
1086.885001	0.016345
1087.047392	0.015916
1087.209764	0.014315
1087.372119	0.014473
1087.534455	0.013114
1087.696772	0.011599
1087.859072	0.011850
1088.021353	0.009687
1088.183616	0.012388
1088.345861	0.012950
1088.508088	0.012795
1088.670296	0.012470
1088.832486	0.011325
1088.994658	0.011998
1089.156812	0.009790
1089.318948	0.011896
1089.481065	0.012387
1089.643164	0.010746
1089.805245	0.011775
1089.967308	0.011120
1090.129352	0.009504
1090.291378	0.011119
1090.453386	0.011059
1090.615376	0.015090
1090.777347	0.014262
1090.939301	0.015057
1091.101236	0.013589
1091.263153	0.009495
1091.425051	0.009218
1091.586932	0.013594
1091.748794	0.013222
1091.910638	0.013907
1092.072463	0.013849
1092.234271	0.015171
1092.396060	0.017580
1092.557831	0.020055
1092.719584	0.022635
1092.881319	0.020321
1093.043035	0.017038
1093.204733	0.017625
1093.366413	0.018122
1093.528075	0.018849
1093.689718	0.016543
1093.851343	0.015724
1094.012950	0.013149
1094.174539	0.011035
1094.336110	0.013959
1094.497662	0.014869
1094.659196	0.015376
1094.820712	0.013456
1094.982210	0.009994
1095.143689	0.011376
1095.305151	0.010349
1095.466594	0.011715
1095.628018	0.012721
1095.789425	0.011063
1095.950813	0.009001
1096.112183	0.007431
1096.273535	0.008069
1096.434869	0.007911
1096.596184	0.006145
1096.757482	0.004861
1096.918761	0.005409
1097.080021	0.003431
1097.241264	0.005567
1097.402488	0.006596
1097.563694	0.007486
1097.724882	0.007963
1097.886052	0.006533
1098.047203	0.006356
1098.208336	0.006444
1098.369451	0.005457
1098.530548	0.008409
1098.691627	0.008571
1098.852687	0.008392
1099.013729	0.006955
1099.174753	0.006222
1099.335758	0.009540
1099.496746	0.009012
1099.657715	0.009185
1099.818666	0.010366
1099.979599	0.008859
1100.140513	0.006993
1100.301409	0.008910
1100.462287	0.010576
1100.623147	0.010362
1100.783989	0.012879
1100.944812	0.015146
1101.105617	0.017221
1101.266404	0.014753
1101.427173	0.014906
1101.587923	0.013190
1101.748656	0.012178
1101.909370	0.010626
1102.070066	0.011831
1102.230743	0.004878
1102.391403	0.003094
1102.552044	-0.000944
1102.712667	0.000697
1102.873271	-0.001647
1103.033858	-0.001881
1103.194426	-0.003474
1103.354976	-0.003554
1103.515508	-0.003125
1103.676021	0.002596
1103.836517	0.003387
1103.996994	0.004364
1104.157453	0.004485
1104.317893	0.008519
1104.478316	0.012421
1104.638720	0.014602
1104.799106	0.013483
1104.959474	0.011210
1105.119823	0.011150
1105.280155	0.010922
1105.440468	0.013744
1105.600763	0.015334
1105.761039	0.014458
1105.921298	0.014136
1106.081538	0.013105
1106.241760	0.015579
1106.401964	0.018734
1106.562149	0.015881
1106.722316	0.019206
1106.882465	0.019244
1107.042596	0.017596
1107.202709	0.019529
1107.362803	0.016039
1107.522879	0.014994
1107.682937	0.016219
1107.842977	0.012370
1108.002999	0.011523
1108.163002	0.008752
1108.322987	0.008385
1108.482954	0.006732
1108.642902	0.004290
1108.802833	0.006348
1108.962745	0.009066
1109.122639	0.006073
1109.282515	0.006324
1109.442372	0.010988
1109.602211	0.010760
1109.762032	0.009292
1109.921835	0.009847
1110.081620	0.011333
1110.241386	0.008805
1110.401134	0.007649
1110.560864	0.006050
1110.720576	0.009204
1110.880269	0.004278
1111.039945	0.005990
1111.199602	0.004452
1111.359240	0.005887
1111.518861	0.003428
1111.678463	0.007011
1111.838047	0.004989
1111.997613	0.008262
1112.157161	0.004986
1112.316690	0.006894
1112.476202	0.007054
1112.635695	0.011786
1112.795169	0.012914
1112.954626	0.016146
1113.114064	0.015697
1113.273484	0.015088
1113.432886	0.017188
1113.592270	0.019679
1113.751635	0.019065
1113.910983	0.018779
1114.070312	0.017129
1114.229622	0.015700
1114.388915	0.016469
1114.548189	0.016834
1114.707445	0.019394
1114.866683	0.016184
1115.025903	0.017528
1115.185104	0.016598
1115.344287	0.018628
1115.503452	0.017239
1115.662599	0.020268
1115.821727	0.018779
1115.980838	0.019316
1116.139930	0.016664
1116.299004	0.015744
1116.458059	0.015118
1116.617097	0.016659
1116.776116	0.012267
1116.935117	0.012686
1117.094099	0.010134
1117.253064	0.010586
1117.412010	0.009424
1117.570938	0.011733
1117.729848	0.015251
1117.888740	0.015826
1118.047613	0.015248
1118.206468	0.018131
1118.365305	0.018851
1118.524124	0.019239
1118.682924	0.012902
1118.841707	0.014565
1119.000471	0.013356
1119.159216	0.012113
1119.317944	0.007496
1119.476653	0.010239
1119.635344	0.010505
1119.794017	0.009781
1119.952672	0.012886
1120.111308	0.020152
1120.269927	0.018741
1120.428527	0.019569
1120.587108	0.021117
1120.745672	0.023402
1120.904217	0.022418
1121.062744	0.024401
1121.221253	0.021997
1121.379744	0.017306
1121.538216	0.013277
1121.696671	0.014983
1121.855107	0.011597
1122.013524	0.008900
1122.171924	0.006966
1122.330305	0.007956
1122.488668	0.003016
1122.647013	0.002848
1122.805340	0.004864
1122.963648	0.005373
1123.121938	0.005300
1123.280210	0.006053
1123.438464	0.006270
1123.596700	0.008217
1123.754917	0.006610
1123.913116	0.007649
1124.071297	0.011061
1124.229459	0.009277
1124.387604	0.013643
1124.545730	0.010423
1124.703838	0.016109
1124.861928	0.017250
1125.019999	0.017918
1125.178052	0.016114
1125.336088	0.016449
1125.494104	0.013262
1125.652103	0.014360
1125.810083	0.009469
1125.968045	0.011559
1126.125989	0.007791
1126.283915	0.005396
1126.441823	0.006944
1126.599712	0.004320
1126.757583	0.005347
1126.915436	0.007149
1127.073270	0.007139
1127.231087	0.006901
1127.388885	0.005637
1127.546665	0.006437
1127.704426	0.013644
1127.862170	0.010804
1128.019895	0.015063
1128.177602	0.011856
1128.335291	0.016633
1128.492961	0.017748
1128.650614	0.018033
1128.808248	0.018273
1128.965864	0.018574
1129.123461	0.015974
1129.281041	0.013409
1129.438602	0.016672
1129.596145	0.016590
1129.753670	0.008088
1129.911176	0.005340
1130.068665	0.005745
1130.226135	0.003901
1130.383587	0.002837
1130.541020	-0.001760
1130.698436	0.001591
1130.855833	-0.001247
1131.013212	0.003152
1131.170573	0.007470
1131.327915	0.006382
1131.485239	0.009459
1131.642545	0.011178
1131.799833	0.012106
1131.957103	0.016449
1132.114354	0.015664
1132.271588	0.017251
1132.428803	0.016546
1132.585999	0.015152
1132.743178	0.020327
1132.900338	0.016093
1133.057480	0.019351
1133.214604	0.020138
1133.371710	0.018163
1133.528797	0.016913
1133.685866	0.016675
1133.842917	0.019766
1133.999950	0.022275
1134.156964	0.019424
1134.313960	0.018867
1134.470938	0.014013
1134.627898	0.013893
1134.784840	0.018389
1134.941763	0.019171
1135.098668	0.012871
1135.255555	0.007248
1135.412424	0.004254
1135.569274	0.004039
1135.726107	0.003915
1135.882921	0.008552
1136.039716	0.010636
1136.196494	0.007523
1136.353253	0.008727
1136.509995	0.011406
1136.666717	0.013125
1136.823422	0.015625
1136.980109	0.016527
1137.136777	0.016824
1137.293427	0.006769
1137.450059	-0.000369
1137.606672	0.001170
1137.763267	-0.000252
1137.919844	0.002620
1138.076403	0.003191
1138.232944	-0.000257
1138.389466	-0.004299
1138.545971	-0.005468
1138.702457	0.003589
1138.858924	0.006890
1139.015374	0.005130
1139.171805	0.012181
1139.328218	0.011855
1139.484613	0.010004
1139.640990	0.008913
1139.797348	0.009096
1139.953688	0.010583
1140.110010	0.009805
1140.266314	0.010747
1140.422600	0.011503
1140.578867	0.010441
1140.735116	0.009158
1140.891347	0.008941
1141.047559	0.011197
1141.203754	0.014880
1141.359930	0.018934
1141.516088	0.021400
1141.672228	0.025046
1141.828349	0.020639
1141.984452	0.015440
1142.140537	0.016771
1142.296604	0.020763
1142.452653	0.020280
1142.608683	0.021517
1142.764695	0.019405
1142.920689	0.013674
1143.076665	0.011416
1143.232622	0.013886
1143.388562	0.015029
1143.544483	0.013861
1143.700385	0.013155
1143.856270	0.014394
1144.012136	0.005007
1144.167985	0.002705
1144.323814	0.000455
1144.479626	-0.005344
1144.635420	-0.005188
1144.791195	-0.009782
1144.946952	-0.009088
1145.102691	-0.009835
1145.258411	-0.006450
1145.414113	0.004173
1145.569798	0.002878
1145.725463	0.005445
1145.881111	0.013905
1146.036741	0.017106
1146.192352	0.025440
1146.347945	0.026859
1146.503519	0.027028
1146.659076	0.023214
1146.814614	0.021136
1146.970134	0.017231
1147.125636	0.020293
1147.281120	0.016478
1147.436585	0.010948
1147.592032	0.008422
1147.747461	0.005880
1147.902872	0.003779
1148.058265	0.008169
1148.213639	0.002523
1148.368995	0.010769
1148.524333	0.008131
1148.679653	0.007482
1148.834954	0.003857
1148.990237	0.003740
1149.145502	-0.001065
1149.300749	0.002801
1149.455977	-0.000666
1149.611188	0.005335
1149.766380	0.004792
1149.921553	0.004482
1150.076709	0.003137
1150.231846	0.006105
1150.386966	-0.001631
1150.542066	0.003043
1150.697149	0.003548
1150.852214	0.000385
1151.007260	0.002711
1151.162288	-0.000183
1151.317298	0.003569
1151.472289	0.003759
1151.627263	0.007088
1151.782218	0.010951
1151.937155	0.015221
1152.092073	0.008360
1152.246974	0.010283
1152.401856	0.006958
1152.556720	0.014579
1152.711566	0.015425
1152.866393	0.014250
1153.021203	0.002907
1153.175994	0.001840
1153.330767	-0.008172
1153.485521	-0.002145
1153.640258	0.000245
1153.794976	-0.003210
1153.949676	-0.008846
1154.104358	-0.013921
1154.259021	-0.011651
1154.413667	-0.001070
1154.568294	-0.000765
1154.722903	0.007885
1154.877493	0.005041
1155.032066	0.007396
1155.186620	0.007808
1155.341156	0.006519
1155.495674	0.005181
1155.650173	0.012769
1155.804654	0.005766
1155.959118	0.012620
1156.113562	0.007658
1156.267989	0.010001
1156.422397	0.006245
1156.576788	0.007864
1156.731160	0.002144
1156.885513	0.003937
1157.039849	-0.003652
1157.194166	0.003067
1157.348465	-0.004176
1157.502746	-0.001565
1157.657009	-0.012007
1157.811253	-0.010165
1157.965479	-0.015325
1158.119687	-0.005037
1158.273877	-0.008923
1158.428048	-0.004819
1158.582201	-0.013946
1158.736337	-0.012315
1158.890453	-0.004564
1159.044552	0.008978
1159.198632	0.003972
1159.352694	0.004906
1159.506738	0.011287
1159.660764	0.022853
1159.814771	0.016499
1159.968761	0.016525
1160.122732	0.026755
1160.276685	0.012904
1160.430619	-0.000743
1160.584535	0.000016
1160.738434	-0.000466
1160.892313	-0.013489
1161.046175	-0.019838
1161.200019	-0.021340
1161.353844	-0.014717
1161.507651	-0.017556
1161.661440	-0.004473
1161.815210	-0.002854
1161.968962	0.004374
1162.122697	0.011588
1162.276412	0.022635
1162.430110	0.021099
1162.583789	0.024387
1162.737451	0.026245
1162.891094	0.026091
1163.044718	0.018544
1163.198325	0.024692
1163.351913	0.020158
1163.505483	0.011182
1163.659035	0.009832
1163.812569	0.010314
1163.966084	0.014955
1164.119581	0.003423
1164.273060	0.000367
1164.426521	-0.003035
1164.579964	-0.002359
1164.733388	-0.006114
1164.886794	0.003437
1165.040182	-0.011566
1165.193551	-0.014900
1165.346903	-0.028455
1165.500236	-0.017860
1165.653551	-0.016406
1165.806848	-0.015419
1165.960126	-0.015551
1166.113386	-0.019794
1166.266628	-0.035579
1166.419852	-0.024405
1166.573058	-0.024516
1166.726245	-0.017312
1166.879414	-0.022958
1167.032565	-0.024231
1167.185698	-0.026847
1167.338812	-0.027843
1167.491909	-0.031030
1167.644987	-0.005156
1167.798046	-0.003378
1167.951088	0.001503
1168.104111	-0.004226
1168.257117	0.002406
1168.410103	-0.001307
1168.563072	0.004637
1168.716023	0.004552
1168.868955	0.015000
1169.021869	-0.000325
1169.174765	-0.000956
1169.327642	-0.007085
1169.480501	0.010954
1169.633343	0.006677
1169.786165	0.013283
1169.938970	0.015932
1170.091757	0.011595
1170.244525	0.014247
1170.397275	0.017662
1170.550007	0.009584
1170.702720	0.025045
1170.855415	0.016527
1171.008092	0.021131
1171.160751	0.016577
1171.313392	0.009998
1171.466014	0.024454
1171.618619	0.012021
1171.771205	0.012021
1171.923772	0.012021
