sample name	sample
index	507
start time	 03-11-2021  03:07:52 PM
880	-0.014847
Peak Time (s)	91.538
Peak Height 	-0.01485
calc peak height	90,93
Baseline Time (s)	8.536
Baseline Value 	-0.005957
subtract baseline	10,4
Abs	-0.016400
Peak Time (s)	92.535
Peak Height 	-0.0164
calc peak height	90,93
Baseline Time (s)	11.034
Baseline Value 	0.005518
subtract baseline	10,3
PK_550	-0.002637
Peak Time (s)	92.038
Peak Height 	-0.002637
calc peak height	90,93
Baseline Time (s)	10.037
Baseline Value 	5.8298E-4
subtract baseline	10,2
PK_880	-0.014201
Peak Time (s)	90.039
Peak Height 	-0.0142
calc peak height	90,93
Baseline Time (s)	10.537
Baseline Value 	0.003181
subtract baseline	10,1


Time (s)	A880-A510	A880-A775	A880-A975	A880	I510	I775	I975	I880	
0.040000	0.000886	0.000173	-0.001121	0.002828	7032.787747	45084.367793	3975.828456	23949.846878
0.537000	-0.004253	0.000457	-0.005980	0.005354	6960.739255	44867.700154	3957.326907	23827.920828
1.037000	-0.003909	-0.000628	-0.008141	0.005733	6960.407280	44726.780019	3951.034707	23809.671034
1.534500	-0.001945	-0.001084	-0.007672	0.001208	7021.320786	45119.618339	3963.440670	24028.464736
2.034500	-0.000678	0.000248	0.001077	0.001243	7032.983651	45245.654017	3985.430177	24026.738647
2.535000	-0.001195	-0.000024	-0.000002	0.000388	7036.196930	45302.454052	3984.860366	24068.351376
3.035500	-0.004991	-0.000323	-0.005925	0.005281	6954.546400	44799.587323	3957.644192	23831.409851
3.538500	-0.000206	0.000168	-0.002927	0.000668	7042.924138	45293.879418	3976.724261	24054.726535
4.036500	-0.000717	-0.000574	-0.002884	0.000183	7042.680258	45268.822481	3978.059739	24078.331408
4.536500	-0.002168	-0.000557	-0.001435	-0.000557	7035.930964	45342.673055	3983.618272	24114.451053
5.037000	0.000531	0.000465	0.000197	0.000834	7048.362773	45306.622350	3984.229774	24046.645164
5.534500	-0.000434	0.000723	-0.000634	0.001266	7035.090922	45289.716266	3981.021764	24025.660679
6.037500	0.000092	-0.000431	0.001573	0.000155	7050.643566	45285.529565	3989.476738	24079.710994
6.537500	0.000374	-0.000882	-0.002148	-0.000123	7055.981359	45268.653364	3980.701623	24093.239424
7.035500	-0.000893	-0.000170	0.000948	0.000288	7040.012201	45297.986796	3987.538244	24073.226124
7.535500	-0.001725	-0.000127	-0.003242	-0.000195	7036.701044	45349.291229	3978.113085	24096.788128
8.039500	-0.000312	0.000871	0.004079	0.000336	7045.080322	45394.768875	3995.439329	24070.880737
8.536000	0.000090	-0.000422	0.001244	0.000000	7052.101510	45301.437901	3989.031056	24087.260388
9.036500	0.000301	0.001093	-0.002072	0.000278	7051.472887	45422.205761	3979.877651	24073.734814
9.537000	0.000137	0.000330	0.002282	-0.000081	7053.322541	45382.701004	3991.897287	24091.216834
10.037000	-0.001428	0.000000	-0.002710	-0.000140	7038.999229	45356.283950	3979.319719	24094.099490
10.536500	0.000000	0.000398	0.001452	0.000054	7050.735861	45376.239971	3989.426853	24084.651075
11.034500	-0.000410	-0.000072	0.000000	-0.000252	7049.740132	45360.154974	3986.497275	24099.554944
11.535500	-0.000231	-0.000516	-0.001340	0.000092	7048.174625	45283.421036	3982.210513	24082.800485
12.035500	0.000920	0.000469	-0.000048	0.000517	7055.089388	45337.964848	3984.413996	24062.090396
12.538500	-0.000298	-0.000402	0.001295	-0.000108	7049.436468	45313.969382	3989.436923	24092.536801
13.036000	0.000787	0.000683	-0.003286	-0.001086	7069.128256	45515.455399	3980.258041	24140.246842
13.535500	-0.002370	-0.000285	-0.006711	0.002563	7004.523395	45065.802798	3962.456215	23962.710376
14.053000	0.000191	0.000578	-0.002591	-0.000544	7058.250491	45452.120228	3980.645953	24113.776734
14.536500	-0.002053	-0.000219	0.000094	0.002251	7010.456016	45102.439810	3980.368950	23977.840632
15.037000	-0.002324	0.000112	-0.003436	0.000372	7025.643581	45317.294143	3976.185935	24069.157115
15.552000	-0.002954	0.000286	0.000531	0.003416	6991.007712	45038.496889	3978.523530	23921.422850
16.035000	0.000788	0.001072	-0.001087	0.000092	7057.879088	45438.344573	3982.851846	24082.788211
16.535500	0.000235	0.000641	-0.003556	-0.000806	7061.172408	45483.909451	3978.862160	24126.566805
17.038500	0.000486	-0.000630	-0.003418	-0.001159	7066.947762	45394.247571	3980.109659	24143.825569
17.535500	-0.001903	0.000216	-0.000153	0.002310	7011.309003	45138.920980	3979.591920	23974.989588
18.036000	0.001648	0.000065	0.002086	-0.003256	7098.218273	45667.727734	3999.560203	24246.541378
18.536500	-0.000870	-0.000650	0.002974	0.000389	7039.265392	45241.383948	3992.466339	24068.303457
19.036500	0.000896	-0.000731	0.001825	0.000528	7054.755980	45219.996783	3989.166666	24061.554661
19.537000	-0.001536	-0.000094	-0.004511	0.001291	7024.403083	45207.757559	3971.157087	24024.439948
20.037500	-0.000987	0.000218	-0.001073	0.000983	7032.527166	45268.035214	3980.622887	24039.407614
20.537500	-0.001461	0.000288	-0.001844	0.000761	7030.133574	45296.485320	3979.230758	24050.203522
21.035500	-0.001051	0.000310	-0.004100	0.000715	7034.453256	45303.110765	3973.642325	24052.426752
21.538000	-0.000639	0.000380	-0.001165	0.002107	7025.176276	45174.499251	3977.543653	23984.833113
22.035500	-0.000316	0.000961	-0.001781	0.001333	7035.575816	45306.337509	3977.943736	24022.407971
22.536000	-0.001227	0.000464	0.002444	0.000866	7031.356334	45303.415473	3989.885083	24045.079648
23.036000	-0.002839	-0.000109	-0.002403	0.000728	7017.402202	45261.048518	3977.897087	24051.791959
23.536500	-0.000873	0.000118	-0.000095	0.002106	7022.961690	45149.125668	3980.256389	23984.861327
24.037000	-0.000585	-0.000175	-0.002908	0.001095	7035.272596	45218.958641	3975.693741	24033.970842
24.537000	0.000649	0.000484	-0.000049	0.001264	7045.395400	45266.611284	3982.511048	24025.752032
25.034500	-0.001295	0.000055	-0.000584	0.000343	7035.665443	45314.506873	3983.492199	24070.532523
25.537500	0.001817	0.000537	0.003550	0.001608	7053.233853	45238.198201	3990.815608	24009.012703
26.037500	-0.000777	0.000409	0.001910	0.000920	7035.112661	45292.875773	3988.382579	24042.489077
26.535500	-0.000209	0.000075	-0.003074	0.000708	7042.519038	45280.902054	3976.249643	24052.762151
27.035500	-0.001900	-0.000539	0.001001	0.000457	7028.860664	45245.615509	3987.243045	24065.020191
27.536000	0.000258	-0.000212	0.000021	0.001861	7036.010709	45140.933819	3981.173315	23996.767425
28.036500	0.000883	-0.000123	-0.002912	-0.001124	7070.408182	45440.336940	3981.302607	24142.097823
28.536500	0.000860	0.000660	-0.000017	-0.000677	7065.909938	45473.201019	3987.538244	24120.275564
29.037000	-0.003316	-0.000664	-0.006702	0.003301	6988.691049	44957.641217	3960.639508	23926.985902
29.534500	0.001003	-0.000029	-0.000086	-0.001025	7070.605519	45439.785129	3988.251324	24137.262879
30.034500	0.001327	0.000468	0.000374	-0.000461	7068.314944	45433.354950	3987.985130	24109.759347
30.537500	0.002355	0.000105	-0.000156	-0.000994	7083.272265	45449.896286	3987.993995	24135.776413
31.035500	-0.003410	-0.000814	-0.005300	0.003433	6986.571426	44930.385169	3963.806411	23920.575959
31.538500	-0.002163	0.000165	-0.004262	0.003959	6993.339001	44974.180063	3965.087426	23895.152115
32.036000	-0.003681	-0.001262	0.002313	0.001676	7000.524620	45057.056226	3987.478736	24005.717736
32.536000	-0.002024	0.000287	0.001278	0.000480	7027.461565	45323.855738	3987.891436	24063.900706
33.058000	-0.003776	0.000059	0.002514	0.003233	6985.016147	45034.208839	3984.023244	23930.275095
33.537000	-0.003663	-0.000137	0.003510	0.003619	6982.458617	44977.850860	3985.575254	23911.598548
34.037000	-0.000437	-0.000038	-0.000245	-0.000769	7054.402511	45413.954255	3987.189475	24124.753485
34.537000	-0.000121	0.000424	-0.000842	-0.000778	7057.508673	45459.986092	3985.691929	24125.212095
35.037500	-0.001843	-0.000993	-0.002145	0.001312	7021.298157	45118.351002	3977.073098	24023.404301
35.535000	-0.001169	-0.000139	0.000987	0.001424	7026.620287	45190.431739	3984.740610	24017.981124
36.035500	-0.001645	-0.000089	0.000456	0.001530	7021.105118	45184.923539	3983.117972	24012.801779
36.535500	-0.001211	0.000125	-0.003434	0.001459	7025.894823	45212.709243	3973.448102	24016.277779
37.036000	0.000448	0.000484	0.000068	0.002195	7034.634042	45176.010780	3980.443020	23980.538503
37.536500	0.000418	0.000027	-0.000983	0.001191	7043.886169	45229.229247	3980.323712	24029.287408
38.037000	0.000477	0.000506	-0.000851	0.001401	7042.452435	45255.429886	3980.124910	24019.075848
38.536500	0.000108	-0.000072	-0.004725	0.001288	7040.020601	45210.174001	3970.628004	24024.582978
39.037500	-0.001436	-0.000208	0.000158	0.001104	7027.120696	45214.910259	3983.445239	24033.541592
39.537500	-0.000614	0.000002	-0.001063	0.000968	7036.203007	45248.467343	3980.687284	24040.117066
40.035000	-0.000949	-0.000099	-0.005471	0.001250	7030.343214	45211.191983	3968.847292	24026.400574
40.535000	0.000433	-0.000602	-0.005090	0.000848	7047.290857	45201.336260	3970.815084	24045.950002
41.035500	-0.000044	-0.000073	-0.000834	0.001261	7038.834353	45212.667018	3980.523185	24025.873799
41.536000	-0.000451	0.000626	0.000472	0.002769	7020.693644	45134.189410	3980.013261	23952.744000
42.036000	-0.002796	-0.000131	-0.001438	0.001019	7015.062514	45230.639205	3979.607774	24037.653403
42.536500	-0.001199	-0.000127	0.000401	0.001338	7027.147377	45199.952229	3983.468685	24022.153218
43.036500	-0.001030	-0.000609	0.002571	0.000426	7037.404868	45241.762833	3991.337012	24066.521123
43.537000	-0.002568	-0.000222	-0.001684	0.001887	7009.028655	45137.408756	3976.785335	23995.504397
44.037000	-0.001554	0.000080	0.000428	0.001133	7025.735579	45240.068546	3984.059151	24032.119740
44.535000	0.000741	0.001245	-0.003091	0.002056	7038.733708	45263.584364	3972.806855	23987.271810
45.035500	0.000946	-0.000732	0.001318	-0.002018	7079.579972	45468.189734	3994.393490	24185.852296
45.535500	-0.002112	-0.000507	-0.000746	0.000548	7025.988551	45239.864858	3982.558455	24060.574540
46.036000	-0.000328	0.000446	0.001356	-0.000805	7055.782885	45464.751428	3991.375864	24126.509713
46.536000	0.000851	0.000305	-0.000601	-0.001198	7070.809477	45489.440814	3987.375660	24145.723383
47.036500	0.000386	0.000061	0.006253	-0.001266	7067.009325	45472.214384	4005.194545	24149.059715
47.536500	-0.002148	-0.000050	-0.005253	0.002630	7005.981586	45082.076816	3965.933792	23959.461068
48.037000	-0.000257	-0.000190	0.002987	-0.001288	7061.077198	45449.812093	3996.807429	24150.110011
48.549500	0.000567	0.000065	-0.004149	-0.001092	7067.079534	45455.596730	3978.085887	24140.548582
49.040000	-0.000008	0.000700	0.000771	0.002286	7029.448377	45188.202286	3981.996460	23976.119690
49.534500	-0.002055	-0.000491	-0.001855	0.003117	7002.270023	44992.124894	3973.247734	23935.869072
50.054500	-0.000221	-0.000439	0.003329	-0.001175	7060.344224	45414.495263	3997.399393	24144.632782
50.535500	-0.001208	-0.000351	-0.001709	-0.001425	7053.317205	45447.491966	3985.130691	24156.843859
51.035500	-0.001577	-0.000161	0.003000	0.000182	7034.532754	45309.217120	3993.064087	24078.415391
51.535500	-0.001569	-0.000384	-0.003130	0.002195	7015.548446	45091.855195	3972.357334	23980.545813
52.036500	0.000416	0.000071	-0.000322	-0.001370	7068.295921	45483.338689	3988.528414	24154.139251
52.536500	-0.000631	0.000393	-0.000231	0.000028	7044.975824	45378.252039	3985.195002	24085.895299
53.040000	-0.001293	-0.000582	0.000683	0.004016	7000.981401	44896.510230	3977.385201	23892.394265
53.537000	-0.010282	-0.002152	0.004532	0.123487	5954.541070	34702.307192	3720.513153	18848.320876
54.034500	-0.032319	-0.005651	-0.022392	0.140263	5694.616149	33255.679991	3639.900261	18244.746971
54.534500	-0.052581	-0.022842	-0.028204	-0.095474	7480.687815	53053.082224	4171.390892	29291.971608
55.035500	-0.049905	-0.078513	-0.026071	-0.244264	9386.345327	65025.970812	4708.684457	40068.228292
55.535500	-0.030658	-0.053342	-0.008462	-0.209648	9161.319522	63691.309710	4638.398001	37222.163439
56.036000	-0.033261	-0.021738	-0.015444	-0.130263	8086.592161	57366.733470	4320.996676	31491.495299
56.536000	-0.030144	-0.019949	-0.018931	-0.136181	8195.319807	58340.368419	4329.093190	31883.515398
57.036500	-0.017612	-0.013720	-0.018625	-0.125974	8223.671711	57835.678679	4296.395118	31210.727743
57.539500	-0.016052	-0.010500	-0.018909	-0.113033	8086.355988	56621.734533	4253.866848	30380.162231
58.037000	-0.014840	-0.007649	-0.019276	-0.096517	7907.261269	54960.327029	4201.422809	29355.437611
58.534500	-0.017536	-0.007067	-0.016893	-0.083664	7731.658047	53512.319679	4169.908821	28584.490729
59.035000	-0.019232	-0.008688	-0.017748	-0.081081	7684.431868	53025.609926	4159.725585	28432.312653
59.535500	-0.019840	-0.007742	-0.020530	-0.070028	7558.049000	51874.524050	4119.548440	27791.147262
60.035500	-0.019884	-0.007758	-0.021752	-0.067478	7530.400623	51586.590445	4108.816343	27645.558437
60.536000	-0.018476	-0.008639	-0.019634	-0.069957	7571.895126	51765.649910	4121.909102	27787.072149
61.036000	-0.017429	-0.007980	-0.020918	-0.065094	7531.149507	51295.721711	4104.431755	27510.164691
61.536000	-0.014168	-0.006095	-0.018449	-0.061893	7531.795918	51149.650233	4102.367721	27329.616042
62.039500	-0.016595	-0.005153	-0.015383	-0.060898	7495.555164	51143.741084	4108.219490	27273.759680
62.537000	-0.006474	0.000018	-0.019112	-0.032500	7306.749065	48635.884878	4020.526626	25732.177469
63.034000	-0.014660	-0.005019	-0.023158	-0.049966	7401.608105	49961.040980	4056.367123	26668.309888
63.534500	-0.018975	-0.004315	-0.024755	-0.051468	7372.650652	50200.325603	4056.111223	26750.628836
64.035500	-0.009241	-0.000491	-0.022156	-0.022388	7178.394208	47532.905385	3986.444532	25207.096737
64.535500	-0.012434	-0.005083	-0.020988	-0.061970	7551.081272	51270.438674	4095.447407	27333.901022
65.035500	-0.011419	-0.005372	-0.016511	-0.059604	7536.676584	50976.222547	4101.377395	27201.259771
65.568500	-0.009941	-0.004217	-0.020682	-0.057753	7532.713186	50899.391434	4084.538611	27098.001400
66.036000	-0.007778	-0.004110	-0.019350	-0.055238	7528.978500	50634.465874	4081.258389	26958.413631
66.539500	-0.012174	-0.004196	-0.018944	-0.052907	7458.034237	50370.046622	4075.935926	26829.693358
67.036500	-0.012256	-0.004296	-0.016932	-0.051176	7439.109220	50170.577434	4076.709117	26734.564727
67.537500	-0.014864	-0.004175	-0.021303	-0.045219	7350.749861	49540.885014	4048.552433	26410.179900
68.038500	-0.012288	-0.003898	-0.014062	-0.048971	7415.868719	49974.739583	4078.549114	26613.977690
68.535000	-0.013053	-0.003772	-0.016203	-0.047534	7393.095820	49833.144773	4068.699911	26535.699623
69.037500	-0.011335	-0.003118	-0.020444	-0.045738	7392.287843	49710.097746	4052.269540	26438.220969
69.535500	-0.015486	-0.003713	-0.021191	-0.040169	7293.181752	49051.617919	4035.320380	26138.562723
70.038500	-0.012224	-0.003085	-0.017223	-0.043372	7358.855713	49459.803572	4054.582348	26310.457927
70.536000	-0.011384	-0.002970	-0.023743	-0.042519	7358.719939	49380.826485	4034.783259	26264.561869
71.039000	-0.012723	-0.002721	-0.017798	-0.039959	7319.003350	49134.659500	4043.832004	26127.355102
71.536500	-0.014932	-0.003309	-0.022079	-0.035626	7253.142575	48614.736283	4020.943922	25896.953467
72.037000	-0.012683	-0.003421	-0.020559	-0.039248	7312.195754	48984.940151	4034.550718	26089.375510
72.537500	-0.012270	-0.002697	-0.021228	-0.038583	7309.655172	48991.249131	4031.007247	26053.954877
73.035000	-0.011622	-0.002450	-0.017218	-0.037393	7304.157740	48891.415816	4038.513810	25990.607449
73.535000	-0.016161	-0.002707	-0.019342	-0.033854	7223.264197	48491.945514	4023.484519	25803.380057
74.035500	-0.011555	-0.003205	-0.017887	-0.038010	7311.085102	48876.781628	4038.375274	26023.415401
74.535500	-0.013077	-0.003522	-0.014903	-0.038234	7297.967503	48867.021249	4046.975548	26035.375550
75.036000	-0.012589	-0.002224	-0.013750	-0.036971	7290.151828	48870.727477	4046.681331	25968.240460
75.539500	-0.015634	-0.003586	-0.021998	-0.032889	7218.918872	48299.085932	4013.977544	25752.574933
76.036000	-0.012759	-0.003219	-0.021730	-0.037336	7292.113887	48804.261582	4026.373816	25987.627122
76.537000	-0.015107	-0.003869	-0.015148	-0.037986	7275.038869	48804.231278	4045.649761	26022.178937
77.034500	-0.014623	-0.002578	-0.016200	-0.036116	7261.132811	48743.108988	4037.820646	25922.870481
77.537500	-0.016371	-0.003182	-0.019154	-0.032194	7204.752480	48268.774636	4019.610991	25716.093058
78.035000	-0.012973	-0.003024	-0.017781	-0.036288	7279.416952	48714.297246	4034.068750	25932.014361
78.535000	-0.014674	-0.003534	-0.015574	-0.036641	7265.878740	48697.719563	4040.897469	25950.693076
79.035500	-0.014064	-0.003979	-0.020465	-0.035800	7263.566918	48562.614150	4025.656449	25906.170440
79.536000	-0.015118	-0.004055	-0.018566	-0.035737	7252.404215	48548.092975	4030.517687	25902.850347
80.038500	-0.015293	-0.003504	-0.016959	-0.034685	7240.155959	48495.554823	4031.990136	25847.229314
80.536500	-0.014855	-0.003457	-0.016210	-0.034059	7238.283576	48434.825847	4032.316577	25814.166792
81.037000	-0.015657	-0.003858	-0.020944	-0.033435	7224.112540	48327.686369	4018.170319	25781.328793
81.536500	-0.019694	-0.004581	-0.024790	-0.027877	7129.929506	47676.675540	3993.752759	25490.578982
82.034500	-0.015937	-0.002894	-0.016856	-0.031326	7200.471979	48208.314240	4023.375884	25670.572222
82.537500	-0.018475	-0.003312	-0.019284	-0.030759	7169.932664	48105.821427	4015.504767	25640.862368
83.037500	-0.016871	-0.003313	-0.019495	-0.029690	7175.170899	47994.825830	4012.158668	25585.007877
83.535000	-0.016610	-0.003932	-0.016428	-0.029435	7175.242195	47904.371811	4019.524354	25571.730922
84.035500	-0.016067	-0.003846	-0.018240	-0.028457	7170.969501	47812.180456	4012.217866	25520.764890
84.539000	-0.016897	-0.003396	-0.019144	-0.027540	7153.881094	47763.992354	4007.471290	25473.074431
85.035000	-0.014372	-0.003784	-0.018028	-0.026895	7172.275514	47657.623389	4008.698201	25439.628744
85.536500	-0.016426	-0.003835	-0.015496	-0.026025	7143.701371	47563.017552	4013.030046	25394.531506
86.039500	-0.017706	-0.003652	-0.015972	-0.025354	7124.741520	47512.905015	4010.038724	25359.838738
86.537500	-0.018122	-0.004034	-0.020742	-0.024118	7108.757639	47347.375530	3994.496721	25296.065757
87.037000	-0.014253	-0.003319	-0.013156	-0.022989	7135.311964	47305.134754	4011.214389	25237.983795
87.537500	-0.014684	-0.003441	-0.021580	-0.022908	7130.332334	47284.446013	3989.247812	25233.832307
88.038000	-0.013376	-0.003249	-0.017567	-0.021964	7133.864791	47207.814780	3997.124179	25185.366101
88.535500	-0.015952	-0.002778	-0.019182	-0.020740	7097.106879	47131.099153	3989.833545	25122.673110
89.041000	-0.015799	-0.002928	-0.018533	-0.021060	7101.664265	47148.443998	3992.316976	25139.066539
89.536000	-0.019791	-0.004209	-0.020794	-0.016364	7018.731141	46544.808259	3974.615815	24900.090120
90.039000	-0.014201	-0.003047	-0.019321	-0.020371	7110.440590	47066.305847	3988.533888	25103.837434
90.536500	-0.015713	-0.003344	-0.016998	-0.019088	7083.518221	46906.277824	3991.196445	25038.405299
91.037000	-0.014880	-0.002643	-0.017774	-0.019362	7094.155860	47004.906041	3989.911007	25052.339310
91.537500	-0.019388	-0.003811	-0.022980	-0.014847	7008.208376	46432.718581	3965.307194	24823.431536
92.037500	-0.015142	-0.002637	-0.020814	-0.018870	7086.905368	46955.740569	3980.908016	25027.273572
92.534500	-0.018180	-0.002954	-0.016400	-0.017403	7043.856870	46775.503893	3988.414958	24952.753869
93.038000	-0.014378	-0.002922	-0.016283	-0.018595	7091.613746	46899.098738	3991.766703	25013.320222
93.538000	-0.015895	-0.003026	-0.017424	-0.018347	7074.667783	46863.514004	3988.210372	25000.691382
94.038500	-0.013904	-0.002153	-0.015828	-0.016996	7080.804165	46815.255789	3988.836610	24932.114826
94.536500	-0.017865	-0.002642	-0.021371	-0.014595	7020.205934	46524.488369	3968.707843	24810.718499
95.039000	-0.015739	-0.003114	-0.018848	-0.017098	7064.210929	46728.684129	3981.399917	24937.281538
95.537000	-0.016615	-0.002951	-0.021911	-0.016254	7047.805693	46660.022692	3971.520504	24894.498708
96.036500	-0.014921	-0.002745	-0.018107	-0.015560	7057.337374	46611.098427	3979.378693	24859.444033
96.548500	-0.021156	-0.002885	-0.020592	-0.011152	6957.040489	46156.589778	3962.042379	24637.868445
97.037500	-0.016829	-0.001883	-0.016192	-0.013413	7018.829711	46482.167776	3978.789276	24751.215678
97.534500	-0.015518	-0.002371	-0.015470	-0.013742	7034.368175	46466.277349	3981.456636	24767.795969
98.041000	-0.016965	-0.002017	-0.019142	-0.013171	7015.256491	46444.470759	3970.732217	24739.053811
98.552500	-0.018515	-0.002836	-0.021472	-0.009746	6968.554437	46021.896355	3956.351231	24567.665104
99.038500	-0.018215	-0.002539	-0.017443	-0.012658	6998.650904	46341.093521	3973.719408	24713.313036
