sample name	sample
index	1245
start time	 04-29-2021  12:28:52 PM
880	-0.010741
Peak Time (s)	102.538
Peak Height 	-0.01074
calc peak height	100,103
Baseline Time (s)	9.036
Baseline Value 	-0.005529
subtract baseline	10,4
Abs	-0.014605
Peak Time (s)	101.037
Peak Height 	-0.01461
calc peak height	100,103
Baseline Time (s)	11.537
Baseline Value 	0.002545
subtract baseline	10,3
PK_550	0.004609
Peak Time (s)	100.036
Peak Height 	0.004609
calc peak height	100,103
Baseline Time (s)	9.036
Baseline Value 	7.5231E-4
subtract baseline	10,2
PK_880	-0.017570
Peak Time (s)	100.036
Peak Height 	-0.01757
calc peak height	100,103
Baseline Time (s)	8.536
Baseline Value 	0.003076
subtract baseline	10,1


Time (s)	A880-A510	A880-A775	A880-A975	A880	I510	I775	I975	I880	
0.036000	-0.001727	-0.000679	-0.003431	0.001864	6199.121060	44014.768282	3900.844639	22769.166471
0.536000	-0.001388	-0.000652	-0.001905	0.004036	6185.408436	43812.598104	3899.381881	22670.235017
1.039500	-0.004538	-0.000650	0.000408	0.006768	6141.804686	43556.649573	3898.434986	22546.486505
1.539000	-0.002426	-0.000194	-0.005898	0.001123	6199.434557	44130.801257	3896.941658	22803.020657
2.037000	-0.001848	0.000265	0.000743	0.001464	6201.212125	44141.991480	3911.264702	22787.463916
2.534500	-0.002049	-0.000454	-0.004082	0.000399	6207.699899	44174.843547	3902.691246	22836.196942
3.035500	-0.004869	-0.000859	-0.003256	0.003156	6166.054404	43875.892241	3898.319362	22710.266138
3.535500	-0.001343	-0.000762	0.002314	-0.000006	6216.064058	44184.011740	3918.249929	22854.758312
4.035500	-0.000275	-0.000398	0.001240	0.000145	6222.976647	44204.184742	3915.428850	22847.816935
4.536000	0.000465	0.000159	0.005862	0.000663	6224.652482	44207.935996	3924.910883	22824.093158
5.036500	-0.000373	0.000089	-0.001502	0.000586	6218.909738	44208.588626	3908.138888	22827.628352
5.539000	-0.001497	-0.000481	-0.001853	-0.000041	6215.168925	44214.058648	3908.768120	22856.373221
6.037000	-0.002200	-0.000157	-0.000283	0.000327	6207.105515	44209.775743	3911.516246	22839.459486
6.537000	-0.002514	0.000312	0.004260	0.001060	6199.250115	44184.760500	3920.280758	22805.923645
7.037000	-0.004090	-0.000467	-0.006579	-0.000245	6197.217599	44234.742024	3898.493445	22865.722851
7.537500	-0.002220	-0.000161	-0.000232	0.000222	6207.742390	44219.391193	3911.875532	22844.300721
8.035500	-0.001814	-0.000255	-0.001148	-0.000250	6214.345682	44255.303781	3910.855909	22865.919099
8.536000	0.000000	-0.000293	0.001244	-0.000524	6230.108411	44277.788433	3916.976953	22878.502068
9.036000	-0.000531	0.000000	-0.001241	0.000000	6222.136406	44255.816773	3910.073406	22854.472878
9.536000	0.000045	-0.000258	0.000885	-0.000168	6227.756519	44247.298737	3915.331850	22862.182572
10.036500	-0.001614	0.000144	0.000045	0.000102	6213.208003	44259.784605	3912.783731	22849.802558
10.536500	0.001968	-0.000123	-0.001754	-0.000588	6245.528640	44300.123488	3910.244252	22881.475688
11.036500	-0.000434	0.000415	-0.000137	0.000017	6222.742203	44293.698398	3912.562533	22853.712408
11.537500	0.000184	0.001177	0.000000	0.000576	6223.184656	44312.893977	3911.593553	22828.050804
12.034500	-0.001232	0.000113	0.007726	-0.000711	6222.215065	44334.252065	3932.455162	22887.127055
12.535000	0.000458	-0.000256	0.000921	-0.000244	6231.457113	44254.697496	3915.589713	22865.676376
13.035500	-0.001706	-0.000579	0.001160	-0.003056	6236.363817	44491.961279	3922.630609	22995.109981
13.535500	-0.000402	0.000545	0.000635	-0.001298	6232.927904	44431.381370	3917.358479	22914.097015
14.044000	-0.001069	-0.000165	-0.003955	-0.001090	6226.304405	44343.844517	3906.366127	22904.511069
14.536000	-0.001735	-0.000467	0.002081	0.000834	6206.787226	44132.315183	3915.778221	22816.249784
15.036000	-0.002034	-0.000591	-0.000065	0.000303	6208.531542	44170.946815	3912.070564	22840.574183
15.540500	-0.000805	-0.000650	-0.000654	-0.001447	6231.006162	44331.657771	3914.735376	22920.950224
16.038000	0.000562	-0.000237	-0.000250	-0.001457	6241.440486	44371.959098	3915.687160	22921.411178
16.537500	-0.000529	-0.000443	0.004688	-0.001511	6233.575204	44357.424503	3927.233451	22923.885099
17.038000	-0.003271	0.000481	-0.000977	0.002090	6185.880880	44103.100148	3905.904971	22758.848001
17.535000	-0.000689	-0.000724	0.000334	-0.001953	6235.714689	44372.798899	3918.171796	22944.222371
18.035500	0.001364	-0.000828	0.003677	-0.003487	6263.010833	44509.340933	3929.479022	23015.018515
18.535500	-0.001674	-0.000065	-0.000453	0.000338	6210.973505	44217.517462	3911.100689	22838.961681
19.036000	-0.000491	0.000134	0.003156	0.001369	6212.120325	44138.569708	3917.020229	22791.764215
19.539000	-0.001693	-0.000199	-0.003300	0.000256	6211.449605	44212.562299	3904.793392	22842.740438
20.036500	-0.000374	-0.000516	-0.003120	0.000052	6222.926892	44201.807504	3905.665975	22852.086035
20.537000	-0.002203	-0.000832	0.001461	-0.000203	6211.067283	44196.104991	3916.739386	22863.790591
21.037000	-0.001383	-0.000358	0.008848	0.000225	6214.021365	44200.437773	3932.888983	22844.166413
21.535000	-0.002258	-0.000952	-0.000408	0.000340	6206.576203	44133.239689	3911.202715	22838.902061
22.035500	-0.002887	0.000322	0.001136	0.000998	6196.918431	44191.638339	3913.232201	22808.773001
22.534500	-0.000163	0.000260	-0.000325	0.000598	6220.404986	44223.762465	3910.800756	22827.082482
23.035500	-0.000876	-0.000833	0.000711	0.000322	6217.105292	44146.084814	3913.806814	22839.691288
23.536000	-0.002110	0.000346	-0.006388	0.000846	6203.888086	44208.374025	3896.463356	22815.718862
24.039000	-0.001829	-0.000413	-0.002757	-0.000045	6212.690054	44220.831694	3906.714293	22856.534695
24.536000	-0.002322	0.000394	-0.000366	0.000806	6202.592696	44216.724463	3910.231256	22817.547342
25.037000	-0.002632	-0.000459	0.001585	-0.000141	6207.375335	44225.579177	3916.882587	22860.950920
25.537000	-0.002061	-0.000725	-0.001513	-0.000187	6212.016617	44204.711394	3909.877685	22863.040201
26.037500	0.000786	-0.000138	0.001011	0.000188	6230.670531	44224.808426	3914.802097	22845.830410
26.535000	-0.000961	-0.000059	-0.002443	0.000296	6216.662790	44222.044484	3906.653666	22840.895414
27.034500	0.000261	0.000099	-0.001163	0.000404	6225.067168	44226.784148	3909.327257	22835.937766
27.535000	-0.000849	-0.000414	0.000154	0.000332	6217.234149	44184.891916	3912.506038	22839.232137
28.036000	0.000650	0.000094	-0.002183	-0.002518	6250.172986	44504.788147	3913.682100	22970.269881
28.538500	-0.001110	-0.000923	-0.000746	-0.001912	6232.217015	44349.986321	3915.593018	22942.370276
29.036500	-0.000768	-0.000169	-0.001796	-0.000710	6225.713924	44307.314054	3910.427647	22887.063494
29.536500	0.000578	0.000122	0.000170	-0.000782	6236.446132	44341.858174	3915.101496	22890.390707
30.037000	0.000481	0.000119	0.008312	-0.001050	6237.742017	44367.055865	3934.619363	22902.691342
30.537000	-0.000282	0.000125	-0.003387	-0.001228	6233.305780	44384.632432	3907.976975	22910.883741
31.034500	-0.000205	-0.000538	0.003099	-0.001253	6234.079220	44323.849604	3922.945639	22912.008275
31.546500	0.000190	0.000289	0.003720	-0.000844	6233.973189	44363.725446	3923.437608	22893.226712
32.035000	-0.001407	-0.000212	-0.001822	0.001229	6206.286965	44119.056659	3905.941257	22798.181644
32.536000	-0.001111	0.000505	0.003013	0.000354	6215.096443	44270.155974	3919.032656	22838.254696
33.055000	-0.002079	-0.000091	-0.000232	0.000426	6207.268267	44206.711232	3911.407008	22834.942850
33.536000	-0.000712	-0.000643	0.000801	-0.001393	6231.301477	44327.130786	3917.960066	22918.461112
34.036000	0.000478	0.000500	0.002900	-0.000372	6232.578142	44338.809336	3920.448162	22871.553259
34.537000	0.000449	0.000024	-0.000323	-0.000705	6234.881564	44325.168852	3913.792457	22886.845769
35.037500	-0.000775	-0.000797	-0.000918	-0.000814	6226.445960	44257.504981	3912.677642	22891.851725
35.537500	-0.000778	0.000223	-0.000655	0.001346	6210.133265	44149.159762	3908.334832	22792.828314
36.035000	-0.000021	0.000328	0.001547	0.001218	6216.800639	44171.276114	3913.671049	22798.700927
36.535500	0.000301	-0.000261	0.000452	0.000668	6223.371222	44167.580012	3912.419642	22823.839368
37.035500	-0.003313	-0.000369	-0.001606	0.001009	6193.639736	44124.973920	3906.934440	22808.236396
37.536000	-0.001304	-0.000193	-0.002897	0.000533	6212.289055	44186.798754	3905.078210	22830.022863
38.036000	-0.001046	-0.000388	-0.003842	0.000170	6216.972779	44202.823875	3903.756778	22846.691140
38.536500	-0.001321	0.000780	0.004410	0.001533	6204.654510	44184.340874	3919.534764	22784.305632
39.036000	-0.001107	-0.000250	-0.002220	0.000820	6211.617446	44154.209609	3905.967181	22816.883494
39.536500	-0.001629	-0.000232	0.002098	0.000652	6208.959568	44171.916054	3916.236296	22824.609462
40.037000	-0.003060	0.000422	0.000450	0.001226	6193.915287	44179.438941	3911.135702	22798.311866
40.537500	-0.000614	-0.000079	0.001977	0.001294	6211.756234	44125.544352	3914.483229	22795.214249
41.035000	0.000037	-0.000416	-0.000395	0.001298	6216.629637	44093.190995	3909.038600	22795.009942
41.535000	-0.000800	0.000384	-0.000245	0.001262	6210.598890	44172.406597	3909.464296	22796.664077
42.036000	-0.001891	0.001243	0.003134	0.001814	6198.264515	44201.559833	3915.947415	22771.462167
42.538500	-0.000748	-0.000293	-0.006171	0.000955	6213.297728	44137.335184	3896.706190	22810.712753
43.036000	-0.003915	0.000381	-0.002604	0.001527	6185.279332	44147.009851	3903.485248	22784.575004
43.536000	-0.000186	-0.000268	-0.001790	0.001150	6216.061193	44121.242734	3906.193783	22801.783017
44.036500	-0.001778	-0.000074	0.004943	0.001260	6203.268109	44129.239081	3921.397157	22796.781330
44.536500	-0.001678	0.000576	0.004137	0.001525	6202.031070	44165.765259	3918.923039	22784.664823
45.040000	-0.002678	-0.000176	-0.000653	0.001060	6198.015447	44138.536090	3908.993896	22805.919314
45.535000	0.000701	-0.000141	0.004104	-0.000724	6236.931668	44311.261305	3924.047010	22887.685350
46.035000	0.000181	0.000525	-0.001195	-0.000526	6231.499703	44355.874907	3911.381308	22878.610294
46.540000	0.000575	-0.000431	-0.004118	-0.001316	6240.466695	44339.969263	3906.507918	22914.898448
47.038500	-0.004678	-0.000270	-0.000071	0.004354	6158.590467	43818.571596	3902.817543	22655.772191
47.536000	-0.000095	0.000149	0.000497	-0.000657	6230.400909	44332.448390	3915.563634	22884.619804
48.035500	-0.000077	0.000018	0.001884	-0.001254	6235.055234	44376.904777	3920.136799	22912.045876
48.536500	0.000173	-0.000010	0.002304	0.001375	6217.076141	44124.383510	3915.047858	22791.526517
49.036500	-0.002253	0.000452	-0.002067	0.002754	6188.523491	44037.558594	3901.920465	22728.581806
49.537000	-0.000412	0.000738	0.001834	0.001658	6210.541231	44168.428107	3913.317702	22778.581709
50.037000	-0.001434	-0.000072	0.001888	-0.001274	6224.945623	44370.294804	3920.192778	22913.002077
50.535000	-0.001568	0.000319	0.004679	0.001432	6203.554135	44150.186296	3920.390083	22788.925476
51.035000	0.000090	0.000396	0.000862	0.002116	6210.868364	44092.612799	3910.041990	22757.645592
51.536000	0.002043	0.000085	-0.003458	-0.002639	6261.719642	44515.489256	3911.037876	22975.849714
52.035500	0.001264	-0.001199	0.008720	-0.001937	6250.424623	44325.977250	3937.655992	22943.493635
52.536000	-0.000227	-0.000913	0.001974	0.007140	6170.940505	43497.309462	3901.136756	22529.691552
53.035500	0.016530	-0.023405	-0.006951	0.632945	3737.743714	12079.444158	3145.143453	7574.348951
53.536000	-0.008751	-0.024881	-0.019583	-0.026012	6359.236066	44363.533641	3927.770280	24083.911753
54.039000	-0.011276	-0.040864	-0.012362	-0.151416	7476.145103	56223.813077	4288.787045	31163.199118
54.536500	-0.018841	-0.042854	-0.012810	-0.192591	7840.834076	61251.955584	4423.658428	33970.266664
55.034500	-0.004424	-0.028108	-0.007708	-0.168106	7728.618291	59959.684453	4357.891052	32269.063612
55.534500	0.005341	-0.017612	-0.001313	-0.140905	7540.312799	57809.109427	4290.484288	30488.211307
56.035000	-0.007110	-0.015698	-0.004137	-0.081844	6842.484374	51047.867654	4108.065168	26985.038806
56.535500	-0.018821	-0.014798	-0.019154	-0.075853	6686.760396	50487.571990	4051.814615	26655.531037
57.035000	-0.012456	-0.012140	-0.014188	-0.083695	6811.228834	51650.408927	4085.782581	27087.711027
57.536500	-0.013396	-0.005924	-0.014796	-0.088221	6843.300750	52869.556968	4096.378448	27340.758416
58.036500	-0.012371	-0.007110	-0.013359	-0.091591	6882.957456	53120.959598	4109.501933	27530.813656
58.536500	-0.009757	-0.006518	-0.014281	-0.104815	7029.272237	54742.102396	4143.771330	28291.258634
59.048000	-0.008507	-0.005826	-0.010426	-0.081701	6828.681234	52137.050802	4090.552895	26977.089459
59.534000	-0.009344	-0.005032	-0.014755	-0.065531	6679.490486	50426.860721	4036.444595	26098.482417
60.034500	-0.007747	-0.005495	-0.013934	-0.056495	6616.049045	49400.079504	4015.465330	25621.522479
60.535000	-0.010865	-0.006533	-0.014468	-0.041658	6467.328567	47733.615908	3977.265358	24859.658688
61.038000	-0.010944	-0.006685	-0.013780	-0.035985	6420.965109	47137.257419	3965.163011	24575.130119
61.538500	-0.011027	-0.007076	-0.010468	-0.032111	6389.432832	46705.619760	3963.808219	24382.981175
62.036000	-0.010084	-0.003544	-0.014943	0.010161	6076.650996	42973.314700	3856.973230	22393.866272
62.536500	-0.012092	-0.006926	-0.015355	0.006432	6089.098813	43005.317628	3864.183699	22561.680529
63.037000	-0.009824	-0.005835	-0.015931	-0.026872	6357.552621	46304.855534	3938.325058	24125.791898
63.537000	-0.011109	-0.013750	-0.014215	-0.053539	6563.012432	48216.909658	4007.309308	25467.681576
64.034500	-0.015082	-0.010435	-0.014881	0.013249	6018.863908	42064.616302	3850.446009	22256.003532
64.534000	-0.013387	-0.012169	-0.016994	0.011714	6041.817840	42046.709356	3849.204294	22324.408928
65.034500	-0.017016	-0.014140	-0.023640	0.035525	5852.138941	39794.530792	3786.065581	21290.077184
65.538000	-0.012017	-0.015077	-0.013411	0.042168	5841.143040	39157.405701	3793.270490	21011.460332
66.035000	-0.020522	-0.013075	-0.015684	0.098600	5438.769649	34894.899622	3682.469328	18809.043368
66.547000	-0.020999	-0.007272	-0.018345	0.111039	5365.660851	34410.812965	3656.310337	18360.887163
67.035500	-0.016590	-0.004980	-0.022079	0.114463	5371.161643	34328.993292	3644.222794	18239.757015
67.565500	-0.015256	-0.000461	-0.010258	0.119191	5352.265528	34313.888191	3656.199291	18074.059742
68.044500	-0.015331	0.000350	-0.011829	0.122977	5330.945139	34099.925094	3647.136052	17942.674417
68.539500	-0.018247	0.001129	-0.021225	0.128696	5283.952810	33747.858026	3622.159199	17746.359969
69.037500	-0.020031	0.001682	-0.017686	0.122207	5309.437096	34250.905298	3638.632019	17969.278839
69.535000	-0.016690	0.003793	-0.020105	0.117889	5351.531319	34717.413337	3641.794809	18119.510580
70.038500	-0.016276	0.003674	-0.015401	0.115936	5364.689185	34851.746480	3652.991815	18187.940669
70.535500	-0.017447	0.003633	-0.017234	0.113701	5370.626599	35013.209621	3653.671914	18266.609241
71.036000	-0.019161	0.003021	-0.026545	0.111527	5373.199544	35128.704866	3641.664827	18343.569383
71.536000	-0.017409	0.003804	-0.021081	0.105964	5414.464297	35602.044912	3660.301607	18542.180007
72.036500	-0.018286	0.004845	-0.022356	0.099746	5445.033949	36152.034245	3668.811958	18767.210178
72.535500	-0.024760	0.003099	-0.020822	0.096455	5426.768434	36270.228686	3677.210865	18887.618089
73.037000	-0.021429	0.004407	-0.020767	0.082758	5526.059116	37440.914073	3701.672235	19398.726307
73.536500	-0.023281	0.003336	-0.019736	0.072010	5579.500681	38217.583636	3723.247078	19811.216902
74.037500	-0.020722	0.003717	-0.022623	0.062550	5653.454709	39025.305454	3735.543133	20182.791167
74.535000	-0.026620	0.003156	-0.035174	0.059440	5636.116740	39237.597976	3717.940246	20306.754425
75.038500	-0.026550	0.003526	-0.024955	0.046042	5720.916565	40405.708974	3762.705136	20850.950346
75.536000	-0.022466	0.004008	-0.022966	0.037421	5803.356197	41198.687400	3783.623326	21210.137678
76.036000	-0.023302	0.004289	-0.027162	0.030545	5843.402291	41833.883004	3788.987412	21501.750114
76.539000	-0.029670	0.001725	-0.023782	0.029188	5810.139533	41726.048012	3798.552312	21559.853223
77.036500	-0.023190	0.004067	-0.022464	0.020080	5914.886736	42761.334100	3819.972989	21954.512262
77.536500	-0.022372	0.003266	-0.022300	0.014391	5959.734887	43211.621533	3832.225458	22205.268437
78.037000	-0.022106	0.003745	-0.028225	0.011694	5980.384655	43507.098222	3825.448879	22325.329637
78.537000	-0.025206	0.003548	-0.031794	0.012568	5952.727385	43407.208217	3816.201779	22286.356000
79.037500	-0.022259	0.004079	-0.031350	0.004271	6031.640341	44237.484396	3834.482665	22659.534527
79.538000	-0.024869	0.003654	-0.027440	0.001666	6031.603482	44445.212579	3848.351765	22778.213820
80.035500	-0.025709	0.004096	-0.028464	-0.000865	6043.654846	44730.094362	3851.589382	22894.174344
80.535000	-0.027794	0.002490	-0.031345	0.002600	6004.292664	44245.396037	3838.031404	22735.592854
81.036000	-0.024385	0.003277	-0.030732	-0.003793	6074.154140	44933.444040	3853.012083	23029.200835
81.539000	-0.024030	0.002458	-0.024996	-0.005367	6088.091474	45006.444376	3868.900375	23102.163263
82.036500	-0.022436	0.003842	-0.027186	-0.005358	6099.580421	45139.707003	3864.093464	23101.738374
82.536500	-0.025443	0.002591	-0.029281	-0.000425	6042.407727	44543.475480	3848.887904	22873.955951
83.037000	-0.024070	0.003234	-0.027294	-0.004576	6082.074611	45004.945006	3862.154970	23065.461585
83.534500	-0.020062	0.003220	-0.026587	-0.007189	6130.290837	45257.276903	3869.407975	23186.943109
84.040500	-0.022064	0.003293	-0.027331	-0.008171	6122.815833	45360.158086	3869.930137	23232.783336
84.535000	-0.023101	0.004727	-0.030540	-0.001595	6067.573922	44861.187723	3848.697297	22927.762312
85.038000	-0.020287	0.004785	-0.026665	-0.005992	6119.862788	45293.044780	3866.614318	23131.161954
85.536000	-0.021499	0.004207	-0.022161	-0.007516	6122.154994	45385.428141	3879.888062	23202.182255
86.035500	-0.020003	0.004979	-0.020265	-0.007903	6135.957740	45498.686114	3884.964316	23220.227230
86.536500	-0.017982	0.005680	-0.020629	-0.007778	6149.926646	45555.142476	3883.874220	23214.388672
87.036500	-0.019459	0.005301	-0.021879	-0.007042	6133.639495	45446.012975	3879.463416	23180.089991
87.537000	-0.020772	0.005417	-0.020797	-0.009259	6140.279201	45674.783259	3886.801387	23283.663454
88.037000	-0.019715	0.006240	-0.021110	-0.009109	6146.963720	45741.033894	3885.768234	23276.635626
88.540500	-0.017011	0.006725	-0.021171	-0.009255	6168.049419	45803.173158	3885.956742	23283.460140
89.035000	-0.018949	0.006160	-0.025276	-0.008539	6148.408966	45677.018407	3875.261620	23249.958805
89.534500	-0.017681	0.005998	-0.019953	-0.010918	6175.431140	45895.577869	3892.409203	23361.554652
90.035500	-0.018091	0.005660	-0.022677	-0.011757	6178.622630	45945.212442	3888.182844	23401.049374
90.536000	-0.018112	0.005879	-0.019295	-0.012085	6180.910340	45999.313465	3896.514601	23416.480316
91.036000	-0.019112	0.005505	-0.021315	-0.011575	6169.671943	45911.834309	3890.826019	23392.452662
91.537000	-0.016071	0.005937	-0.022715	-0.013039	6203.313367	46099.651350	3890.968841	23461.517935
92.036500	-0.017196	0.006107	-0.022400	-0.013983	6201.959773	46210.563396	3893.799164	23506.224455
92.537000	-0.021555	0.005693	-0.022757	-0.009224	6134.259077	45698.409710	3882.356844	23282.016994
93.039000	-0.018524	0.005741	-0.022335	-0.015015	6199.734762	46276.744926	3896.267790	23555.115252
93.535000	-0.020348	0.005294	-0.022804	-0.015841	6192.266873	46314.631862	3897.074186	23594.401696
94.035500	-0.020743	0.004892	-0.022076	-0.016403	6193.514831	46330.599634	3899.990612	23621.151043
94.535500	-0.025860	0.005262	-0.020289	-0.011101	6116.480780	45841.032647	3892.064945	23370.156871
95.036000	-0.020785	0.005309	-0.026516	-0.016992	6197.613213	46431.205386	3891.311894	23649.234562
95.536000	-0.018904	0.004581	-0.020067	-0.017416	6214.916745	46400.716550	3906.851642	23669.424948
96.036000	-0.020280	0.005186	-0.025807	-0.017735	6206.971075	46493.239785	3894.574902	23684.687197
96.535500	-0.024683	0.004849	-0.025375	-0.012140	6132.705181	45902.815000	3883.019660	23419.104735
97.036500	-0.020835	0.005544	-0.023358	-0.016864	6196.272712	46441.876520	3898.131680	23643.090835
97.537000	-0.019420	0.004643	-0.017923	-0.017623	6212.594399	46427.686257	3912.228277	23679.331491
98.037500	-0.021520	0.004926	-0.019645	-0.017233	6193.910791	46416.945085	3907.397405	23660.705713
98.534500	-0.023198	0.003794	-0.026531	-0.012713	6147.854455	45855.124417	3881.722946	23446.119934
99.035500	-0.020618	0.004738	-0.022000	-0.017037	6199.197199	46378.580698	3901.596795	23651.347001
99.535500	-0.021689	0.004260	-0.024226	-0.017043	6191.220995	46331.376025	3896.577793	23651.642425
100.036000	-0.017570	0.004609	-0.018641	-0.016034	6214.563474	46265.549228	3906.954718	23603.585222
100.536500	-0.023828	0.003868	-0.025275	-0.011462	6134.007292	45739.055205	3881.733172	23387.126315
101.036500	-0.020007	0.003966	-0.014605	-0.016464	6199.486040	46244.311972	3917.187323	23624.060049
101.536500	-0.020548	0.003652	-0.020010	-0.016047	6192.310451	46171.536565	3903.867893	23604.206116
102.037500	-0.018920	0.003498	-0.019512	-0.016108	6204.970033	46162.336548	3905.140421	23607.108745
102.537500	-0.021770	0.003732	-0.024001	-0.010741	6143.849999	45654.861918	3882.965040	23353.241662
103.035000	-0.018586	0.003926	-0.018436	-0.015169	6200.427716	46111.506544	3905.450940	23562.468825
103.535500	-0.018820	0.002982	-0.020483	-0.015590	6201.830719	46059.587586	3901.755918	23582.454934
104.035500	-0.018332	0.002578	-0.015524	-0.015391	6203.994858	45999.734629	3912.608443	23572.976587
104.535500	-0.017062	0.002695	-0.017517	-0.015337	6213.139276	46006.087720	3907.927984	23570.436311
105.036000	-0.018471	0.003286	-0.016102	-0.013120	6185.956277	45845.228868	3906.099865	23465.359832
105.536000	-0.017280	0.002880	-0.019499	-0.014628	6206.166113	45954.190680	3901.806338	23536.791488
106.036500	-0.016453	0.003276	-0.018597	-0.013849	6206.520173	45916.176302	3902.085149	23499.833376
106.537000	-0.017720	0.003399	-0.018537	-0.011695	6180.929906	45715.888187	3897.347300	23398.119701
107.039500	-0.014950	0.003799	-0.018163	-0.011834	6202.683854	45769.051099	3898.504788	23404.679808
107.535000	-0.017131	0.002497	-0.017558	-0.013378	6197.903586	45792.787085	3903.373376	23477.553288
108.056500	-0.014506	0.003293	-0.013284	-0.012528	6211.234333	45787.544738	3911.183332	23437.401302
108.535000	-0.017944	0.002306	-0.013382	-0.010283	6168.757590	45469.999653	3905.832914	23331.691090
109.049000	-0.017807	0.002624	-0.016390	-0.010960	6174.800738	45567.495721	3900.539680	23363.508060
109.536000	-0.016600	0.003448	-0.019905	-0.011412	6187.168118	45692.870236	3893.625752	23384.772839
110.036500	-0.014898	0.004109	-0.011677	-0.010828	6195.533315	45700.470596	3910.968831	23357.309076
110.536500	-0.017856	0.003483	-0.017524	-0.008496	6156.166538	45410.430402	3892.424609	23247.977481
111.048000	-0.015323	0.003116	-0.021315	-0.009837	6184.950914	45505.770863	3886.936618	23310.788359
111.539500	-0.014879	0.003987	-0.012591	-0.010133	6190.475075	45620.125243	3907.294552	23324.667624
