sample name	sample
index	599
start time	 03-16-2021  05:01:09 PM


Wavelength (nm)	Absorbance
494.344910	-0.987933
494.563924	-0.987933
494.782919	-0.987933
495.001897	NaN
495.220856	-0.160900
495.439797	0.226539
495.658719	0.275106
495.877624	0.859462
496.096510	0.845407
496.315378	0.334589
496.534227	0.146025
496.753059	0.020060
496.971872	0.173074
497.190667	0.018458
497.409444	0.015344
497.628203	0.018432
497.846943	0.017570
498.065665	0.019443
498.284369	0.019593
498.503055	0.022049
498.721723	0.021528
498.940372	0.020681
499.159003	0.022523
499.377616	0.021803
499.596210	0.020550
499.814787	0.020625
500.033345	0.019774
500.251885	0.019183
500.470406	0.017962
500.688910	0.017442
500.907395	0.018564
501.125862	0.016856
501.344311	0.017097
501.562742	0.018092
501.781154	0.017979
501.999548	0.017604
502.217924	0.018154
502.436282	0.019394
502.654621	0.019814
502.872942	0.018889
503.091245	0.019695
503.309530	0.020149
503.527797	0.019342
503.746045	0.020461
503.964275	0.021436
504.182487	0.021553
504.400681	0.019706
504.618856	0.019965
504.837013	0.020992
505.055152	0.020532
505.273273	0.020102
505.491376	0.020619
505.709460	0.018697
505.927526	0.017648
506.145574	0.018222
506.363604	0.018823
506.581615	0.018157
506.799608	0.018574
507.017583	0.019274
507.235540	0.019207
507.453478	0.019061
507.671399	0.019693
507.889301	0.020681
508.107185	0.020217
508.325050	0.021016
508.542898	0.021520
508.760727	0.020858
508.978538	0.020762
509.196330	0.021446
509.414105	0.020631
509.631861	0.020285
509.849599	0.019526
510.067319	0.020077
510.285021	0.018986
510.502704	0.018913
510.720369	0.018313
510.938016	0.018239
511.155645	0.017490
511.373255	0.017934
511.590848	0.017984
511.808422	0.018480
512.025977	0.018856
512.243515	0.018611
512.461034	0.018830
512.678536	0.018730
512.896018	0.018934
513.113483	0.019114
513.330930	0.019470
513.548358	0.019571
513.765768	0.019202
513.983160	0.018002
514.200533	0.018241
514.417889	0.018350
514.635226	0.018680
514.852545	0.018050
515.069845	0.017598
515.287128	0.017966
515.504392	0.018165
515.721638	0.017430
515.938866	0.017896
516.156075	0.018275
516.373267	0.018106
516.590440	0.017451
516.807594	0.017731
517.024731	0.018375
517.241850	0.018209
517.458950	0.018400
517.676032	0.019584
517.893095	0.019600
518.110141	0.019326
518.327168	0.019188
518.544177	0.019287
518.761168	0.020392
518.978141	0.020278
519.195095	0.020104
519.412031	0.019820
519.628949	0.019910
519.845849	0.019913
520.062731	0.019832
520.279594	0.019819
520.496439	0.019680
520.713266	0.018792
520.930074	0.018602
521.146865	0.017886
521.363637	0.017781
521.580391	0.016602
521.797127	0.016570
522.013844	0.016561
522.230543	0.016270
522.447224	0.017000
522.663887	0.017477
522.880532	0.017749
523.097158	0.018539
523.313766	0.019070
523.530356	0.019698
523.746928	0.019898
523.963481	0.019512
524.180017	0.019860
524.396534	0.019567
524.613032	0.019121
524.829513	0.019278
525.045975	0.019682
525.262420	0.019054
525.478845	0.019587
525.695253	0.018787
525.911643	0.018922
526.128014	0.018547
526.344367	0.019039
526.560702	0.018657
526.777018	0.018857
526.993316	0.019132
527.209597	0.019434
527.425858	0.019670
527.642102	0.019898
527.858328	0.020064
528.074535	0.020275
528.290724	0.020169
528.506894	0.020489
528.723047	0.019887
528.939181	0.019250
529.155297	0.018705
529.371395	0.018243
529.587475	0.018113
529.803536	0.017966
530.019579	0.018042
530.235604	0.018420
530.451611	0.018363
530.667600	0.018385
530.883570	0.018458
531.099522	0.018678
531.315456	0.018066
531.531372	0.018361
531.747269	0.018897
531.963148	0.019081
532.179009	0.018552
532.394852	0.018385
532.610676	0.018970
532.826482	0.019031
533.042271	0.019072
533.258040	0.019433
533.473792	0.019561
533.689525	0.019490
533.905240	0.019349
534.120937	0.019428
534.336616	0.020191
534.552277	0.019557
534.767919	0.020016
534.983543	0.020505
535.199149	0.020920
535.414736	0.020599
535.630306	0.020642
535.845857	0.020688
536.061390	0.020844
536.276904	0.020762
536.492401	0.021536
536.707879	0.021441
536.923339	0.021675
537.138781	0.021396
537.354204	0.021645
537.569610	0.021188
537.784997	0.020890
538.000366	0.021087
538.215716	0.020761
538.431049	0.020281
538.646363	0.019667
538.861659	0.019343
539.076937	0.019480
539.292196	0.019109
539.507438	0.019387
539.722661	0.020084
539.937866	0.019825
540.153052	0.019790
540.368221	0.019947
540.583371	0.019902
540.798503	0.020025
541.013617	0.019890
541.228712	0.020727
541.443789	0.020893
541.658848	0.020788
541.873889	0.021006
542.088912	0.021494
542.303916	0.021475
542.518902	0.022009
542.733870	0.022213
542.948820	0.022432
543.163752	0.022440
543.378665	0.022728
543.593560	0.022664
543.808437	0.022473
544.023295	0.021859
544.238136	0.021775
544.452958	0.021809
544.667762	0.021507
544.882548	0.021329
545.097315	0.020965
545.312064	0.020491
545.526795	0.020673
545.741508	0.020713
545.956203	0.020956
546.170879	0.021052
546.385537	0.020777
546.600177	0.020895
546.814799	0.021286
547.029402	0.021421
547.243988	0.021541
547.458555	0.021202
547.673103	0.021142
547.887634	0.021600
548.102146	0.021501
548.316640	0.021563
548.531116	0.021630
548.745574	0.021404
548.960013	0.021649
549.174435	0.021740
549.388838	0.022395
549.603222	0.022799
549.817589	0.022606
550.031937	0.022977
550.246267	0.023086
550.460579	0.023170
550.674873	0.023513
550.889148	0.023307
551.103405	0.023571
551.317644	0.022929
551.531865	0.023487
551.746068	0.023316
551.960252	0.023312
552.174418	0.023701
552.388566	0.023703
552.602696	0.023709
552.816807	0.023636
553.030900	0.023950
553.244975	0.024609
553.459032	0.023742
553.673070	0.023712
553.887091	0.023808
554.101093	0.023704
554.315077	0.023397
554.529042	0.023489
554.742990	0.023519
554.956919	0.023060
555.170830	0.022804
555.384722	0.022862
555.598597	0.023078
555.812453	0.023253
556.026291	0.022855
556.240111	0.023272
556.453913	0.022864
556.667696	0.023155
556.881461	0.023489
557.095208	0.023353
557.308937	0.023768
557.522647	0.023765
557.736339	0.023651
557.950013	0.024089
558.163669	0.023794
558.377307	0.024056
558.590926	0.023979
558.804527	0.023700
559.018110	0.023503
559.231675	0.023164
559.445221	0.023200
559.658749	0.023045
559.872259	0.023183
560.085751	0.023780
560.299225	0.023781
560.512680	0.023743
560.726117	0.023709
560.939536	0.024268
561.152937	0.024106
561.366319	0.024055
561.579683	0.023817
561.793029	0.023642
562.006357	0.023253
562.219667	0.023026
562.432958	0.022769
562.646231	0.022809
562.859486	0.022272
563.072723	0.022747
563.285941	0.022789
563.499141	0.023156
563.712323	0.022513
563.925487	0.022318
564.138632	0.022449
564.351760	0.022645
564.564869	0.022947
564.777960	0.023396
564.991032	0.022908
565.204087	0.022704
565.417123	0.022577
565.630141	0.023042
565.843140	0.023195
566.056122	0.023157
566.269085	0.023320
566.482030	0.022980
566.694957	0.023046
566.907866	0.022959
567.120756	0.023279
567.333628	0.023400
567.546482	0.023672
567.759318	0.023528
567.972135	0.023485
568.184935	0.023312
568.397716	0.023371
568.610478	0.022941
568.823223	0.023327
569.035949	0.023354
569.248657	0.023321
569.461347	0.023210
569.674019	0.023408
569.886672	0.023375
570.099308	0.023435
570.311925	0.023409
570.524523	0.023586
570.737104	0.023573
570.949666	0.023511
571.162210	0.023133
571.374736	0.023015
571.587244	0.022941
571.799733	0.023020
572.012205	0.022835
572.224658	0.023061
572.437092	0.023340
572.649509	0.022940
572.861907	0.022905
573.074287	0.023114
573.286649	0.023313
573.498993	0.023334
573.711318	0.023452
573.923625	0.023455
574.135914	0.023484
574.348185	0.023228
574.560438	0.023534
574.772672	0.023388
574.984888	0.023359
575.197086	0.023041
575.409266	0.023172
575.621427	0.023181
575.833570	0.023263
576.045695	0.023229
576.257802	0.023584
576.469890	0.023288
576.681961	0.023480
576.894013	0.023436
577.106046	0.023748
577.318062	0.023660
577.530059	0.023268
577.742039	0.023284
577.954000	0.023163
578.165942	0.023016
578.377867	0.023409
578.589773	0.023303
578.801661	0.023198
579.013531	0.023202
579.225382	0.023008
579.437216	0.023579
579.649031	0.023586
579.860828	0.023370
580.072606	0.023299
580.284367	0.023381
580.496109	0.023295
580.707833	0.023745
580.919539	0.023435
581.131227	0.023496
581.342896	0.023174
581.554547	0.023344
581.766180	0.023675
581.977795	0.023615
582.189391	0.023241
582.400969	0.023543
582.612529	0.023436
582.824071	0.023251
583.035595	0.023390
583.247100	0.023885
583.458587	0.023827
583.670056	0.023628
583.881506	0.023648
584.092939	0.024060
584.304353	0.023848
584.515749	0.023718
584.727127	0.024032
584.938486	0.024075
585.149828	0.023655
585.361151	0.023552
585.572456	0.023508
585.783742	0.023395
585.995011	0.023512
586.206261	0.023223
586.417493	0.023195
586.628706	0.023173
586.839902	0.023375
587.051079	0.023269
587.262238	0.023381
587.473379	0.023444
587.684502	0.023394
587.895606	0.023260
588.106692	0.023654
588.317760	0.023884
588.528810	0.024279
588.739841	0.024204
588.950855	0.024613
589.161850	0.024577
589.372827	0.024675
589.583785	0.024860
589.794726	0.024851
590.005648	0.024669
590.216552	0.024505
590.427437	0.023907
590.638305	0.023681
590.849154	0.023445
591.059985	0.023501
591.270798	0.023311
591.481592	0.023026
591.692369	0.023076
591.903127	0.022938
592.113867	0.022787
592.324588	0.022801
592.535292	0.022880
592.745977	0.023008
592.956644	0.022954
593.167293	0.023055
593.377923	0.023148
593.588536	0.023161
593.799130	0.023366
594.009706	0.023367
594.220263	0.023693
594.430803	0.023775
594.641324	0.023420
594.851827	0.023498
595.062312	0.023699
595.272778	0.024071
595.483227	0.024055
595.693657	0.024019
595.904069	0.024060
596.114462	0.024013
596.324838	0.023870
596.535195	0.023888
596.745534	0.024094
596.955855	0.024054
597.166157	0.023659
597.376441	0.023667
597.586707	0.023719
597.796955	0.023704
598.007185	0.024017
598.217396	0.024175
598.427589	0.024540
598.637764	0.024085
598.847921	0.023948
599.058060	0.024281
599.268180	0.024142
599.478282	0.024045
599.688366	0.024101
599.898431	0.023806
600.108479	0.023704
600.318508	0.023493
600.528519	0.024000
600.738511	0.023909
600.948486	0.023850
601.158442	0.024005
601.368380	0.023842
601.578300	0.024145
601.788202	0.024078
601.998085	0.024065
602.207950	0.024011
602.417797	0.023669
602.627626	0.023792
602.837436	0.023563
603.047228	0.023640
603.257002	0.023833
603.466758	0.023450
603.676496	0.023788
603.886215	0.023992
604.095916	0.024018
604.305599	0.024382
604.515264	0.024477
604.724910	0.024814
604.934538	0.024477
605.144148	0.024774
605.353740	0.025128
605.563314	0.025079
605.772869	0.024993
605.982406	0.025246
606.191925	0.025013
606.401425	0.024929
606.610908	0.024617
606.820372	0.024700
607.029818	0.024469
607.239246	0.024430
607.448655	0.024392
607.658047	0.024179
607.867420	0.024305
608.076775	0.024377
608.286111	0.024636
608.495430	0.024682
608.704730	0.024821
608.914012	0.024762
609.123275	0.024684
609.332521	0.024553
609.541748	0.025028
609.750957	0.024960
609.960148	0.024912
610.169321	0.024877
610.378475	0.025005
610.587611	0.025318
610.796729	0.025458
611.005829	0.025367
611.214910	0.025282
611.423974	0.025202
611.633019	0.025094
611.842045	0.025117
612.051054	0.025044
612.260044	0.025083
612.469017	0.024988
612.677970	0.024891
612.886906	0.024981
613.095824	0.025117
613.304723	0.025105
613.513604	0.025251
613.722467	0.025328
613.931311	0.024979
614.140138	0.025080
614.348946	0.024850
614.557736	0.025046
614.766507	0.025247
614.975261	0.025251
615.183996	0.024996
615.392713	0.024969
615.601412	0.025068
615.810092	0.025589
616.018754	0.025461
616.227399	0.025553
616.436024	0.025570
616.644632	0.025659
616.853222	0.025722
617.061793	0.025845
617.270346	0.025867
617.478880	0.025594
617.687397	0.025558
617.895895	0.025893
618.104375	0.026140
618.312837	0.026192
618.521281	0.026168
618.729706	0.026240
618.938113	0.026397
619.146502	0.026500
619.354873	0.026805
619.563226	0.026779
619.771560	0.026663
619.979876	0.026459
620.188174	0.026269
620.396453	0.026272
620.604715	0.026055
620.812958	0.025754
621.021183	0.025483
621.229390	0.025221
621.437578	0.025206
621.645748	0.025169
621.853900	0.025259
622.062034	0.025540
622.270150	0.025319
622.478247	0.025594
622.686326	0.025807
622.894387	0.026123
623.102430	0.026354
623.310454	0.026462
623.518461	0.026371
623.726449	0.026248
623.934418	0.026280
624.142370	0.026580
624.350303	0.026702
624.558218	0.026792
624.766115	0.026561
624.973994	0.026478
625.181855	0.026439
625.389697	0.026586
625.597521	0.026620
625.805327	0.026419
626.013114	0.025973
626.220883	0.025891
626.428634	0.025956
626.636367	0.026107
626.844082	0.026421
627.051778	0.026317
627.259457	0.026314
627.467117	0.026437
627.674758	0.026653
627.882382	0.027243
628.089987	0.027141
628.297574	0.027081
628.505143	0.027100
628.712694	0.026878
628.920226	0.027117
629.127740	0.027104
629.335236	0.027326
629.542714	0.027341
629.750174	0.027255
629.957615	0.027210
630.165038	0.027323
630.372443	0.027345
630.579829	0.027129
630.787198	0.026893
630.994548	0.026741
631.201880	0.026518
631.409194	0.026245
631.616489	0.026033
631.823766	0.026093
632.031025	0.026007
632.238266	0.026017
632.445489	0.026351
632.652693	0.026565
632.859879	0.026834
633.067047	0.026889
633.274197	0.027131
633.481329	0.027188
633.688442	0.027251
633.895537	0.027152
634.102614	0.027236
634.309672	0.027285
634.516713	0.027160
634.723735	0.027286
634.930739	0.027306
635.137724	0.027366
635.344692	0.027488
635.551641	0.027792
635.758572	0.027969
635.965485	0.027783
636.172379	0.027765
636.379256	0.027610
636.586114	0.027338
636.792954	0.027394
636.999775	0.027395
637.206579	0.027509
637.413364	0.027509
637.620131	0.027614
637.826880	0.027789
638.033610	0.027938
638.240323	0.028251
638.447017	0.028413
638.653692	0.028334
638.860350	0.028352
639.066990	0.028246
639.273611	0.028196
639.480214	0.028280
639.686798	0.028287
639.893365	0.028467
640.099913	0.028488
640.306443	0.028636
640.512955	0.028809
640.719449	0.028800
640.925924	0.028521
641.132381	0.028430
641.338820	0.028129
641.545241	0.028223
641.751644	0.028020
641.958028	0.028103
642.164394	0.027983
642.370742	0.028040
642.577071	0.028090
642.783383	0.028583
642.989676	0.028792
643.195951	0.029248
643.402207	0.029216
643.608446	0.029065
643.814666	0.029126
644.020868	0.029185
644.227052	0.029030
644.433218	0.029168
644.639365	0.029176
644.845494	0.029069
645.051605	0.028759
645.257698	0.028876
645.463772	0.028820
645.669828	0.028803
645.875866	0.028978
646.081886	0.028945
646.287888	0.029009
646.493871	0.028880
646.699836	0.028973
646.905783	0.029168
647.111712	0.029274
647.317622	0.029596
647.523514	0.029663
647.729388	0.029577
647.935244	0.029822
648.141082	0.029602
648.346901	0.029539
648.552702	0.029388
648.758485	0.029320
648.964250	0.029136
649.169996	0.029172
649.375724	0.028911
649.581434	0.028846
649.787126	0.028832
649.992800	0.029064
650.198455	0.029387
650.404092	0.029606
650.609711	0.029588
650.815311	0.029644
651.020894	0.029494
651.226458	0.029741
651.432004	0.029857
651.637532	0.029861
651.843041	0.029860
652.048532	0.029612
652.254006	0.029529
652.459460	0.029632
652.664897	0.029608
652.870315	0.029619
653.075716	0.029523
653.281097	0.029526
653.486461	0.029430
653.691807	0.029426
653.897134	0.029337
654.102443	0.029316
654.307734	0.029110
654.513006	0.028989
654.718261	0.029084
654.923497	0.029229
655.128715	0.029063
655.333915	0.029192
655.539096	0.029137
655.744259	0.029202
655.949404	0.029022
656.154531	0.029209
656.359640	0.029211
656.564730	0.029063
656.769802	0.028829
656.974856	0.028871
657.179892	0.028812
657.384909	0.028609
657.589908	0.028727
657.794889	0.028790
657.999852	0.028762
658.204797	0.028987
658.409723	0.029151
658.614631	0.029258
658.819521	0.029534
659.024393	0.029622
659.229246	0.029812
659.434081	0.029902
659.638898	0.030059
659.843697	0.030055
660.048478	0.030074
660.253240	0.030296
660.457984	0.030401
660.662710	0.030100
660.867417	0.030057
661.072107	0.030201
661.276778	0.030379
661.481431	0.030354
661.686066	0.030337
661.890682	0.030356
662.095281	0.030229
662.299861	0.030420
662.504422	0.030547
662.708966	0.030678
662.913491	0.030629
663.117999	0.030506
663.322488	0.030689
663.526958	0.030992
663.731411	0.031182
663.935845	0.031283
664.140261	0.031094
664.344659	0.031218
664.549038	0.031178
664.753400	0.031351
664.957743	0.031443
665.162068	0.031621
665.366375	0.031514
665.570663	0.031351
665.774933	0.031289
665.979185	0.031523
666.183419	0.031473
666.387635	0.031612
666.591832	0.031471
666.796011	0.031506
667.000172	0.031526
667.204315	0.031633
667.408439	0.031577
667.612545	0.031467
667.816634	0.031342
668.020703	0.031314
668.224755	0.031033
668.428788	0.031087
668.632803	0.030989
668.836800	0.030908
669.040779	0.030839
669.244739	0.031006
669.448681	0.031010
669.652605	0.031004
669.856511	0.031172
670.060399	0.031498
670.264268	0.031257
670.468119	0.031221
670.671952	0.031137
670.875767	0.031174
671.079563	0.031278
671.283341	0.031713
671.487101	0.031727
671.690843	0.031791
671.894567	0.031854
672.098272	0.032296
672.301959	0.032450
672.505628	0.032603
672.709278	0.032833
672.912911	0.032731
673.116525	0.032474
673.320121	0.032647
673.523699	0.032719
673.727258	0.032633
673.930799	0.032782
674.134322	0.032837
674.337827	0.032807
674.541314	0.032638
674.744782	0.032767
674.948232	0.032852
675.151664	0.032963
675.355078	0.033106
675.558474	0.033340
675.761851	0.033416
675.965210	0.033503
676.168551	0.033395
676.371873	0.033480
676.575178	0.033355
676.778464	0.033353
676.981732	0.033034
677.184981	0.033200
677.388213	0.033237
677.591426	0.032954
677.794621	0.032934
677.997798	0.033291
678.200956	0.033490
678.404097	0.033607
678.607219	0.033770
678.810323	0.033979
679.013408	0.033748
679.216476	0.033928
679.419525	0.034291
679.622556	0.034313
679.825569	0.034065
680.028563	0.033931
680.231540	0.033872
680.434498	0.033824
680.637438	0.033949
680.840359	0.034071
681.043263	0.033825
681.246148	0.033491
681.449015	0.033428
681.651864	0.033604
681.854694	0.033862
682.057506	0.034096
682.260301	0.034406
682.463076	0.034518
682.665834	0.034508
682.868573	0.034588
683.071295	0.034691
683.273998	0.034880
683.476682	0.034811
683.679349	0.034474
683.881997	0.034358
684.084627	0.034005
684.287239	0.033861
684.489833	0.033901
684.692408	0.033890
684.894965	0.033952
685.097504	0.033897
685.300025	0.033809
685.502527	0.033871
685.705012	0.033895
685.907478	0.033989
686.109925	0.033923
686.312355	0.033833
686.514766	0.033821
686.717159	0.033837
686.919534	0.033898
687.121891	0.034003
687.324230	0.034046
687.526550	0.034207
687.728852	0.034375
687.931136	0.034499
688.133401	0.034368
688.335649	0.034320
688.537878	0.034306
688.740089	0.034028
688.942281	0.034132
689.144456	0.034220
689.346612	0.034385
689.548750	0.034490
689.750870	0.034555
689.952971	0.034740
690.155055	0.034912
690.357120	0.035027
690.559167	0.035356
690.761195	0.035443
690.963206	0.035517
691.165198	0.035257
691.367172	0.035244
691.569128	0.035464
691.771065	0.035519
691.972984	0.035569
692.174885	0.035872
692.376768	0.036007
692.578633	0.036021
692.780479	0.036128
692.982308	0.036215
693.184118	0.036071
693.385909	0.035960
693.587683	0.036021
693.789438	0.036002
693.991175	0.035685
694.192894	0.035635
694.394595	0.035725
694.596277	0.035707
694.797941	0.035658
694.999587	0.035722
695.201215	0.035759
695.402824	0.035806
695.604416	0.035596
695.805989	0.035624
696.007543	0.035734
696.209080	0.035742
696.410598	0.035829
696.612099	0.036080
696.813580	0.036257
697.015044	0.036249
697.216490	0.036580
697.417917	0.036791
697.619326	0.037036
697.820717	0.037226
698.022089	0.037213
698.223444	0.037141
698.424780	0.037158
698.626098	0.037124
698.827397	0.037214
699.028679	0.036851
699.229942	0.037035
699.431187	0.036815
699.632414	0.036663
699.833622	0.036534
700.034813	0.036633
700.235985	0.036571
700.437139	0.036585
700.638274	0.036539
700.839392	0.036630
701.040491	0.036401
701.241572	0.036351
701.442635	0.036247
701.643679	0.036305
701.844706	0.036313
702.045714	0.036324
702.246704	0.036193
702.447675	0.036205
702.648629	0.036084
702.849564	0.036126
703.050481	0.036123
703.251380	0.036093
703.452260	0.036091
703.653122	0.036172
703.853966	0.036137
704.054792	0.036088
704.255600	0.036051
704.456389	0.036026
704.657160	0.036075
704.857913	0.036170
705.058648	0.036275
705.259365	0.036310
705.460063	0.036238
705.660743	0.036380
705.861405	0.036329
706.062048	0.036354
706.262674	0.036354
706.463281	0.036363
706.663870	0.036223
706.864441	0.036080
707.064993	0.036082
707.265527	0.035942
707.466043	0.035768
707.666541	0.035889
707.867021	0.035837
708.067482	0.035867
708.267925	0.035866
708.468350	0.036102
708.668757	0.036256
708.869145	0.036215
709.069516	0.036295
709.269868	0.036514
709.470201	0.036591
709.670517	0.036518
709.870814	0.036508
710.071093	0.036587
710.271354	0.036549
710.471597	0.036348
710.671821	0.036366
710.872028	0.036128
711.072216	0.035825
711.272385	0.035725
711.472537	0.035981
711.672670	0.035990
711.872785	0.035778
712.072882	0.035655
712.272961	0.035713
712.473021	0.035541
712.673063	0.035707
712.873087	0.035749
713.073093	0.035812
713.273081	0.035539
713.473050	0.035526
713.673001	0.035594
713.872934	0.035530
714.072849	0.035575
714.272745	0.035745
714.472623	0.035744
714.672483	0.035769
714.872325	0.035543
715.072148	0.035593
715.271954	0.035602
715.471741	0.035414
715.671509	0.035369
715.871260	0.035387
716.070992	0.035241
716.270707	0.035277
716.470403	0.035302
716.670080	0.035302
716.869740	0.035378
717.069381	0.035400
717.269004	0.035552
717.468609	0.035572
717.668195	0.035506
717.867764	0.035457
718.067314	0.035240
718.266846	0.034952
718.466360	0.035193
718.665855	0.034793
718.865332	0.034600
719.064791	0.034287
719.264232	0.034254
719.463655	0.033906
719.663059	0.033795
719.862445	0.033754
720.061813	0.033714
720.261163	0.033521
720.460494	0.033751
720.659807	0.033790
720.859102	0.033965
721.058379	0.033918
721.257638	0.034089
721.456878	0.034253
721.656100	0.034482
721.855304	0.034609
722.054490	0.034653
722.253657	0.034490
722.452806	0.034485
722.651937	0.034490
722.851050	0.034534
723.050145	0.034448
723.249221	0.034379
723.448279	0.034302
723.647319	0.034507
723.846340	0.034541
724.045344	0.034581
724.244329	0.034351
724.443296	0.034285
724.642245	0.034249
724.841175	0.034277
725.040088	0.034171
725.238982	0.034042
725.437857	0.033818
725.636715	0.033493
725.835554	0.033434
726.034376	0.033438
726.233179	0.033324
726.431963	0.033171
726.630730	0.033007
726.829478	0.032807
727.028208	0.032530
727.226920	0.032324
727.425614	0.032192
727.624289	0.032100
727.822946	0.032087
728.021585	0.031987
728.220206	0.032033
728.418808	0.031987
728.617392	0.032174
728.815958	0.032273
729.014506	0.032207
729.213036	0.032407
729.411547	0.032424
729.610040	0.032448
729.808515	0.032515
730.006972	0.032491
730.205410	0.032612
730.403831	0.032467
730.602233	0.032445
730.800616	0.032466
730.998982	0.032424
731.197329	0.032534
731.395658	0.032409
731.593969	0.032443
731.792262	0.032200
731.990536	0.032188
732.188793	0.032310
732.387031	0.032207
732.585250	0.032122
732.783452	0.032062
732.981635	0.031801
733.179800	0.031913
733.377947	0.031769
733.576076	0.031900
733.774186	0.031829
733.972278	0.031931
734.170352	0.031870
734.368408	0.031997
734.566446	0.031727
734.764465	0.031579
734.962466	0.031556
735.160449	0.031589
735.358413	0.031545
735.556360	0.031216
735.754288	0.030770
735.952198	0.031148
736.150090	0.031269
736.347963	0.031518
736.545818	0.031836
736.743655	0.031666
736.941474	0.031409
737.139275	0.031359
737.337057	0.031589
737.534821	0.031712
737.732567	0.031153
737.930295	0.030960
738.128005	0.030875
738.325696	0.030828
738.523369	0.030796
738.721024	0.030604
738.918660	0.030613
739.116279	0.030566
739.313879	0.030400
739.511461	0.030549
739.709024	0.030310
739.906570	0.030167
740.104097	0.029917
740.301606	0.029735
740.499097	0.030018
740.696569	0.029807
740.894024	0.029913
741.091460	0.030211
741.288878	0.030034
741.486277	0.030088
741.683659	0.030096
741.881022	0.030021
742.078367	0.030064
742.275694	0.029776
742.473002	0.029881
742.670293	0.029427
742.867565	0.029039
743.064819	0.029126
743.262054	0.029209
743.459272	0.029085
743.656471	0.029207
743.853652	0.029347
744.050815	0.029567
744.247959	0.029222
744.445085	0.029621
744.642194	0.029766
744.839283	0.029812
745.036355	0.029735
745.233408	0.029748
745.430444	0.029844
745.627461	0.029910
745.824459	0.030053
746.021440	0.030373
746.218402	0.030222
746.415346	0.030226
746.612272	0.030240
746.809180	0.030213
747.006069	0.030183
747.202940	0.029990
747.399793	0.029645
747.596628	0.029362
747.793444	0.029242
747.990243	0.029110
748.187023	0.028963
748.383784	0.028629
748.580528	0.028471
748.777253	0.028457
748.973960	0.028404
749.170649	0.028543
749.367320	0.028570
749.563973	0.028509
749.760607	0.028560
749.957223	0.028541
750.153821	0.028738
750.350400	0.028794
750.546962	0.028653
750.743505	0.028703
750.940030	0.028710
751.136536	0.028811
751.333025	0.029131
751.529495	0.029077
751.725947	0.029093
751.922381	0.028904
752.118796	0.029079
752.315194	0.029346
752.511573	0.029375
752.707934	0.029429
752.904276	0.029437
753.100601	0.029132
753.296907	0.028993
753.493195	0.028973
753.689465	0.028942
753.885716	0.028673
754.081949	0.028535
754.278164	0.028352
754.474361	0.028236
754.670540	0.028179
754.866700	0.027994
755.062843	0.028111
755.258967	0.028136
755.455072	0.028411
755.651160	0.028584
755.847229	0.028401
756.043280	0.028168
756.239313	0.028071
756.435328	0.028033
756.631324	0.028330
756.827302	0.028257
757.023262	0.028353
757.219204	0.028291
757.415127	0.028178
757.611033	0.028309
757.806920	0.028339
758.002788	0.028244
758.198639	0.028183
758.394471	0.028091
758.590286	0.028170
758.786081	0.027913
758.981859	0.027891
759.177619	0.027844
759.373360	0.028012
759.569083	0.028243
759.764788	0.028133
759.960474	0.028266
760.156143	0.028326
760.351793	0.028474
760.547425	0.028887
760.743038	0.028895
760.938634	0.029005
761.134211	0.028826
761.329770	0.028833
761.525311	0.029054
761.720833	0.029066
761.916338	0.029070
762.111824	0.028969
762.307292	0.028777
762.502741	0.028719
762.698173	0.028802
762.893586	0.028993
763.088981	0.029063
763.284358	0.029181
763.479716	0.029350
763.675057	0.029148
763.870379	0.028976
764.065683	0.029069
764.260968	0.029013
764.456236	0.028745
764.651485	0.028568
764.846716	0.028652
765.041929	0.028705
765.237123	0.028417
765.432299	0.028596
765.627457	0.028707
765.822597	0.028611
766.017719	0.028482
766.212822	0.028624
766.407907	0.028720
766.602974	0.028566
766.798023	0.028405
766.993054	0.028448
767.188066	0.028535
767.383060	0.028297
767.578036	0.028233
767.772993	0.028324
767.967933	0.028173
768.162854	0.028080
768.357757	0.027856
768.552642	0.027942
768.747508	0.027855
768.942356	0.027652
769.137186	0.027879
769.331998	0.027863
769.526792	0.027937
769.721567	0.028002
769.916324	0.028141
770.111063	0.028327
770.305784	0.028407
770.500486	0.028347
770.695171	0.028328
770.889837	0.028110
771.084484	0.027938
771.279114	0.028027
771.473725	0.028111
771.668318	0.027851
771.862893	0.027885
772.057450	0.027750
772.251988	0.027699
772.446509	0.027720
772.641011	0.027891
772.835494	0.027862
773.029960	0.027720
773.224407	0.027696
773.418836	0.027722
773.613247	0.027750
773.807640	0.027807
774.002014	0.028067
774.196370	0.028033
774.390708	0.028168
774.585028	0.028478
774.779330	0.028588
774.973613	0.028597
775.167878	0.028858
775.362125	0.029010
775.556354	0.028835
775.750564	0.028453
775.944756	0.028431
776.138930	0.028362
776.333086	0.028030
776.527223	0.027753
776.721343	0.027453
776.915444	0.027215
777.109526	0.026994
777.303591	0.026902
777.497637	0.027133
777.691666	0.027083
777.885676	0.026879
778.079667	0.027116
778.273641	0.027244
778.467596	0.027413
778.661533	0.027408
778.855452	0.027344
779.049352	0.027530
779.243235	0.027695
779.437099	0.027838
779.630945	0.028093
779.824773	0.028107
780.018582	0.028151
780.212373	0.028189
780.406146	0.028359
780.599901	0.028559
780.793638	0.028607
780.987356	0.028623
781.181056	0.028594
781.374738	0.028484
781.568402	0.028389
781.762047	0.028364
781.955674	0.028568
782.149283	0.028482
782.342874	0.028472
782.536447	0.028559
782.730001	0.028602
782.923537	0.028736
783.117055	0.028792
783.310555	0.028890
783.504036	0.028838
783.697499	0.028947
783.890944	0.028859
784.084371	0.028551
784.277780	0.028733
784.471170	0.028623
784.664542	0.028473
784.857896	0.028462
785.051231	0.028278
785.244549	0.028356
785.437848	0.028294
785.631129	0.028457
785.824392	0.028973
786.017636	0.028789
786.210863	0.028794
786.404071	0.028798
786.597260	0.029039
786.790432	0.029207
786.983585	0.029329
787.176721	0.029321
787.369838	0.029226
787.562936	0.028874
787.756017	0.028667
787.949079	0.028683
788.142123	0.028574
788.335149	0.028198
788.528156	0.028384
788.721146	0.028205
788.914117	0.028155
789.107070	0.028282
789.300005	0.028353
789.492921	0.028619
789.685819	0.028645
789.878699	0.028997
790.071561	0.029228
790.264405	0.029221
790.457230	0.029409
790.650037	0.029494
790.842826	0.029585
791.035597	0.029709
791.228349	0.029785
791.421084	0.029828
791.613800	0.029764
791.806497	0.029688
791.999177	0.029466
792.191838	0.029379
792.384481	0.029214
792.577106	0.029038
792.769713	0.029081
792.962301	0.028861
793.154871	0.028552
793.347423	0.028534
793.539957	0.028732
793.732473	0.029120
793.924970	0.029218
794.117449	0.029261
794.309910	0.029406
794.502353	0.029163
794.694777	0.029235
794.887183	0.029532
795.079571	0.029713
795.271941	0.029757
795.464293	0.029455
795.656626	0.029630
795.848941	0.029882
796.041238	0.029851
796.233516	0.030040
796.425777	0.030154
796.618019	0.030125
796.810243	0.029986
797.002449	0.030041
797.194636	0.030250
797.386805	0.030251
797.578956	0.030240
797.771089	0.030108
797.963204	0.030092
798.155300	0.030174
798.347378	0.030094
798.539438	0.030116
798.731480	0.030028
798.923503	0.029874
799.115509	0.029870
799.307496	0.029897
799.499465	0.030038
799.691415	0.030244
799.883348	0.030302
800.075262	0.030434
800.267158	0.030698
800.459035	0.030762
800.650895	0.031001
800.842736	0.031003
801.034559	0.030859
801.226364	0.030975
801.418150	0.030859
801.609919	0.030949
801.801669	0.031025
801.993401	0.030986
802.185114	0.030991
802.376810	0.030928
802.568487	0.030855
802.760146	0.031115
802.951787	0.031363
803.143409	0.031503
803.335014	0.031180
803.526600	0.031195
803.718168	0.031259
803.909717	0.031361
804.101249	0.031495
804.292762	0.031542
804.484257	0.031657
804.675734	0.031543
804.867192	0.031643
805.058632	0.031917
805.250054	0.031985
805.441458	0.031976
805.632844	0.032160
805.824211	0.031999
806.015561	0.032187
806.206891	0.032136
806.398204	0.032149
806.589499	0.032346
806.780775	0.032367
806.972033	0.032400
807.163273	0.032129
807.354495	0.031828
807.545698	0.032125
807.736883	0.032300
807.928050	0.032191
808.119199	0.032312
808.310329	0.032166
808.501441	0.031953
808.692535	0.032188
808.883611	0.032602
809.074669	0.032900
809.265708	0.032678
809.456729	0.032818
809.647732	0.032816
809.838717	0.032770
810.029683	0.032763
810.220632	0.033083
810.411562	0.032952
810.602474	0.032955
810.793367	0.032831
810.984242	0.033012
811.175100	0.032830
811.365938	0.033127
811.556759	0.033270
811.747562	0.033573
811.938346	0.033672
812.129112	0.033816
812.319860	0.033659
812.510589	0.033731
812.701300	0.033610
812.891994	0.033723
813.082668	0.033673
813.273325	0.033845
813.463964	0.033615
813.654584	0.033564
813.845186	0.033592
814.035769	0.033714
814.226335	0.033609
814.416882	0.033964
814.607411	0.033913
814.797922	0.033873
814.988415	0.033625
815.178889	0.033629
815.369345	0.033864
815.559783	0.033755
815.750203	0.033821
815.940605	0.034070
816.130988	0.034019
816.321353	0.034251
816.511700	0.034269
816.702028	0.034434
816.892339	0.034664
817.082631	0.034466
817.272905	0.034640
817.463161	0.034765
817.653398	0.034714
817.843617	0.034713
818.033819	0.034561
818.224001	0.034554
818.414166	0.034332
818.604312	0.034233
818.794440	0.034419
818.984550	0.034467
819.174642	0.034466
819.364716	0.034480
819.554771	0.034580
819.744808	0.034596
819.934827	0.034612
820.124827	0.034838
820.314810	0.034842
820.504774	0.034898
820.694720	0.034819
820.884647	0.035035
821.074557	0.035133
821.264448	0.035157
821.454321	0.035262
821.644176	0.035437
821.834012	0.035687
822.023831	0.035677
822.213631	0.035534
822.403413	0.035661
822.593176	0.035517
822.782922	0.035701
822.972649	0.035652
823.162358	0.035414
823.352049	0.035263
823.541721	0.035089
823.731376	0.035255
823.921012	0.035310
824.110629	0.035269
824.300229	0.035497
824.489811	0.035256
824.679374	0.035476
824.868919	0.035479
825.058445	0.035466
825.247954	0.035524
825.437444	0.035521
825.626916	0.035636
825.816370	0.035794
826.005806	0.035377
826.195223	0.035638
826.384622	0.035464
826.574003	0.035667
826.763366	0.035895
826.952711	0.035815
827.142037	0.035887
827.331345	0.035953
827.520635	0.036090
827.709906	0.036384
827.899160	0.036336
828.088395	0.036324
828.277612	0.036710
828.466810	0.036872
828.655991	0.036933
828.845153	0.036907
829.034297	0.037208
829.223423	0.037118
829.412531	0.037276
829.601620	0.037431
829.790691	0.037753
829.979744	0.037342
830.168779	0.037225
830.357795	0.037556
830.546793	0.037608
830.735773	0.037372
830.924735	0.037544
831.113679	0.037371
831.302604	0.037190
831.491511	0.036894
831.680400	0.037200
831.869271	0.037411
832.058123	0.037259
832.246957	0.037486
832.435773	0.037368
832.624571	0.037330
832.813351	0.037515
833.002112	0.037723
833.190855	0.037712
833.379580	0.037346
833.568287	0.037361
833.756975	0.037328
833.945645	0.037343
834.134297	0.037610
834.322931	0.037623
834.511547	0.037740
834.700144	0.037735
834.888723	0.038496
835.077284	0.038902
835.265826	0.038868
835.454351	0.038878
835.642857	0.038849
835.831345	0.039028
836.019815	0.039197
836.208266	0.039447
836.396699	0.039534
836.585114	0.039125
836.773511	0.039274
836.961890	0.039434
837.150250	0.039544
837.338592	0.039712
837.526916	0.039786
837.715222	0.039966
837.903510	0.039871
838.091779	0.040063
838.280030	0.039936
838.468263	0.039977
838.656477	0.039994
838.844674	0.040099
839.032852	0.039825
839.221012	0.039691
839.409153	0.039567
839.597277	0.039473
839.785382	0.039188
839.973469	0.039544
840.161538	0.039494
840.349589	0.039519
840.537621	0.039640
840.725635	0.039982
840.913631	0.040022
841.101609	0.040229
841.289568	0.040428
841.477509	0.040890
841.665432	0.041104
841.853337	0.041266
842.041224	0.041195
842.229092	0.041129
842.416942	0.040901
842.604774	0.041097
842.792588	0.041303
842.980383	0.041348
843.168160	0.041099
843.355919	0.040775
843.543660	0.041000
843.731382	0.041296
843.919087	0.041597
844.106773	0.042048
844.294441	0.042189
844.482090	0.042116
844.669722	0.042241
844.857335	0.042547
845.044930	0.042704
845.232507	0.042922
845.420065	0.043140
845.607605	0.043192
845.795127	0.043268
845.982631	0.043317
846.170117	0.043348
846.357584	0.043266
846.545033	0.043504
846.732464	0.043803
846.919877	0.043889
847.107272	0.043660
847.294648	0.044176
847.482006	0.044251
847.669346	0.044281
847.856667	0.044529
848.043971	0.044620
848.231256	0.044608
848.418523	0.044639
848.605771	0.044753
848.793002	0.044905
848.980214	0.044624
849.167408	0.044920
849.354584	0.044941
849.541742	0.045196
849.728881	0.045329
849.916002	0.045343
850.103105	0.045518
850.290190	0.045442
850.477256	0.045641
850.664304	0.045705
850.851334	0.045814
851.038346	0.046026
851.225340	0.045865
851.412315	0.046063
851.599272	0.046372
851.786211	0.046342
851.973132	0.046616
852.160034	0.046936
852.346918	0.046857
852.533784	0.046729
852.720632	0.046722
852.907462	0.046599
853.094273	0.046807
853.281066	0.046586
853.467841	0.046435
853.654598	0.046454
853.841336	0.046363
854.028056	0.046799
854.214758	0.046992
854.401442	0.047159
854.588107	0.047379
854.774755	0.047486
854.961384	0.047575
855.147995	0.047938
855.334587	0.047906
855.521162	0.047766
855.707718	0.047712
855.894256	0.047556
856.080775	0.047892
856.267277	0.048058
856.453760	0.048131
856.640225	0.048448
856.826672	0.048087
857.013101	0.048199
857.199511	0.048782
857.385903	0.049021
857.572277	0.049308
857.758633	0.049081
857.944970	0.049054
858.131290	0.049152
858.317591	0.049167
858.503873	0.049577
858.690138	0.049611
858.876384	0.049412
859.062612	0.049229
859.248822	0.049160
859.435014	0.048997
859.621188	0.049159
859.807343	0.049110
859.993480	0.049271
860.179599	0.049581
860.365699	0.049726
860.551781	0.049801
860.737846	0.050143
860.923891	0.050392
861.109919	0.051087
861.295929	0.051223
861.481920	0.051249
861.667893	0.051474
861.853848	0.051344
862.039784	0.051271
862.225702	0.051354
862.411603	0.051112
862.597484	0.051145
862.783348	0.050710
862.969193	0.050639
863.155021	0.050974
863.340830	0.051044
863.526620	0.051191
863.712393	0.051148
863.898147	0.051026
864.083883	0.051183
864.269601	0.051098
864.455301	0.051463
864.640982	0.051683
864.826645	0.051669
865.012290	0.051772
865.197917	0.051645
865.383526	0.051936
865.569116	0.052224
865.754688	0.052432
865.940242	0.052558
866.125777	0.052628
866.311295	0.052596
866.496794	0.052512
866.682275	0.052198
866.867737	0.052437
867.053182	0.052439
867.238608	0.052702
867.424016	0.052780
867.609406	0.052951
867.794778	0.052939
867.980131	0.053118
868.165466	0.053139
868.350783	0.053470
868.536082	0.054105
868.721362	0.054299
868.906625	0.054233
869.091869	0.054300
869.277094	0.054393
869.462302	0.054790
869.647491	0.054754
869.832662	0.055016
870.017815	0.054499
870.202950	0.053961
870.388066	0.053812
870.573165	0.053841
870.758245	0.053784
870.943306	0.053548
871.128350	0.052987
871.313375	0.053132
871.498382	0.052773
871.683371	0.053729
871.868342	0.054135
872.053294	0.054534
872.238229	0.054377
872.423144	0.054416
872.608042	0.054933
872.792922	0.055370
872.977783	0.055355
873.162626	0.055462
873.347451	0.054923
873.532258	0.054761
873.717046	0.054635
873.901816	0.055083
874.086568	0.055488
874.271302	0.055217
874.456017	0.055137
874.640715	0.055118
874.825394	0.055588
875.010055	0.055687
875.194697	0.055812
875.379322	0.055801
875.563928	0.055986
875.748516	0.055755
875.933085	0.056012
876.117637	0.056257
876.302170	0.056448
876.486685	0.056394
876.671182	0.056802
876.855661	0.056825
877.040121	0.056892
877.224563	0.056603
877.408987	0.056466
877.593393	0.056525
877.777780	0.056630
877.962150	0.056701
878.146501	0.056624
878.330833	0.056725
878.515148	0.056825
878.699444	0.056819
878.883722	0.057040
879.067982	0.057421
879.252224	0.057268
879.436447	0.057205
879.620653	0.057142
879.804840	0.057326
879.989008	0.056877
880.173159	0.057113
880.357291	0.057383
880.541405	0.057161
880.725501	0.056972
880.909579	0.057227
881.093638	0.057032
881.277680	0.057118
881.461703	0.057091
881.645707	0.057071
881.829694	0.056730
882.013662	0.056478
882.197612	0.056638
882.381544	0.056892
882.565458	0.056827
882.749353	0.057273
882.933230	0.057411
883.117089	0.057533
883.300930	0.058106
883.484753	0.058382
883.668557	0.058640
883.852343	0.058587
884.036111	0.058208
884.219861	0.058507
884.403592	0.058386
884.587305	0.058382
884.771000	0.058433
884.954677	0.058263
885.138335	0.058266
885.321976	0.058403
885.505598	0.058686
885.689201	0.059274
885.872787	0.059257
886.056354	0.059368
886.239904	0.059529
886.423434	0.059562
886.606947	0.059684
886.790442	0.059441
886.973918	0.059377
887.157376	0.059140
887.340816	0.058924
887.524237	0.058887
887.707641	0.058710
887.891026	0.058749
888.074393	0.058727
888.257741	0.058663
888.441072	0.058831
888.624384	0.059093
888.807678	0.059119
888.990954	0.058827
889.174211	0.058450
889.357451	0.058447
889.540672	0.058192
889.723875	0.058078
889.907059	0.057912
890.090226	0.057724
890.273374	0.057183
890.456504	0.057373
890.639616	0.057272
890.822709	0.057716
891.005785	0.057879
891.188842	0.057754
891.371881	0.057706
891.554901	0.057863
891.737904	0.057932
891.920888	0.058268
892.103854	0.058026
892.286802	0.058580
892.469731	0.058153
892.652643	0.058177
892.835536	0.058255
893.018410	0.058703
893.201267	0.058322
893.384106	0.058882
893.566926	0.058709
893.749728	0.059152
893.932511	0.059308
894.115277	0.059705
894.298024	0.059680
894.480753	0.059827
894.663464	0.059439
894.846157	0.059907
895.028831	0.059433
895.211487	0.059500
895.394125	0.059238
895.576745	0.058965
895.759346	0.058831
895.941930	0.058696
896.124495	0.058457
896.307041	0.058737
896.489570	0.058751
896.672080	0.058702
896.854573	0.058691
897.037046	0.058472
897.219502	0.058369
897.401940	0.058117
897.584359	0.058278
897.766760	0.058399
897.949143	0.058124
898.131507	0.058247
898.313854	0.058368
898.496182	0.058597
898.678492	0.058631
898.860783	0.058633
899.043057	0.059186
899.225312	0.058967
899.407549	0.058724
899.589768	0.059143
899.771968	0.058710
899.954151	0.058623
900.136315	0.058615
900.318461	0.058922
900.500588	0.059334
900.682698	0.059200
900.864789	0.059548
901.046862	0.059783
901.228917	0.059302
901.410953	0.059370
901.592971	0.059561
901.774972	0.059457
901.956953	0.059327
902.138917	0.059008
902.320862	0.059261
902.502790	0.059368
902.684699	0.059433
902.866589	0.059822
903.048462	0.059720
903.230316	0.059760
903.412152	0.059744
903.593970	0.059597
903.775770	0.059368
903.957551	0.058937
904.139314	0.058704
904.321059	0.058406
904.502786	0.058316
904.684494	0.058437
904.866185	0.058011
905.047857	0.057700
905.229510	0.057503
905.411146	0.057699
905.592763	0.057364
905.774363	0.057209
905.955943	0.057300
906.137506	0.056602
906.319051	0.056583
906.500577	0.056620
906.682085	0.056820
906.863575	0.056758
907.045046	0.056586
907.226500	0.056881
907.407935	0.056557
907.589352	0.056624
907.770750	0.057082
907.952131	0.057103
908.133493	0.057415
908.314837	0.057152
908.496163	0.056974
908.677470	0.056988
908.858760	0.056480
909.040031	0.056455
909.221284	0.055530
909.402518	0.055186
909.583735	0.054335
909.764933	0.054121
909.946113	0.054101
910.127275	0.054111
910.308418	0.053557
910.489544	0.053767
910.670651	0.053945
910.851740	0.054386
911.032810	0.053951
911.213863	0.054459
911.394897	0.053943
911.575913	0.053859
911.756911	0.054143
911.937890	0.054682
912.118851	0.054203
912.299794	0.053863
912.480719	0.053857
912.661626	0.053846
912.842514	0.053681
913.023384	0.053662
913.204236	0.053517
913.385070	0.053056
913.565886	0.052242
913.746683	0.052424
913.927462	0.052253
914.108223	0.051825
914.288965	0.052331
914.469690	0.052100
914.650396	0.051715
914.831084	0.051186
915.011754	0.051437
915.192405	0.051714
915.373038	0.051428
915.553653	0.051187
915.734250	0.050743
915.914829	0.050047
916.095389	0.049787
916.275931	0.049725
916.456455	0.050043
916.636961	0.049791
916.817448	0.049576
916.997917	0.049607
917.178368	0.049250
917.358801	0.049432
917.539216	0.049466
917.719612	0.049572
917.899990	0.049896
918.080350	0.050000
918.260692	0.049123
918.441015	0.048599
918.621320	0.048600
918.801607	0.048878
918.981876	0.048681
919.162127	0.048432
919.342359	0.048415
919.522573	0.048164
919.702769	0.047801
919.882947	0.048013
920.063106	0.047961
920.243247	0.047646
920.423370	0.047454
920.603475	0.047691
920.783562	0.047621
920.963630	0.047495
921.143680	0.047509
921.323712	0.047215
921.503725	0.047627
921.683721	0.047492
921.863698	0.047247
922.043657	0.047188
922.223598	0.047433
922.403520	0.047422
922.583424	0.046817
922.763311	0.046451
922.943178	0.046398
923.123028	0.045674
923.302859	0.045329
923.482673	0.044692
923.662467	0.043975
923.842244	0.043443
924.022003	0.043112
924.201743	0.042847
924.381465	0.042521
924.561169	0.041788
924.740854	0.041744
924.920522	0.042301
925.100171	0.042246
925.279802	0.042642
925.459414	0.042424
925.639009	0.041595
925.818585	0.041943
925.998143	0.041931
926.177683	0.041262
926.357205	0.041055
926.536708	0.040756
926.716193	0.040784
926.895660	0.040347
927.075109	0.040042
927.254539	0.039933
927.433951	0.039135
927.613345	0.038391
927.792721	0.039441
927.972079	0.038696
928.151418	0.038179
928.330739	0.038387
928.510042	0.038107
928.689327	0.038116
928.868593	0.038134
929.047841	0.038022
929.227071	0.037690
929.406283	0.036795
929.585476	0.036759
929.764652	0.035991
929.943809	0.035096
930.122948	0.034600
930.302068	0.034164
930.481171	0.034337
930.660255	0.034272
930.839321	0.033904
931.018369	0.033412
931.197398	0.033143
931.376409	0.033272
931.555402	0.033238
931.734377	0.033095
931.913334	0.032736
932.092272	0.032228
932.271192	0.031505
932.450094	0.031767
932.628978	0.031846
932.807844	0.031133
932.986691	0.031023
933.165520	0.030031
933.344331	0.029461
933.523123	0.028876
933.701898	0.028690
933.880654	0.028584
934.059392	0.027580
934.238111	0.027573
934.416813	0.027368
934.595496	0.027595
934.774161	0.029008
934.952808	0.029428
935.131437	0.029077
935.310047	0.028163
935.488639	0.027560
935.667213	0.027497
935.845769	0.027126
936.024306	0.027958
936.202825	0.026848
936.381326	0.025230
936.559809	0.023742
936.738274	0.023738
936.916720	0.023762
937.095148	0.023601
937.273558	0.023948
937.451950	0.024003
937.630323	0.023095
937.808678	0.022478
937.987015	0.022291
938.165334	0.022199
938.343635	0.021802
938.521917	0.022156
938.700181	0.022278
938.878427	0.022022
939.056655	0.020986
939.234864	0.020988
939.413055	0.021844
939.591228	0.020933
939.769383	0.020620
939.947519	0.019443
940.125638	0.019216
940.303738	0.018301
940.481820	0.017046
940.659883	0.015744
940.837929	0.015337
941.015956	0.014668
941.193965	0.015431
941.371955	0.015374
941.549928	0.016160
941.727882	0.015332
941.905818	0.015655
942.083736	0.015640
942.261636	0.016478
942.439517	0.015358
942.617380	0.014323
942.795225	0.013315
942.973052	0.014281
943.150860	0.014753
943.328651	0.015028
943.506423	0.014785
943.684176	0.015494
943.861912	0.015476
944.039629	0.015921
944.217328	0.015829
944.395009	0.015361
944.572672	0.014346
944.750317	0.013326
944.927943	0.012740
945.105551	0.012364
945.283141	0.011200
945.460712	0.010665
945.638265	0.010069
945.815801	0.009666
945.993317	0.010430
946.170816	0.010949
946.348297	0.011033
946.525759	0.010315
946.703203	0.010336
946.880629	0.010163
947.058036	0.009638
947.235425	0.010783
947.412797	0.010490
947.590149	0.010205
947.767484	0.009179
947.944800	0.008559
948.122099	0.009039
948.299379	0.009082
948.476640	0.010372
948.653884	0.009977
948.831109	0.007760
949.008316	0.008534
949.185505	0.009802
949.362676	0.009493
949.539828	0.009778
949.716962	0.008824
949.894078	0.009460
950.071176	0.009754
950.248256	0.009616
950.425317	0.010058
950.602360	0.010308
950.779385	0.007722
950.956391	0.007357
951.133380	0.007442
951.310350	0.007495
951.487302	0.006107
951.664235	0.003235
951.841151	0.004021
952.018048	0.004742
952.194927	0.003726
952.371788	0.004151
952.548631	0.004705
952.725455	0.004983
952.902261	0.004395
953.079049	0.003494
953.255819	0.004747
953.432570	0.004676
953.609303	0.004490
953.786018	0.004130
953.962715	0.004593
954.139394	0.004270
954.316054	0.002099
954.492696	0.002908
954.669320	0.005609
954.845926	0.003809
955.022513	0.003078
955.199083	0.001991
955.375634	0.003527
955.552166	0.003210
955.728681	0.002065
955.905177	0.004707
956.081655	0.004856
956.258115	0.002686
956.434557	0.004038
956.610980	0.004873
956.787385	0.006647
956.963772	0.005741
957.140141	0.006653
957.316492	0.007651
957.492824	0.005366
957.669138	0.003723
957.845434	0.003964
958.021712	0.003858
958.197971	0.002921
958.374212	0.001946
958.550435	0.003279
958.726640	0.001926
958.902826	0.003074
959.078995	0.003380
959.255145	0.005487
959.431277	0.006110
959.607390	0.008087
959.783486	0.007882
959.959563	0.009280
960.135622	0.007553
960.311662	0.008344
960.487685	0.009475
960.663689	0.010992
960.839675	0.012472
961.015643	0.012928
961.191593	0.011685
961.367524	0.013150
961.543437	0.010686
961.719332	0.010852
961.895209	0.011998
962.071067	0.010872
962.246907	0.009809
962.422730	0.010293
962.598533	0.010297
962.774319	0.013238
962.950086	0.014049
963.125835	0.017173
963.301566	0.019333
963.477279	0.018019
963.652973	0.018594
963.828650	0.017377
964.004308	0.015953
964.179947	0.015644
964.355569	0.013033
964.531172	0.013124
964.706757	0.011667
964.882324	0.011723
965.057873	0.012816
965.233403	0.013059
965.408916	0.015634
965.584410	0.015823
965.759885	0.015840
965.935343	0.017115
966.110782	0.018145
966.286203	0.017573
966.461606	0.015228
966.636991	0.014769
966.812357	0.012798
966.987705	0.012458
967.163035	0.014266
967.338347	0.014510
967.513641	0.015638
967.688916	0.014170
967.864173	0.014417
968.039412	0.014625
968.214632	0.016335
968.389835	0.017123
968.565019	0.016543
968.740185	0.014961
968.915333	0.015167
969.090462	0.013969
969.265573	0.012955
969.440667	0.015643
969.615741	0.019582
969.790798	0.018094
969.965836	0.020443
970.140856	0.020776
970.315858	0.018983
970.490842	0.018164
970.665808	0.016649
970.840755	0.016631
971.015684	0.014393
971.190595	0.012597
971.365487	0.012129
971.540362	0.009915
971.715218	0.010714
971.890056	0.009798
972.064875	0.010145
972.239677	0.011044
972.414460	0.012730
972.589225	0.014127
972.763972	0.013595
972.938700	0.014579
973.113411	0.015531
973.288103	0.014374
973.462777	0.015627
973.637432	0.018987
973.812070	0.019608
973.986689	0.019157
974.161290	0.018621
974.335873	0.018348
974.510437	0.017786
974.684984	0.018317
974.859512	0.017774
975.034022	0.018436
975.208513	0.017776
975.382987	0.016738
975.557442	0.019865
975.731879	0.021477
975.906298	0.019380
976.080698	0.018131
976.255080	0.019269
976.429445	0.021134
976.603790	0.020734
976.778118	0.020074
976.952427	0.022342
977.126719	0.018263
977.300992	0.018231
977.475246	0.017429
977.649483	0.021992
977.823701	0.018969
977.997901	0.017249
978.172083	0.017198
978.346247	0.015823
978.520392	0.013367
978.694519	0.016924
978.868628	0.016876
979.042719	0.021074
979.216791	0.017233
979.390845	0.019900
979.564882	0.018713
979.738899	0.019705
979.912899	0.018765
980.086880	0.019992
980.260843	0.017335
980.434788	0.016249
980.608715	0.015213
980.782623	0.015608
980.956514	0.014597
981.130386	0.017510
981.304240	0.017682
981.478075	0.018846
981.651892	0.018841
981.825692	0.018816
981.999472	0.019214
982.173235	0.019637
982.346980	0.021575
982.520706	0.023028
982.694414	0.022559
982.868104	0.021813
983.041775	0.018148
983.215428	0.017401
983.389064	0.017584
983.562680	0.016097
983.736279	0.015804
983.909860	0.014235
984.083422	0.011797
984.256966	0.011090
984.430491	0.011190
984.603999	0.013799
984.777488	0.013353
984.950959	0.013343
985.124412	0.013690
985.297847	0.012084
985.471263	0.011914
985.644661	0.014383
985.818041	0.015731
985.991403	0.016243
986.164747	0.018349
986.338072	0.017460
986.511379	0.018500
986.684668	0.019503
986.857938	0.020851
987.031191	0.021621
987.204425	0.018583
987.377641	0.016836
987.550839	0.016067
987.724018	0.016682
987.897179	0.019313
988.070322	0.017727
988.243447	0.017331
988.416554	0.015640
988.589642	0.012741
988.762712	0.015445
988.935764	0.015027
989.108798	0.014956
989.281813	0.012089
989.454811	0.013019
989.627790	0.011387
989.800751	0.009860
989.973693	0.011988
990.146617	0.015855
990.319524	0.016240
990.492412	0.015851
990.665281	0.015528
990.838133	0.015339
991.010966	0.015479
991.183781	0.017306
991.356578	0.018944
991.529356	0.017051
991.702117	0.016227
991.874859	0.015016
992.047583	0.016172
992.220288	0.016712
992.392976	0.016778
992.565645	0.015630
992.738296	0.015561
992.910929	0.015728
993.083543	0.018463
993.256139	0.017371
993.428718	0.015174
993.601277	0.016282
993.773819	0.016019
993.946342	0.016591
994.118848	0.017114
994.291335	0.018698
994.463803	0.015465
994.636254	0.013662
994.808686	0.015866
994.981100	0.018473
995.153496	0.019967
995.325874	0.018726
995.498233	0.019643
995.670574	0.018843
995.842897	0.017245
996.015202	0.021403
996.187488	0.019273
996.359757	0.017944
996.532007	0.016363
996.704239	0.014015
996.876452	0.016021
997.048648	0.016794
997.220825	0.016049
997.392984	0.014277
997.565124	0.012793
997.737247	0.016407
997.909351	0.017285
998.081437	0.017961
998.253505	0.018218
998.425554	0.017580
998.597586	0.015847
998.769599	0.016960
998.941594	0.017006
999.113571	0.017266
999.285529	0.016373
999.457469	0.014376
999.629391	0.014334
999.801295	0.015314
999.973181	0.014892
1000.145048	0.015955
1000.316897	0.016516
1000.488728	0.017765
1000.660541	0.016825
1000.832335	0.017101
1001.004111	0.018756
1001.175869	0.020015
1001.347609	0.019916
1001.519331	0.020490
1001.691034	0.018847
1001.862719	0.018013
1002.034386	0.018136
1002.206035	0.018143
1002.377665	0.018355
1002.549277	0.018003
1002.720871	0.016233
1002.892447	0.016919
1003.064004	0.015113
1003.235544	0.019059
1003.407065	0.017690
1003.578568	0.019565
1003.750052	0.019114
1003.921519	0.017257
1004.092967	0.016310
1004.264397	0.017828
1004.435809	0.015749
1004.607202	0.017211
1004.778577	0.014523
1004.949934	0.015020
1005.121273	0.014572
1005.292594	0.013966
1005.463896	0.014436
1005.635180	0.014718
1005.806446	0.015674
1005.977694	0.015842
1006.148923	0.014674
1006.320135	0.015088
1006.491328	0.016374
1006.662503	0.016738
1006.833659	0.018319
1007.004798	0.019540
1007.175918	0.019693
1007.347020	0.017420
1007.518103	0.017345
1007.689169	0.018344
1007.860216	0.017990
1008.031245	0.018151
1008.202256	0.014366
1008.373248	0.015454
1008.544223	0.014283
1008.715179	0.014138
1008.886117	0.013025
1009.057036	0.014848
1009.227938	0.013968
1009.398821	0.014065
1009.569686	0.012809
1009.740533	0.014504
1009.911361	0.013657
1010.082172	0.014654
1010.252964	0.013278
1010.423738	0.016346
1010.594493	0.013075
1010.765231	0.014193
1010.935950	0.013242
1011.106651	0.013102
1011.277334	0.013048
1011.447998	0.013280
1011.618645	0.012983
1011.789273	0.014109
1011.959882	0.011095
1012.130474	0.011030
1012.301048	0.010580
1012.471603	0.010689
1012.642140	0.010524
1012.812658	0.012263
1012.983159	0.012253
1013.153641	0.011170
1013.324105	0.011608
1013.494551	0.010714
1013.664979	0.011164
1013.835388	0.012136
1014.005779	0.011843
1014.176152	0.012790
1014.346507	0.013413
1014.516843	0.011974
1014.687162	0.013222
1014.857462	0.013453
1015.027744	0.015539
1015.198007	0.018415
1015.368252	0.017395
1015.538480	0.016793
1015.708689	0.015689
1015.878879	0.012727
1016.049052	0.012456
1016.219206	0.012568
1016.389342	0.011531
1016.559460	0.010614
1016.729559	0.009016
1016.899641	0.009274
1017.069704	0.009528
1017.239749	0.009878
1017.409775	0.009623
1017.579784	0.012843
1017.749774	0.014777
1017.919746	0.014965
1018.089700	0.016345
1018.259635	0.017231
1018.429553	0.017655
1018.599452	0.018581
1018.769333	0.018981
1018.939195	0.019623
1019.109040	0.018111
1019.278866	0.013773
1019.448674	0.014214
1019.618464	0.012488
1019.788235	0.011655
1019.957989	0.011964
1020.127724	0.010891
1020.297441	0.011885
1020.467139	0.012938
1020.636820	0.014129
1020.806482	0.015137
1020.976126	0.015818
1021.145752	0.017972
1021.315359	0.019059
1021.484948	0.017202
1021.654519	0.016280
1021.824072	0.017288
1021.993607	0.017854
1022.163123	0.015855
1022.332621	0.018735
1022.502101	0.018384
1022.671563	0.016089
1022.841007	0.016656
1023.010432	0.018024
1023.179839	0.022599
1023.349228	0.019016
1023.518598	0.018523
1023.687951	0.017385
1023.857285	0.013808
1024.026601	0.014729
1024.195899	0.016362
1024.365178	0.012959
1024.534439	0.012140
1024.703682	0.009552
1024.872907	0.011451
1025.042114	0.010209
1025.211302	0.010941
1025.380472	0.011963
1025.549624	0.012499
1025.718758	0.013357
1025.887873	0.015370
1026.056970	0.016560
1026.226049	0.016628
1026.395110	0.013949
1026.564153	0.015726
1026.733177	0.015616
1026.902183	0.015754
1027.071171	0.015751
1027.240141	0.014090
1027.409092	0.013746
1027.578026	0.013954
1027.746940	0.012837
1027.915837	0.016348
1028.084716	0.014406
1028.253576	0.014502
1028.422418	0.013994
1028.591242	0.012778
1028.760048	0.012205
1028.928835	0.013057
1029.097604	0.012250
1029.266355	0.013183
1029.435088	0.010834
1029.603803	0.012301
1029.772499	0.010504
1029.941177	0.011025
1030.109837	0.010781
1030.278478	0.012765
1030.447102	0.012018
1030.615707	0.013351
1030.784294	0.013787
1030.952863	0.013394
1031.121413	0.013856
1031.289945	0.016488
1031.458460	0.015956
1031.626955	0.016108
1031.795433	0.014820
1031.963892	0.015619
1032.132334	0.013987
1032.300756	0.014641
1032.469161	0.015813
1032.637548	0.014994
1032.805916	0.014606
1032.974266	0.014927
1033.142598	0.012925
1033.310911	0.012792
1033.479207	0.011144
1033.647484	0.011376
1033.815743	0.008196
1033.983983	0.010002
1034.152206	0.011125
1034.320410	0.010837
1034.488596	0.011549
1034.656764	0.014018
1034.824914	0.013889
1034.993045	0.014161
1035.161158	0.014766
1035.329253	0.017739
1035.497330	0.016210
1035.665388	0.015274
1035.833428	0.017093
1036.001450	0.017288
1036.169454	0.014777
1036.337440	0.015738
1036.505407	0.018040
1036.673356	0.017992
1036.841287	0.018091
1037.009200	0.017793
1037.177094	0.017508
1037.344970	0.016518
1037.512828	0.016853
1037.680668	0.016954
1037.848489	0.016641
1038.016293	0.014025
1038.184078	0.014886
1038.351845	0.014107
1038.519593	0.014880
1038.687324	0.014017
1038.855036	0.012986
1039.022730	0.012406
1039.190406	0.014323
1039.358063	0.014976
1039.525702	0.014583
1039.693323	0.014012
1039.860926	0.013728
1040.028511	0.012406
1040.196077	0.013233
1040.363625	0.013597
1040.531155	0.013952
1040.698667	0.013070
1040.866161	0.013603
1041.033636	0.013882
1041.201093	0.013508
1041.368532	0.013068
1041.535952	0.014312
1041.703355	0.013424
1041.870739	0.013136
1042.038105	0.013759
1042.205452	0.013732
1042.372782	0.010746
1042.540093	0.011597
1042.707386	0.010877
1042.874661	0.010744
1043.041918	0.010586
1043.209156	0.012612
1043.376376	0.012475
1043.543578	0.011986
1043.710762	0.011998
1043.877927	0.012851
1044.045074	0.010153
1044.212203	0.010356
1044.379314	0.010826
1044.546407	0.010515
1044.713481	0.008533
1044.880537	0.009405
1045.047575	0.008733
1045.214595	0.010075
1045.381596	0.011400
1045.548579	0.011923
1045.715544	0.010798
1045.882491	0.010999
1046.049420	0.010156
1046.216330	0.010173
1046.383222	0.009949
1046.550096	0.009267
1046.716951	0.007428
1046.883789	0.006400
1047.050608	0.009450
1047.217409	0.012252
1047.384192	0.012867
1047.550956	0.012016
1047.717703	0.012275
1047.884431	0.012344
1048.051140	0.011028
1048.217832	0.010364
1048.384505	0.009885
1048.551161	0.009375
1048.717798	0.006925
1048.884416	0.005024
1049.051017	0.007232
1049.217599	0.007453
1049.384163	0.006995
1049.550709	0.008266
1049.717237	0.009865
1049.883746	0.010663
1050.050237	0.009624
1050.216710	0.010995
1050.383165	0.011270
1050.549601	0.012616
1050.716019	0.013366
1050.882420	0.013604
1051.048801	0.015360
1051.215165	0.015054
1051.381510	0.014434
1051.547837	0.013485
1051.714146	0.014495
1051.880437	0.016664
1052.046709	0.014692
1052.212964	0.015212
1052.379200	0.014710
1052.545417	0.014074
1052.711617	0.013369
1052.877798	0.016138
1053.043961	0.016939
1053.210106	0.014760
1053.376233	0.012443
1053.542341	0.013935
1053.708432	0.013358
1053.874504	0.015642
1054.040557	0.014809
1054.206593	0.016566
1054.372610	0.012595
1054.538609	0.014510
1054.704590	0.013752
1054.870553	0.015324
1055.036497	0.012249
1055.202424	0.011295
1055.368331	0.009321
1055.534221	0.008053
1055.700093	0.009144
1055.865946	0.010443
1056.031781	0.010765
1056.197598	0.015159
1056.363397	0.013649
1056.529177	0.014696
1056.694939	0.014298
1056.860683	0.015995
1057.026409	0.014921
1057.192116	0.012920
1057.357806	0.014055
1057.523477	0.014061
1057.689130	0.011558
1057.854764	0.012712
1058.020381	0.014149
1058.185979	0.017685
1058.351559	0.016781
1058.517120	0.018975
1058.682664	0.019081
1058.848189	0.019457
1059.013696	0.018430
1059.179185	0.016934
1059.344656	0.016569
1059.510108	0.015735
1059.675542	0.013594
1059.840958	0.013157
1060.006356	0.012051
1060.171735	0.012463
1060.337096	0.010034
1060.502439	0.009996
1060.667764	0.009953
1060.833071	0.011002
1060.998359	0.009816
1061.163629	0.009508
1061.328881	0.009514
1061.494115	0.007847
1061.659330	0.007098
1061.824527	0.009482
1061.989706	0.009002
1062.154867	0.008678
1062.320010	0.006650
1062.485134	0.007373
1062.650240	0.007250
1062.815328	0.008542
1062.980398	0.012773
1063.145449	0.012555
1063.310482	0.011212
1063.475497	0.010281
1063.640494	0.011178
1063.805473	0.010726
1063.970433	0.010124
1064.135375	0.011579
1064.300299	0.010094
1064.465204	0.009534
1064.630092	0.011489
1064.794961	0.011902
1064.959812	0.015300
1065.124645	0.013861
1065.289459	0.015958
1065.454256	0.016943
1065.619034	0.016371
1065.783793	0.015930
1065.948535	0.015693
1066.113258	0.015149
1066.277964	0.014951
1066.442651	0.012543
1066.607319	0.014316
1066.771970	0.015404
1066.936602	0.014750
1067.101216	0.015079
1067.265812	0.014998
1067.430389	0.016503
1067.594949	0.014825
1067.759490	0.013371
1067.924013	0.014665
1068.088518	0.014307
1068.253004	0.011395
1068.417472	0.011529
1068.581922	0.010037
1068.746354	0.010438
1068.910768	0.007330
1069.075163	0.005583
1069.239540	0.007675
1069.403899	0.006324
1069.568240	0.007963
1069.732562	0.008927
1069.896866	0.011079
1070.061152	0.011665
1070.225420	0.013024
1070.389670	0.015502
1070.553901	0.018550
1070.718114	0.019995
1070.882309	0.019187
1071.046486	0.019949
1071.210644	0.018658
1071.374784	0.013943
1071.538906	0.013883
1071.703010	0.013412
1071.867096	0.012309
1072.031163	0.010798
1072.195212	0.011154
1072.359243	0.009257
1072.523256	0.007238
1072.687250	0.008212
1072.851226	0.009338
1073.015184	0.009128
1073.179124	0.009216
1073.343045	0.007658
1073.506949	0.011023
1073.670834	0.009702
1073.834701	0.010284
1073.998549	0.009151
1074.162380	0.007879
1074.326192	0.009507
1074.489986	0.010770
1074.653761	0.010455
1074.817519	0.011679
1074.981258	0.010113
1075.144979	0.007065
1075.308682	0.011028
1075.472367	0.012480
1075.636033	0.014478
1075.799681	0.015731
1075.963311	0.016118
1076.126923	0.016077
1076.290516	0.015416
1076.454092	0.014902
1076.617649	0.015474
1076.781187	0.012617
1076.944708	0.009372
1077.108210	0.010887
1077.271695	0.008625
1077.435160	0.008432
1077.598608	0.009417
1077.762038	0.012974
1077.925449	0.011808
1078.088842	0.012578
1078.252217	0.013575
1078.415573	0.020380
1078.578912	0.021031
1078.742232	0.021385
1078.905534	0.017462
1079.068817	0.016592
1079.232083	0.014130
1079.395330	0.013040
1079.558559	0.016396
1079.721770	0.015143
1079.884962	0.011064
1080.048136	0.009786
1080.211293	0.009929
1080.374430	0.010556
1080.537550	0.013158
1080.700651	0.012391
1080.863735	0.013057
1081.026800	0.010230
1081.189846	0.009707
1081.352875	0.011583
1081.515885	0.013420
1081.678877	0.013229
1081.841851	0.014337
1082.004807	0.009768
1082.167744	0.011968
1082.330663	0.011433
1082.493564	0.013666
1082.656447	0.014634
1082.819312	0.012763
1082.982158	0.013267
1083.144986	0.014184
1083.307796	0.013720
1083.470587	0.016247
1083.633361	0.014780
1083.796116	0.012949
1083.958853	0.013925
1084.121571	0.013418
1084.284272	0.014362
1084.446954	0.012372
1084.609618	0.012638
1084.772264	0.014872
1084.934892	0.012001
1085.097501	0.012753
1085.260092	0.015436
1085.422665	0.012255
1085.585220	0.014960
1085.747756	0.017546
1085.910274	0.017366
1086.072774	0.016928
1086.235256	0.016747
1086.397720	0.016570
1086.560165	0.013863
1086.722592	0.015695
1086.885001	0.014769
1087.047392	0.014505
1087.209764	0.010435
1087.372119	0.007790
1087.534455	0.008599
1087.696772	0.007089
1087.859072	0.007541
1088.021353	0.009731
1088.183616	0.010708
1088.345861	0.012764
1088.508088	0.010672
1088.670296	0.012704
1088.832486	0.016230
1088.994658	0.018523
1089.156812	0.017158
1089.318948	0.018731
1089.481065	0.016982
1089.643164	0.017140
1089.805245	0.017488
1089.967308	0.017801
1090.129352	0.015863
1090.291378	0.015391
1090.453386	0.013266
1090.615376	0.011967
1090.777347	0.013519
1090.939301	0.015182
1091.101236	0.014596
1091.263153	0.011040
1091.425051	0.012330
1091.586932	0.013726
1091.748794	0.015085
1091.910638	0.015207
1092.072463	0.020136
1092.234271	0.018569
1092.396060	0.018585
1092.557831	0.016934
1092.719584	0.019327
1092.881319	0.020792
1093.043035	0.018457
1093.204733	0.014237
1093.366413	0.011872
1093.528075	0.011956
1093.689718	0.009980
1093.851343	0.010408
1094.012950	0.008914
1094.174539	0.008021
1094.336110	0.005922
1094.497662	0.006126
1094.659196	0.007643
1094.820712	0.009274
1094.982210	0.008307
1095.143689	0.008844
1095.305151	0.007562
1095.466594	0.008086
1095.628018	0.009981
1095.789425	0.012490
1095.950813	0.015450
1096.112183	0.016006
1096.273535	0.013698
1096.434869	0.010413
1096.596184	0.009911
1096.757482	0.005985
1096.918761	0.007112
1097.080021	0.004650
1097.241264	0.000341
1097.402488	-0.002543
1097.563694	-0.007406
1097.724882	-0.007023
1097.886052	-0.007054
1098.047203	-0.006558
1098.208336	-0.003806
1098.369451	-0.000104
1098.530548	0.002681
1098.691627	0.007616
1098.852687	0.007255
1099.013729	0.011121
1099.174753	0.012700
1099.335758	0.016662
1099.496746	0.017695
1099.657715	0.019667
1099.818666	0.014596
1099.979599	0.012802
1100.140513	0.008481
1100.301409	0.011212
1100.462287	0.008676
1100.623147	0.008163
1100.783989	0.004594
1100.944812	0.003919
1101.105617	0.003151
1101.266404	0.004194
1101.427173	0.006476
1101.587923	0.009860
1101.748656	0.008362
1101.909370	0.013267
1102.070066	0.010241
1102.230743	0.012025
1102.391403	0.011911
1102.552044	0.014763
1102.712667	0.015562
1102.873271	0.013220
1103.033858	0.008146
1103.194426	0.009437
1103.354976	0.007742
1103.515508	0.007981
1103.676021	0.008732
1103.836517	0.011710
1103.996994	0.007551
1104.157453	0.004407
1104.317893	0.005202
1104.478316	0.006258
1104.638720	0.007769
1104.799106	0.004146
1104.959474	0.006224
1105.119823	0.003499
1105.280155	0.001232
1105.440468	0.004246
1105.600763	0.004469
1105.761039	0.005346
1105.921298	0.006703
1106.081538	0.007254
1106.241760	0.006832
1106.401964	0.004752
1106.562149	0.006863
1106.722316	0.004788
1106.882465	0.003716
1107.042596	0.004222
1107.202709	0.001695
1107.362803	0.003015
1107.522879	0.002558
1107.682937	0.004480
1107.842977	0.006950
1108.002999	0.007072
1108.163002	0.010109
1108.322987	0.010177
1108.482954	0.012419
1108.642902	0.014390
1108.802833	0.011729
1108.962745	0.010272
1109.122639	0.013976
1109.282515	0.017380
1109.442372	0.015040
1109.602211	0.015355
1109.762032	0.014499
1109.921835	0.016484
1110.081620	0.014562
1110.241386	0.016786
1110.401134	0.015611
1110.560864	0.016945
1110.720576	0.016515
1110.880269	0.020345
1111.039945	0.021235
1111.199602	0.023401
1111.359240	0.020205
1111.518861	0.023930
1111.678463	0.021729
1111.838047	0.024473
1111.997613	0.020830
1112.157161	0.016727
1112.316690	0.013974
1112.476202	0.008559
1112.635695	0.005569
1112.795169	0.009507
1112.954626	0.008442
1113.114064	0.009589
1113.273484	0.006759
1113.432886	0.007296
1113.592270	0.007486
1113.751635	0.012503
1113.910983	0.015983
1114.070312	0.019167
1114.229622	0.015718
1114.388915	0.016372
1114.548189	0.018854
1114.707445	0.023919
1114.866683	0.022520
1115.025903	0.026176
1115.185104	0.019835
1115.344287	0.024384
1115.503452	0.022767
1115.662599	0.018686
1115.821727	0.015552
1115.980838	0.014745
1116.139930	0.013379
1116.299004	0.014174
1116.458059	0.016090
1116.617097	0.017560
1116.776116	0.015190
1116.935117	0.010848
1117.094099	0.013220
1117.253064	0.014522
1117.412010	0.014227
1117.570938	0.010407
1117.729848	0.015896
1117.888740	0.014421
1118.047613	0.018489
1118.206468	0.018568
1118.365305	0.024776
1118.524124	0.027104
1118.682924	0.022740
1118.841707	0.019513
1119.000471	0.024331
1119.159216	0.020541
1119.317944	0.018177
1119.476653	0.013268
1119.635344	0.012185
1119.794017	0.010073
1119.952672	0.012872
1120.111308	0.021512
1120.269927	0.019622
1120.428527	0.013368
1120.587108	0.020746
1120.745672	0.024197
1120.904217	0.027489
1121.062744	0.025774
1121.221253	0.022389
1121.379744	0.016171
1121.538216	0.012633
1121.696671	0.015633
1121.855107	0.021171
1122.013524	0.013911
1122.171924	0.014001
1122.330305	0.005973
1122.488668	0.007636
1122.647013	0.009975
1122.805340	0.012509
1122.963648	0.010457
1123.121938	0.007614
1123.280210	0.002974
1123.438464	-0.002015
1123.596700	-0.006537
1123.754917	-0.004741
1123.913116	-0.007361
1124.071297	-0.009590
1124.229459	-0.006394
1124.387604	-0.006420
1124.545730	-0.000906
1124.703838	-0.000656
1124.861928	-0.000054
1125.019999	-0.000529
1125.178052	0.006236
1125.336088	0.011510
1125.494104	0.009234
1125.652103	0.002432
1125.810083	0.000452
1125.968045	0.000521
1126.125989	-0.002658
1126.283915	-0.001425
1126.441823	0.004740
1126.599712	0.006324
1126.757583	0.003301
1126.915436	0.009631
1127.073270	0.007675
1127.231087	0.007974
1127.388885	0.009568
1127.546665	0.013372
1127.704426	0.019857
1127.862170	0.017601
1128.019895	0.017376
1128.177602	0.017896
1128.335291	0.012544
1128.492961	0.019016
1128.650614	0.022675
1128.808248	0.017868
1128.965864	0.018728
1129.123461	0.020760
1129.281041	0.026077
1129.438602	0.017222
1129.596145	0.016887
1129.753670	0.020187
1129.911176	0.016378
1130.068665	0.016499
1130.226135	0.017809
1130.383587	0.009942
1130.541020	0.008929
1130.698436	0.003501
1130.855833	0.012294
1131.013212	0.007820
1131.170573	0.010504
1131.327915	0.017488
1131.485239	0.015213
1131.642545	0.015272
1131.799833	0.020044
1131.957103	0.019809
1132.114354	0.014819
1132.271588	0.010219
1132.428803	0.011283
1132.585999	0.014245
1132.743178	0.015513
1132.900338	0.015156
1133.057480	0.015984
1133.214604	0.018514
1133.371710	0.011738
1133.528797	0.020789
1133.685866	0.018691
1133.842917	0.017897
1133.999950	0.019864
1134.156964	0.015295
1134.313960	0.016918
1134.470938	0.014083
1134.627898	0.014984
1134.784840	0.015955
1134.941763	0.001708
1135.098668	0.006801
1135.255555	0.008027
1135.412424	0.001650
1135.569274	0.003025
1135.726107	0.003874
1135.882921	0.003806
1136.039716	-0.000640
1136.196494	0.002183
1136.353253	0.011865
1136.509995	0.012848
1136.666717	0.015558
1136.823422	0.017083
1136.980109	0.006205
1137.136777	0.007851
1137.293427	0.006544
1137.450059	0.008385
1137.606672	0.005631
1137.763267	0.006801
1137.919844	0.003616
1138.076403	0.004217
1138.232944	0.002951
1138.389466	0.015381
1138.545971	0.011774
1138.702457	0.012660
1138.858924	0.018728
1139.015374	0.016427
1139.171805	0.009542
1139.328218	0.008520
1139.484613	0.001449
1139.640990	0.001708
1139.797348	0.002976
1139.953688	0.000304
1140.110010	0.009292
1140.266314	0.007288
1140.422600	0.008423
1140.578867	0.005220
1140.735116	0.004362
1140.891347	0.010719
1141.047559	0.010896
1141.203754	0.006149
1141.359930	0.006690
1141.516088	-0.000450
1141.672228	-0.000934
1141.828349	-0.005712
1141.984452	0.006769
1142.140537	0.005272
1142.296604	0.001678
1142.452653	0.005109
1142.608683	0.003006
1142.764695	0.007372
1142.920689	0.012023
1143.076665	0.008435
1143.232622	0.013275
1143.388562	0.011941
1143.544483	0.014944
1143.700385	0.023969
1143.856270	0.015103
1144.012136	0.014525
1144.167985	0.010792
1144.323814	0.004233
1144.479626	0.003822
1144.635420	0.006268
1144.791195	0.010027
1144.946952	0.015714
1145.102691	0.012725
1145.258411	0.017074
1145.414113	0.021888
1145.569798	0.015399
1145.725463	0.011052
1145.881111	0.010424
1146.036741	0.003536
1146.192352	-0.003635
1146.347945	-0.008534
1146.503519	-0.015792
1146.659076	-0.015358
1146.814614	-0.015141
1146.970134	-0.008396
1147.125636	-0.001617
1147.281120	0.000938
1147.436585	0.009687
1147.592032	0.014597
1147.747461	0.014371
1147.902872	0.025387
1148.058265	0.022876
1148.213639	0.027643
1148.368995	0.027584
1148.524333	0.022551
1148.679653	0.021637
1148.834954	0.017441
1148.990237	0.009991
1149.145502	0.010586
1149.300749	0.007257
1149.455977	0.007110
1149.611188	0.004200
1149.766380	0.006754
1149.921553	0.014644
1150.076709	0.008343
1150.231846	0.006571
1150.386966	0.008557
1150.542066	0.009401
1150.697149	0.013845
1150.852214	0.024440
1151.007260	0.022888
1151.162288	0.027124
1151.317298	0.016454
1151.472289	0.029466
1151.627263	0.034432
1151.782218	0.031847
1151.937155	0.037308
1152.092073	0.036264
1152.246974	0.027570
1152.401856	0.027498
1152.556720	0.015562
1152.711566	0.018690
1152.866393	0.011372
1153.021203	0.012488
1153.175994	0.016253
1153.330767	0.009990
1153.485521	0.007433
1153.640258	0.006300
1153.794976	-0.000363
1153.949676	0.002492
1154.104358	0.000574
1154.259021	0.004635
1154.413667	0.005285
1154.568294	-0.000091
1154.722903	-0.006424
1154.877493	-0.010637
1155.032066	-0.008168
1155.186620	-0.006176
1155.341156	0.000692
1155.495674	0.009161
1155.650173	0.015991
1155.804654	0.011282
1155.959118	0.022192
1156.113562	0.025582
1156.267989	0.016256
1156.422397	0.016252
1156.576788	0.027294
1156.731160	0.025221
1156.885513	0.024313
1157.039849	0.023856
1157.194166	0.032874
1157.348465	0.023577
1157.502746	0.021737
1157.657009	0.031275
1157.811253	0.033531
1157.965479	0.022904
1158.119687	0.006263
1158.273877	0.011209
1158.428048	0.007105
1158.582201	0.003381
1158.736337	0.006253
1158.890453	0.020686
1159.044552	0.017639
1159.198632	0.014125
1159.352694	0.010831
1159.506738	0.025291
1159.660764	0.016043
1159.814771	0.013502
1159.968761	0.004029
1160.122732	0.009936
1160.276685	-0.011434
1160.430619	-0.007931
1160.584535	0.003939
1160.738434	0.003055
1160.892313	0.011408
1161.046175	0.014552
1161.200019	0.016715
1161.353844	0.024303
1161.507651	0.026470
1161.661440	0.039197
1161.815210	0.037042
1161.968962	0.024112
1162.122697	0.020655
1162.276412	0.012428
1162.430110	0.010470
1162.583789	-0.001256
1162.737451	-0.008328
1162.891094	-0.010981
1163.044718	-0.005842
1163.198325	-0.001932
1163.351913	-0.006199
1163.505483	0.011798
1163.659035	0.010361
1163.812569	0.011939
1163.966084	0.022384
1164.119581	0.040245
1164.273060	0.035930
1164.426521	0.035561
1164.579964	0.037214
1164.733388	0.041054
1164.886794	0.030584
1165.040182	0.035667
1165.193551	0.037531
1165.346903	0.032228
1165.500236	0.021551
1165.653551	0.014663
1165.806848	0.015594
1165.960126	0.009571
1166.113386	0.006403
1166.266628	0.003647
1166.419852	-0.004215
1166.573058	-0.003975
1166.726245	0.012132
1166.879414	0.020425
1167.032565	0.020668
1167.185698	0.017656
1167.338812	0.021974
1167.491909	0.023415
1167.644987	0.025144
1167.798046	0.026997
1167.951088	0.022820
1168.104111	0.004589
1168.257117	-0.005113
1168.410103	0.000474
1168.563072	-0.000543
1168.716023	-0.004433
1168.868955	0.002881
1169.021869	0.001157
1169.174765	0.004296
1169.327642	0.014864
1169.480501	0.019507
1169.633343	0.017604
1169.786165	0.023975
1169.938970	0.032038
1170.091757	0.026531
1170.244525	0.026754
1170.397275	0.029349
1170.550007	0.040253
1170.702720	0.032011
1170.855415	0.031468
1171.008092	0.044148
1171.160751	0.047412
1171.313392	0.052105
1171.466014	0.003961
1171.618619	0.140130
1171.771205	0.140130
1171.923772	0.140130
