sample name	sample
index	595
start time	 03-16-2021  04:45:17 PM
880	-0.040460
Peak Time (s)	92.035
Peak Height 	-0.04046
calc peak height	90,93
Baseline Time (s)	9.037
Baseline Value 	-0.001819
subtract baseline	10,4
Abs	-0.000006
Peak Time (s)	90.037
Peak Height 	-5.5456E-6
calc peak height	90,93
Baseline Time (s)	9.037
Baseline Value 	-1.0419E-4
subtract baseline	10,3
PK_550	0.001210
Peak Time (s)	91.038
Peak Height 	0.00121
calc peak height	90,93
Baseline Time (s)	9.037
Baseline Value 	6.8677E-4
subtract baseline	10,2
PK_880	-0.002414
Peak Time (s)	91.535
Peak Height 	-0.002414
calc peak height	90,93
Baseline Time (s)	11.039
Baseline Value 	-5.4367E-4
subtract baseline	10,1


Time (s)	A880-A510	A880-A775	A880-A975	A880	I510	I775	I975	I880	
0.035000	-0.000901	-0.000616	0.001361	0.001878	5584.272204	33760.725104	3649.318878	18330.901170
0.535500	-0.002781	0.000157	-0.001051	0.007359	5539.004032	33428.160520	3635.167731	18137.146521
1.035500	-0.000946	-0.001238	0.005773	0.003061	5576.664142	33632.765433	3655.180494	18288.850919
1.538500	0.002658	0.000066	0.006209	0.001689	5607.607322	33822.642425	3658.484298	18337.607919
2.038500	0.001995	-0.000313	-0.000813	0.000582	5610.389363	33874.478948	3647.731252	18377.057488
2.537000	0.003217	0.000214	0.001989	0.002557	5605.676686	33771.431248	3649.225339	18306.741912
3.061000	0.002460	-0.001127	0.000652	-0.001434	5625.966860	33960.275043	3654.042164	18449.147065
3.537000	0.000802	-0.000088	0.002780	-0.000094	5607.151677	33938.746665	3655.476674	18401.186723
4.040000	-0.002600	-0.000094	0.000919	0.000546	5581.990274	33892.559169	3650.930173	18378.316032
4.785000	0.000841	0.000264	0.000626	0.000397	5604.327638	33928.809643	3650.667956	18383.640302
5.157500	0.001052	0.000427	0.001667	0.000787	5603.209722	33912.578179	3651.850473	18369.735863
5.625000	0.000891	0.000968	0.004915	0.001546	5597.474982	33897.047592	3656.380139	18342.712149
6.278500	0.002443	-0.000163	0.001662	0.001061	5610.192718	33851.003451	3651.343699	18359.966637
6.611500	-0.000145	-0.000859	0.001940	-0.000172	5601.726382	33889.254293	3654.088297	18403.966294
7.036000	0.001082	0.000020	-0.002246	0.000699	5603.948527	33889.860413	3644.937148	18372.874655
7.536500	0.001707	0.000408	0.001057	0.000288	5610.427902	33946.885927	3651.650019	18387.557521
8.036500	-0.000763	-0.001476	-0.000317	-0.000925	5602.570525	33898.978289	3651.356472	18430.907797
8.537000	0.000291	0.000734	0.003598	0.000738	5598.763555	33937.963847	3655.450750	18371.468926
9.037500	0.000890	0.000000	0.000000	0.000000	5607.118030	33938.293970	3650.254274	18397.825065
9.537500	-0.000935	-0.000040	0.002845	-0.000076	5596.200837	33940.903224	3655.563070	18400.554067
10.035000	-0.000054	0.000424	-0.000072	0.000104	5600.566074	33961.121600	3649.935493	18394.099818
10.535500	-0.001517	-0.000288	0.000504	-0.000455	5594.932374	33950.208985	3651.992245	18414.079550
11.038500	0.000000	-0.000674	-0.001785	-0.000552	5605.004682	33929.624029	3648.025625	18417.568603
11.536000	0.002467	0.000562	-0.000811	0.000708	5612.555627	33927.882573	3647.507576	18372.554837
12.036500	0.002077	-0.000450	0.003277	-0.000289	5616.360325	33926.835642	3656.739872	18408.163020
12.536500	0.001685	-0.000009	0.003629	-0.000473	5615.055992	33971.462061	3657.720351	18414.743550
13.034000	0.002062	0.000726	-0.002913	0.000072	5614.002554	33985.026044	3644.865022	18395.247486
13.537000	0.000326	0.000075	0.000930	0.000814	5598.515672	33885.607355	3650.464351	18368.791058
14.034500	-0.001507	0.000144	0.002297	0.002913	5574.117532	33741.197077	3649.139838	18294.130249
14.535000	-0.001927	0.000417	0.004397	0.002036	5576.936877	33822.943361	3654.543447	18325.280514
15.038000	0.002604	0.000406	0.001689	-0.000125	5618.638203	33976.230107	3653.548164	18402.299946
15.538500	0.002433	0.000339	-0.004280	0.001347	5608.341284	33866.354061	3640.127310	18349.777066
16.036000	0.001875	0.000454	0.000323	-0.000155	5614.255427	33981.820467	3651.121762	18403.376684
16.536500	0.001977	0.000949	0.006518	0.000157	5612.938000	33994.901835	3661.861209	18392.233134
17.036000	0.001798	0.000399	0.006013	-0.003073	5632.125673	34187.230628	3666.884273	18507.984113
17.538000	0.000914	-0.000192	0.001198	0.001149	5600.093235	33842.694119	3650.344061	18356.840600
18.034000	0.001971	0.000240	0.005877	0.001538	5604.259306	33845.761524	3658.152365	18342.987929
18.537000	-0.001048	-0.000665	0.007475	0.000237	5593.550765	33873.966250	3663.474157	18389.373101
19.035000	-0.001638	-0.000873	-0.003062	0.000266	5589.699722	33857.068039	3644.250060	18388.341364
19.535500	0.002474	0.000331	0.002899	0.001484	5607.740675	33856.090303	3652.821708	18344.909297
20.035500	0.002126	0.000405	0.006006	0.001300	5606.716388	33874.497955	3658.824872	18351.466754
20.536000	0.002168	-0.000630	0.003916	0.000886	5609.566713	33830.259173	3655.760977	18366.211073
21.036000	0.001310	-0.000273	-0.002870	0.001216	5602.140326	33832.133967	3642.886626	18354.432340
21.536000	-0.000187	0.000899	0.006324	0.002018	5587.826302	33858.467194	3658.091204	18325.891602
22.036500	0.000158	0.000238	0.009171	0.000914	5596.840973	33890.069814	3665.353367	18365.206832
22.536500	-0.000463	-0.001534	-0.003617	0.000322	5596.657124	33805.981960	3643.150272	18386.311610
23.037500	-0.000769	-0.000451	0.005322	0.000609	5592.971006	33862.691761	3658.837800	18376.101073
23.534500	0.000267	0.001092	0.000590	0.001608	5593.199669	33901.462041	3648.412780	18340.497434
24.035000	-0.000720	0.000384	0.001718	0.001205	5589.567209	33879.675904	3651.182768	18354.823601
24.534500	0.000125	-0.000004	0.001462	0.001373	5593.780515	33840.129745	3650.414758	18348.856387
25.038000	-0.000813	-0.000281	0.003278	0.001241	5588.772672	33829.791299	3653.953806	18353.570594
25.536000	0.000784	0.000545	0.000203	0.001563	5596.699813	33865.720841	3647.795339	18342.107646
26.036000	-0.000087	0.000180	0.006016	0.001747	5590.134220	33826.599985	3658.025912	18335.554703
26.536500	0.003513	0.000571	-0.002722	0.001474	5614.309035	33873.846626	3642.689632	18345.256939
27.037000	0.003438	-0.000282	0.005048	-0.001265	5631.065318	34008.581139	3661.772248	18443.080975
27.536500	0.003423	0.000576	0.002908	-0.000596	5626.753541	34022.066184	3656.625521	18419.121876
28.037000	-0.001934	-0.000281	0.005313	0.004570	5561.266393	33593.805070	3651.600288	18235.419573
28.535000	0.000444	-0.000327	0.000495	-0.000609	5608.138265	33958.480925	3652.256718	18419.601481
29.034500	-0.000284	-0.000355	0.000501	-0.000620	5603.656572	33957.215365	3652.287221	18419.995659
29.535000	0.001496	0.000508	0.009264	-0.000360	5613.162610	34000.294202	3667.880606	18410.683751
30.035500	-0.000779	-0.000429	0.000000	0.003679	5573.875134	33646.286440	3643.618349	18266.952882
30.536000	0.002423	0.000300	0.003716	0.003038	5597.719011	33743.356730	3651.483372	18289.667397
31.036500	-0.000823	-0.000810	0.007304	0.001765	5585.451188	33754.926662	3660.349995	18334.887548
31.536500	0.000679	-0.000188	0.001645	0.000953	5599.845007	33856.879384	3651.508159	18363.805135
32.037000	0.000447	-0.000872	0.004507	0.003690	5581.392630	33614.236162	3651.734693	18266.561506
32.537500	0.001183	0.000245	0.007740	0.000341	5606.815502	33931.432758	3663.771903	18385.653506
33.037500	0.001748	0.000561	0.005126	0.000037	5612.253692	33975.742658	3659.525938	18396.496491
33.537500	0.002556	0.000172	0.006726	0.001925	5605.495654	33813.345581	3658.998060	18329.212054
34.035000	0.000308	-0.000266	-0.004910	0.003118	5584.080400	33697.584007	3635.848208	18286.857627
34.538000	0.001046	0.000111	0.009857	0.002292	5593.794052	33782.962892	3664.076794	18316.168942
35.035500	0.000289	0.000566	0.002097	0.002464	5588.014202	33803.037823	3649.589358	18310.059538
35.536000	-0.000533	-0.000135	0.003419	0.001878	5586.550279	33794.878639	3653.049963	18330.875782
36.036500	-0.001368	-0.000935	0.006350	0.002927	5574.888056	33663.715277	3656.479083	18293.629709
36.537000	-0.000925	0.000484	-0.002444	0.002136	5582.522502	33820.533291	3642.001494	18321.712320
37.036500	0.001900	0.000712	0.006231	0.002280	5599.184021	33826.508944	3657.443192	18316.586972
37.537000	0.001716	0.001108	-0.000019	0.002836	5594.579103	33815.147571	3645.100558	18296.864460
38.035000	-0.000694	-0.000723	-0.000971	0.001198	5589.774477	33801.431573	3646.334613	18355.085694
38.535000	0.000737	0.000710	0.001764	0.002345	5591.539545	33821.739764	3649.202651	18314.281713
39.036000	-0.000869	0.000173	0.004119	0.002472	5580.784659	33774.548568	3653.242155	18309.764237
39.535500	0.002233	0.000367	0.005475	0.002271	5601.313871	33802.563283	3656.078485	18316.896021
40.036000	0.000076	0.000218	0.007361	0.001969	5589.765485	33813.480750	3660.081770	18327.640611
40.536000	0.000125	-0.000338	0.004044	0.001745	5591.463258	33789.893996	3654.428562	18335.601781
41.036500	-0.001785	0.000637	0.003755	0.002861	5572.713936	33779.841160	3651.874055	18295.950549
41.536500	0.002018	-0.000101	-0.003410	0.002581	5598.040116	33747.310353	3639.476286	18305.892889
42.037000	0.001319	-0.000191	0.004525	0.001780	5598.682031	33797.887743	3655.241431	18334.374460
42.537000	0.000193	-0.000591	0.003219	0.001883	5591.030984	33762.141435	3652.678507	18330.722403
43.035000	0.002146	0.000987	0.003563	0.002854	5597.143600	33805.264841	3651.539799	18296.213214
43.535000	0.001164	0.001011	0.009864	-0.000895	5614.435422	34074.702207	3669.985368	18429.827240
44.038500	-0.002873	-0.000074	0.002505	0.005848	5547.676450	33518.271562	3644.223465	18190.334547
44.535500	0.002620	0.001141	0.008666	0.001023	5611.539691	33946.679492	3664.220598	18361.310791
45.036000	0.002124	-0.000062	0.004225	0.000294	5612.995906	33912.900209	3657.406372	18387.317990
45.536500	-0.001783	0.000362	0.003606	0.001479	5581.274099	33858.615547	3654.117216	18345.093303
46.036500	-0.001880	-0.001455	-0.000216	0.005042	5558.704170	33477.805548	3640.788405	18218.766518
46.537000	0.002821	0.000902	-0.001214	0.000459	5616.336659	33969.956136	3647.230641	18381.441466
47.037500	0.001579	0.000064	0.003351	0.003203	5591.444137	33714.959852	3650.522878	18283.845627
47.537500	0.000831	0.000453	0.004675	0.003070	5587.620516	33752.014055	3653.166569	18288.554655
48.035500	0.000375	-0.000288	0.006707	0.005481	5569.879077	33529.018648	3652.478655	18203.262148
48.537500	0.001428	-0.000526	0.001773	-0.000387	5612.906477	33928.394668	3654.176880	18411.672260
49.036000	0.001665	0.000170	0.001635	-0.000331	5614.042970	33974.084498	3653.823601	18409.658995
49.536000	0.001595	0.000541	0.007732	0.002996	5592.829204	33763.467092	3658.879715	18291.179403
50.036500	0.000715	-0.000153	0.003514	0.006017	5568.673066	33500.805061	3645.734902	18184.385260
50.536500	0.004147	0.000330	0.013137	0.011898	5553.615050	33123.123221	3652.501721	17978.581185
51.036500	0.013523	-0.005778	0.016128	0.270052	4392.653882	19357.833689	3301.998558	11214.457610
51.537000	-0.010270	-0.012056	-0.001133	0.055526	5220.540669	29468.942429	3554.040852	16535.909554
52.034500	-0.023050	-0.023335	-0.014683	-0.201893	6982.517413	49710.128417	4074.168812	27579.104585
52.534500	-0.025161	-0.091894	-0.014306	-0.395964	9256.498383	65387.725822	4757.840097	41492.373235
53.035000	-0.004100	-0.114649	0.003002	-0.419742	9948.805858	65535.000000	4945.793634	43665.134434
53.535500	-0.002871	-0.076976	0.001672	-0.381202	9367.802038	65410.227210	4763.156329	40202.146012
54.035500	-0.005822	-0.029898	-0.002400	-0.306222	8303.943202	61521.945877	4447.035795	34284.756259
54.536000	-0.010947	-0.017089	-0.013903	-0.270022	7812.648777	58449.312122	4282.322793	31773.480607
55.036000	-0.009580	-0.013558	-0.014104	-0.258278	7696.450770	57409.137248	4243.832666	31002.724626
55.536500	-0.006212	-0.007895	-0.008526	-0.250217	7644.818691	57109.219395	4235.968469	30485.673558
56.034000	-0.006492	-0.004265	-0.011260	-0.228717	7412.303800	54925.001995	4161.487363	29152.518958
56.537000	-0.002577	-0.003960	-0.007127	-0.218154	7343.626151	53711.098810	4142.411648	28521.293440
57.034500	-0.004314	-0.002618	-0.008011	-0.194500	7090.781362	51167.715383	4072.161118	27162.293451
57.534500	-0.003303	-0.003258	-0.005338	-0.181173	6973.364695	49640.905557	4042.874816	26428.584821
58.038000	-0.008532	-0.004614	-0.010395	-0.152593	6667.636509	46529.249419	3954.989002	24929.077859
58.535500	-0.005713	-0.003537	-0.003052	-0.132500	6520.378718	44661.177491	3923.412287	23932.351774
59.035500	-0.008280	-0.003242	-0.004560	-0.117215	6374.227677	43245.153787	3883.215157	23204.447568
59.536000	-0.006132	-0.001619	-0.009633	-0.098193	6241.506348	41661.761272	3828.188364	22333.649248
60.036500	-0.009094	-0.001539	-0.011507	-0.082472	6100.435978	40291.439501	3789.890050	21642.158783
60.537000	-0.010296	0.000476	-0.014812	-0.072521	6019.070880	39614.887235	3762.046519	21217.272922
61.036000	-0.008359	-0.001114	-0.007539	-0.050799	5879.780203	37697.358402	3732.647226	20322.851444
61.537500	-0.009403	0.000757	-0.010238	-0.095837	6198.375141	41663.525982	3821.635891	22228.427845
62.035500	-0.013120	-0.000906	-0.011596	-0.097029	6179.205600	41621.563015	3821.267671	22281.579379
62.535000	-0.011050	-0.000430	-0.012052	-0.094826	6178.197816	41468.058245	3815.424525	22183.454322
63.035500	-0.007992	-0.001155	-0.010159	-0.095916	6209.737256	41500.360753	3821.981354	22231.913676
63.547000	-0.008610	-0.001564	-0.005659	-0.093184	6184.239284	41222.357230	3825.890653	22110.582834
64.036000	-0.009985	-0.000847	-0.008032	-0.092667	6169.926594	41240.094088	3819.511143	22087.747002
64.536500	-0.008316	-0.000949	-0.010001	-0.092039	6177.787479	41175.608255	3813.809857	22059.957616
65.036500	-0.009986	-0.001346	-0.008709	-0.091287	6159.519445	41074.621458	3814.993356	22026.818480
65.537000	-0.008171	-0.001869	-0.014147	-0.090556	6167.686217	40964.590760	3801.574379	21994.616237
66.036000	-0.009878	-0.000911	-0.006712	-0.085405	6116.348513	40599.107880	3806.519894	21769.267997
66.537500	-0.007339	-0.000761	-0.012811	-0.089961	6169.476285	41009.578431	3803.176791	21968.450421
67.037500	-0.010445	-0.002225	-0.010524	-0.090811	6152.489413	40955.755364	3809.987711	22005.844343
67.538000	-0.007929	-0.002089	-0.010134	-0.089074	6158.339867	40815.769751	3807.055587	21929.493846
68.035500	-0.007780	-0.002226	-0.012498	-0.086391	6139.337821	40570.594143	3796.157084	21812.220122
68.535500	-0.006852	-0.002688	-0.008113	-0.089445	6169.249303	40795.889665	3812.266711	21945.772787
69.036000	-0.007316	-0.001938	-0.007876	-0.088771	6160.672539	40802.566616	3811.312759	21916.220375
69.536500	-0.008708	-0.001938	-0.008494	-0.087156	6138.114765	40661.917260	3806.452658	21845.560739
70.036500	-0.005179	-0.002005	-0.008439	-0.084299	6143.145978	40408.756677	3800.390432	21721.247493
70.536500	-0.004324	-0.001797	-0.007310	-0.087438	6173.186514	40698.756331	3809.640527	21857.891152
71.034000	-0.005148	-0.001394	-0.009099	-0.087435	6166.943411	40733.543361	3805.745430	21857.764482
71.537000	-0.005821	-0.001634	-0.007012	-0.086953	6158.249351	40670.748702	3809.234816	21836.730842
72.035500	-0.007444	-0.001920	-0.005646	-0.084260	6125.937508	40412.697410	3806.347911	21719.550495
72.535500	-0.004656	-0.001265	0.001855	-0.086057	6160.271145	40624.926303	3826.749121	21797.647291
73.035500	-0.004558	-0.001537	-0.006603	-0.085671	6158.106116	40567.938088	3807.336068	21780.869522
73.536000	-0.004990	-0.001162	-0.009978	-0.084856	6148.733283	40529.805642	3798.273569	21745.424165
74.036000	-0.006585	-0.002241	-0.009216	-0.082170	6116.783654	40205.165828	3794.143607	21629.137269
74.536500	-0.004602	-0.002287	-0.003330	-0.083563	6141.962892	40321.070152	3809.871037	21689.377518
75.036500	-0.003849	-0.001848	-0.007716	-0.081906	6135.194132	40216.277902	3796.795560	21617.752081
75.537000	-0.004263	-0.001849	-0.007798	-0.081025	6125.537497	40140.558211	3794.727532	21579.764370
76.037500	-0.004414	-0.001099	-0.010897	-0.078398	6104.916534	39980.124496	3782.532696	21467.031654
76.537500	-0.003397	-0.002608	-0.003877	-0.079679	6121.969120	39960.704776	3800.265340	21521.933343
77.037500	-0.003199	-0.001907	-0.003757	-0.077820	6109.630792	39862.002914	3796.520949	21442.302789
77.535500	-0.004303	-0.001075	-0.010224	-0.076200	6089.510830	39795.150828	3779.312292	21373.240196
78.035500	-0.006910	-0.001826	-0.012412	-0.073803	6052.869720	39528.797584	3769.693960	21271.452947
78.536000	-0.003728	-0.001747	-0.000853	-0.074241	6079.331059	39572.329428	3795.071946	21289.989892
79.036500	-0.005703	-0.001507	-0.007752	-0.072466	6051.929675	39443.147774	3776.654847	21214.952113
79.537000	-0.006825	-0.002286	-0.004119	-0.070902	6032.435718	39246.597473	3781.014114	21149.038570
80.037000	-0.005615	-0.001584	-0.006251	-0.066872	6012.108834	38969.327733	3768.089362	20980.320208
80.534500	-0.004533	-0.002063	-0.006283	-0.068258	6029.890886	39044.654037	3770.912317	21038.165136
81.034500	-0.004832	-0.000734	-0.006245	-0.065662	6009.040174	38939.424619	3765.584362	20929.971434
81.538000	-0.007839	-0.001231	-0.008818	-0.064299	5977.825248	38785.553927	3757.447275	20873.430380
82.035500	-0.006310	-0.001458	-0.009019	-0.062346	5974.811530	38605.987000	3753.024077	20792.710852
82.535500	-0.004867	-0.000972	-0.003859	-0.061915	5982.006043	38610.500600	3762.762457	20774.949806
83.036000	-0.006404	-0.001171	-0.005880	-0.061182	5965.889796	38533.971395	3757.078075	20744.773308
83.536000	-0.006376	-0.001204	-0.000098	-0.058680	5948.431567	38326.735256	3763.854206	20642.194457
84.036500	-0.006704	-0.000351	-0.002723	-0.055616	5924.645301	38147.011754	3752.136827	20517.342437
84.536500	-0.004301	-0.000647	-0.007664	-0.056564	5948.143614	38199.906635	3744.005456	20555.882669
85.037000	-0.005638	-0.000848	-0.006540	-0.055809	5933.451072	38122.278477	3744.752878	20525.170468
85.537000	-0.004827	-0.000520	-0.003084	-0.054607	5930.713449	38051.558206	3749.337920	20476.424328
86.035000	-0.006291	-0.000551	-0.008889	-0.051906	5901.711182	37831.302608	3732.160059	20367.362472
86.535000	-0.005298	-0.000040	-0.006565	-0.051943	5908.853618	37875.315601	3736.894844	20368.834678
87.035500	-0.004112	-0.000106	-0.003708	-0.051549	5914.366020	37838.371573	3741.860879	20352.990067
87.535500	-0.005782	-0.000480	-0.001476	-0.049790	5890.590970	37667.282234	3742.819720	20282.383466
88.036000	-0.005231	-0.000548	-0.007417	-0.047438	5878.174033	37474.288910	3726.189721	20188.413266
88.536000	-0.005562	0.000747	-0.006029	-0.047187	5874.174369	37557.419683	3728.450612	20178.403247
89.037000	-0.004079	-0.000554	-0.002839	-0.047274	5884.975995	37460.709216	3734.999694	20181.872328
89.536500	-0.006954	0.000955	-0.001518	-0.044498	5846.271193	37360.093540	3732.084249	20071.639249
90.037000	-0.004675	0.000189	-0.000006	-0.044846	5864.204979	37327.031852	3735.815110	20085.448691
90.537500	-0.005479	-0.000126	-0.002717	-0.044399	5855.652425	37266.730778	3729.494506	20067.748982
91.038000	-0.003413	0.001210	-0.005384	-0.042406	5856.154761	37214.799222	3720.252675	19989.068526
91.535500	-0.002414	0.000981	-0.007514	-0.042071	5860.691050	37170.260951	3715.405191	19975.870591
92.035500	-0.004263	0.001103	-0.005414	-0.040460	5837.125244	37053.037983	3716.363964	19912.580827
92.535500	-0.004873	-0.000196	-0.006641	-0.041376	5839.199312	37022.934368	3715.753959	19948.536446
93.036000	-0.004144	0.000757	-0.006779	-0.039977	5834.660948	36987.935227	3712.742720	19893.664956
93.536000	-0.004010	0.001684	-0.003659	-0.038655	5826.621204	36957.027443	3716.266964	19841.983697
94.036500	-0.005534	0.000534	-0.007405	-0.038162	5813.016241	36828.463061	3707.984731	19822.718862
94.537000	-0.002859	0.000365	-0.004015	-0.038364	5832.439396	36831.092932	3714.997069	19830.613134
95.037500	-0.005837	0.001229	-0.008794	-0.037685	5807.772078	36845.528247	3704.364314	19804.135442
95.534500	-0.004980	0.001492	-0.003511	-0.036996	5808.904569	36812.280468	3713.304784	19777.317302
96.038000	-0.001634	0.000896	-0.003944	-0.034997	5817.961583	36610.342414	3708.559412	19699.718182
