sample name	sample
index	1342
start time	 05-03-2021  12:43:46 PM


Wavelength (nm)	Absorbance
494.344910	-0.642244
494.563924	-0.642244
494.782919	-0.642244
495.001897	NaN
495.220856	-0.142654
495.439797	-0.240674
495.658719	-0.249264
495.877624	-0.217841
496.096510	-0.229480
496.315378	-0.281747
496.534227	-0.265748
496.753059	-0.251092
496.971872	-0.203320
497.190667	-0.003773
497.409444	0.009268
497.628203	0.007847
497.846943	0.011858
498.065665	0.010590
498.284369	0.010775
498.503055	0.010565
498.721723	0.010097
498.940372	0.010698
499.159003	0.010853
499.377616	0.010273
499.596210	0.010571
499.814787	0.008590
500.033345	0.008671
500.251885	0.008151
500.470406	0.007737
500.688910	0.008024
500.907395	0.007238
501.125862	0.005996
501.344311	0.006068
501.562742	0.006167
501.781154	0.006550
501.999548	0.006682
502.217924	0.008034
502.436282	0.008043
502.654621	0.007870
502.872942	0.007033
503.091245	0.007823
503.309530	0.008184
503.527797	0.008558
503.746045	0.009285
503.964275	0.009429
504.182487	0.008772
504.400681	0.008318
504.618856	0.007894
504.837013	0.008055
505.055152	0.007607
505.273273	0.006624
505.491376	0.006507
505.709460	0.007100
505.927526	0.005995
506.145574	0.005147
506.363604	0.004976
506.581615	0.004678
506.799608	0.003520
507.017583	0.004093
507.235540	0.004322
507.453478	0.004641
507.671399	0.003206
507.889301	0.004245
508.107185	0.004386
508.325050	0.004115
508.542898	0.004988
508.760727	0.006782
508.978538	0.005446
509.196330	0.005387
509.414105	0.004365
509.631861	0.004330
509.849599	0.003480
510.067319	0.003334
510.285021	0.003771
510.502704	0.003406
510.720369	0.002810
510.938016	0.003493
511.155645	0.003125
511.373255	0.003466
511.590848	0.004316
511.808422	0.004609
512.025977	0.005180
512.243515	0.005861
512.461034	0.005151
512.678536	0.005014
512.896018	0.004065
513.113483	0.004537
513.330930	0.004576
513.548358	0.003792
513.765768	0.002721
513.983160	0.002564
514.200533	0.002197
514.417889	0.002402
514.635226	0.002779
514.852545	0.003314
515.069845	0.003087
515.287128	0.002975
515.504392	0.002205
515.721638	0.002516
515.938866	0.001446
516.156075	0.001194
516.373267	0.001217
516.590440	0.000986
516.807594	0.000239
517.024731	0.000280
517.241850	-0.000406
517.458950	-0.000248
517.676032	-0.001080
517.893095	-0.000117
518.110141	-0.000186
518.327168	-0.000790
518.544177	-0.001235
518.761168	-0.000315
518.978141	-0.000317
519.195095	-0.000101
519.412031	0.000253
519.628949	0.000865
519.845849	-0.000137
520.062731	-0.000170
520.279594	0.000092
520.496439	-0.000287
520.713266	-0.000143
520.930074	-0.000980
521.146865	-0.000605
521.363637	-0.000736
521.580391	-0.000232
521.797127	0.000509
522.013844	-0.000248
522.230543	0.000106
522.447224	0.001035
522.663887	0.000523
522.880532	0.001422
523.097158	0.001194
523.313766	0.000989
523.530356	0.000845
523.746928	0.000828
523.963481	0.001515
524.180017	0.001252
524.396534	0.000804
524.613032	0.000692
524.829513	0.000265
525.045975	0.000770
525.262420	0.001008
525.478845	0.001134
525.695253	0.001164
525.911643	0.000968
526.128014	0.000596
526.344367	0.000367
526.560702	0.000367
526.777018	-0.000042
526.993316	-0.001061
527.209597	-0.001641
527.425858	-0.002064
527.642102	-0.002200
527.858328	-0.002536
528.074535	-0.002042
528.290724	-0.001554
528.506894	-0.001131
528.723047	-0.000469
528.939181	-0.000174
529.155297	0.000188
529.371395	0.000326
529.587475	0.000293
529.803536	0.000381
530.019579	0.000050
530.235604	-0.000259
530.451611	-0.000612
530.667600	-0.001638
530.883570	-0.001693
531.099522	-0.002342
531.315456	-0.002882
531.531372	-0.002731
531.747269	-0.002506
531.963148	-0.002458
532.179009	-0.002574
532.394852	-0.002594
532.610676	-0.001519
532.826482	-0.001403
533.042271	-0.000830
533.258040	-0.000040
533.473792	-0.000022
533.689525	-0.000371
533.905240	-0.000321
534.120937	-0.000417
534.336616	-0.000564
534.552277	-0.001051
534.767919	-0.001384
534.983543	-0.001131
535.199149	-0.001411
535.414736	-0.001853
535.630306	-0.001542
535.845857	-0.001720
536.061390	-0.001742
536.276904	-0.001928
536.492401	-0.001957
536.707879	-0.001546
536.923339	-0.002158
537.138781	-0.002278
537.354204	-0.002313
537.569610	-0.002910
537.784997	-0.002749
538.000366	-0.003031
538.215716	-0.002870
538.431049	-0.002519
538.646363	-0.002710
538.861659	-0.002324
539.076937	-0.002457
539.292196	-0.002183
539.507438	-0.001800
539.722661	-0.001587
539.937866	-0.001138
540.153052	-0.001066
540.368221	-0.001664
540.583371	-0.001714
540.798503	-0.002036
541.013617	-0.001755
541.228712	-0.001626
541.443789	-0.001787
541.658848	-0.002482
541.873889	-0.002633
542.088912	-0.002921
542.303916	-0.002969
542.518902	-0.002547
542.733870	-0.002321
542.948820	-0.002387
543.163752	-0.002565
543.378665	-0.002279
543.593560	-0.001916
543.808437	-0.001835
544.023295	-0.001876
544.238136	-0.001977
544.452958	-0.002652
544.667762	-0.002382
544.882548	-0.002143
545.097315	-0.002143
545.312064	-0.001970
545.526795	-0.002099
545.741508	-0.002610
545.956203	-0.002489
546.170879	-0.002051
546.385537	-0.001705
546.600177	-0.001772
546.814799	-0.002565
547.029402	-0.002738
547.243988	-0.003065
547.458555	-0.002759
547.673103	-0.001827
547.887634	-0.001797
548.102146	-0.001460
548.316640	-0.001409
548.531116	-0.001535
548.745574	-0.000762
548.960013	-0.000675
549.174435	-0.000585
549.388838	-0.000793
549.603222	-0.001286
549.817589	-0.001241
550.031937	-0.001741
550.246267	-0.001860
550.460579	-0.002062
550.674873	-0.002225
550.889148	-0.002041
551.103405	-0.002041
551.317644	-0.001733
551.531865	-0.001950
551.746068	-0.002221
551.960252	-0.002128
552.174418	-0.002298
552.388566	-0.001989
552.602696	-0.001853
552.816807	-0.002165
553.030900	-0.002286
553.244975	-0.002413
553.459032	-0.001983
553.673070	-0.001712
553.887091	-0.001513
554.101093	-0.001323
554.315077	-0.001381
554.529042	-0.001148
554.742990	-0.001115
554.956919	-0.001082
555.170830	-0.001065
555.384722	-0.001055
555.598597	-0.000894
555.812453	-0.000889
556.026291	-0.000945
556.240111	-0.001263
556.453913	-0.001720
556.667696	-0.001456
556.881461	-0.001558
557.095208	-0.001769
557.308937	-0.001923
557.522647	-0.002113
557.736339	-0.002140
557.950013	-0.002310
558.163669	-0.001889
558.377307	-0.002097
558.590926	-0.002404
558.804527	-0.002326
559.018110	-0.002252
559.231675	-0.002585
559.445221	-0.002235
559.658749	-0.002099
559.872259	-0.001761
560.085751	-0.002109
560.299225	-0.002177
560.512680	-0.001845
560.726117	-0.002010
560.939536	-0.001989
561.152937	-0.002081
561.366319	-0.002438
561.579683	-0.002334
561.793029	-0.002609
562.006357	-0.002583
562.219667	-0.002367
562.432958	-0.002435
562.646231	-0.002051
562.859486	-0.002148
563.072723	-0.001557
563.285941	-0.001335
563.499141	-0.001715
563.712323	-0.001589
563.925487	-0.001386
564.138632	-0.001602
564.351760	-0.001485
564.564869	-0.001742
564.777960	-0.001742
564.991032	-0.002107
565.204087	-0.002176
565.417123	-0.002073
565.630141	-0.001927
565.843140	-0.001917
566.056122	-0.001868
566.269085	-0.002249
566.482030	-0.002247
566.694957	-0.002210
566.907866	-0.002005
567.120756	-0.002231
567.333628	-0.002220
567.546482	-0.002299
567.759318	-0.002012
567.972135	-0.001836
568.184935	-0.001615
568.397716	-0.001763
568.610478	-0.001690
568.823223	-0.001845
569.035949	-0.001979
569.248657	-0.002087
569.461347	-0.002146
569.674019	-0.002775
569.886672	-0.002645
570.099308	-0.002767
570.311925	-0.002525
570.524523	-0.002630
570.737104	-0.002574
570.949666	-0.002041
571.162210	-0.002039
571.374736	-0.001859
571.587244	-0.001910
571.799733	-0.001834
572.012205	-0.001934
572.224658	-0.001896
572.437092	-0.001682
572.649509	-0.001626
572.861907	-0.002191
573.074287	-0.002236
573.286649	-0.002687
573.498993	-0.002855
573.711318	-0.003071
573.923625	-0.002986
574.135914	-0.003082
574.348185	-0.002936
574.560438	-0.002877
574.772672	-0.002614
574.984888	-0.002793
575.197086	-0.002608
575.409266	-0.002333
575.621427	-0.002249
575.833570	-0.002153
576.045695	-0.002190
576.257802	-0.002889
576.469890	-0.002850
576.681961	-0.003027
576.894013	-0.002567
577.106046	-0.002647
577.318062	-0.002685
577.530059	-0.003053
577.742039	-0.003299
577.954000	-0.003415
578.165942	-0.003045
578.377867	-0.003118
578.589773	-0.002792
578.801661	-0.003314
579.013531	-0.003314
579.225382	-0.003172
579.437216	-0.003047
579.649031	-0.002775
579.860828	-0.002377
580.072606	-0.002275
580.284367	-0.002464
580.496109	-0.002714
580.707833	-0.002795
580.919539	-0.002864
581.131227	-0.002957
581.342896	-0.003084
581.554547	-0.003012
581.766180	-0.003431
581.977795	-0.003537
582.189391	-0.003348
582.400969	-0.003115
582.612529	-0.002824
582.824071	-0.002652
583.035595	-0.002418
583.247100	-0.002403
583.458587	-0.002670
583.670056	-0.002446
583.881506	-0.002343
584.092939	-0.002452
584.304353	-0.002717
584.515749	-0.002796
584.727127	-0.002615
584.938486	-0.002748
585.149828	-0.002670
585.361151	-0.002868
585.572456	-0.002799
585.783742	-0.003113
585.995011	-0.003133
586.206261	-0.003083
586.417493	-0.003105
586.628706	-0.003188
586.839902	-0.003123
587.051079	-0.002861
587.262238	-0.002595
587.473379	-0.002800
587.684502	-0.002627
587.895606	-0.002672
588.106692	-0.002831
588.317760	-0.002847
588.528810	-0.002721
588.739841	-0.002862
588.950855	-0.003051
589.161850	-0.002807
589.372827	-0.002544
589.583785	-0.002619
589.794726	-0.002641
590.005648	-0.002352
590.216552	-0.002418
590.427437	-0.002811
590.638305	-0.003148
590.849154	-0.003101
591.059985	-0.003416
591.270798	-0.003795
591.481592	-0.003653
591.692369	-0.003580
591.903127	-0.003772
592.113867	-0.003816
592.324588	-0.003554
592.535292	-0.002921
592.745977	-0.002867
592.956644	-0.002584
593.167293	-0.002365
593.377923	-0.002351
593.588536	-0.002212
593.799130	-0.002233
594.009706	-0.002188
594.220263	-0.002190
594.430803	-0.002340
594.641324	-0.002452
594.851827	-0.002472
595.062312	-0.002500
595.272778	-0.002603
595.483227	-0.003000
595.693657	-0.002780
595.904069	-0.002658
596.114462	-0.002697
596.324838	-0.002704
596.535195	-0.002643
596.745534	-0.002763
596.955855	-0.002479
597.166157	-0.002477
597.376441	-0.002290
597.586707	-0.002435
597.796955	-0.002515
598.007185	-0.002518
598.217396	-0.002824
598.427589	-0.003050
598.637764	-0.003078
598.847921	-0.003624
599.058060	-0.003558
599.268180	-0.003418
599.478282	-0.003207
599.688366	-0.003025
599.898431	-0.003124
600.108479	-0.002978
600.318508	-0.002737
600.528519	-0.002979
600.738511	-0.002681
600.948486	-0.002762
601.158442	-0.002896
601.368380	-0.003103
601.578300	-0.003205
601.788202	-0.003013
601.998085	-0.002820
602.207950	-0.002860
602.417797	-0.002318
602.627626	-0.002063
602.837436	-0.001921
603.047228	-0.001823
603.257002	-0.001624
603.466758	-0.001680
603.676496	-0.001818
603.886215	-0.001876
604.095916	-0.002021
604.305599	-0.002543
604.515264	-0.002525
604.724910	-0.002555
604.934538	-0.002561
605.144148	-0.002593
605.353740	-0.002462
605.563314	-0.002288
605.772869	-0.002226
605.982406	-0.001919
606.191925	-0.001701
606.401425	-0.001826
606.610908	-0.001836
606.820372	-0.001768
607.029818	-0.001920
607.239246	-0.001915
607.448655	-0.001899
607.658047	-0.001971
607.867420	-0.001958
608.076775	-0.001982
608.286111	-0.002006
608.495430	-0.001921
608.704730	-0.002124
608.914012	-0.002029
609.123275	-0.001744
609.332521	-0.001915
609.541748	-0.001874
609.750957	-0.001717
609.960148	-0.001964
610.169321	-0.001866
610.378475	-0.001856
610.587611	-0.001601
610.796729	-0.001428
611.005829	-0.001407
611.214910	-0.001422
611.423974	-0.001377
611.633019	-0.001563
611.842045	-0.001235
612.051054	-0.001395
612.260044	-0.001334
612.469017	-0.001333
612.677970	-0.001370
612.886906	-0.001446
613.095824	-0.001306
613.304723	-0.001193
613.513604	-0.001167
613.722467	-0.001152
613.931311	-0.001220
614.140138	-0.001570
614.348946	-0.001691
614.557736	-0.001782
614.766507	-0.002155
614.975261	-0.002312
615.183996	-0.002413
615.392713	-0.002509
615.601412	-0.002662
615.810092	-0.002638
616.018754	-0.002730
616.227399	-0.002765
616.436024	-0.002869
616.644632	-0.002821
616.853222	-0.002788
617.061793	-0.002894
617.270346	-0.003013
617.478880	-0.002988
617.687397	-0.003026
617.895895	-0.002755
618.104375	-0.002911
618.312837	-0.002996
618.521281	-0.003090
618.729706	-0.002910
618.938113	-0.002791
619.146502	-0.002812
619.354873	-0.002847
619.563226	-0.002874
619.771560	-0.002951
619.979876	-0.002698
620.188174	-0.002587
620.396453	-0.002410
620.604715	-0.002438
620.812958	-0.002620
621.021183	-0.002390
621.229390	-0.002357
621.437578	-0.002275
621.645748	-0.002252
621.853900	-0.002211
622.062034	-0.002120
622.270150	-0.002080
622.478247	-0.002032
622.686326	-0.001920
622.894387	-0.002052
623.102430	-0.001973
623.310454	-0.001992
623.518461	-0.001936
623.726449	-0.002023
623.934418	-0.002048
624.142370	-0.002010
624.350303	-0.002202
624.558218	-0.002245
624.766115	-0.002262
624.973994	-0.002561
625.181855	-0.002542
625.389697	-0.002653
625.597521	-0.002683
625.805327	-0.002591
626.013114	-0.002570
626.220883	-0.002547
626.428634	-0.002352
626.636367	-0.002099
626.844082	-0.001945
627.051778	-0.001801
627.259457	-0.001591
627.467117	-0.001369
627.674758	-0.001682
627.882382	-0.001879
628.089987	-0.001758
628.297574	-0.001840
628.505143	-0.001933
628.712694	-0.001673
628.920226	-0.001787
629.127740	-0.001626
629.335236	-0.001725
629.542714	-0.001427
629.750174	-0.001127
629.957615	-0.001346
630.165038	-0.001315
630.372443	-0.001225
630.579829	-0.001212
630.787198	-0.001146
630.994548	-0.001232
631.201880	-0.001173
631.409194	-0.001148
631.616489	-0.001250
631.823766	-0.001043
632.031025	-0.001025
632.238266	-0.000928
632.445489	-0.001080
632.652693	-0.000964
632.859879	-0.000872
633.067047	-0.001039
633.274197	-0.000885
633.481329	-0.000997
633.688442	-0.001037
633.895537	-0.001098
634.102614	-0.001252
634.309672	-0.001046
634.516713	-0.001213
634.723735	-0.001542
634.930739	-0.001495
635.137724	-0.001706
635.344692	-0.001636
635.551641	-0.001690
635.758572	-0.001503
635.965485	-0.001468
636.172379	-0.001601
636.379256	-0.001504
636.586114	-0.001298
636.792954	-0.001448
636.999775	-0.001424
637.206579	-0.001584
637.413364	-0.001498
637.620131	-0.001751
637.826880	-0.001905
638.033610	-0.001832
638.240323	-0.002066
638.447017	-0.002212
638.653692	-0.002120
638.860350	-0.002238
639.066990	-0.002033
639.273611	-0.001892
639.480214	-0.001907
639.686798	-0.001781
639.893365	-0.001643
640.099913	-0.001384
640.306443	-0.001120
640.512955	-0.000616
640.719449	-0.000320
640.925924	-0.000127
641.132381	-0.000140
641.338820	0.000078
641.545241	0.000041
641.751644	-0.000027
641.958028	0.000059
642.164394	-0.000014
642.370742	-0.000367
642.577071	-0.000413
642.783383	-0.000415
642.989676	-0.000336
643.195951	-0.000373
643.402207	-0.000130
643.608446	-0.000307
643.814666	-0.000303
644.020868	-0.000203
644.227052	-0.000167
644.433218	-0.000002
644.639365	0.000024
644.845494	0.000113
645.051605	0.000244
645.257698	0.000273
645.463772	0.000339
645.669828	0.000342
645.875866	0.000415
646.081886	0.000600
646.287888	0.000548
646.493871	0.000539
646.699836	0.000508
646.905783	0.000476
647.111712	0.000329
647.317622	0.000344
647.523514	0.000373
647.729388	0.000217
647.935244	0.000217
648.141082	0.000348
648.346901	0.000282
648.552702	0.000305
648.758485	0.000415
648.964250	0.000530
649.169996	0.000658
649.375724	0.000650
649.581434	0.000783
649.787126	0.000740
649.992800	0.000469
650.198455	0.000631
650.404092	0.000505
650.609711	0.000250
650.815311	0.000238
651.020894	0.000365
651.226458	0.000454
651.432004	0.000347
651.637532	0.000305
651.843041	0.000515
652.048532	0.000441
652.254006	0.000516
652.459460	0.000840
652.664897	0.001004
652.870315	0.000941
653.075716	0.001166
653.281097	0.001221
653.486461	0.001397
653.691807	0.001364
653.897134	0.001314
654.102443	0.001447
654.307734	0.001341
654.513006	0.001224
654.718261	0.001531
654.923497	0.001315
655.128715	0.001470
655.333915	0.001475
655.539096	0.001517
655.744259	0.001689
655.949404	0.001580
656.154531	0.001659
656.359640	0.001718
656.564730	0.001636
656.769802	0.001736
656.974856	0.001719
657.179892	0.001750
657.384909	0.001657
657.589908	0.001669
657.794889	0.001694
657.999852	0.001669
658.204797	0.001839
658.409723	0.001582
658.614631	0.001689
658.819521	0.001820
659.024393	0.001740
659.229246	0.001682
659.434081	0.001537
659.638898	0.001589
659.843697	0.001615
660.048478	0.001436
660.253240	0.001504
660.457984	0.001239
660.662710	0.001113
660.867417	0.001080
661.072107	0.001127
661.276778	0.001224
661.481431	0.001308
661.686066	0.001274
661.890682	0.001241
662.095281	0.001399
662.299861	0.001559
662.504422	0.001546
662.708966	0.001669
662.913491	0.001846
663.117999	0.001906
663.322488	0.001800
663.526958	0.001961
663.731411	0.002114
663.935845	0.001950
664.140261	0.002129
664.344659	0.002143
664.549038	0.002069
664.753400	0.002061
664.957743	0.002065
665.162068	0.002155
665.366375	0.002215
665.570663	0.002051
665.774933	0.002233
665.979185	0.002191
666.183419	0.002252
666.387635	0.002224
666.591832	0.002168
666.796011	0.002145
667.000172	0.002169
667.204315	0.001984
667.408439	0.002189
667.612545	0.002195
667.816634	0.001989
668.020703	0.002098
668.224755	0.002259
668.428788	0.002246
668.632803	0.002221
668.836800	0.002230
669.040779	0.002290
669.244739	0.002334
669.448681	0.002391
669.652605	0.002469
669.856511	0.002466
670.060399	0.002570
670.264268	0.002815
670.468119	0.002982
670.671952	0.003137
670.875767	0.003273
671.079563	0.003369
671.283341	0.003413
671.487101	0.003521
671.690843	0.003519
671.894567	0.003513
672.098272	0.003456
672.301959	0.003394
672.505628	0.003363
672.709278	0.003425
672.912911	0.003416
673.116525	0.003426
673.320121	0.003554
673.523699	0.003642
673.727258	0.003735
673.930799	0.003847
674.134322	0.004068
674.337827	0.004143
674.541314	0.004175
674.744782	0.004296
674.948232	0.004285
675.151664	0.004223
675.355078	0.004234
675.558474	0.004147
675.761851	0.004023
675.965210	0.003986
676.168551	0.003892
676.371873	0.003743
676.575178	0.003556
676.778464	0.003677
676.981732	0.003702
677.184981	0.003905
677.388213	0.004151
677.591426	0.004075
677.794621	0.004154
677.997798	0.004140
678.200956	0.004347
678.404097	0.004460
678.607219	0.004423
678.810323	0.004365
679.013408	0.004386
679.216476	0.004300
679.419525	0.004655
679.622556	0.004699
679.825569	0.004816
680.028563	0.004921
680.231540	0.005075
680.434498	0.005264
680.637438	0.005513
680.840359	0.005581
681.043263	0.005498
681.246148	0.005663
681.449015	0.005591
681.651864	0.005774
681.854694	0.005729
682.057506	0.005702
682.260301	0.005614
682.463076	0.005501
682.665834	0.005452
682.868573	0.005589
683.071295	0.005358
683.273998	0.005594
683.476682	0.005662
683.679349	0.005642
683.881997	0.005653
684.084627	0.005708
684.287239	0.005868
684.489833	0.005832
684.692408	0.005743
684.894965	0.005775
685.097504	0.005554
685.300025	0.005461
685.502527	0.005495
685.705012	0.005462
685.907478	0.005378
686.109925	0.005333
686.312355	0.005394
686.514766	0.005541
686.717159	0.005584
686.919534	0.005595
687.121891	0.005631
687.324230	0.005652
687.526550	0.005542
687.728852	0.005637
687.931136	0.005722
688.133401	0.005828
688.335649	0.005870
688.537878	0.005951
688.740089	0.006165
688.942281	0.006168
689.144456	0.006235
689.346612	0.006373
689.548750	0.006227
689.750870	0.006095
689.952971	0.005820
690.155055	0.005516
690.357120	0.005340
690.559167	0.005205
690.761195	0.005254
690.963206	0.005275
691.165198	0.005492
691.367172	0.005652
691.569128	0.005871
691.771065	0.006129
691.972984	0.006422
692.174885	0.006666
692.376768	0.006774
692.578633	0.006687
692.780479	0.006513
692.982308	0.006333
693.184118	0.006355
693.385909	0.006171
693.587683	0.006189
693.789438	0.006199
693.991175	0.006204
694.192894	0.006093
694.394595	0.006119
694.596277	0.006402
694.797941	0.006439
694.999587	0.006614
695.201215	0.006780
695.402824	0.006745
695.604416	0.006741
695.805989	0.006684
696.007543	0.006915
696.209080	0.006919
696.410598	0.006810
696.612099	0.006864
696.813580	0.006793
697.015044	0.006697
697.216490	0.006702
697.417917	0.006808
697.619326	0.006944
697.820717	0.006883
698.022089	0.006939
698.223444	0.007159
698.424780	0.007093
698.626098	0.007061
698.827397	0.007030
699.028679	0.007021
699.229942	0.006983
699.431187	0.006814
699.632414	0.006846
699.833622	0.006761
700.034813	0.006589
700.235985	0.006662
700.437139	0.006843
700.638274	0.007193
700.839392	0.007331
701.040491	0.007404
701.241572	0.007630
701.442635	0.007736
701.643679	0.007985
701.844706	0.008028
702.045714	0.008047
702.246704	0.007834
702.447675	0.007500
702.648629	0.007316
702.849564	0.007259
703.050481	0.007069
703.251380	0.007075
703.452260	0.006896
703.653122	0.006767
703.853966	0.006697
704.054792	0.006690
704.255600	0.006764
704.456389	0.006772
704.657160	0.006718
704.857913	0.006811
705.058648	0.006686
705.259365	0.006728
705.460063	0.006734
705.660743	0.006792
705.861405	0.006787
706.062048	0.006804
706.262674	0.006978
706.463281	0.006954
706.663870	0.006657
706.864441	0.006531
707.064993	0.006457
707.265527	0.006550
707.466043	0.006515
707.666541	0.006646
707.867021	0.006658
708.067482	0.006475
708.267925	0.006497
708.468350	0.006712
708.668757	0.006742
708.869145	0.006771
709.069516	0.006751
709.269868	0.006798
709.470201	0.006754
709.670517	0.006615
709.870814	0.006501
710.071093	0.006482
710.271354	0.006356
710.471597	0.006447
710.671821	0.006393
710.872028	0.006234
711.072216	0.006250
711.272385	0.006106
711.472537	0.006244
711.672670	0.006283
711.872785	0.006246
712.072882	0.006279
712.272961	0.006272
712.473021	0.006216
712.673063	0.006281
712.873087	0.006221
713.073093	0.006304
713.273081	0.006079
713.473050	0.005901
713.673001	0.005932
713.872934	0.006040
714.072849	0.005969
714.272745	0.006106
714.472623	0.006194
714.672483	0.006145
714.872325	0.006146
715.072148	0.006214
715.271954	0.006360
715.471741	0.006466
715.671509	0.006424
715.871260	0.006291
716.070992	0.006192
716.270707	0.006081
716.470403	0.006094
716.670080	0.006086
716.869740	0.006259
717.069381	0.006317
717.269004	0.006156
717.468609	0.006162
717.668195	0.006385
717.867764	0.006286
718.067314	0.006281
718.266846	0.006137
718.466360	0.006032
718.665855	0.005861
718.865332	0.005765
719.064791	0.005657
719.264232	0.005511
719.463655	0.005218
719.663059	0.005428
719.862445	0.005274
720.061813	0.005207
720.261163	0.005025
720.460494	0.004886
720.659807	0.004811
720.859102	0.004717
721.058379	0.004738
721.257638	0.004712
721.456878	0.004435
721.656100	0.004306
721.855304	0.004246
722.054490	0.004325
722.253657	0.004229
722.452806	0.004307
722.651937	0.004371
722.851050	0.004207
723.050145	0.004209
723.249221	0.004110
723.448279	0.003996
723.647319	0.003944
723.846340	0.003829
724.045344	0.003840
724.244329	0.003675
724.443296	0.003641
724.642245	0.003692
724.841175	0.003757
725.040088	0.003793
725.238982	0.003899
725.437857	0.003889
725.636715	0.003855
725.835554	0.003823
726.034376	0.003941
726.233179	0.003781
726.431963	0.003668
726.630730	0.003402
726.829478	0.003366
727.028208	0.003341
727.226920	0.003502
727.425614	0.003316
727.624289	0.003183
727.822946	0.002844
728.021585	0.002817
728.220206	0.002805
728.418808	0.002801
728.617392	0.002716
728.815958	0.002658
729.014506	0.002484
729.213036	0.002787
729.411547	0.002828
729.610040	0.002887
729.808515	0.002749
730.006972	0.002787
730.205410	0.002829
730.403831	0.002901
730.602233	0.003080
730.800616	0.003015
730.998982	0.002821
731.197329	0.002732
731.395658	0.002730
731.593969	0.002886
731.792262	0.002830
731.990536	0.002660
732.188793	0.002587
732.387031	0.002433
732.585250	0.002465
732.783452	0.002443
732.981635	0.002540
733.179800	0.002596
733.377947	0.002480
733.576076	0.002269
733.774186	0.002483
733.972278	0.002389
734.170352	0.002363
734.368408	0.002375
734.566446	0.002353
734.764465	0.002328
734.962466	0.002191
735.160449	0.002269
735.358413	0.002490
735.556360	0.002503
735.754288	0.002669
735.952198	0.002750
736.150090	0.002694
736.347963	0.002747
736.545818	0.002749
736.743655	0.002854
736.941474	0.002782
737.139275	0.002651
737.337057	0.002410
737.534821	0.002147
737.732567	0.001970
737.930295	0.001928
738.128005	0.001890
738.325696	0.001925
738.523369	0.001907
738.721024	0.002019
738.918660	0.001947
739.116279	0.002015
739.313879	0.002089
739.511461	0.002150
739.709024	0.002146
739.906570	0.002160
740.104097	0.002027
740.301606	0.002054
740.499097	0.002098
740.696569	0.002214
740.894024	0.002181
741.091460	0.002265
741.288878	0.002279
741.486277	0.002360
741.683659	0.002476
741.881022	0.002504
742.078367	0.002447
742.275694	0.002252
742.473002	0.002142
742.670293	0.002217
742.867565	0.002247
743.064819	0.002045
743.262054	0.002124
743.459272	0.001937
743.656471	0.002002
743.853652	0.002008
744.050815	0.002203
744.247959	0.002359
744.445085	0.002197
744.642194	0.002159
744.839283	0.002353
745.036355	0.002176
745.233408	0.002236
745.430444	0.002253
745.627461	0.002452
745.824459	0.002142
746.021440	0.002045
746.218402	0.002150
746.415346	0.002258
746.612272	0.002252
746.809180	0.002149
747.006069	0.002097
747.202940	0.002106
747.399793	0.001800
747.596628	0.002032
747.793444	0.001915
747.990243	0.002056
748.187023	0.001970
748.383784	0.001976
748.580528	0.002103
748.777253	0.002291
748.973960	0.002240
749.170649	0.002413
749.367320	0.002409
749.563973	0.002426
749.760607	0.002414
749.957223	0.002450
750.153821	0.002413
750.350400	0.002424
750.546962	0.002218
750.743505	0.002332
750.940030	0.002194
751.136536	0.002188
751.333025	0.002275
751.529495	0.002097
751.725947	0.001985
751.922381	0.001963
752.118796	0.001863
752.315194	0.002052
752.511573	0.002081
752.707934	0.002164
752.904276	0.002218
753.100601	0.002290
753.296907	0.002400
753.493195	0.002600
753.689465	0.002680
753.885716	0.002788
754.081949	0.002791
754.278164	0.002655
754.474361	0.002730
754.670540	0.002686
754.866700	0.002595
755.062843	0.002517
755.258967	0.002392
755.455072	0.002423
755.651160	0.002536
755.847229	0.002345
756.043280	0.002364
756.239313	0.002348
756.435328	0.002457
756.631324	0.002462
756.827302	0.002581
757.023262	0.002518
757.219204	0.002449
757.415127	0.002354
757.611033	0.002359
757.806920	0.002260
758.002788	0.002329
758.198639	0.002231
758.394471	0.002227
758.590286	0.002208
758.786081	0.002176
758.981859	0.002097
759.177619	0.002098
759.373360	0.002023
759.569083	0.002110
759.764788	0.002027
759.960474	0.001877
760.156143	0.001835
760.351793	0.001865
760.547425	0.001997
760.743038	0.001995
760.938634	0.002032
761.134211	0.002119
761.329770	0.002026
761.525311	0.001968
761.720833	0.002133
761.916338	0.002265
762.111824	0.002066
762.307292	0.001999
762.502741	0.001981
762.698173	0.001850
762.893586	0.001941
763.088981	0.002014
763.284358	0.001957
763.479716	0.001831
763.675057	0.001730
763.870379	0.001753
764.065683	0.001602
764.260968	0.001856
764.456236	0.002093
764.651485	0.001996
764.846716	0.001782
765.041929	0.001845
765.237123	0.001812
765.432299	0.001786
765.627457	0.001872
765.822597	0.001937
766.017719	0.001588
766.212822	0.001389
766.407907	0.001244
766.602974	0.001397
766.798023	0.001210
766.993054	0.001209
767.188066	0.001145
767.383060	0.001152
767.578036	0.001182
767.772993	0.001296
767.967933	0.001238
768.162854	0.001456
768.357757	0.001295
768.552642	0.001428
768.747508	0.001352
768.942356	0.001328
769.137186	0.001327
769.331998	0.001175
769.526792	0.001128
769.721567	0.000837
769.916324	0.000642
770.111063	0.000841
770.305784	0.000800
770.500486	0.000900
770.695171	0.001132
770.889837	0.001086
771.084484	0.001244
771.279114	0.001345
771.473725	0.001701
771.668318	0.001826
771.862893	0.001652
772.057450	0.001486
772.251988	0.001494
772.446509	0.001333
772.641011	0.001217
772.835494	0.001006
773.029960	0.000965
773.224407	0.000778
773.418836	0.000775
773.613247	0.000632
773.807640	0.000758
774.002014	0.000752
774.196370	0.000508
774.390708	0.000584
774.585028	0.000638
774.779330	0.000637
774.973613	0.000637
775.167878	0.000558
775.362125	0.000823
775.556354	0.000985
775.750564	0.000986
775.944756	0.001137
776.138930	0.001120
776.333086	0.001390
776.527223	0.001391
776.721343	0.001687
776.915444	0.001728
777.109526	0.001637
777.303591	0.001479
777.497637	0.001461
777.691666	0.001661
777.885676	0.001734
778.079667	0.001692
778.273641	0.001667
778.467596	0.001633
778.661533	0.001641
778.855452	0.001701
779.049352	0.001583
779.243235	0.001570
779.437099	0.001492
779.630945	0.001612
779.824773	0.001373
780.018582	0.001619
780.212373	0.001599
780.406146	0.001417
780.599901	0.001463
780.793638	0.001601
780.987356	0.001726
781.181056	0.001633
781.374738	0.001573
781.568402	0.001872
781.762047	0.001811
781.955674	0.001713
782.149283	0.001840
782.342874	0.001806
782.536447	0.001882
782.730001	0.001764
782.923537	0.001882
783.117055	0.001833
783.310555	0.001657
783.504036	0.001516
783.697499	0.001552
783.890944	0.001614
784.084371	0.001544
784.277780	0.001476
784.471170	0.001762
784.664542	0.001895
784.857896	0.001813
785.051231	0.001913
785.244549	0.001991
785.437848	0.001918
785.631129	0.002015
785.824392	0.002272
786.017636	0.002378
786.210863	0.002262
786.404071	0.002362
786.597260	0.002390
786.790432	0.002467
786.983585	0.002441
787.176721	0.002440
787.369838	0.002340
787.562936	0.002162
787.756017	0.002214
787.949079	0.002104
788.142123	0.001854
788.335149	0.001949
788.528156	0.001889
788.721146	0.001862
788.914117	0.001869
789.107070	0.002016
789.300005	0.002206
789.492921	0.001995
789.685819	0.002134
789.878699	0.002176
790.071561	0.002140
790.264405	0.002165
790.457230	0.002459
790.650037	0.002646
790.842826	0.002618
791.035597	0.002450
791.228349	0.002831
791.421084	0.002767
791.613800	0.002671
791.806497	0.002852
791.999177	0.002886
792.191838	0.002672
792.384481	0.002644
792.577106	0.002494
792.769713	0.002645
792.962301	0.002365
793.154871	0.002461
793.347423	0.002629
793.539957	0.002598
793.732473	0.002462
793.924970	0.002686
794.117449	0.002680
794.309910	0.002730
794.502353	0.002584
794.694777	0.002748
794.887183	0.002668
795.079571	0.002729
795.271941	0.002708
795.464293	0.002981
795.656626	0.002809
795.848941	0.002962
796.041238	0.003106
796.233516	0.003450
796.425777	0.003455
796.618019	0.003552
796.810243	0.003575
797.002449	0.003632
797.194636	0.003663
797.386805	0.003746
797.578956	0.003774
797.771089	0.003832
797.963204	0.003534
798.155300	0.003766
798.347378	0.003713
798.539438	0.003731
798.731480	0.003705
798.923503	0.003635
799.115509	0.003564
799.307496	0.003539
799.499465	0.003641
799.691415	0.003791
799.883348	0.003786
800.075262	0.003916
800.267158	0.003986
800.459035	0.004029
800.650895	0.004070
800.842736	0.004074
801.034559	0.003973
801.226364	0.003992
801.418150	0.004050
801.609919	0.003918
801.801669	0.003879
801.993401	0.003932
802.185114	0.004052
802.376810	0.004033
802.568487	0.004174
802.760146	0.004103
802.951787	0.003981
803.143409	0.004094
803.335014	0.004077
803.526600	0.004132
803.718168	0.004208
803.909717	0.004229
804.101249	0.004238
804.292762	0.004343
804.484257	0.004374
804.675734	0.004529
804.867192	0.004606
805.058632	0.004771
805.250054	0.004876
805.441458	0.004632
805.632844	0.004637
805.824211	0.004908
806.015561	0.004961
806.206891	0.005248
806.398204	0.005093
806.589499	0.004885
806.780775	0.004884
806.972033	0.004732
807.163273	0.005094
807.354495	0.005055
807.545698	0.004684
807.736883	0.004449
807.928050	0.004251
808.119199	0.004373
808.310329	0.004507
808.501441	0.004523
808.692535	0.004524
808.883611	0.004553
809.074669	0.004752
809.265708	0.005036
809.456729	0.005326
809.647732	0.005434
809.838717	0.005686
810.029683	0.005581
810.220632	0.005724
810.411562	0.005989
810.602474	0.005950
810.793367	0.005956
810.984242	0.006239
811.175100	0.006340
811.365938	0.006445
811.556759	0.006353
811.747562	0.006494
811.938346	0.006532
812.129112	0.006568
812.319860	0.006467
812.510589	0.006590
812.701300	0.006349
812.891994	0.006394
813.082668	0.006539
813.273325	0.006704
813.463964	0.006800
813.654584	0.006844
813.845186	0.006884
814.035769	0.007266
814.226335	0.007209
814.416882	0.007210
814.607411	0.006866
814.797922	0.006843
814.988415	0.006689
815.178889	0.006815
815.369345	0.006696
815.559783	0.006681
815.750203	0.006507
815.940605	0.006605
816.130988	0.006677
816.321353	0.007062
816.511700	0.007135
816.702028	0.007341
816.892339	0.007248
817.082631	0.007330
817.272905	0.007413
817.463161	0.007399
817.653398	0.007218
817.843617	0.007233
818.033819	0.007243
818.224001	0.007286
818.414166	0.007300
818.604312	0.007594
818.794440	0.007718
818.984550	0.007821
819.174642	0.008016
819.364716	0.008370
819.554771	0.008538
819.744808	0.008573
819.934827	0.008634
820.124827	0.008537
820.314810	0.008332
820.504774	0.008213
820.694720	0.008105
820.884647	0.008022
821.074557	0.007833
821.264448	0.007799
821.454321	0.007658
821.644176	0.007498
821.834012	0.007585
822.023831	0.007662
822.213631	0.007773
822.403413	0.007731
822.593176	0.007739
822.782922	0.007593
822.972649	0.007688
823.162358	0.007753
823.352049	0.007907
823.541721	0.007717
823.731376	0.007814
823.921012	0.007830
824.110629	0.008018
824.300229	0.007986
824.489811	0.008304
824.679374	0.008371
824.868919	0.008568
825.058445	0.008683
825.247954	0.009132
825.437444	0.009041
825.626916	0.009336
825.816370	0.009462
826.005806	0.009708
826.195223	0.009634
826.384622	0.009786
826.574003	0.009708
826.763366	0.009746
826.952711	0.009640
827.142037	0.009914
827.331345	0.009721
827.520635	0.009628
827.709906	0.009537
827.899160	0.009590
828.088395	0.009209
828.277612	0.009191
828.466810	0.009229
828.655991	0.009181
828.845153	0.009048
829.034297	0.009068
829.223423	0.009072
829.412531	0.008812
829.601620	0.008722
829.790691	0.008657
829.979744	0.008815
830.168779	0.008727
830.357795	0.008631
830.546793	0.008414
830.735773	0.008223
830.924735	0.008165
831.113679	0.008411
831.302604	0.008364
831.491511	0.008540
831.680400	0.008476
831.869271	0.008596
832.058123	0.008535
832.246957	0.008743
832.435773	0.009012
832.624571	0.009035
832.813351	0.009018
833.002112	0.009237
833.190855	0.009116
833.379580	0.009280
833.568287	0.009123
833.756975	0.009359
833.945645	0.009335
834.134297	0.009265
834.322931	0.009394
834.511547	0.009299
834.700144	0.009279
834.888723	0.009397
835.077284	0.009167
835.265826	0.009278
835.454351	0.009406
835.642857	0.009541
835.831345	0.009774
836.019815	0.009967
836.208266	0.010266
836.396699	0.010282
836.585114	0.010723
836.773511	0.011158
836.961890	0.011482
837.150250	0.011565
837.338592	0.011642
837.526916	0.011635
837.715222	0.011555
837.903510	0.011727
838.091779	0.011817
838.280030	0.011657
838.468263	0.011753
838.656477	0.011765
838.844674	0.011811
839.032852	0.011862
839.221012	0.012231
839.409153	0.012508
839.597277	0.012400
839.785382	0.012676
839.973469	0.012935
840.161538	0.012814
840.349589	0.012665
840.537621	0.012844
840.725635	0.012958
840.913631	0.012807
841.101609	0.012818
841.289568	0.012908
841.477509	0.012918
841.665432	0.012920
841.853337	0.013068
842.041224	0.013220
842.229092	0.012999
842.416942	0.012973
842.604774	0.013035
842.792588	0.012953
842.980383	0.013102
843.168160	0.013268
843.355919	0.013340
843.543660	0.013166
843.731382	0.013299
843.919087	0.013520
844.106773	0.013869
844.294441	0.013848
844.482090	0.014140
844.669722	0.014238
844.857335	0.014395
845.044930	0.014469
845.232507	0.014812
845.420065	0.015008
845.607605	0.014914
845.795127	0.015084
845.982631	0.015186
846.170117	0.015171
846.357584	0.015350
846.545033	0.015310
846.732464	0.015380
846.919877	0.015459
847.107272	0.015152
847.294648	0.015407
847.482006	0.015186
847.669346	0.015186
847.856667	0.015360
848.043971	0.015368
848.231256	0.015323
848.418523	0.015269
848.605771	0.015171
848.793002	0.015599
848.980214	0.015633
849.167408	0.015723
849.354584	0.015847
849.541742	0.015781
849.728881	0.015751
849.916002	0.015855
850.103105	0.016012
850.290190	0.016186
850.477256	0.016020
850.664304	0.016208
850.851334	0.016378
851.038346	0.016394
851.225340	0.016393
851.412315	0.016523
851.599272	0.016556
851.786211	0.016569
851.973132	0.016378
852.160034	0.016557
852.346918	0.016396
852.533784	0.016171
852.720632	0.016428
852.907462	0.016482
853.094273	0.016395
853.281066	0.016568
853.467841	0.016708
853.654598	0.016870
853.841336	0.017061
854.028056	0.017309
854.214758	0.017411
854.401442	0.017285
854.588107	0.017504
854.774755	0.017759
854.961384	0.017741
855.147995	0.017879
855.334587	0.018068
855.521162	0.018072
855.707718	0.018122
855.894256	0.018610
856.080775	0.018622
856.267277	0.018596
856.453760	0.018524
856.640225	0.018473
856.826672	0.018306
857.013101	0.018236
857.199511	0.018161
857.385903	0.017881
857.572277	0.017612
857.758633	0.017498
857.944970	0.017289
858.131290	0.017531
858.317591	0.017662
858.503873	0.017999
858.690138	0.018244
858.876384	0.018480
859.062612	0.019124
859.248822	0.019498
859.435014	0.019977
859.621188	0.020397
859.807343	0.020437
859.993480	0.020779
860.179599	0.020781
860.365699	0.020970
860.551781	0.021110
860.737846	0.020932
860.923891	0.021086
861.109919	0.021352
861.295929	0.021429
861.481920	0.021624
861.667893	0.021730
861.853848	0.021823
862.039784	0.021922
862.225702	0.022182
862.411603	0.022415
862.597484	0.022343
862.783348	0.022371
862.969193	0.022438
863.155021	0.022511
863.340830	0.022487
863.526620	0.022416
863.712393	0.022365
863.898147	0.022255
864.083883	0.022139
864.269601	0.022064
864.455301	0.021832
864.640982	0.021657
864.826645	0.021491
865.012290	0.021311
865.197917	0.021647
865.383526	0.021634
865.569116	0.021593
865.754688	0.021681
865.940242	0.021647
866.125777	0.021532
866.311295	0.021520
866.496794	0.021644
866.682275	0.021818
866.867737	0.021696
867.053182	0.021712
867.238608	0.021688
867.424016	0.021749
867.609406	0.021971
867.794778	0.022372
867.980131	0.022844
868.165466	0.023129
868.350783	0.023116
868.536082	0.023147
868.721362	0.023385
868.906625	0.023616
869.091869	0.023799
869.277094	0.023838
869.462302	0.023770
869.647491	0.023584
869.832662	0.023644
870.017815	0.023655
870.202950	0.023637
870.388066	0.023537
870.573165	0.023493
870.758245	0.023371
870.943306	0.023439
871.128350	0.023402
871.313375	0.023337
871.498382	0.023039
871.683371	0.023074
871.868342	0.023268
872.053294	0.023517
872.238229	0.023249
872.423144	0.023291
872.608042	0.023216
872.792922	0.023142
872.977783	0.023415
873.162626	0.023507
873.347451	0.023556
873.532258	0.023596
873.717046	0.023479
873.901816	0.023485
874.086568	0.023693
874.271302	0.023928
874.456017	0.024032
874.640715	0.024087
874.825394	0.024072
875.010055	0.024213
875.194697	0.024286
875.379322	0.023911
875.563928	0.024346
875.748516	0.024309
875.933085	0.024339
876.117637	0.024318
876.302170	0.024233
876.486685	0.024586
876.671182	0.024600
876.855661	0.024556
877.040121	0.024893
877.224563	0.024654
877.408987	0.024588
877.593393	0.024532
877.777780	0.024615
877.962150	0.024549
878.146501	0.024276
878.330833	0.024141
878.515148	0.024273
878.699444	0.024294
878.883722	0.024717
879.067982	0.024368
879.252224	0.024309
879.436447	0.024162
879.620653	0.024184
879.804840	0.024180
879.989008	0.024322
880.173159	0.024208
880.357291	0.024033
880.541405	0.023647
880.725501	0.024174
880.909579	0.024006
881.093638	0.024382
881.277680	0.024484
881.461703	0.024573
881.645707	0.024502
881.829694	0.024370
882.013662	0.024547
882.197612	0.024471
882.381544	0.024646
882.565458	0.024877
882.749353	0.024827
882.933230	0.024709
883.117089	0.024882
883.300930	0.024911
883.484753	0.024942
883.668557	0.025450
883.852343	0.025450
884.036111	0.025201
884.219861	0.025022
884.403592	0.025330
884.587305	0.025649
884.771000	0.025547
884.954677	0.025645
885.138335	0.025653
885.321976	0.025226
885.505598	0.025314
885.689201	0.025337
885.872787	0.025811
886.056354	0.025430
886.239904	0.025061
886.423434	0.025093
886.606947	0.024869
886.790442	0.024968
886.973918	0.025206
887.157376	0.025230
887.340816	0.025439
887.524237	0.025201
887.707641	0.025291
887.891026	0.025734
888.074393	0.025596
888.257741	0.025932
888.441072	0.026284
888.624384	0.026143
888.807678	0.026094
888.990954	0.025942
889.174211	0.025971
889.357451	0.025869
889.540672	0.025933
889.723875	0.025937
889.907059	0.025978
890.090226	0.025977
890.273374	0.025964
890.456504	0.026345
890.639616	0.026414
890.822709	0.026625
891.005785	0.026958
891.188842	0.026628
891.371881	0.026949
891.554901	0.026809
891.737904	0.026510
891.920888	0.026669
892.103854	0.026560
892.286802	0.026937
892.469731	0.026706
892.652643	0.026912
892.835536	0.027033
893.018410	0.026830
893.201267	0.026804
893.384106	0.026688
893.566926	0.026548
893.749728	0.026787
893.932511	0.026396
894.115277	0.026783
894.298024	0.026841
894.480753	0.027272
894.663464	0.027416
894.846157	0.027525
895.028831	0.027614
895.211487	0.027407
895.394125	0.027210
895.576745	0.027320
895.759346	0.027052
895.941930	0.026449
896.124495	0.025849
896.307041	0.025705
896.489570	0.026052
896.672080	0.025998
896.854573	0.026430
897.037046	0.026555
897.219502	0.026405
897.401940	0.026311
897.584359	0.026533
897.766760	0.026943
897.949143	0.027285
898.131507	0.026948
898.313854	0.027189
898.496182	0.027228
898.678492	0.027324
898.860783	0.027366
899.043057	0.027516
899.225312	0.027690
899.407549	0.027526
899.589768	0.027081
899.771968	0.026688
899.954151	0.026688
900.136315	0.026327
900.318461	0.025986
900.500588	0.026243
900.682698	0.025872
900.864789	0.025621
901.046862	0.025378
901.228917	0.025452
901.410953	0.025768
901.592971	0.025099
901.774972	0.024993
901.956953	0.025158
902.138917	0.024590
902.320862	0.024527
902.502790	0.024468
902.684699	0.024362
902.866589	0.024261
903.048462	0.024092
903.230316	0.024719
903.412152	0.024835
903.593970	0.024793
903.775770	0.024874
903.957551	0.024845
904.139314	0.024604
904.321059	0.024309
904.502786	0.024076
904.684494	0.024079
904.866185	0.023918
905.047857	0.023621
905.229510	0.023123
905.411146	0.022914
905.592763	0.023099
905.774363	0.022973
905.955943	0.022901
906.137506	0.023060
906.319051	0.023040
906.500577	0.022962
906.682085	0.023244
906.863575	0.023692
907.045046	0.024160
907.226500	0.023973
907.407935	0.023914
907.589352	0.024323
907.770750	0.024356
907.952131	0.024580
908.133493	0.024458
908.314837	0.024137
908.496163	0.023593
908.677470	0.023023
908.858760	0.023103
909.040031	0.023433
909.221284	0.023123
909.402518	0.022924
909.583735	0.022438
909.764933	0.022390
909.946113	0.022578
910.127275	0.022558
910.308418	0.022585
910.489544	0.022463
910.670651	0.022071
910.851740	0.022179
911.032810	0.022275
911.213863	0.022192
911.394897	0.021967
911.575913	0.021534
911.756911	0.021695
911.937890	0.021625
912.118851	0.021478
912.299794	0.021410
912.480719	0.021558
912.661626	0.021210
912.842514	0.021015
913.023384	0.020863
913.204236	0.020816
913.385070	0.020426
913.565886	0.020232
913.746683	0.020240
913.927462	0.020295
914.108223	0.019986
914.288965	0.020129
914.469690	0.020454
914.650396	0.020380
914.831084	0.020320
915.011754	0.020227
915.192405	0.020053
915.373038	0.020010
915.553653	0.019793
915.734250	0.019537
915.914829	0.019198
916.095389	0.018781
916.275931	0.018803
916.456455	0.018564
916.636961	0.018256
916.817448	0.017875
916.997917	0.017299
917.178368	0.017200
917.358801	0.016953
917.539216	0.016799
917.719612	0.016159
917.899990	0.015824
918.080350	0.015500
918.260692	0.015271
918.441015	0.015397
918.621320	0.015391
918.801607	0.015039
918.981876	0.014737
919.162127	0.014327
919.342359	0.014757
919.522573	0.014398
919.702769	0.014061
919.882947	0.014201
920.063106	0.014221
920.243247	0.014249
920.423370	0.014446
920.603475	0.014472
920.783562	0.014596
920.963630	0.013844
921.143680	0.013936
921.323712	0.013933
921.503725	0.013215
921.683721	0.012440
921.863698	0.011976
922.043657	0.011309
922.223598	0.010897
922.403520	0.010949
922.583424	0.011382
922.763311	0.010678
922.943178	0.010891
923.123028	0.011230
923.302859	0.011103
923.482673	0.011039
923.662467	0.011013
923.842244	0.010777
924.022003	0.010143
924.201743	0.009758
924.381465	0.010014
924.561169	0.009540
924.740854	0.009896
924.920522	0.010299
925.100171	0.009838
925.279802	0.009852
925.459414	0.009760
925.639009	0.009375
925.818585	0.009100
925.998143	0.009213
926.177683	0.009016
926.357205	0.008351
926.536708	0.007859
926.716193	0.007589
926.895660	0.007701
927.075109	0.007772
927.254539	0.007670
927.433951	0.007353
927.613345	0.006873
927.792721	0.007249
927.972079	0.007207
928.151418	0.007694
928.330739	0.008009
928.510042	0.007046
928.689327	0.006722
928.868593	0.006231
929.047841	0.005922
929.227071	0.005493
929.406283	0.004383
929.585476	0.003679
929.764652	0.002763
929.943809	0.002243
930.122948	0.002109
930.302068	0.001975
930.481171	0.001887
930.660255	0.002086
930.839321	0.001641
931.018369	0.001799
931.197398	0.002282
931.376409	0.002260
931.555402	0.001698
931.734377	0.001610
931.913334	0.001393
932.092272	0.001881
932.271192	0.001178
932.450094	0.001547
932.628978	0.001697
932.807844	0.000899
932.986691	0.000336
933.165520	0.000954
933.344331	0.000811
933.523123	0.000258
933.701898	0.000022
933.880654	0.000455
934.059392	0.000111
934.238111	0.000053
934.416813	-0.000247
934.595496	-0.000414
934.774161	-0.000859
934.952808	-0.001083
935.131437	-0.001415
935.310047	-0.001617
935.488639	-0.002288
935.667213	-0.002627
935.845769	-0.003707
936.024306	-0.003870
936.202825	-0.004084
936.381326	-0.004317
936.559809	-0.004318
936.738274	-0.004622
936.916720	-0.005533
937.095148	-0.005295
937.273558	-0.005274
937.451950	-0.005102
937.630323	-0.005102
937.808678	-0.005023
937.987015	-0.005555
938.165334	-0.005873
938.343635	-0.005934
938.521917	-0.006380
938.700181	-0.007382
938.878427	-0.007992
939.056655	-0.008012
939.234864	-0.008593
939.413055	-0.008589
939.591228	-0.008502
939.769383	-0.009920
939.947519	-0.010044
940.125638	-0.009422
940.303738	-0.009426
940.481820	-0.009489
940.659883	-0.010879
940.837929	-0.011306
941.015956	-0.012654
941.193965	-0.013138
941.371955	-0.012604
941.549928	-0.013183
941.727882	-0.014202
941.905818	-0.013813
942.083736	-0.013286
942.261636	-0.013072
942.439517	-0.012989
942.617380	-0.012498
942.795225	-0.012613
942.973052	-0.013419
943.150860	-0.012305
943.328651	-0.011991
943.506423	-0.012237
943.684176	-0.013404
943.861912	-0.012761
944.039629	-0.013832
944.217328	-0.013861
944.395009	-0.014941
944.572672	-0.013706
944.750317	-0.014290
944.927943	-0.014752
945.105551	-0.015594
945.283141	-0.015141
945.460712	-0.015585
945.638265	-0.014515
945.815801	-0.014661
945.993317	-0.014020
946.170816	-0.014355
946.348297	-0.014210
946.525759	-0.014249
946.703203	-0.013872
946.880629	-0.013925
947.058036	-0.013575
947.235425	-0.013267
947.412797	-0.013381
947.590149	-0.013386
947.767484	-0.013892
947.944800	-0.014948
948.122099	-0.014449
948.299379	-0.014651
948.476640	-0.014065
948.653884	-0.014183
948.831109	-0.014466
949.008316	-0.014584
949.185505	-0.015429
949.362676	-0.015504
949.539828	-0.015309
949.716962	-0.015346
949.894078	-0.014204
950.071176	-0.015404
950.248256	-0.016276
950.425317	-0.016218
950.602360	-0.016098
950.779385	-0.015560
950.956391	-0.014344
951.133380	-0.014127
951.310350	-0.014587
951.487302	-0.015881
951.664235	-0.016022
951.841151	-0.015941
952.018048	-0.016922
952.194927	-0.016957
952.371788	-0.015322
952.548631	-0.017394
952.725455	-0.016540
952.902261	-0.015986
953.079049	-0.014791
953.255819	-0.015722
953.432570	-0.014835
953.609303	-0.014531
953.786018	-0.014900
953.962715	-0.016641
954.139394	-0.015285
954.316054	-0.016113
954.492696	-0.015948
954.669320	-0.016509
954.845926	-0.015146
955.022513	-0.015016
955.199083	-0.013767
955.375634	-0.012204
955.552166	-0.011618
955.728681	-0.010513
955.905177	-0.009978
956.081655	-0.009835
956.258115	-0.009343
956.434557	-0.007565
956.610980	-0.006843
956.787385	-0.005580
956.963772	-0.006868
957.140141	-0.005006
957.316492	-0.005305
957.492824	-0.004382
957.669138	-0.004276
957.845434	-0.005803
958.021712	-0.007577
958.197971	-0.007634
958.374212	-0.007848
958.550435	-0.007430
958.726640	-0.006577
958.902826	-0.006740
959.078995	-0.007139
959.255145	-0.006922
959.431277	-0.005103
959.607390	-0.003285
959.783486	-0.002375
959.959563	-0.003351
960.135622	-0.002020
960.311662	-0.002884
960.487685	-0.002972
960.663689	-0.002739
960.839675	-0.001055
961.015643	-0.001290
961.191593	-0.001318
961.367524	-0.001388
961.543437	-0.001919
961.719332	-0.003185
961.895209	-0.004214
962.071067	-0.003958
962.246907	-0.002212
962.422730	-0.003415
962.598533	-0.003049
962.774319	-0.001536
962.950086	-0.001556
963.125835	-0.001001
963.301566	0.000807
963.477279	0.000629
963.652973	0.002046
963.828650	0.000158
964.004308	0.002144
964.179947	0.003463
964.355569	0.003208
964.531172	0.004301
964.706757	0.007069
964.882324	0.008137
965.057873	0.009162
965.233403	0.007791
965.408916	0.008732
965.584410	0.007899
965.759885	0.008699
965.935343	0.008172
966.110782	0.009162
966.286203	0.008640
966.461606	0.007016
966.636991	0.008917
966.812357	0.010660
966.987705	0.012584
967.163035	0.012873
967.338347	0.012281
967.513641	0.013647
967.688916	0.012202
967.864173	0.012243
968.039412	0.012477
968.214632	0.010464
968.389835	0.009043
968.565019	0.008613
968.740185	0.009923
968.915333	0.010677
969.090462	0.009752
969.265573	0.009787
969.440667	0.009727
969.615741	0.011161
969.790798	0.011345
969.965836	0.013285
970.140856	0.012397
970.315858	0.010888
970.490842	0.007940
970.665808	0.007430
970.840755	0.005847
971.015684	0.006440
971.190595	0.007199
971.365487	0.008959
971.540362	0.007690
971.715218	0.009296
971.890056	0.010685
972.064875	0.012956
972.239677	0.012293
972.414460	0.014044
972.589225	0.011179
972.763972	0.007562
972.938700	0.007555
973.113411	0.008664
973.288103	0.008328
973.462777	0.007370
973.637432	0.005805
973.812070	0.005298
973.986689	0.003712
974.161290	0.004427
974.335873	0.005220
974.510437	0.005522
974.684984	0.004555
974.859512	0.003019
975.034022	0.001904
975.208513	0.004061
975.382987	0.004160
975.557442	0.005003
975.731879	0.005105
975.906298	0.006071
976.080698	0.005857
976.255080	0.004747
976.429445	0.003756
976.603790	0.003808
976.778118	0.003035
976.952427	0.006412
977.126719	0.007167
977.300992	0.008236
977.475246	0.009288
977.649483	0.007514
977.823701	0.009642
977.997901	0.011157
978.172083	0.010928
978.346247	0.010242
978.520392	0.007654
978.694519	0.006847
978.868628	0.008038
979.042719	0.005741
979.216791	0.005392
979.390845	0.004829
979.564882	0.003455
979.738899	0.004576
979.912899	0.006684
980.086880	0.007186
980.260843	0.007654
980.434788	0.005298
980.608715	0.004846
980.782623	0.004031
980.956514	0.005397
981.130386	0.007996
981.304240	0.006618
981.478075	0.005725
981.651892	0.004923
981.825692	0.005427
981.999472	0.005932
982.173235	0.006477
982.346980	0.007391
982.520706	0.005948
982.694414	0.002759
982.868104	0.003421
983.041775	0.001454
983.215428	0.003399
983.389064	0.003792
983.562680	0.003877
983.736279	0.005816
983.909860	0.008009
984.083422	0.007611
984.256966	0.008387
984.430491	0.008906
984.603999	0.009493
984.777488	0.009022
984.950959	0.008372
985.124412	0.008961
985.297847	0.007186
985.471263	0.005736
985.644661	0.005959
985.818041	0.005771
985.991403	0.006411
986.164747	0.004442
986.338072	0.004169
986.511379	0.003979
986.684668	0.003932
986.857938	0.005239
987.031191	0.004314
987.204425	0.003531
987.377641	0.006561
987.550839	0.005336
987.724018	0.005662
987.897179	0.005198
988.070322	0.005380
988.243447	0.003486
988.416554	0.003206
988.589642	0.003195
988.762712	0.003728
988.935764	0.000726
989.108798	0.001066
989.281813	0.000909
989.454811	0.000699
989.627790	0.000118
989.800751	0.001208
989.973693	0.001192
990.146617	0.001343
990.319524	0.003104
990.492412	0.003746
990.665281	0.003660
990.838133	0.005690
991.010966	0.008181
991.183781	0.007361
991.356578	0.007254
991.529356	0.006225
991.702117	0.007068
991.874859	0.006638
992.047583	0.005740
992.220288	0.006841
992.392976	0.005356
992.565645	0.005181
992.738296	0.007762
992.910929	0.007648
993.083543	0.009467
993.256139	0.008696
993.428718	0.007723
993.601277	0.007165
993.773819	0.004426
993.946342	0.004654
994.118848	0.002778
994.291335	0.001598
994.463803	0.003625
994.636254	0.001696
994.808686	0.003983
994.981100	0.005735
995.153496	0.007917
995.325874	0.010140
995.498233	0.012069
995.670574	0.011191
995.842897	0.010812
996.015202	0.009834
996.187488	0.011201
996.359757	0.008414
996.532007	0.006682
996.704239	0.006128
996.876452	0.004925
997.048648	0.005238
997.220825	0.006359
997.392984	0.006525
997.565124	0.005591
997.737247	0.005518
997.909351	0.005460
998.081437	0.007271
998.253505	0.006718
998.425554	0.008422
998.597586	0.007330
998.769599	0.006900
998.941594	0.004087
999.113571	0.004303
999.285529	0.004173
999.457469	0.006245
999.629391	0.003064
999.801295	0.004443
999.973181	0.002103
1000.145048	0.002225
1000.316897	0.004317
1000.488728	0.005542
1000.660541	0.003602
1000.832335	0.004139
1001.004111	0.002895
1001.175869	0.002140
1001.347609	0.001130
1001.519331	0.002744
1001.691034	0.002380
1001.862719	0.001047
1002.034386	0.001242
1002.206035	0.004930
1002.377665	0.002546
1002.549277	0.002269
1002.720871	0.003680
1002.892447	0.003212
1003.064004	0.002401
1003.235544	0.002795
1003.407065	0.002425
1003.578568	0.003359
1003.750052	0.001888
1003.921519	0.002032
1004.092967	0.001203
1004.264397	0.001703
1004.435809	0.002947
1004.607202	0.001352
1004.778577	0.001022
1004.949934	0.000930
1005.121273	0.000705
1005.292594	-0.000905
1005.463896	0.001076
1005.635180	0.001952
1005.806446	0.000677
1005.977694	-0.001144
1006.148923	0.001082
1006.320135	0.000874
1006.491328	-0.001503
1006.662503	-0.001564
1006.833659	-0.000202
1007.004798	-0.001190
1007.175918	-0.000316
1007.347020	0.002266
1007.518103	0.002270
1007.689169	0.002563
1007.860216	0.003401
1008.031245	0.004863
1008.202256	0.004455
1008.373248	0.005457
1008.544223	0.005489
1008.715179	0.005335
1008.886117	0.003069
1009.057036	0.004630
1009.227938	0.002246
1009.398821	0.001783
1009.569686	0.002768
1009.740533	0.003233
1009.911361	0.002021
1010.082172	0.003101
1010.252964	0.002007
1010.423738	0.002346
1010.594493	0.002064
1010.765231	0.003707
1010.935950	0.001760
1011.106651	0.000456
1011.277334	-0.000273
1011.447998	-0.000494
1011.618645	-0.002920
1011.789273	-0.002485
1011.959882	-0.001885
1012.130474	-0.001811
1012.301048	-0.002313
1012.471603	-0.001822
1012.642140	-0.002324
1012.812658	-0.001476
1012.983159	-0.001758
1013.153641	-0.000436
1013.324105	-0.001359
1013.494551	-0.002755
1013.664979	-0.003008
1013.835388	-0.001020
1014.005779	0.000742
1014.176152	0.000525
1014.346507	-0.000379
1014.516843	-0.002478
1014.687162	-0.003245
1014.857462	-0.001619
1015.027744	-0.001140
1015.198007	-0.001948
1015.368252	-0.002963
1015.538480	-0.004272
1015.708689	-0.004260
1015.878879	-0.003127
1016.049052	-0.001582
1016.219206	-0.000335
1016.389342	-0.001437
1016.559460	-0.001456
1016.729559	-0.001077
1016.899641	-0.002949
1017.069704	-0.001630
1017.239749	-0.001080
1017.409775	-0.001527
1017.579784	-0.001162
1017.749774	-0.002305
1017.919746	-0.001964
1018.089700	-0.001737
1018.259635	-0.001929
1018.429553	-0.001641
1018.599452	-0.002690
1018.769333	-0.002766
1018.939195	-0.002397
1019.109040	-0.002216
1019.278866	-0.003017
1019.448674	-0.002201
1019.618464	-0.002466
1019.788235	-0.001768
1019.957989	-0.000947
1020.127724	-0.001155
1020.297441	-0.001001
1020.467139	-0.001618
1020.636820	-0.002252
1020.806482	-0.003216
1020.976126	-0.004793
1021.145752	-0.004317
1021.315359	-0.005657
1021.484948	-0.006324
1021.654519	-0.006034
1021.824072	-0.005324
1021.993607	-0.006645
1022.163123	-0.005716
1022.332621	-0.003536
1022.502101	-0.002873
1022.671563	-0.002920
1022.841007	-0.002693
1023.010432	-0.002217
1023.179839	-0.002873
1023.349228	-0.002012
1023.518598	-0.000798
1023.687951	-0.001424
1023.857285	-0.001692
1024.026601	-0.001184
1024.195899	-0.002867
1024.365178	-0.002468
1024.534439	-0.002666
1024.703682	-0.001202
1024.872907	-0.003280
1025.042114	-0.002392
1025.211302	-0.002289
1025.380472	-0.002197
1025.549624	-0.002941
1025.718758	-0.001624
1025.887873	-0.001131
1026.056970	-0.001753
1026.226049	-0.002399
1026.395110	-0.002503
1026.564153	-0.001930
1026.733177	-0.001397
1026.902183	-0.002441
1027.071171	-0.002671
1027.240141	-0.002164
1027.409092	-0.002388
1027.578026	-0.003547
1027.746940	-0.005209
1027.915837	-0.005197
1028.084716	-0.006841
1028.253576	-0.007248
1028.422418	-0.006498
1028.591242	-0.005671
1028.760048	-0.006488
1028.928835	-0.007111
1029.097604	-0.006134
1029.266355	-0.004806
1029.435088	-0.004632
1029.603803	-0.003616
1029.772499	-0.001796
1029.941177	-0.000962
1030.109837	-0.001453
1030.278478	-0.001342
1030.447102	-0.001218
1030.615707	0.000142
1030.784294	0.001365
1030.952863	0.001751
1031.121413	-0.000420
1031.289945	-0.003551
1031.458460	-0.004228
1031.626955	-0.005240
1031.795433	-0.005749
1031.963892	-0.005942
1032.132334	-0.006553
1032.300756	-0.007271
1032.469161	-0.005827
1032.637548	-0.004522
1032.805916	-0.003264
1032.974266	-0.003617
1033.142598	-0.002351
1033.310911	-0.002627
1033.479207	-0.002851
1033.647484	-0.004088
1033.815743	-0.005425
1033.983983	-0.006829
1034.152206	-0.006450
1034.320410	-0.006411
1034.488596	-0.004909
1034.656764	-0.005034
1034.824914	-0.006545
1034.993045	-0.005825
1035.161158	-0.005059
1035.329253	-0.004566
1035.497330	-0.004028
1035.665388	-0.004312
1035.833428	-0.003335
1036.001450	-0.003242
1036.169454	-0.004517
1036.337440	-0.003093
1036.505407	-0.004621
1036.673356	-0.005355
1036.841287	-0.005456
1037.009200	-0.005805
1037.177094	-0.006602
1037.344970	-0.007672
1037.512828	-0.008403
1037.680668	-0.007554
1037.848489	-0.005428
1038.016293	-0.005059
1038.184078	-0.003312
1038.351845	-0.003161
1038.519593	-0.004232
1038.687324	-0.002459
1038.855036	-0.003734
1039.022730	-0.002894
1039.190406	-0.002729
1039.358063	-0.004194
1039.525702	-0.003687
1039.693323	-0.004388
1039.860926	-0.003942
1040.028511	-0.003085
1040.196077	-0.004038
1040.363625	-0.000555
1040.531155	-0.002007
1040.698667	-0.001474
1040.866161	-0.001464
1041.033636	-0.001606
1041.201093	-0.000991
1041.368532	-0.001628
1041.535952	-0.001111
1041.703355	-0.000924
1041.870739	-0.001945
1042.038105	-0.002973
1042.205452	-0.003357
1042.372782	-0.003188
1042.540093	-0.002196
1042.707386	-0.002922
1042.874661	-0.003220
1043.041918	-0.002897
1043.209156	-0.004408
1043.376376	-0.004181
1043.543578	-0.002160
1043.710762	-0.003671
1043.877927	-0.005763
1044.045074	-0.008724
1044.212203	-0.008067
1044.379314	-0.007725
1044.546407	-0.006806
1044.713481	-0.007340
1044.880537	-0.008574
1045.047575	-0.009268
1045.214595	-0.007461
1045.381596	-0.006702
1045.548579	-0.005237
1045.715544	-0.006115
1045.882491	-0.006186
1046.049420	-0.007500
1046.216330	-0.005324
1046.383222	-0.003846
1046.550096	-0.004987
1046.716951	-0.003323
1046.883789	-0.002826
1047.050608	-0.002757
1047.217409	-0.000906
1047.384192	-0.000781
1047.550956	-0.001494
1047.717703	-0.003542
1047.884431	-0.004293
1048.051140	-0.004166
1048.217832	-0.007141
1048.384505	-0.004440
1048.551161	-0.003113
1048.717798	-0.005213
1048.884416	-0.006722
1049.051017	-0.006472
1049.217599	-0.003959
1049.384163	-0.005086
1049.550709	-0.003961
1049.717237	-0.002271
1049.883746	-0.003563
1050.050237	-0.003848
1050.216710	-0.004372
1050.383165	-0.004005
1050.549601	-0.003738
1050.716019	-0.004462
1050.882420	-0.004562
1051.048801	-0.004848
1051.215165	-0.006122
1051.381510	-0.006318
1051.547837	-0.005815
1051.714146	-0.004475
1051.880437	-0.003190
1052.046709	-0.002419
1052.212964	-0.002834
1052.379200	-0.002445
1052.545417	-0.002185
1052.711617	-0.002508
1052.877798	-0.002768
1053.043961	-0.002918
1053.210106	-0.003050
1053.376233	-0.002426
1053.542341	-0.002401
1053.708432	-0.002471
1053.874504	-0.002521
1054.040557	-0.003899
1054.206593	-0.003133
1054.372610	-0.005110
1054.538609	-0.005600
1054.704590	-0.006843
1054.870553	-0.009628
1055.036497	-0.011376
1055.202424	-0.011943
1055.368331	-0.012130
1055.534221	-0.010903
1055.700093	-0.011701
1055.865946	-0.011881
1056.031781	-0.012154
1056.197598	-0.012476
1056.363397	-0.011104
1056.529177	-0.010489
1056.694939	-0.008656
1056.860683	-0.009137
1057.026409	-0.008209
1057.192116	-0.007893
1057.357806	-0.004791
1057.523477	-0.005176
1057.689130	-0.003611
1057.854764	-0.003007
1058.020381	-0.004718
1058.185979	-0.006552
1058.351559	-0.004842
1058.517120	-0.005886
1058.682664	-0.006592
1058.848189	-0.007663
1059.013696	-0.009505
1059.179185	-0.010503
1059.344656	-0.010372
1059.510108	-0.008935
1059.675542	-0.008549
1059.840958	-0.009887
1060.006356	-0.011058
1060.171735	-0.010306
1060.337096	-0.010549
1060.502439	-0.008247
1060.667764	-0.006291
1060.833071	-0.006890
1060.998359	-0.007491
1061.163629	-0.005759
1061.328881	-0.006178
1061.494115	-0.006033
1061.659330	-0.007499
1061.824527	-0.007915
1061.989706	-0.006809
1062.154867	-0.006794
1062.320010	-0.006114
1062.485134	-0.006781
1062.650240	-0.008364
1062.815328	-0.007428
1062.980398	-0.006199
1063.145449	-0.004457
1063.310482	-0.004592
1063.475497	-0.003773
1063.640494	-0.005028
1063.805473	-0.005728
1063.970433	-0.002884
1064.135375	-0.001743
1064.300299	-0.002118
1064.465204	-0.004104
1064.630092	-0.005248
1064.794961	-0.004195
1064.959812	-0.007061
1065.124645	-0.005979
1065.289459	-0.005295
1065.454256	-0.007436
1065.619034	-0.008862
1065.783793	-0.008854
1065.948535	-0.007587
1066.113258	-0.006085
1066.277964	-0.006621
1066.442651	-0.006635
1066.607319	-0.008437
1066.771970	-0.009129
1066.936602	-0.009517
1067.101216	-0.009343
1067.265812	-0.009342
1067.430389	-0.010469
1067.594949	-0.010632
1067.759490	-0.012118
1067.924013	-0.010851
1068.088518	-0.010705
1068.253004	-0.011461
1068.417472	-0.011109
1068.581922	-0.010523
1068.746354	-0.011505
1068.910768	-0.011757
1069.075163	-0.013136
1069.239540	-0.010072
1069.403899	-0.011075
1069.568240	-0.011508
1069.732562	-0.010650
1069.896866	-0.009081
1070.061152	-0.009836
1070.225420	-0.010233
1070.389670	-0.007661
1070.553901	-0.006224
1070.718114	-0.008834
1070.882309	-0.009724
1071.046486	-0.009089
1071.210644	-0.009281
1071.374784	-0.009226
1071.538906	-0.009886
1071.703010	-0.009692
1071.867096	-0.009991
1072.031163	-0.010129
1072.195212	-0.008992
1072.359243	-0.008546
1072.523256	-0.008983
1072.687250	-0.008332
1072.851226	-0.010429
1073.015184	-0.009565
1073.179124	-0.009582
1073.343045	-0.010872
1073.506949	-0.011034
1073.670834	-0.011865
1073.834701	-0.010882
1073.998549	-0.011402
1074.162380	-0.012423
1074.326192	-0.012287
1074.489986	-0.011364
1074.653761	-0.012387
1074.817519	-0.011234
1074.981258	-0.011467
1075.144979	-0.010326
1075.308682	-0.009151
1075.472367	-0.007851
1075.636033	-0.006454
1075.799681	-0.006321
1075.963311	-0.007552
1076.126923	-0.006632
1076.290516	-0.009012
1076.454092	-0.009679
1076.617649	-0.011524
1076.781187	-0.014241
1076.944708	-0.015887
1077.108210	-0.019063
1077.271695	-0.017772
1077.435160	-0.019795
1077.598608	-0.018802
1077.762038	-0.018514
1077.925449	-0.019606
1078.088842	-0.018455
1078.252217	-0.018005
1078.415573	-0.016116
1078.578912	-0.013729
1078.742232	-0.014738
1078.905534	-0.012635
1079.068817	-0.012639
1079.232083	-0.010828
1079.395330	-0.008337
1079.558559	-0.008979
1079.721770	-0.009809
1079.884962	-0.009982
1080.048136	-0.009357
1080.211293	-0.009383
1080.374430	-0.009605
1080.537550	-0.009132
1080.700651	-0.010351
1080.863735	-0.012196
1081.026800	-0.013879
1081.189846	-0.013100
1081.352875	-0.014427
1081.515885	-0.015578
1081.678877	-0.013226
1081.841851	-0.013237
1082.004807	-0.014531
1082.167744	-0.014502
1082.330663	-0.014909
1082.493564	-0.014003
1082.656447	-0.014242
1082.819312	-0.013812
1082.982158	-0.012131
1083.144986	-0.014650
1083.307796	-0.014312
1083.470587	-0.013103
1083.633361	-0.012848
1083.796116	-0.010024
1083.958853	-0.011876
1084.121571	-0.010398
1084.284272	-0.011969
1084.446954	-0.012587
1084.609618	-0.012533
1084.772264	-0.014165
1084.934892	-0.015713
1085.097501	-0.017190
1085.260092	-0.018141
1085.422665	-0.012889
1085.585220	-0.013387
1085.747756	-0.011179
1085.910274	-0.011966
1086.072774	-0.013164
1086.235256	-0.012226
1086.397720	-0.011220
1086.560165	-0.010093
1086.722592	-0.010647
1086.885001	-0.015739
1087.047392	-0.017057
1087.209764	-0.018769
1087.372119	-0.018970
1087.534455	-0.015787
1087.696772	-0.016799
1087.859072	-0.015182
1088.021353	-0.015416
1088.183616	-0.018052
1088.345861	-0.015441
1088.508088	-0.013405
1088.670296	-0.011849
1088.832486	-0.014074
1088.994658	-0.015548
1089.156812	-0.011584
1089.318948	-0.012519
1089.481065	-0.013903
1089.643164	-0.015244
1089.805245	-0.017326
1089.967308	-0.019585
1090.129352	-0.021141
1090.291378	-0.020559
1090.453386	-0.022305
1090.615376	-0.025407
1090.777347	-0.028159
1090.939301	-0.027954
1091.101236	-0.021411
1091.263153	-0.018817
1091.425051	-0.018833
1091.586932	-0.018353
1091.748794	-0.015884
1091.910638	-0.014580
1092.072463	-0.015740
1092.234271	-0.014362
1092.396060	-0.014100
1092.557831	-0.019972
1092.719584	-0.020710
1092.881319	-0.022934
1093.043035	-0.021027
1093.204733	-0.021096
1093.366413	-0.021676
1093.528075	-0.019543
1093.689718	-0.019246
1093.851343	-0.015889
1094.012950	-0.013464
1094.174539	-0.012026
1094.336110	-0.006963
1094.497662	-0.010648
1094.659196	-0.012097
1094.820712	-0.011292
1094.982210	-0.012335
1095.143689	-0.010320
1095.305151	-0.011090
1095.466594	-0.011351
1095.628018	-0.014017
1095.789425	-0.016088
1095.950813	-0.014854
1096.112183	-0.012526
1096.273535	-0.012939
1096.434869	-0.012092
1096.596184	-0.013463
1096.757482	-0.013223
1096.918761	-0.012950
1097.080021	-0.014850
1097.241264	-0.015366
1097.402488	-0.013852
1097.563694	-0.014762
1097.724882	-0.015617
1097.886052	-0.018393
1098.047203	-0.022344
1098.208336	-0.021859
1098.369451	-0.025039
1098.530548	-0.019636
1098.691627	-0.019439
1098.852687	-0.019040
1099.013729	-0.020510
1099.174753	-0.018294
1099.335758	-0.016929
1099.496746	-0.015676
1099.657715	-0.017865
1099.818666	-0.013979
1099.979599	-0.016112
1100.140513	-0.014372
1100.301409	-0.015566
1100.462287	-0.018293
1100.623147	-0.019522
1100.783989	-0.017636
1100.944812	-0.016713
1101.105617	-0.018275
1101.266404	-0.019834
1101.427173	-0.018490
1101.587923	-0.020850
1101.748656	-0.021261
1101.909370	-0.016694
1102.070066	-0.016121
1102.230743	-0.018106
1102.391403	-0.015638
1102.552044	-0.011988
1102.712667	-0.009692
1102.873271	-0.011277
1103.033858	-0.007249
1103.194426	-0.005010
1103.354976	-0.005240
1103.515508	-0.005147
1103.676021	-0.003256
1103.836517	-0.006550
1103.996994	-0.009575
1104.157453	-0.009089
1104.317893	-0.008178
1104.478316	-0.013890
1104.638720	-0.018252
1104.799106	-0.019710
1104.959474	-0.020759
1105.119823	-0.021817
1105.280155	-0.021031
1105.440468	-0.022268
1105.600763	-0.023224
1105.761039	-0.027251
1105.921298	-0.026332
1106.081538	-0.024296
1106.241760	-0.024963
1106.401964	-0.026045
1106.562149	-0.029117
1106.722316	-0.026722
1106.882465	-0.024760
1107.042596	-0.025899
1107.202709	-0.022649
1107.362803	-0.021536
1107.522879	-0.021833
1107.682937	-0.021627
1107.842977	-0.021344
1108.002999	-0.018304
1108.163002	-0.020008
1108.322987	-0.021676
1108.482954	-0.019430
1108.642902	-0.020676
1108.802833	-0.018773
1108.962745	-0.018674
1109.122639	-0.014146
1109.282515	-0.011853
1109.442372	-0.012483
1109.602211	-0.011395
1109.762032	-0.012201
1109.921835	-0.014445
1110.081620	-0.011176
1110.241386	-0.013383
1110.401134	-0.013761
1110.560864	-0.017303
1110.720576	-0.016753
1110.880269	-0.014831
1111.039945	-0.016891
1111.199602	-0.014462
1111.359240	-0.012071
1111.518861	-0.012473
1111.678463	-0.010569
1111.838047	-0.008271
1111.997613	-0.008689
1112.157161	-0.010057
1112.316690	-0.013014
1112.476202	-0.013391
1112.635695	-0.011363
1112.795169	-0.013779
1112.954626	-0.016599
1113.114064	-0.016413
1113.273484	-0.014711
1113.432886	-0.016654
1113.592270	-0.019088
1113.751635	-0.015736
1113.910983	-0.016629
1114.070312	-0.018529
1114.229622	-0.019358
1114.388915	-0.017311
1114.548189	-0.016429
1114.707445	-0.018029
1114.866683	-0.015344
1115.025903	-0.014556
1115.185104	-0.014854
1115.344287	-0.012730
1115.503452	-0.012814
1115.662599	-0.011567
1115.821727	-0.015277
1115.980838	-0.018985
1116.139930	-0.019377
1116.299004	-0.021603
1116.458059	-0.021052
1116.617097	-0.022096
1116.776116	-0.021525
1116.935117	-0.022536
1117.094099	-0.024366
1117.253064	-0.023595
1117.412010	-0.021802
1117.570938	-0.021354
1117.729848	-0.019186
1117.888740	-0.020413
1118.047613	-0.021211
1118.206468	-0.022992
1118.365305	-0.020304
1118.524124	-0.019249
1118.682924	-0.015860
1118.841707	-0.016301
1119.000471	-0.018755
1119.159216	-0.019824
1119.317944	-0.016268
1119.476653	-0.013068
1119.635344	-0.013834
1119.794017	-0.012364
1119.952672	-0.011438
1120.111308	-0.010485
1120.269927	-0.007957
1120.428527	-0.001763
1120.587108	-0.006823
1120.745672	-0.006829
1120.904217	-0.011334
1121.062744	-0.011919
1121.221253	-0.016701
1121.379744	-0.012629
1121.538216	-0.016116
1121.696671	-0.019489
1121.855107	-0.025733
1122.013524	-0.021769
1122.171924	-0.027408
1122.330305	-0.023958
1122.488668	-0.021730
1122.647013	-0.019713
1122.805340	-0.026187
1122.963648	-0.021980
1123.121938	-0.020804
1123.280210	-0.023900
1123.438464	-0.020589
1123.596700	-0.018087
1123.754917	-0.018493
1123.913116	-0.018233
1124.071297	-0.019842
1124.229459	-0.023027
1124.387604	-0.028733
1124.545730	-0.025458
1124.703838	-0.023956
1124.861928	-0.025422
1125.019999	-0.024924
1125.178052	-0.027623
1125.336088	-0.023682
1125.494104	-0.023951
1125.652103	-0.016639
1125.810083	-0.013817
1125.968045	-0.017033
1126.125989	-0.012016
1126.283915	-0.010377
1126.441823	-0.007442
1126.599712	-0.006984
1126.757583	-0.009566
1126.915436	-0.010585
1127.073270	-0.015755
1127.231087	-0.016756
1127.388885	-0.017905
1127.546665	-0.019773
1127.704426	-0.023345
1127.862170	-0.026980
1128.019895	-0.026232
1128.177602	-0.025878
1128.335291	-0.024127
1128.492961	-0.025236
1128.650614	-0.027735
1128.808248	-0.024789
1128.965864	-0.021810
1129.123461	-0.019711
1129.281041	-0.017393
1129.438602	-0.014565
1129.596145	-0.019259
1129.753670	-0.020911
1129.911176	-0.021812
1130.068665	-0.021484
1130.226135	-0.021250
1130.383587	-0.024049
1130.541020	-0.022730
1130.698436	-0.024514
1130.855833	-0.030129
1131.013212	-0.028890
1131.170573	-0.028563
1131.327915	-0.017010
1131.485239	-0.015837
1131.642545	-0.018703
1131.799833	-0.022992
1131.957103	-0.028535
1132.114354	-0.030470
1132.271588	-0.030065
1132.428803	-0.029205
1132.585999	-0.027974
1132.743178	-0.033447
1132.900338	-0.030633
1133.057480	-0.034297
1133.214604	-0.028327
1133.371710	-0.021725
1133.528797	-0.022814
1133.685866	-0.017278
1133.842917	-0.017155
1133.999950	-0.020333
1134.156964	-0.026533
1134.313960	-0.022414
1134.470938	-0.015485
1134.627898	-0.020167
1134.784840	-0.025552
1134.941763	-0.019189
1135.098668	-0.025158
1135.255555	-0.022231
1135.412424	-0.015878
1135.569274	-0.008612
1135.726107	-0.018195
1135.882921	-0.021550
1136.039716	-0.018084
1136.196494	-0.014527
1136.353253	-0.011840
1136.509995	-0.010793
1136.666717	-0.008480
1136.823422	-0.010395
1136.980109	-0.014207
1137.136777	-0.011820
1137.293427	-0.010533
1137.450059	-0.008898
1137.606672	-0.006663
1137.763267	-0.012857
1137.919844	-0.009947
1138.076403	-0.008144
1138.232944	-0.010813
1138.389466	-0.008592
1138.545971	-0.012136
1138.702457	-0.015936
1138.858924	-0.020744
1139.015374	-0.027526
1139.171805	-0.028739
1139.328218	-0.030330
1139.484613	-0.040329
1139.640990	-0.034757
1139.797348	-0.037653
1139.953688	-0.027040
1140.110010	-0.025430
1140.266314	-0.023441
1140.422600	-0.018939
1140.578867	-0.019990
1140.735116	-0.015394
1140.891347	-0.015091
1141.047559	-0.023223
1141.203754	-0.023013
1141.359930	-0.026266
1141.516088	-0.027668
1141.672228	-0.027559
1141.828349	-0.030505
1141.984452	-0.023138
1142.140537	-0.027489
1142.296604	-0.026289
1142.452653	-0.012863
1142.608683	-0.011120
1142.764695	-0.012607
1142.920689	-0.009399
1143.076665	-0.006929
1143.232622	-0.004194
1143.388562	-0.007042
1143.544483	-0.013561
1143.700385	-0.012603
1143.856270	-0.021389
1144.012136	-0.018136
1144.167985	-0.025988
1144.323814	-0.032476
1144.479626	-0.035181
1144.635420	-0.039589
1144.791195	-0.036719
1144.946952	-0.030765
1145.102691	-0.033146
1145.258411	-0.030254
1145.414113	-0.034313
1145.569798	-0.027823
1145.725463	-0.015939
1145.881111	-0.015241
1146.036741	-0.012522
1146.192352	-0.018774
1146.347945	-0.017085
1146.503519	-0.017011
1146.659076	-0.020707
1146.814614	-0.032400
1146.970134	-0.033328
1147.125636	-0.040279
1147.281120	-0.044701
1147.436585	-0.044813
1147.592032	-0.040651
1147.747461	-0.034432
1147.902872	-0.027628
1148.058265	-0.026714
1148.213639	-0.017065
1148.368995	-0.013280
1148.524333	-0.016045
1148.679653	-0.010417
1148.834954	-0.014373
1148.990237	-0.017802
1149.145502	-0.029281
1149.300749	-0.031867
1149.455977	-0.033390
1149.611188	-0.032042
1149.766380	-0.037639
1149.921553	-0.031928
1150.076709	-0.034724
1150.231846	-0.025020
1150.386966	-0.022820
1150.542066	-0.019947
1150.697149	-0.017040
1150.852214	-0.009942
1151.007260	-0.005140
1151.162288	0.004334
1151.317298	0.004093
1151.472289	-0.008367
1151.627263	-0.018507
1151.782218	-0.016720
1151.937155	-0.020538
1152.092073	-0.017999
1152.246974	-0.032487
1152.401856	-0.031684
1152.556720	-0.031754
1152.711566	-0.031054
1152.866393	-0.018772
1153.021203	-0.008746
1153.175994	-0.014083
1153.330767	-0.012257
1153.485521	-0.023316
1153.640258	-0.013347
1153.794976	-0.013909
1153.949676	-0.012695
1154.104358	-0.014434
1154.259021	-0.014786
1154.413667	-0.022107
1154.568294	-0.019857
1154.722903	-0.014331
1154.877493	-0.007891
1155.032066	-0.005367
1155.186620	-0.011711
1155.341156	-0.014429
1155.495674	-0.012837
1155.650173	-0.008822
1155.804654	-0.010798
1155.959118	-0.010549
1156.113562	-0.016047
1156.267989	-0.019815
1156.422397	-0.026606
1156.576788	-0.021405
1156.731160	-0.034859
1156.885513	-0.039908
1157.039849	-0.048590
1157.194166	-0.048831
1157.348465	-0.047499
1157.502746	-0.040116
1157.657009	-0.035320
1157.811253	-0.039817
1157.965479	-0.050848
1158.119687	-0.040053
1158.273877	-0.035441
1158.428048	-0.034357
1158.582201	-0.026949
1158.736337	-0.025650
1158.890453	-0.037979
1159.044552	-0.039709
1159.198632	-0.035306
1159.352694	-0.027303
1159.506738	-0.033373
1159.660764	-0.033916
1159.814771	-0.028747
1159.968761	-0.036299
1160.122732	-0.041763
1160.276685	-0.042345
1160.430619	-0.043105
1160.584535	-0.040267
1160.738434	-0.040949
1160.892313	-0.034489
1161.046175	-0.036473
1161.200019	-0.045256
1161.353844	-0.043261
1161.507651	-0.045016
1161.661440	-0.036365
1161.815210	-0.040779
1161.968962	-0.051407
1162.122697	-0.050480
1162.276412	-0.055899
1162.430110	-0.050075
1162.583789	-0.034492
1162.737451	-0.033636
1162.891094	-0.036362
1163.044718	-0.024600
1163.198325	-0.022860
1163.351913	-0.016432
1163.505483	-0.021952
1163.659035	-0.024184
1163.812569	-0.034265
1163.966084	-0.035271
1164.119581	-0.037093
1164.273060	-0.032146
1164.426521	-0.050092
1164.579964	-0.057564
1164.733388	-0.058010
1164.886794	-0.059122
1165.040182	-0.051901
1165.193551	-0.039416
1165.346903	-0.046343
1165.500236	-0.031266
1165.653551	-0.019832
1165.806848	-0.018659
1165.960126	-0.007756
1166.113386	-0.003758
1166.266628	0.008916
1166.419852	0.006611
1166.573058	-0.009582
1166.726245	-0.004370
1166.879414	-0.017648
1167.032565	-0.025393
1167.185698	-0.010897
1167.338812	-0.009730
1167.491909	0.000020
1167.644987	-0.000010
1167.798046	0.003635
1167.951088	0.006183
1168.104111	0.016941
1168.257117	0.004796
1168.410103	0.015185
1168.563072	0.004048
1168.716023	0.016175
1168.868955	0.023550
1169.021869	0.024261
1169.174765	0.025107
1169.327642	0.035722
1169.480501	0.017681
1169.633343	0.021726
1169.786165	0.015915
1169.938970	0.002199
1170.091757	-0.007031
1170.244525	-0.018459
1170.397275	-0.034081
1170.550007	-0.041692
1170.702720	-0.040583
1170.855415	-0.039673
1171.008092	-0.019322
1171.160751	-0.016902
1171.313392	0.009588
1171.466014	-0.042914
1171.618619	0.102752
1171.771205	0.102752
1171.923772	0.102752
