sample name	sample
index	585
start time	 03-16-2021  04:06:31 PM


Wavelength (nm)	Absorbance
494.344910	-0.553012
494.563924	-0.553012
494.782919	-0.553012
495.001897	NaN
495.220856	-0.331800
495.439797	-0.077100
495.658719	0.146514
495.877624	0.291336
496.096510	0.399292
496.315378	0.414845
496.534227	0.444153
496.753059	0.483539
496.971872	0.395748
497.190667	0.047986
497.409444	0.026637
497.628203	0.022111
497.846943	0.024333
498.065665	0.023855
498.284369	0.023032
498.503055	0.023292
498.721723	0.020398
498.940372	0.020575
499.159003	0.020140
499.377616	0.020447
499.596210	0.019221
499.814787	0.017963
500.033345	0.017466
500.251885	0.017100
500.470406	0.016173
500.688910	0.018189
500.907395	0.017407
501.125862	0.016564
501.344311	0.015775
501.562742	0.016328
501.781154	0.016323
501.999548	0.015621
502.217924	0.015774
502.436282	0.015968
502.654621	0.015116
502.872942	0.015516
503.091245	0.016342
503.309530	0.016524
503.527797	0.016984
503.746045	0.015904
503.964275	0.016807
504.182487	0.015307
504.400681	0.016418
504.618856	0.016779
504.837013	0.016748
505.055152	0.016259
505.273273	0.016237
505.491376	0.015677
505.709460	0.015970
505.927526	0.015304
506.145574	0.016042
506.363604	0.015212
506.581615	0.015255
506.799608	0.014517
507.017583	0.014849
507.235540	0.015489
507.453478	0.014975
507.671399	0.015052
507.889301	0.015417
508.107185	0.016101
508.325050	0.016746
508.542898	0.017081
508.760727	0.017185
508.978538	0.016015
509.196330	0.015131
509.414105	0.015180
509.631861	0.015304
509.849599	0.014660
510.067319	0.014321
510.285021	0.012738
510.502704	0.011833
510.720369	0.012232
510.938016	0.013285
511.155645	0.013451
511.373255	0.013790
511.590848	0.013572
511.808422	0.014113
512.025977	0.013928
512.243515	0.015094
512.461034	0.015618
512.678536	0.015670
512.896018	0.015804
513.113483	0.015484
513.330930	0.016000
513.548358	0.016393
513.765768	0.017025
513.983160	0.016632
514.200533	0.016456
514.417889	0.017138
514.635226	0.016587
514.852545	0.015879
515.069845	0.015593
515.287128	0.014227
515.504392	0.014282
515.721638	0.013536
515.938866	0.013330
516.156075	0.013594
516.373267	0.012687
516.590440	0.013024
516.807594	0.013570
517.024731	0.013814
517.241850	0.014597
517.458950	0.013581
517.676032	0.013784
517.893095	0.014411
518.110141	0.013700
518.327168	0.014046
518.544177	0.013921
518.761168	0.013499
518.978141	0.013815
519.195095	0.013835
519.412031	0.014669
519.628949	0.014341
519.845849	0.013498
520.062731	0.013962
520.279594	0.013516
520.496439	0.013583
520.713266	0.012955
520.930074	0.012996
521.146865	0.013264
521.363637	0.013608
521.580391	0.012750
521.797127	0.013610
522.013844	0.013040
522.230543	0.012937
522.447224	0.012376
522.663887	0.013226
522.880532	0.012747
523.097158	0.012369
523.313766	0.012308
523.530356	0.013041
523.746928	0.012828
523.963481	0.012722
524.180017	0.012630
524.396534	0.012825
524.613032	0.013159
524.829513	0.013814
525.045975	0.013878
525.262420	0.013715
525.478845	0.013160
525.695253	0.013136
525.911643	0.013817
526.128014	0.013893
526.344367	0.013633
526.560702	0.012846
526.777018	0.012348
526.993316	0.012508
527.209597	0.011961
527.425858	0.012622
527.642102	0.012985
527.858328	0.012885
528.074535	0.013153
528.290724	0.013656
528.506894	0.013632
528.723047	0.013310
528.939181	0.013144
529.155297	0.013567
529.371395	0.013605
529.587475	0.013619
529.803536	0.012652
530.019579	0.012734
530.235604	0.012334
530.451611	0.012416
530.667600	0.013178
530.883570	0.013364
531.099522	0.013078
531.315456	0.012902
531.531372	0.012388
531.747269	0.012767
531.963148	0.012802
532.179009	0.013087
532.394852	0.013534
532.610676	0.012749
532.826482	0.012590
533.042271	0.012970
533.258040	0.012540
533.473792	0.012687
533.689525	0.013127
533.905240	0.012854
534.120937	0.012319
534.336616	0.012033
534.552277	0.011670
534.767919	0.011734
534.983543	0.011102
535.199149	0.011726
535.414736	0.011790
535.630306	0.011478
535.845857	0.011364
536.061390	0.011416
536.276904	0.011858
536.492401	0.012764
536.707879	0.012919
536.923339	0.013497
537.138781	0.013166
537.354204	0.013433
537.569610	0.013554
537.784997	0.013777
538.000366	0.014007
538.215716	0.013761
538.431049	0.013530
538.646363	0.013359
538.861659	0.012390
539.076937	0.012165
539.292196	0.011769
539.507438	0.011253
539.722661	0.010825
539.937866	0.011016
540.153052	0.011055
540.368221	0.011215
540.583371	0.011276
540.798503	0.011967
541.013617	0.012135
541.228712	0.012635
541.443789	0.013257
541.658848	0.013731
541.873889	0.013537
542.088912	0.013104
542.303916	0.012903
542.518902	0.012952
542.733870	0.013112
542.948820	0.013491
543.163752	0.013008
543.378665	0.012736
543.593560	0.012673
543.808437	0.012849
544.023295	0.012789
544.238136	0.012769
544.452958	0.012658
544.667762	0.012224
544.882548	0.012165
545.097315	0.012164
545.312064	0.012072
545.526795	0.012050
545.741508	0.012346
545.956203	0.012743
546.170879	0.012829
546.385537	0.012977
546.600177	0.013274
546.814799	0.012841
547.029402	0.012854
547.243988	0.013347
547.458555	0.013346
547.673103	0.012928
547.887634	0.013139
548.102146	0.013029
548.316640	0.013006
548.531116	0.013231
548.745574	0.013570
548.960013	0.013593
549.174435	0.013185
549.388838	0.013069
549.603222	0.013351
549.817589	0.012767
550.031937	0.013225
550.246267	0.013205
550.460579	0.013493
550.674873	0.013274
550.889148	0.013280
551.103405	0.013572
551.317644	0.013789
551.531865	0.013322
551.746068	0.014197
551.960252	0.013879
552.174418	0.013853
552.388566	0.013709
552.602696	0.013225
552.816807	0.013444
553.030900	0.012878
553.244975	0.012895
553.459032	0.013303
553.673070	0.013011
553.887091	0.012545
554.101093	0.012510
554.315077	0.012118
554.529042	0.012506
554.742990	0.012202
554.956919	0.012349
555.170830	0.012057
555.384722	0.012369
555.598597	0.011971
555.812453	0.012197
556.026291	0.012498
556.240111	0.012259
556.453913	0.012341
556.667696	0.012420
556.881461	0.012305
557.095208	0.012569
557.308937	0.012274
557.522647	0.012296
557.736339	0.012380
557.950013	0.011900
558.163669	0.012378
558.377307	0.012451
558.590926	0.012244
558.804527	0.012614
559.018110	0.012330
559.231675	0.012365
559.445221	0.012258
559.658749	0.012228
559.872259	0.012343
560.085751	0.011887
560.299225	0.011826
560.512680	0.012137
560.726117	0.011832
560.939536	0.011792
561.152937	0.011667
561.366319	0.012198
561.579683	0.012112
561.793029	0.012149
562.006357	0.012550
562.219667	0.012942
562.432958	0.012672
562.646231	0.013131
562.859486	0.013003
563.072723	0.012753
563.285941	0.012600
563.499141	0.012840
563.712323	0.012850
563.925487	0.012772
564.138632	0.012693
564.351760	0.013087
564.564869	0.013104
564.777960	0.013135
564.991032	0.013106
565.204087	0.012757
565.417123	0.012454
565.630141	0.012727
565.843140	0.012522
566.056122	0.012355
566.269085	0.012152
566.482030	0.011911
566.694957	0.012007
566.907866	0.012365
567.120756	0.012737
567.333628	0.013154
567.546482	0.012709
567.759318	0.012825
567.972135	0.012474
568.184935	0.012375
568.397716	0.012518
568.610478	0.012534
568.823223	0.012465
569.035949	0.011977
569.248657	0.011979
569.461347	0.012135
569.674019	0.011869
569.886672	0.011994
570.099308	0.012200
570.311925	0.011951
570.524523	0.012143
570.737104	0.012028
570.949666	0.012411
571.162210	0.012375
571.374736	0.012467
571.587244	0.012848
571.799733	0.013134
572.012205	0.012826
572.224658	0.012781
572.437092	0.012969
572.649509	0.012844
572.861907	0.012663
573.074287	0.012427
573.286649	0.012221
573.498993	0.012015
573.711318	0.012037
573.923625	0.012051
574.135914	0.012117
574.348185	0.011848
574.560438	0.012123
574.772672	0.012316
574.984888	0.012653
575.197086	0.012667
575.409266	0.012665
575.621427	0.012542
575.833570	0.012545
576.045695	0.012636
576.257802	0.013040
576.469890	0.012666
576.681961	0.012354
576.894013	0.012002
577.106046	0.012243
577.318062	0.012490
577.530059	0.012624
577.742039	0.012657
577.954000	0.012558
578.165942	0.012061
578.377867	0.012421
578.589773	0.012590
578.801661	0.012438
579.013531	0.012518
579.225382	0.012440
579.437216	0.012408
579.649031	0.012656
579.860828	0.012440
580.072606	0.012385
580.284367	0.012076
580.496109	0.012492
580.707833	0.012759
580.919539	0.012769
581.131227	0.012624
581.342896	0.012637
581.554547	0.012637
581.766180	0.013134
581.977795	0.013578
582.189391	0.013921
582.400969	0.013663
582.612529	0.013817
582.824071	0.013557
583.035595	0.013446
583.247100	0.013593
583.458587	0.013448
583.670056	0.013547
583.881506	0.013290
584.092939	0.013153
584.304353	0.013086
584.515749	0.012952
584.727127	0.013169
584.938486	0.013492
585.149828	0.013566
585.361151	0.013705
585.572456	0.013343
585.783742	0.013063
585.995011	0.013543
586.206261	0.013570
586.417493	0.013463
586.628706	0.013080
586.839902	0.012948
587.051079	0.012566
587.262238	0.012300
587.473379	0.012711
587.684502	0.013393
587.895606	0.013040
588.106692	0.013085
588.317760	0.013476
588.528810	0.013521
588.739841	0.013735
588.950855	0.013708
589.161850	0.013871
589.372827	0.013407
589.583785	0.012994
589.794726	0.012661
590.005648	0.012771
590.216552	0.012398
590.427437	0.012501
590.638305	0.012345
590.849154	0.012718
591.059985	0.012780
591.270798	0.012997
591.481592	0.013089
591.692369	0.013405
591.903127	0.013146
592.113867	0.013061
592.324588	0.013242
592.535292	0.013278
592.745977	0.012728
592.956644	0.012863
593.167293	0.012869
593.377923	0.012733
593.588536	0.012768
593.799130	0.012863
594.009706	0.013075
594.220263	0.012852
594.430803	0.012921
594.641324	0.013160
594.851827	0.012777
595.062312	0.012453
595.272778	0.012630
595.483227	0.012578
595.693657	0.012811
595.904069	0.012692
596.114462	0.012702
596.324838	0.012603
596.535195	0.012662
596.745534	0.012896
596.955855	0.013033
597.166157	0.012528
597.376441	0.012616
597.586707	0.012727
597.796955	0.012890
598.007185	0.013020
598.217396	0.013112
598.427589	0.013140
598.637764	0.013146
598.847921	0.013088
599.058060	0.013428
599.268180	0.013421
599.478282	0.012865
599.688366	0.012652
599.898431	0.012612
600.108479	0.012236
600.318508	0.012316
600.528519	0.012367
600.738511	0.012918
600.948486	0.012960
601.158442	0.012856
601.368380	0.012783
601.578300	0.013031
601.788202	0.013075
601.998085	0.013298
602.207950	0.013311
602.417797	0.013221
602.627626	0.012908
602.837436	0.012861
603.047228	0.012830
603.257002	0.012663
603.466758	0.012575
603.676496	0.012554
603.886215	0.012739
604.095916	0.012527
604.305599	0.012492
604.515264	0.012441
604.724910	0.012586
604.934538	0.012658
605.144148	0.013086
605.353740	0.013206
605.563314	0.013154
605.772869	0.013228
605.982406	0.013174
606.191925	0.013456
606.401425	0.013444
606.610908	0.013256
606.820372	0.012976
607.029818	0.012815
607.239246	0.012867
607.448655	0.013021
607.658047	0.012935
607.867420	0.013053
608.076775	0.012620
608.286111	0.012748
608.495430	0.012924
608.704730	0.013162
608.914012	0.013400
609.123275	0.013287
609.332521	0.013369
609.541748	0.013051
609.750957	0.013049
609.960148	0.013361
610.169321	0.013420
610.378475	0.013213
610.587611	0.013190
610.796729	0.013114
611.005829	0.013405
611.214910	0.013100
611.423974	0.013293
611.633019	0.013386
611.842045	0.013046
612.051054	0.012762
612.260044	0.012951
612.469017	0.012805
612.677970	0.012728
612.886906	0.012262
613.095824	0.012600
613.304723	0.012657
613.513604	0.012603
613.722467	0.012900
613.931311	0.013116
614.140138	0.013267
614.348946	0.013284
614.557736	0.013346
614.766507	0.013517
614.975261	0.013472
615.183996	0.013449
615.392713	0.013500
615.601412	0.013458
615.810092	0.013259
616.018754	0.013254
616.227399	0.013436
616.436024	0.013260
616.644632	0.013228
616.853222	0.013201
617.061793	0.013237
617.270346	0.013161
617.478880	0.013050
617.687397	0.013066
617.895895	0.013102
618.104375	0.013021
618.312837	0.013207
618.521281	0.013059
618.729706	0.013077
618.938113	0.012847
619.146502	0.013039
619.354873	0.013233
619.563226	0.013350
619.771560	0.013115
619.979876	0.013243
620.188174	0.013277
620.396453	0.013389
620.604715	0.013323
620.812958	0.013271
621.021183	0.013117
621.229390	0.012833
621.437578	0.012821
621.645748	0.013018
621.853900	0.013014
622.062034	0.013033
622.270150	0.013098
622.478247	0.012878
622.686326	0.013120
622.894387	0.013081
623.102430	0.013464
623.310454	0.013467
623.518461	0.013664
623.726449	0.013770
623.934418	0.013688
624.142370	0.013583
624.350303	0.014068
624.558218	0.014303
624.766115	0.014189
624.973994	0.014080
625.181855	0.014225
625.389697	0.013862
625.597521	0.013786
625.805327	0.014112
626.013114	0.014146
626.220883	0.013869
626.428634	0.013564
626.636367	0.013834
626.844082	0.013856
627.051778	0.013774
627.259457	0.013752
627.467117	0.013624
627.674758	0.013346
627.882382	0.013468
628.089987	0.013533
628.297574	0.013586
628.505143	0.013340
628.712694	0.013107
628.920226	0.013179
629.127740	0.013483
629.335236	0.013533
629.542714	0.013461
629.750174	0.013446
629.957615	0.013575
630.165038	0.013639
630.372443	0.013812
630.579829	0.013852
630.787198	0.013968
630.994548	0.013587
631.201880	0.013741
631.409194	0.013974
631.616489	0.014136
631.823766	0.014053
632.031025	0.014062
632.238266	0.014140
632.445489	0.014285
632.652693	0.014100
632.859879	0.014410
633.067047	0.014380
633.274197	0.014508
633.481329	0.014457
633.688442	0.014514
633.895537	0.014542
634.102614	0.014465
634.309672	0.014674
634.516713	0.014871
634.723735	0.014705
634.930739	0.014588
635.137724	0.014526
635.344692	0.014567
635.551641	0.014621
635.758572	0.014489
635.965485	0.014460
636.172379	0.014351
636.379256	0.014101
636.586114	0.014323
636.792954	0.014426
636.999775	0.014245
637.206579	0.014033
637.413364	0.013750
637.620131	0.013764
637.826880	0.013808
638.033610	0.013765
638.240323	0.013897
638.447017	0.013792
638.653692	0.013820
638.860350	0.014155
639.066990	0.014392
639.273611	0.014608
639.480214	0.014816
639.686798	0.014751
639.893365	0.014811
640.099913	0.014997
640.306443	0.015021
640.512955	0.014987
640.719449	0.014726
640.925924	0.014707
641.132381	0.014701
641.338820	0.014625
641.545241	0.014769
641.751644	0.014766
641.958028	0.014875
642.164394	0.015025
642.370742	0.015310
642.577071	0.015508
642.783383	0.015289
642.989676	0.015419
643.195951	0.015676
643.402207	0.015734
643.608446	0.015850
643.814666	0.015725
644.020868	0.015689
644.227052	0.015474
644.433218	0.015361
644.639365	0.015502
644.845494	0.015354
645.051605	0.015144
645.257698	0.015121
645.463772	0.015019
645.669828	0.015040
645.875866	0.014829
646.081886	0.014770
646.287888	0.014782
646.493871	0.014997
646.699836	0.015092
646.905783	0.015298
647.111712	0.015283
647.317622	0.014976
647.523514	0.014842
647.729388	0.015015
647.935244	0.015133
648.141082	0.015129
648.346901	0.015011
648.552702	0.014740
648.758485	0.014632
648.964250	0.014615
649.169996	0.014925
649.375724	0.014876
649.581434	0.014996
649.787126	0.015021
649.992800	0.015021
650.198455	0.014962
650.404092	0.015244
650.609711	0.015171
650.815311	0.015266
651.020894	0.015200
651.226458	0.015247
651.432004	0.015155
651.637532	0.015233
651.843041	0.015054
652.048532	0.014668
652.254006	0.014566
652.459460	0.014531
652.664897	0.014677
652.870315	0.014912
653.075716	0.015080
653.281097	0.015039
653.486461	0.014821
653.691807	0.014788
653.897134	0.015182
654.102443	0.015147
654.307734	0.015162
654.513006	0.014994
654.718261	0.014904
654.923497	0.014745
655.128715	0.014714
655.333915	0.014799
655.539096	0.014971
655.744259	0.014929
655.949404	0.015104
656.154531	0.015226
656.359640	0.015261
656.564730	0.015048
656.769802	0.015187
656.974856	0.015232
657.179892	0.015462
657.384909	0.015597
657.589908	0.015671
657.794889	0.015508
657.999852	0.015544
658.204797	0.015560
658.409723	0.015746
658.614631	0.015729
658.819521	0.015672
659.024393	0.015441
659.229246	0.015395
659.434081	0.015581
659.638898	0.015646
659.843697	0.015756
660.048478	0.015837
660.253240	0.015733
660.457984	0.015750
660.662710	0.015780
660.867417	0.015755
661.072107	0.015582
661.276778	0.015431
661.481431	0.015471
661.686066	0.015472
661.890682	0.015541
662.095281	0.015869
662.299861	0.016005
662.504422	0.016125
662.708966	0.016174
662.913491	0.016364
663.117999	0.016250
663.322488	0.016288
663.526958	0.015902
663.731411	0.015917
663.935845	0.015961
664.140261	0.015828
664.344659	0.015860
664.549038	0.015988
664.753400	0.016230
664.957743	0.016734
665.162068	0.016650
665.366375	0.016869
665.570663	0.016996
665.774933	0.016985
665.979185	0.016763
666.183419	0.016675
666.387635	0.016735
666.591832	0.016665
666.796011	0.016534
667.000172	0.016589
667.204315	0.016792
667.408439	0.016789
667.612545	0.016654
667.816634	0.016984
668.020703	0.016981
668.224755	0.017013
668.428788	0.016926
668.632803	0.016718
668.836800	0.016818
669.040779	0.016718
669.244739	0.016642
669.448681	0.016761
669.652605	0.016588
669.856511	0.016514
670.060399	0.016357
670.264268	0.016407
670.468119	0.016300
670.671952	0.016334
670.875767	0.016233
671.079563	0.016156
671.283341	0.015980
671.487101	0.016190
671.690843	0.016244
671.894567	0.016299
672.098272	0.016250
672.301959	0.016431
672.505628	0.016447
672.709278	0.016525
672.912911	0.016509
673.116525	0.016635
673.320121	0.016752
673.523699	0.016735
673.727258	0.016744
673.930799	0.016866
674.134322	0.016766
674.337827	0.016669
674.541314	0.016761
674.744782	0.016684
674.948232	0.016641
675.151664	0.016543
675.355078	0.016760
675.558474	0.016671
675.761851	0.016620
675.965210	0.016732
676.168551	0.016804
676.371873	0.016699
676.575178	0.016530
676.778464	0.016427
676.981732	0.016517
677.184981	0.016552
677.388213	0.016636
677.591426	0.016576
677.794621	0.016600
677.997798	0.016626
678.200956	0.016833
678.404097	0.016992
678.607219	0.017290
678.810323	0.017202
679.013408	0.017304
679.216476	0.017398
679.419525	0.017311
679.622556	0.017466
679.825569	0.017490
680.028563	0.017172
680.231540	0.017255
680.434498	0.017061
680.637438	0.017014
680.840359	0.016829
681.043263	0.016907
681.246148	0.017072
681.449015	0.016972
681.651864	0.016925
681.854694	0.016960
682.057506	0.017218
682.260301	0.017388
682.463076	0.017392
682.665834	0.017437
682.868573	0.017579
683.071295	0.017584
683.273998	0.017455
683.476682	0.017580
683.679349	0.017737
683.881997	0.017553
684.084627	0.017571
684.287239	0.017623
684.489833	0.017833
684.692408	0.017558
684.894965	0.017544
685.097504	0.017765
685.300025	0.017601
685.502527	0.017653
685.705012	0.017730
685.907478	0.017793
686.109925	0.017817
686.312355	0.017616
686.514766	0.017711
686.717159	0.017768
686.919534	0.017732
687.121891	0.018060
687.324230	0.018172
687.526550	0.018073
687.728852	0.017959
687.931136	0.017952
688.133401	0.017953
688.335649	0.018098
688.537878	0.018064
688.740089	0.018076
688.942281	0.017879
689.144456	0.017720
689.346612	0.017852
689.548750	0.017825
689.750870	0.017828
689.952971	0.017983
690.155055	0.017877
690.357120	0.017816
690.559167	0.017473
690.761195	0.017572
690.963206	0.017738
691.165198	0.017669
691.367172	0.017712
691.569128	0.017691
691.771065	0.017569
691.972984	0.017584
692.174885	0.017739
692.376768	0.018025
692.578633	0.017916
692.780479	0.017906
692.982308	0.017907
693.184118	0.017955
693.385909	0.017796
693.587683	0.017880
693.789438	0.017847
693.991175	0.017894
694.192894	0.017963
694.394595	0.017930
694.596277	0.017843
694.797941	0.017724
694.999587	0.017636
695.201215	0.017859
695.402824	0.017968
695.604416	0.017900
695.805989	0.017934
696.007543	0.017960
696.209080	0.018268
696.410598	0.018594
696.612099	0.018735
696.813580	0.018868
697.015044	0.018973
697.216490	0.018744
697.417917	0.019013
697.619326	0.019059
697.820717	0.019092
698.022089	0.018946
698.223444	0.018662
698.424780	0.018774
698.626098	0.018626
698.827397	0.018515
699.028679	0.018584
699.229942	0.018250
699.431187	0.018323
699.632414	0.018228
699.833622	0.018150
700.034813	0.018213
700.235985	0.018026
700.437139	0.018340
700.638274	0.018285
700.839392	0.018326
701.040491	0.018522
701.241572	0.018269
701.442635	0.018617
701.643679	0.018770
701.844706	0.018759
702.045714	0.018898
702.246704	0.018903
702.447675	0.019031
702.648629	0.019050
702.849564	0.019066
703.050481	0.019250
703.251380	0.018883
703.452260	0.018615
703.653122	0.018772
703.853966	0.018869
704.054792	0.018621
704.255600	0.018534
704.456389	0.018657
704.657160	0.018596
704.857913	0.018628
705.058648	0.018716
705.259365	0.018920
705.460063	0.018938
705.660743	0.018827
705.861405	0.018855
706.062048	0.019022
706.262674	0.018857
706.463281	0.018978
706.663870	0.018607
706.864441	0.018439
707.064993	0.018495
707.265527	0.018237
707.466043	0.018485
707.666541	0.018536
707.867021	0.018370
708.067482	0.018550
708.267925	0.018506
708.468350	0.018774
708.668757	0.019087
708.869145	0.019192
709.069516	0.019253
709.269868	0.019075
709.470201	0.019062
709.670517	0.018877
709.870814	0.018666
710.071093	0.018543
710.271354	0.018437
710.471597	0.018443
710.671821	0.018303
710.872028	0.018176
711.072216	0.018224
711.272385	0.018418
711.472537	0.018661
711.672670	0.018765
711.872785	0.018897
712.072882	0.018694
712.272961	0.018494
712.473021	0.018249
712.673063	0.018369
712.873087	0.018115
713.073093	0.017676
713.273081	0.017725
713.473050	0.017727
713.673001	0.017764
713.872934	0.017905
714.072849	0.017921
714.272745	0.018162
714.472623	0.018115
714.672483	0.018038
714.872325	0.018256
715.072148	0.018085
715.271954	0.018142
715.471741	0.017880
715.671509	0.017865
715.871260	0.017828
716.070992	0.017691
716.270707	0.017704
716.470403	0.017911
716.670080	0.017871
716.869740	0.017821
717.069381	0.017415
717.269004	0.017551
717.468609	0.017421
717.668195	0.017529
717.867764	0.017689
718.067314	0.017699
718.266846	0.017612
718.466360	0.017384
718.665855	0.017219
718.865332	0.017307
719.064791	0.017240
719.264232	0.017438
719.463655	0.017180
719.663059	0.017146
719.862445	0.016999
720.061813	0.016911
720.261163	0.017099
720.460494	0.017379
720.659807	0.017419
720.859102	0.017385
721.058379	0.017325
721.257638	0.017477
721.456878	0.017281
721.656100	0.017299
721.855304	0.017353
722.054490	0.017193
722.253657	0.016885
722.452806	0.016943
722.651937	0.016727
722.851050	0.016667
723.050145	0.016627
723.249221	0.016627
723.448279	0.016545
723.647319	0.016542
723.846340	0.016583
724.045344	0.016690
724.244329	0.016634
724.443296	0.016948
724.642245	0.017114
724.841175	0.017156
725.040088	0.017134
725.238982	0.017496
725.437857	0.017408
725.636715	0.017394
725.835554	0.017416
726.034376	0.017302
726.233179	0.017269
726.431963	0.017047
726.630730	0.016921
726.829478	0.016816
727.028208	0.016513
727.226920	0.016442
727.425614	0.016335
727.624289	0.016249
727.822946	0.016289
728.021585	0.016067
728.220206	0.015939
728.418808	0.015885
728.617392	0.015930
728.815958	0.015825
729.014506	0.015678
729.213036	0.015578
729.411547	0.015520
729.610040	0.015536
729.808515	0.015590
730.006972	0.015592
730.205410	0.015470
730.403831	0.015388
730.602233	0.015416
730.800616	0.015554
730.998982	0.015610
731.197329	0.015782
731.395658	0.015670
731.593969	0.015490
731.792262	0.015571
731.990536	0.015775
732.188793	0.015807
732.387031	0.015859
732.585250	0.015793
732.783452	0.015865
732.981635	0.015749
733.179800	0.015885
733.377947	0.015968
733.576076	0.015938
733.774186	0.015719
733.972278	0.015591
734.170352	0.015576
734.368408	0.015462
734.566446	0.015461
734.764465	0.015616
734.962466	0.015589
735.160449	0.015760
735.358413	0.015679
735.556360	0.015771
735.754288	0.015905
735.952198	0.015836
736.150090	0.016020
736.347963	0.016031
736.545818	0.015860
736.743655	0.015614
736.941474	0.015546
737.139275	0.015665
737.337057	0.015352
737.534821	0.015122
737.732567	0.014977
737.930295	0.014812
738.128005	0.014595
738.325696	0.014352
738.523369	0.014489
738.721024	0.014503
738.918660	0.014306
739.116279	0.014316
739.313879	0.014244
739.511461	0.014380
739.709024	0.014318
739.906570	0.014268
740.104097	0.014398
740.301606	0.014676
740.499097	0.014476
740.696569	0.014407
740.894024	0.014514
741.091460	0.014645
741.288878	0.014439
741.486277	0.014719
741.683659	0.014773
741.881022	0.014734
742.078367	0.014311
742.275694	0.014283
742.473002	0.014374
742.670293	0.014424
742.867565	0.014364
743.064819	0.014482
743.262054	0.014202
743.459272	0.014241
743.656471	0.014201
743.853652	0.014150
744.050815	0.014237
744.247959	0.014082
744.445085	0.014136
744.642194	0.014316
744.839283	0.014232
745.036355	0.014423
745.233408	0.014323
745.430444	0.014307
745.627461	0.014247
745.824459	0.014227
746.021440	0.014349
746.218402	0.014095
746.415346	0.013929
746.612272	0.013962
746.809180	0.013909
747.006069	0.013905
747.202940	0.014003
747.399793	0.014112
747.596628	0.014114
747.793444	0.014120
747.990243	0.014212
748.187023	0.014086
748.383784	0.014150
748.580528	0.014111
748.777253	0.014291
748.973960	0.014252
749.170649	0.014377
749.367320	0.014175
749.563973	0.014260
749.760607	0.014303
749.957223	0.014545
750.153821	0.014580
750.350400	0.014481
750.546962	0.014270
750.743505	0.014524
750.940030	0.014399
751.136536	0.014353
751.333025	0.014248
751.529495	0.014089
751.725947	0.014001
751.922381	0.013823
752.118796	0.013946
752.315194	0.014198
752.511573	0.014130
752.707934	0.014214
752.904276	0.014265
753.100601	0.014290
753.296907	0.014456
753.493195	0.014600
753.689465	0.014545
753.885716	0.014492
754.081949	0.014469
754.278164	0.014262
754.474361	0.014287
754.670540	0.014567
754.866700	0.014591
755.062843	0.014584
755.258967	0.014194
755.455072	0.014317
755.651160	0.014160
755.847229	0.014012
756.043280	0.014005
756.239313	0.014108
756.435328	0.014056
756.631324	0.014039
756.827302	0.014250
757.023262	0.014419
757.219204	0.014508
757.415127	0.014662
757.611033	0.014814
757.806920	0.014961
758.002788	0.014877
758.198639	0.014782
758.394471	0.014761
758.590286	0.014482
758.786081	0.014818
758.981859	0.014771
759.177619	0.014870
759.373360	0.014738
759.569083	0.014678
759.764788	0.014584
759.960474	0.014579
760.156143	0.014793
760.351793	0.015001
760.547425	0.014855
760.743038	0.014836
760.938634	0.014732
761.134211	0.014938
761.329770	0.015085
761.525311	0.015261
761.720833	0.015371
761.916338	0.015382
762.111824	0.015299
762.307292	0.015226
762.502741	0.015084
762.698173	0.015245
762.893586	0.015116
763.088981	0.014902
763.284358	0.014721
763.479716	0.014728
763.675057	0.014452
763.870379	0.014510
764.065683	0.014422
764.260968	0.014703
764.456236	0.014781
764.651485	0.014913
764.846716	0.014999
765.041929	0.014861
765.237123	0.014816
765.432299	0.014785
765.627457	0.014629
765.822597	0.014656
766.017719	0.014581
766.212822	0.014347
766.407907	0.014329
766.602974	0.014522
766.798023	0.014978
766.993054	0.014917
767.188066	0.015236
767.383060	0.015381
767.578036	0.015537
767.772993	0.015441
767.967933	0.015479
768.162854	0.015327
768.357757	0.015294
768.552642	0.014962
768.747508	0.015077
768.942356	0.014955
769.137186	0.015061
769.331998	0.015091
769.526792	0.015210
769.721567	0.015200
769.916324	0.015353
770.111063	0.015165
770.305784	0.015240
770.500486	0.015285
770.695171	0.015311
770.889837	0.015231
771.084484	0.015252
771.279114	0.015398
771.473725	0.015437
771.668318	0.015331
771.862893	0.015358
772.057450	0.015399
772.251988	0.015377
772.446509	0.015388
772.641011	0.015387
772.835494	0.015313
773.029960	0.015086
773.224407	0.014995
773.418836	0.015060
773.613247	0.015117
773.807640	0.014963
774.002014	0.014935
774.196370	0.015004
774.390708	0.015181
774.585028	0.015336
774.779330	0.015595
774.973613	0.015922
775.167878	0.015987
775.362125	0.015957
775.556354	0.016190
775.750564	0.016216
775.944756	0.016170
776.138930	0.015988
776.333086	0.015921
776.527223	0.015816
776.721343	0.015598
776.915444	0.015376
777.109526	0.015480
777.303591	0.015349
777.497637	0.015313
777.691666	0.015417
777.885676	0.015581
778.079667	0.015467
778.273641	0.015342
778.467596	0.015438
778.661533	0.015658
778.855452	0.015672
779.049352	0.015752
779.243235	0.015890
779.437099	0.015671
779.630945	0.015692
779.824773	0.015679
780.018582	0.015927
780.212373	0.016101
780.406146	0.016211
780.599901	0.016117
780.793638	0.016210
780.987356	0.016051
781.181056	0.016338
781.374738	0.016299
781.568402	0.016501
781.762047	0.016247
781.955674	0.016111
782.149283	0.016134
782.342874	0.016029
782.536447	0.015842
782.730001	0.015868
782.923537	0.015827
783.117055	0.015936
783.310555	0.015890
783.504036	0.016105
783.697499	0.015963
783.890944	0.015799
784.084371	0.015660
784.277780	0.015583
784.471170	0.015570
784.664542	0.015477
784.857896	0.015489
785.051231	0.015438
785.244549	0.015489
785.437848	0.015647
785.631129	0.015670
785.824392	0.016113
786.017636	0.016514
786.210863	0.016617
786.404071	0.016598
786.597260	0.016328
786.790432	0.016386
786.983585	0.016263
787.176721	0.016047
787.369838	0.016179
787.562936	0.016094
787.756017	0.016094
787.949079	0.016017
788.142123	0.015847
788.335149	0.015787
788.528156	0.015793
788.721146	0.015806
788.914117	0.015938
789.107070	0.015802
789.300005	0.015949
789.492921	0.015834
789.685819	0.016090
789.878699	0.016495
790.071561	0.016828
790.264405	0.016754
790.457230	0.016824
790.650037	0.017048
790.842826	0.017054
791.035597	0.016912
791.228349	0.016896
791.421084	0.016958
791.613800	0.016929
791.806497	0.016947
791.999177	0.017027
792.191838	0.017200
792.384481	0.017102
792.577106	0.017047
792.769713	0.017234
792.962301	0.017218
793.154871	0.017111
793.347423	0.016804
793.539957	0.016686
793.732473	0.016640
793.924970	0.016520
794.117449	0.016575
794.309910	0.016661
794.502353	0.016417
794.694777	0.016412
794.887183	0.016482
795.079571	0.017065
795.271941	0.016998
795.464293	0.017165
795.656626	0.017059
795.848941	0.017077
796.041238	0.017328
796.233516	0.017421
796.425777	0.017790
796.618019	0.017650
796.810243	0.017303
797.002449	0.017289
797.194636	0.017375
797.386805	0.017583
797.578956	0.017510
797.771089	0.017540
797.963204	0.017762
798.155300	0.017673
798.347378	0.017774
798.539438	0.018015
798.731480	0.018158
798.923503	0.018060
799.115509	0.018087
799.307496	0.018096
799.499465	0.017955
799.691415	0.017781
799.883348	0.017749
800.075262	0.017893
800.267158	0.017624
800.459035	0.017620
800.650895	0.017656
800.842736	0.017378
801.034559	0.017346
801.226364	0.017287
801.418150	0.017309
801.609919	0.017127
801.801669	0.016997
801.993401	0.017279
802.185114	0.017429
802.376810	0.017516
802.568487	0.017609
802.760146	0.017802
802.951787	0.018047
803.143409	0.018045
803.335014	0.018042
803.526600	0.017893
803.718168	0.017659
803.909717	0.017587
804.101249	0.017521
804.292762	0.017635
804.484257	0.017645
804.675734	0.017401
804.867192	0.017532
805.058632	0.017652
805.250054	0.017771
805.441458	0.017906
805.632844	0.017953
805.824211	0.017916
806.015561	0.018160
806.206891	0.018128
806.398204	0.018274
806.589499	0.018256
806.780775	0.018385
806.972033	0.018516
807.163273	0.018479
807.354495	0.018615
807.545698	0.018810
807.736883	0.018686
807.928050	0.018698
808.119199	0.018807
808.310329	0.018954
808.501441	0.018677
808.692535	0.018923
808.883611	0.018704
809.074669	0.018563
809.265708	0.018419
809.456729	0.018536
809.647732	0.018484
809.838717	0.018673
810.029683	0.018414
810.220632	0.018428
810.411562	0.018159
810.602474	0.018596
810.793367	0.018605
810.984242	0.018847
811.175100	0.018754
811.365938	0.018859
811.556759	0.018542
811.747562	0.018719
811.938346	0.019168
812.129112	0.019228
812.319860	0.019147
812.510589	0.019335
812.701300	0.019417
812.891994	0.019488
813.082668	0.019322
813.273325	0.019505
813.463964	0.019582
813.654584	0.019189
813.845186	0.019092
814.035769	0.019001
814.226335	0.018502
814.416882	0.018323
814.607411	0.018257
814.797922	0.018496
814.988415	0.018261
815.178889	0.018194
815.369345	0.018513
815.559783	0.018630
815.750203	0.018859
815.940605	0.018998
816.130988	0.018938
816.321353	0.019007
816.511700	0.019106
816.702028	0.019451
816.892339	0.019562
817.082631	0.019452
817.272905	0.019522
817.463161	0.019225
817.653398	0.019451
817.843617	0.019613
818.033819	0.019487
818.224001	0.019456
818.414166	0.019176
818.604312	0.019160
818.794440	0.019166
818.984550	0.019211
819.174642	0.019353
819.364716	0.019381
819.554771	0.019109
819.744808	0.019095
819.934827	0.019210
820.124827	0.019328
820.314810	0.019255
820.504774	0.019360
820.694720	0.019096
820.884647	0.019050
821.074557	0.019015
821.264448	0.019070
821.454321	0.019097
821.644176	0.018898
821.834012	0.018665
822.023831	0.018584
822.213631	0.018251
822.403413	0.018258
822.593176	0.018341
822.782922	0.018400
822.972649	0.018475
823.162358	0.018720
823.352049	0.018481
823.541721	0.018800
823.731376	0.018744
823.921012	0.019113
824.110629	0.019137
824.300229	0.019091
824.489811	0.018961
824.679374	0.018843
824.868919	0.018405
825.058445	0.018456
825.247954	0.018442
825.437444	0.018574
825.626916	0.018179
825.816370	0.018238
826.005806	0.018176
826.195223	0.018299
826.384622	0.018450
826.574003	0.018710
826.763366	0.018635
826.952711	0.018324
827.142037	0.018203
827.331345	0.018288
827.520635	0.018502
827.709906	0.018535
827.899160	0.018427
828.088395	0.018318
828.277612	0.018256
828.466810	0.018649
828.655991	0.019128
828.845153	0.019328
829.034297	0.019603
829.223423	0.019515
829.412531	0.019585
829.601620	0.019904
829.790691	0.020007
829.979744	0.020099
830.168779	0.020133
830.357795	0.019854
830.546793	0.019740
830.735773	0.019633
830.924735	0.019585
831.113679	0.019606
831.302604	0.019419
831.491511	0.019558
831.680400	0.019603
831.869271	0.019442
832.058123	0.019699
832.246957	0.019833
832.435773	0.020124
832.624571	0.020166
832.813351	0.020254
833.002112	0.020254
833.190855	0.020055
833.379580	0.019966
833.568287	0.019848
833.756975	0.019899
833.945645	0.019865
834.134297	0.019566
834.322931	0.019367
834.511547	0.019357
834.700144	0.019341
834.888723	0.019588
835.077284	0.019695
835.265826	0.019966
835.454351	0.019909
835.642857	0.020162
835.831345	0.020335
836.019815	0.020557
836.208266	0.020753
836.396699	0.020681
836.585114	0.020826
836.773511	0.020775
836.961890	0.020832
837.150250	0.020761
837.338592	0.020474
837.526916	0.020267
837.715222	0.020341
837.903510	0.020219
838.091779	0.020520
838.280030	0.020279
838.468263	0.020407
838.656477	0.020338
838.844674	0.020242
839.032852	0.020258
839.221012	0.020579
839.409153	0.020645
839.597277	0.020860
839.785382	0.020834
839.973469	0.021028
840.161538	0.021132
840.349589	0.021129
840.537621	0.021299
840.725635	0.021373
840.913631	0.021177
841.101609	0.021248
841.289568	0.021111
841.477509	0.021167
841.665432	0.020984
841.853337	0.020837
842.041224	0.020906
842.229092	0.020749
842.416942	0.020807
842.604774	0.021118
842.792588	0.021160
842.980383	0.021264
843.168160	0.021092
843.355919	0.021283
843.543660	0.021388
843.731382	0.021492
843.919087	0.021540
844.106773	0.021461
844.294441	0.021383
844.482090	0.021351
844.669722	0.021336
844.857335	0.021486
845.044930	0.021566
845.232507	0.021681
845.420065	0.021828
845.607605	0.022064
845.795127	0.022302
845.982631	0.022118
846.170117	0.021924
846.357584	0.022031
846.545033	0.022408
846.732464	0.022277
846.919877	0.022229
847.107272	0.021733
847.294648	0.021624
847.482006	0.021535
847.669346	0.021847
847.856667	0.022207
848.043971	0.022053
848.231256	0.021813
848.418523	0.022084
848.605771	0.022272
848.793002	0.022542
848.980214	0.022555
849.167408	0.022626
849.354584	0.022510
849.541742	0.022536
849.728881	0.022963
849.916002	0.023065
850.103105	0.022958
850.290190	0.022826
850.477256	0.023249
850.664304	0.023311
850.851334	0.023657
851.038346	0.023978
851.225340	0.024134
851.412315	0.023760
851.599272	0.023545
851.786211	0.023615
851.973132	0.023704
852.160034	0.023495
852.346918	0.023907
852.533784	0.023826
852.720632	0.023772
852.907462	0.023643
853.094273	0.023826
853.281066	0.024333
853.467841	0.024581
853.654598	0.024489
853.841336	0.024382
854.028056	0.024111
854.214758	0.024077
854.401442	0.023976
854.588107	0.023939
854.774755	0.024202
854.961384	0.024168
855.147995	0.024125
855.334587	0.024830
855.521162	0.025120
855.707718	0.024931
855.894256	0.024926
856.080775	0.024884
856.267277	0.025037
856.453760	0.024658
856.640225	0.024764
856.826672	0.024644
857.013101	0.024409
857.199511	0.024533
857.385903	0.024821
857.572277	0.025127
857.758633	0.025197
857.944970	0.025213
858.131290	0.025364
858.317591	0.025474
858.503873	0.025977
858.690138	0.025663
858.876384	0.025577
859.062612	0.025885
859.248822	0.025811
859.435014	0.026056
859.621188	0.026247
859.807343	0.026323
859.993480	0.026023
860.179599	0.025648
860.365699	0.025699
860.551781	0.025755
860.737846	0.025531
860.923891	0.025457
861.109919	0.025477
861.295929	0.025359
861.481920	0.025250
861.667893	0.025480
861.853848	0.025473
862.039784	0.025841
862.225702	0.025580
862.411603	0.025925
862.597484	0.026036
862.783348	0.025837
862.969193	0.025731
863.155021	0.025927
863.340830	0.025715
863.526620	0.025596
863.712393	0.025159
863.898147	0.025266
864.083883	0.025043
864.269601	0.025013
864.455301	0.025232
864.640982	0.025197
864.826645	0.025079
865.012290	0.025071
865.197917	0.025364
865.383526	0.025597
865.569116	0.025809
865.754688	0.026037
865.940242	0.025940
866.125777	0.026262
866.311295	0.026571
866.496794	0.026670
866.682275	0.026992
866.867737	0.027093
867.053182	0.027334
867.238608	0.027321
867.424016	0.027430
867.609406	0.027652
867.794778	0.027181
867.980131	0.027102
868.165466	0.027616
868.350783	0.027429
868.536082	0.027464
868.721362	0.027359
868.906625	0.027594
869.091869	0.027544
869.277094	0.027598
869.462302	0.028099
869.647491	0.028252
869.832662	0.027699
870.017815	0.027749
870.202950	0.027599
870.388066	0.027504
870.573165	0.027298
870.758245	0.027243
870.943306	0.027430
871.128350	0.027080
871.313375	0.026785
871.498382	0.027024
871.683371	0.026779
871.868342	0.026873
872.053294	0.026964
872.238229	0.027313
872.423144	0.027271
872.608042	0.027370
872.792922	0.027475
872.977783	0.027882
873.162626	0.027854
873.347451	0.028111
873.532258	0.028093
873.717046	0.028378
873.901816	0.028067
874.086568	0.028225
874.271302	0.028118
874.456017	0.028205
874.640715	0.027954
874.825394	0.028043
875.010055	0.028283
875.194697	0.028277
875.379322	0.028300
875.563928	0.028520
875.748516	0.028737
875.933085	0.028642
876.117637	0.028766
876.302170	0.029126
876.486685	0.029113
876.671182	0.028793
876.855661	0.029071
877.040121	0.028956
877.224563	0.029051
877.408987	0.028735
877.593393	0.028704
877.777780	0.028651
877.962150	0.028531
878.146501	0.028551
878.330833	0.028724
878.515148	0.028739
878.699444	0.028697
878.883722	0.028561
879.067982	0.028773
879.252224	0.029063
879.436447	0.029449
879.620653	0.029717
879.804840	0.029866
879.989008	0.030102
880.173159	0.030135
880.357291	0.030487
880.541405	0.030634
880.725501	0.030585
880.909579	0.030356
881.093638	0.030182
881.277680	0.029926
881.461703	0.029702
881.645707	0.029766
881.829694	0.029667
882.013662	0.029535
882.197612	0.029599
882.381544	0.029488
882.565458	0.029767
882.749353	0.029630
882.933230	0.029371
883.117089	0.029875
883.300930	0.030064
883.484753	0.030132
883.668557	0.030132
883.852343	0.030274
884.036111	0.030437
884.219861	0.030379
884.403592	0.030385
884.587305	0.030870
884.771000	0.030724
884.954677	0.030747
885.138335	0.030821
885.321976	0.030967
885.505598	0.030736
885.689201	0.030695
885.872787	0.031017
886.056354	0.031039
886.239904	0.031080
886.423434	0.031029
886.606947	0.030657
886.790442	0.030595
886.973918	0.030152
887.157376	0.030081
887.340816	0.030037
887.524237	0.029367
887.707641	0.029328
887.891026	0.029458
888.074393	0.029508
888.257741	0.029297
888.441072	0.029101
888.624384	0.029597
888.807678	0.029916
888.990954	0.029992
889.174211	0.030228
889.357451	0.030239
889.540672	0.029876
889.723875	0.029934
889.907059	0.030133
890.090226	0.030370
890.273374	0.030158
890.456504	0.030138
890.639616	0.030282
890.822709	0.030411
891.005785	0.030573
891.188842	0.030843
891.371881	0.030842
891.554901	0.031377
891.737904	0.031565
891.920888	0.031507
892.103854	0.031509
892.286802	0.031439
892.469731	0.031428
892.652643	0.031361
892.835536	0.030914
893.018410	0.030964
893.201267	0.030573
893.384106	0.030353
893.566926	0.030406
893.749728	0.030459
893.932511	0.030196
894.115277	0.029957
894.298024	0.029646
894.480753	0.030304
894.663464	0.030538
894.846157	0.030477
895.028831	0.030659
895.211487	0.030488
895.394125	0.030719
895.576745	0.031017
895.759346	0.031194
895.941930	0.031573
896.124495	0.031435
896.307041	0.030905
896.489570	0.030551
896.672080	0.030487
896.854573	0.030599
897.037046	0.030422
897.219502	0.030622
897.401940	0.030667
897.584359	0.030729
897.766760	0.030784
897.949143	0.031059
898.131507	0.031475
898.313854	0.031385
898.496182	0.031568
898.678492	0.031271
898.860783	0.030842
899.043057	0.030629
899.225312	0.030671
899.407549	0.030187
899.589768	0.030029
899.771968	0.030172
899.954151	0.030100
900.136315	0.029944
900.318461	0.029956
900.500588	0.030069
900.682698	0.029995
900.864789	0.029888
901.046862	0.030023
901.228917	0.029938
901.410953	0.029963
901.592971	0.030003
901.774972	0.030218
901.956953	0.030287
902.138917	0.030482
902.320862	0.030888
902.502790	0.030922
902.684699	0.031166
902.866589	0.031236
903.048462	0.030663
903.230316	0.030903
903.412152	0.030741
903.593970	0.030741
903.775770	0.030834
903.957551	0.030862
904.139314	0.030435
904.321059	0.030257
904.502786	0.030358
904.684494	0.030611
904.866185	0.030162
905.047857	0.030049
905.229510	0.029800
905.411146	0.029487
905.592763	0.029252
905.774363	0.029477
905.955943	0.029384
906.137506	0.029139
906.319051	0.028842
906.500577	0.028778
906.682085	0.028783
906.863575	0.028872
907.045046	0.028696
907.226500	0.028763
907.407935	0.028575
907.589352	0.028399
907.770750	0.028593
907.952131	0.028821
908.133493	0.028927
908.314837	0.028563
908.496163	0.028558
908.677470	0.028235
908.858760	0.027948
909.040031	0.027974
909.221284	0.028163
909.402518	0.027886
909.583735	0.027551
909.764933	0.027118
909.946113	0.027258
910.127275	0.027363
910.308418	0.027126
910.489544	0.027029
910.670651	0.027160
910.851740	0.027208
911.032810	0.027167
911.213863	0.027348
911.394897	0.027492
911.575913	0.027560
911.756911	0.027640
911.937890	0.028043
912.118851	0.028033
912.299794	0.027909
912.480719	0.027362
912.661626	0.026776
912.842514	0.027044
913.023384	0.027083
913.204236	0.027134
913.385070	0.026140
913.565886	0.026260
913.746683	0.026446
913.927462	0.026451
914.108223	0.026435
914.288965	0.027046
914.469690	0.026909
914.650396	0.026996
914.831084	0.026972
915.011754	0.027678
915.192405	0.027550
915.373038	0.027282
915.553653	0.027258
915.734250	0.027327
915.914829	0.026927
916.095389	0.026365
916.275931	0.025916
916.456455	0.025759
916.636961	0.025573
916.817448	0.025511
916.997917	0.025021
917.178368	0.024655
917.358801	0.024692
917.539216	0.024484
917.719612	0.024743
917.899990	0.024926
918.080350	0.024599
918.260692	0.024263
918.441015	0.023521
918.621320	0.023997
918.801607	0.024032
918.981876	0.024207
919.162127	0.024050
919.342359	0.023799
919.522573	0.023756
919.702769	0.023486
919.882947	0.023994
920.063106	0.024436
920.243247	0.023564
920.423370	0.023407
920.603475	0.023206
920.783562	0.023376
920.963630	0.023531
921.143680	0.023207
921.323712	0.023035
921.503725	0.022351
921.683721	0.021849
921.863698	0.022365
922.043657	0.022186
922.223598	0.021508
922.403520	0.021706
922.583424	0.021858
922.763311	0.022131
922.943178	0.021809
923.123028	0.021881
923.302859	0.022303
923.482673	0.021787
923.662467	0.021824
923.842244	0.021884
924.022003	0.021408
924.201743	0.020826
924.381465	0.020212
924.561169	0.020419
924.740854	0.020465
924.920522	0.020090
925.100171	0.020070
925.279802	0.020105
925.459414	0.020178
925.639009	0.020113
925.818585	0.019991
925.998143	0.020302
926.177683	0.020165
926.357205	0.019343
926.536708	0.018986
926.716193	0.019108
926.895660	0.018552
927.075109	0.018500
927.254539	0.018319
927.433951	0.017924
927.613345	0.017049
927.792721	0.016890
927.972079	0.016865
928.151418	0.017044
928.330739	0.016635
928.510042	0.016890
928.689327	0.016428
928.868593	0.016502
929.047841	0.016585
929.227071	0.016811
929.406283	0.016828
929.585476	0.016485
929.764652	0.016134
929.943809	0.015519
930.122948	0.015000
930.302068	0.014615
930.481171	0.014838
930.660255	0.014363
930.839321	0.014758
931.018369	0.014393
931.197398	0.014189
931.376409	0.014084
931.555402	0.014618
931.734377	0.014520
931.913334	0.014829
932.092272	0.013940
932.271192	0.013883
932.450094	0.013045
932.628978	0.013168
932.807844	0.013534
932.986691	0.013600
933.165520	0.013432
933.344331	0.012800
933.523123	0.012064
933.701898	0.012011
933.880654	0.011710
934.059392	0.011808
934.238111	0.011364
934.416813	0.011339
934.595496	0.010730
934.774161	0.009897
934.952808	0.010221
935.131437	0.010140
935.310047	0.010332
935.488639	0.009744
935.667213	0.009766
935.845769	0.009163
936.024306	0.008332
936.202825	0.008402
936.381326	0.008630
936.559809	0.008274
936.738274	0.008941
936.916720	0.008562
937.095148	0.008932
937.273558	0.008659
937.451950	0.009185
937.630323	0.010057
937.808678	0.009457
937.987015	0.009502
938.165334	0.009376
938.343635	0.008879
938.521917	0.008475
938.700181	0.008046
938.878427	0.007200
939.056655	0.006697
939.234864	0.005627
939.413055	0.005941
939.591228	0.005776
939.769383	0.005241
939.947519	0.004917
940.125638	0.004564
940.303738	0.004954
940.481820	0.005485
940.659883	0.005002
940.837929	0.004185
941.015956	0.003338
941.193965	0.002165
941.371955	0.001749
941.549928	0.001451
941.727882	0.001122
941.905818	0.000705
942.083736	0.000702
942.261636	0.001315
942.439517	0.002009
942.617380	0.002300
942.795225	0.002667
942.973052	0.001905
943.150860	0.001955
943.328651	0.002862
943.506423	0.002917
943.684176	0.002602
943.861912	0.002347
944.039629	0.003057
944.217328	0.002918
944.395009	0.002685
944.572672	0.004288
944.750317	0.003720
944.927943	0.002659
945.105551	0.001570
945.283141	0.002122
945.460712	0.002410
945.638265	0.001341
945.815801	0.001552
945.993317	0.001837
946.170816	0.001196
946.348297	0.001421
946.525759	0.001013
946.703203	0.001767
946.880629	0.000740
947.058036	-0.000372
947.235425	0.000157
947.412797	-0.000320
947.590149	-0.000323
947.767484	-0.000546
947.944800	-0.001161
948.122099	-0.000275
948.299379	-0.000016
948.476640	-0.000247
948.653884	-0.000208
948.831109	-0.001789
949.008316	-0.001628
949.185505	-0.001438
949.362676	-0.001594
949.539828	-0.001325
949.716962	-0.001696
949.894078	-0.002023
950.071176	-0.002344
950.248256	-0.001218
950.425317	-0.001165
950.602360	-0.000303
950.779385	0.000099
950.956391	0.000998
951.133380	0.000725
951.310350	0.000545
951.487302	0.000616
951.664235	0.001647
951.841151	0.001576
952.018048	0.003245
952.194927	0.002297
952.371788	0.002566
952.548631	0.001694
952.725455	0.002741
952.902261	0.002790
953.079049	0.001993
953.255819	0.001155
953.432570	0.000274
953.609303	0.000241
953.786018	0.001511
953.962715	0.000120
954.139394	0.000158
954.316054	-0.000731
954.492696	-0.000778
954.669320	-0.000341
954.845926	0.001027
955.022513	0.001968
955.199083	0.001830
955.375634	0.000947
955.552166	0.001440
955.728681	0.001390
955.905177	0.000916
956.081655	-0.000120
956.258115	0.002443
956.434557	0.001277
956.610980	0.001282
956.787385	0.000504
956.963772	0.000523
957.140141	0.001821
957.316492	0.001929
957.492824	0.001420
957.669138	0.002748
957.845434	0.000592
958.021712	0.001633
958.197971	0.002619
958.374212	0.001941
958.550435	0.003006
958.726640	0.002823
958.902826	0.004940
959.078995	0.006145
959.255145	0.006475
959.431277	0.007586
959.607390	0.007609
959.783486	0.005753
959.959563	0.005611
960.135622	0.004399
960.311662	0.003145
960.487685	0.003179
960.663689	0.004501
960.839675	0.005792
961.015643	0.003849
961.191593	0.002577
961.367524	0.001359
961.543437	0.005056
961.719332	0.005803
961.895209	0.004863
962.071067	0.005220
962.246907	0.002949
962.422730	0.000786
962.598533	0.001346
962.774319	0.000946
962.950086	0.002914
963.125835	-0.000308
963.301566	-0.000097
963.477279	0.001991
963.652973	0.002331
963.828650	0.005310
964.004308	0.005251
964.179947	0.006825
964.355569	0.007065
964.531172	0.006262
964.706757	0.007760
964.882324	0.008363
965.057873	0.007801
965.233403	0.006388
965.408916	0.006872
965.584410	0.009697
965.759885	0.007448
965.935343	0.009920
966.110782	0.013317
966.286203	0.014852
966.461606	0.015782
966.636991	0.020466
966.812357	0.021412
966.987705	0.020106
967.163035	0.018714
967.338347	0.018307
967.513641	0.018688
967.688916	0.016330
967.864173	0.015045
968.039412	0.015830
968.214632	0.011897
968.389835	0.013943
968.565019	0.012165
968.740185	0.010382
968.915333	0.015640
969.090462	0.015146
969.265573	0.015908
969.440667	0.016177
969.615741	0.010639
969.790798	0.010492
969.965836	0.007535
970.140856	0.010332
970.315858	0.012725
970.490842	0.008968
970.665808	0.007396
970.840755	0.007718
971.015684	0.007190
971.190595	0.012125
971.365487	0.011933
971.540362	0.014150
971.715218	0.012411
971.890056	0.013788
972.064875	0.015569
972.239677	0.012963
972.414460	0.012128
972.589225	0.012316
972.763972	0.011634
972.938700	0.012080
973.113411	0.010789
973.288103	0.012259
973.462777	0.009657
973.637432	0.007678
973.812070	0.010696
973.986689	0.012415
974.161290	0.012967
974.335873	0.015145
974.510437	0.015913
974.684984	0.016497
974.859512	0.016095
975.034022	0.018706
975.208513	0.021686
975.382987	0.023072
975.557442	0.021620
975.731879	0.022097
975.906298	0.019945
976.080698	0.017763
976.255080	0.016317
976.429445	0.015906
976.603790	0.015311
976.778118	0.012843
976.952427	0.008811
977.126719	0.009238
977.300992	0.009128
977.475246	0.008356
977.649483	0.009659
977.823701	0.009935
977.997901	0.009880
978.172083	0.008216
978.346247	0.009542
978.520392	0.012428
978.694519	0.012059
978.868628	0.013724
979.042719	0.014299
979.216791	0.014582
979.390845	0.016200
979.564882	0.015557
979.738899	0.015370
979.912899	0.016028
980.086880	0.016413
980.260843	0.018402
980.434788	0.016324
980.608715	0.015731
980.782623	0.015066
980.956514	0.014604
981.130386	0.015263
981.304240	0.018505
981.478075	0.016963
981.651892	0.016657
981.825692	0.014785
981.999472	0.014790
982.173235	0.016902
982.346980	0.019684
982.520706	0.018455
982.694414	0.017622
982.868104	0.015183
983.041775	0.016782
983.215428	0.017209
983.389064	0.016718
983.562680	0.018487
983.736279	0.018006
983.909860	0.015258
984.083422	0.016305
984.256966	0.019005
984.430491	0.019919
984.603999	0.017483
984.777488	0.018156
984.950959	0.019190
985.124412	0.018904
985.297847	0.017835
985.471263	0.018441
985.644661	0.018775
985.818041	0.018622
985.991403	0.019846
986.164747	0.021610
986.338072	0.020021
986.511379	0.019439
986.684668	0.016475
986.857938	0.016472
987.031191	0.016368
987.204425	0.016762
987.377641	0.015352
987.550839	0.013392
987.724018	0.013415
987.897179	0.015248
988.070322	0.013957
988.243447	0.016857
988.416554	0.017937
988.589642	0.019801
988.762712	0.018284
988.935764	0.018201
989.108798	0.017948
989.281813	0.019417
989.454811	0.017568
989.627790	0.018943
989.800751	0.017492
989.973693	0.016808
990.146617	0.016663
990.319524	0.017265
990.492412	0.017991
990.665281	0.018121
990.838133	0.016661
991.010966	0.019045
991.183781	0.017445
991.356578	0.017857
991.529356	0.016818
991.702117	0.016407
991.874859	0.016937
992.047583	0.017488
992.220288	0.017654
992.392976	0.017193
992.565645	0.015671
992.738296	0.017843
992.910929	0.018464
993.083543	0.018325
993.256139	0.017583
993.428718	0.016617
993.601277	0.014602
993.773819	0.013562
993.946342	0.014032
994.118848	0.013010
994.291335	0.012800
994.463803	0.012041
994.636254	0.011473
994.808686	0.010943
994.981100	0.010615
995.153496	0.012182
995.325874	0.013503
995.498233	0.011258
995.670574	0.011621
995.842897	0.011284
996.015202	0.010811
996.187488	0.013552
996.359757	0.013561
996.532007	0.013354
996.704239	0.014530
996.876452	0.013678
997.048648	0.016079
997.220825	0.016521
997.392984	0.017934
997.565124	0.017508
997.737247	0.016092
997.909351	0.016407
998.081437	0.018175
998.253505	0.016035
998.425554	0.016946
998.597586	0.016839
998.769599	0.016522
998.941594	0.013465
999.113571	0.014903
999.285529	0.013516
999.457469	0.014720
999.629391	0.012872
999.801295	0.013585
999.973181	0.013892
1000.145048	0.014312
1000.316897	0.013919
1000.488728	0.015250
1000.660541	0.017038
1000.832335	0.018322
1001.004111	0.015097
1001.175869	0.015603
1001.347609	0.016008
1001.519331	0.014424
1001.691034	0.012440
1001.862719	0.013708
1002.034386	0.014081
1002.206035	0.011595
1002.377665	0.012497
1002.549277	0.016106
1002.720871	0.018017
1002.892447	0.018405
1003.064004	0.020786
1003.235544	0.023229
1003.407065	0.021786
1003.578568	0.022598
1003.750052	0.023353
1003.921519	0.020982
1004.092967	0.019330
1004.264397	0.018131
1004.435809	0.018679
1004.607202	0.018768
1004.778577	0.017006
1004.949934	0.017307
1005.121273	0.018686
1005.292594	0.017788
1005.463896	0.019296
1005.635180	0.019324
1005.806446	0.017290
1005.977694	0.016657
1006.148923	0.016342
1006.320135	0.018762
1006.491328	0.019739
1006.662503	0.018456
1006.833659	0.018277
1007.004798	0.019621
1007.175918	0.020086
1007.347020	0.020705
1007.518103	0.019410
1007.689169	0.018263
1007.860216	0.016135
1008.031245	0.016603
1008.202256	0.015313
1008.373248	0.016734
1008.544223	0.014981
1008.715179	0.015756
1008.886117	0.016110
1009.057036	0.018087
1009.227938	0.017720
1009.398821	0.018070
1009.569686	0.018057
1009.740533	0.016825
1009.911361	0.016356
1010.082172	0.018658
1010.252964	0.018327
1010.423738	0.019055
1010.594493	0.017947
1010.765231	0.018785
1010.935950	0.018844
1011.106651	0.018691
1011.277334	0.021072
1011.447998	0.020184
1011.618645	0.018494
1011.789273	0.018059
1011.959882	0.017782
1012.130474	0.016693
1012.301048	0.017179
1012.471603	0.017896
1012.642140	0.014837
1012.812658	0.014897
1012.983159	0.013880
1013.153641	0.012893
1013.324105	0.014951
1013.494551	0.015023
1013.664979	0.015603
1013.835388	0.013719
1014.005779	0.013097
1014.176152	0.014534
1014.346507	0.014790
1014.516843	0.016886
1014.687162	0.017829
1014.857462	0.015675
1015.027744	0.015725
1015.198007	0.016477
1015.368252	0.017435
1015.538480	0.017117
1015.708689	0.017865
1015.878879	0.015528
1016.049052	0.015264
1016.219206	0.015659
1016.389342	0.016632
1016.559460	0.015730
1016.729559	0.014804
1016.899641	0.014216
1017.069704	0.015278
1017.239749	0.015321
1017.409775	0.015881
1017.579784	0.015364
1017.749774	0.013166
1017.919746	0.011545
1018.089700	0.012993
1018.259635	0.013075
1018.429553	0.012158
1018.599452	0.013266
1018.769333	0.013101
1018.939195	0.015398
1019.109040	0.017119
1019.278866	0.020269
1019.448674	0.020308
1019.618464	0.017784
1019.788235	0.017850
1019.957989	0.019433
1020.127724	0.017311
1020.297441	0.016274
1020.467139	0.014722
1020.636820	0.012769
1020.806482	0.009754
1020.976126	0.010226
1021.145752	0.012200
1021.315359	0.010264
1021.484948	0.010662
1021.654519	0.011675
1021.824072	0.012402
1021.993607	0.012683
1022.163123	0.013051
1022.332621	0.013607
1022.502101	0.014182
1022.671563	0.014876
1022.841007	0.016131
1023.010432	0.016788
1023.179839	0.015459
1023.349228	0.016252
1023.518598	0.017771
1023.687951	0.019886
1023.857285	0.020938
1024.026601	0.021299
1024.195899	0.021448
1024.365178	0.021262
1024.534439	0.021524
1024.703682	0.023292
1024.872907	0.022324
1025.042114	0.020464
1025.211302	0.017474
1025.380472	0.016995
1025.549624	0.016361
1025.718758	0.013427
1025.887873	0.012431
1026.056970	0.012607
1026.226049	0.011367
1026.395110	0.011526
1026.564153	0.012297
1026.733177	0.013318
1026.902183	0.013593
1027.071171	0.013301
1027.240141	0.014886
1027.409092	0.016055
1027.578026	0.014164
1027.746940	0.014431
1027.915837	0.015330
1028.084716	0.013774
1028.253576	0.013592
1028.422418	0.014542
1028.591242	0.013145
1028.760048	0.012641
1028.928835	0.013736
1029.097604	0.014459
1029.266355	0.013612
1029.435088	0.013244
1029.603803	0.012679
1029.772499	0.012491
1029.941177	0.012103
1030.109837	0.011580
1030.278478	0.013171
1030.447102	0.012015
1030.615707	0.012858
1030.784294	0.012970
1030.952863	0.011896
1031.121413	0.014668
1031.289945	0.015245
1031.458460	0.014373
1031.626955	0.018558
1031.795433	0.017017
1031.963892	0.018368
1032.132334	0.017484
1032.300756	0.017391
1032.469161	0.017308
1032.637548	0.015168
1032.805916	0.014300
1032.974266	0.014073
1033.142598	0.011648
1033.310911	0.012211
1033.479207	0.011978
1033.647484	0.009250
1033.815743	0.010052
1033.983983	0.010004
1034.152206	0.010202
1034.320410	0.013600
1034.488596	0.013195
1034.656764	0.011741
1034.824914	0.012812
1034.993045	0.013189
1035.161158	0.013909
1035.329253	0.013829
1035.497330	0.014281
1035.665388	0.012871
1035.833428	0.009729
1036.001450	0.009542
1036.169454	0.009874
1036.337440	0.008073
1036.505407	0.007462
1036.673356	0.009541
1036.841287	0.010163
1037.009200	0.009703
1037.177094	0.011099
1037.344970	0.010909
1037.512828	0.012667
1037.680668	0.012955
1037.848489	0.013726
1038.016293	0.013590
1038.184078	0.012133
1038.351845	0.013245
1038.519593	0.014509
1038.687324	0.015670
1038.855036	0.017336
1039.022730	0.015452
1039.190406	0.018631
1039.358063	0.018225
1039.525702	0.017348
1039.693323	0.020819
1039.860926	0.019784
1040.028511	0.019069
1040.196077	0.018326
1040.363625	0.017409
1040.531155	0.018060
1040.698667	0.016964
1040.866161	0.018723
1041.033636	0.018101
1041.201093	0.015578
1041.368532	0.014662
1041.535952	0.015090
1041.703355	0.018458
1041.870739	0.020328
1042.038105	0.019395
1042.205452	0.017241
1042.372782	0.014802
1042.540093	0.015299
1042.707386	0.014340
1042.874661	0.014174
1043.041918	0.013243
1043.209156	0.011433
1043.376376	0.008998
1043.543578	0.011071
1043.710762	0.011432
1043.877927	0.013432
1044.045074	0.014243
1044.212203	0.015923
1044.379314	0.016260
1044.546407	0.018111
1044.713481	0.016729
1044.880537	0.017205
1045.047575	0.015914
1045.214595	0.015645
1045.381596	0.014919
1045.548579	0.016040
1045.715544	0.015400
1045.882491	0.014377
1046.049420	0.014486
1046.216330	0.013426
1046.383222	0.012215
1046.550096	0.012409
1046.716951	0.014198
1046.883789	0.013370
1047.050608	0.011743
1047.217409	0.012739
1047.384192	0.012713
1047.550956	0.013594
1047.717703	0.014468
1047.884431	0.013850
1048.051140	0.012704
1048.217832	0.012147
1048.384505	0.014629
1048.551161	0.014693
1048.717798	0.013597
1048.884416	0.013933
1049.051017	0.011905
1049.217599	0.012243
1049.384163	0.012987
1049.550709	0.015842
1049.717237	0.015328
1049.883746	0.013836
1050.050237	0.016247
1050.216710	0.017123
1050.383165	0.018406
1050.549601	0.018019
1050.716019	0.019057
1050.882420	0.020501
1051.048801	0.018830
1051.215165	0.018107
1051.381510	0.016561
1051.547837	0.013920
1051.714146	0.012894
1051.880437	0.012847
1052.046709	0.014358
1052.212964	0.014359
1052.379200	0.011220
1052.545417	0.012161
1052.711617	0.010689
1052.877798	0.010151
1053.043961	0.009891
1053.210106	0.010141
1053.376233	0.009906
1053.542341	0.009444
1053.708432	0.007129
1053.874504	0.010031
1054.040557	0.009113
1054.206593	0.010947
1054.372610	0.014131
1054.538609	0.014945
1054.704590	0.015402
1054.870553	0.013353
1055.036497	0.014939
1055.202424	0.016165
1055.368331	0.015647
1055.534221	0.016651
1055.700093	0.018162
1055.865946	0.018032
1056.031781	0.019662
1056.197598	0.019300
1056.363397	0.022001
1056.529177	0.019955
1056.694939	0.019913
1056.860683	0.018217
1057.026409	0.016829
1057.192116	0.016105
1057.357806	0.015197
1057.523477	0.014020
1057.689130	0.012368
1057.854764	0.009445
1058.020381	0.007822
1058.185979	0.007723
1058.351559	0.010516
1058.517120	0.011046
1058.682664	0.011076
1058.848189	0.009029
1059.013696	0.009488
1059.179185	0.009401
1059.344656	0.009816
1059.510108	0.010603
1059.675542	0.011477
1059.840958	0.008152
1060.006356	0.006852
1060.171735	0.007021
1060.337096	0.011024
1060.502439	0.010333
1060.667764	0.012753
1060.833071	0.013338
1060.998359	0.012238
1061.163629	0.012045
1061.328881	0.014646
1061.494115	0.015797
1061.659330	0.015242
1061.824527	0.012661
1061.989706	0.011949
1062.154867	0.009784
1062.320010	0.011358
1062.485134	0.012548
1062.650240	0.011388
1062.815328	0.011934
1062.980398	0.010295
1063.145449	0.009123
1063.310482	0.008380
1063.475497	0.008126
1063.640494	0.008837
1063.805473	0.007466
1063.970433	0.008793
1064.135375	0.009145
1064.300299	0.008128
1064.465204	0.007751
1064.630092	0.009510
1064.794961	0.009894
1064.959812	0.008074
1065.124645	0.007196
1065.289459	0.006541
1065.454256	0.004689
1065.619034	0.006813
1065.783793	0.005553
1065.948535	0.008124
1066.113258	0.005793
1066.277964	0.006640
1066.442651	0.009698
1066.607319	0.012772
1066.771970	0.011604
1066.936602	0.012820
1067.101216	0.011046
1067.265812	0.014759
1067.430389	0.012589
1067.594949	0.014326
1067.759490	0.013094
1067.924013	0.011909
1068.088518	0.011421
1068.253004	0.013874
1068.417472	0.015157
1068.581922	0.013634
1068.746354	0.010204
1068.910768	0.011342
1069.075163	0.012074
1069.239540	0.013603
1069.403899	0.013666
1069.568240	0.012222
1069.732562	0.011269
1069.896866	0.009666
1070.061152	0.009429
1070.225420	0.012012
1070.389670	0.011808
1070.553901	0.013585
1070.718114	0.015780
1070.882309	0.015528
1071.046486	0.015747
1071.210644	0.015326
1071.374784	0.015994
1071.538906	0.017230
1071.703010	0.017371
1071.867096	0.018523
1072.031163	0.018120
1072.195212	0.017241
1072.359243	0.017049
1072.523256	0.016837
1072.687250	0.016499
1072.851226	0.017320
1073.015184	0.015675
1073.179124	0.014254
1073.343045	0.011979
1073.506949	0.007853
1073.670834	0.005756
1073.834701	0.007552
1073.998549	0.006628
1074.162380	0.010498
1074.326192	0.007340
1074.489986	0.008857
1074.653761	0.006838
1074.817519	0.008916
1074.981258	0.009580
1075.144979	0.009717
1075.308682	0.007037
1075.472367	0.008141
1075.636033	0.006413
1075.799681	0.007993
1075.963311	0.008668
1076.126923	0.012213
1076.290516	0.009995
1076.454092	0.011670
1076.617649	0.010873
1076.781187	0.013183
1076.944708	0.012591
1077.108210	0.012033
1077.271695	0.013281
1077.435160	0.010149
1077.598608	0.005857
1077.762038	0.004626
1077.925449	0.001500
1078.088842	0.001973
1078.252217	0.003017
1078.415573	0.004098
1078.578912	0.001951
1078.742232	-0.000346
1078.905534	0.002149
1079.068817	0.005874
1079.232083	0.007490
1079.395330	0.009138
1079.558559	0.008436
1079.721770	0.008259
1079.884962	0.009107
1080.048136	0.011003
1080.211293	0.013580
1080.374430	0.016495
1080.537550	0.015177
1080.700651	0.015698
1080.863735	0.017461
1081.026800	0.018886
1081.189846	0.019310
1081.352875	0.016774
1081.515885	0.016708
1081.678877	0.017397
1081.841851	0.013859
1082.004807	0.011072
1082.167744	0.011230
1082.330663	0.008384
1082.493564	0.004674
1082.656447	-0.000725
1082.819312	0.001927
1082.982158	0.005277
1083.144986	0.002261
1083.307796	0.001093
1083.470587	0.004244
1083.633361	0.008013
1083.796116	0.011415
1083.958853	0.013658
1084.121571	0.017873
1084.284272	0.016381
1084.446954	0.013669
1084.609618	0.016213
1084.772264	0.019162
1084.934892	0.019758
1085.097501	0.015251
1085.260092	0.011698
1085.422665	0.011105
1085.585220	0.008679
1085.747756	0.007177
1085.910274	0.006711
1086.072774	0.003836
1086.235256	0.002878
1086.397720	0.002576
1086.560165	0.002623
1086.722592	0.004389
1086.885001	0.006488
1087.047392	0.011531
1087.209764	0.010092
1087.372119	0.007638
1087.534455	0.008150
1087.696772	0.008319
1087.859072	0.011766
1088.021353	0.012987
1088.183616	0.014822
1088.345861	0.013431
1088.508088	0.010430
1088.670296	0.014131
1088.832486	0.018630
1088.994658	0.017806
1089.156812	0.017434
1089.318948	0.013813
1089.481065	0.013797
1089.643164	0.011959
1089.805245	0.014513
1089.967308	0.011470
1090.129352	0.011864
1090.291378	0.008883
1090.453386	0.010547
1090.615376	0.009803
1090.777347	0.009505
1090.939301	0.009119
1091.101236	0.007075
1091.263153	0.003286
1091.425051	0.007222
1091.586932	0.006283
1091.748794	0.003890
1091.910638	0.003433
1092.072463	0.005820
1092.234271	0.004980
1092.396060	0.006341
1092.557831	0.009742
1092.719584	0.011658
1092.881319	0.011271
1093.043035	0.010430
1093.204733	0.012587
1093.366413	0.011908
1093.528075	0.012392
1093.689718	0.011285
1093.851343	0.010735
1094.012950	0.012586
1094.174539	0.012136
1094.336110	0.012236
1094.497662	0.013822
1094.659196	0.016494
1094.820712	0.017549
1094.982210	0.014260
1095.143689	0.016174
1095.305151	0.015076
1095.466594	0.015069
1095.628018	0.013845
1095.789425	0.012189
1095.950813	0.008377
1096.112183	0.005727
1096.273535	0.002685
1096.434869	0.003876
1096.596184	0.005175
1096.757482	0.009457
1096.918761	0.004713
1097.080021	0.007379
1097.241264	0.007873
1097.402488	0.010920
1097.563694	0.014282
1097.724882	0.017079
1097.886052	0.014396
1098.047203	0.012636
1098.208336	0.006509
1098.369451	0.006245
1098.530548	0.004177
1098.691627	0.004302
1098.852687	0.006498
1099.013729	0.002650
1099.174753	0.001573
1099.335758	0.005516
1099.496746	0.003412
1099.657715	0.004233
1099.818666	0.006723
1099.979599	0.007718
1100.140513	0.007549
1100.301409	0.002283
1100.462287	0.004026
1100.623147	0.005885
1100.783989	0.004070
1100.944812	0.006152
1101.105617	0.007001
1101.266404	0.005193
1101.427173	0.005709
1101.587923	0.004198
1101.748656	0.007291
1101.909370	0.008338
1102.070066	0.007381
1102.230743	0.009360
1102.391403	0.009107
1102.552044	0.009240
1102.712667	0.014259
1102.873271	0.016264
1103.033858	0.015556
1103.194426	0.012140
1103.354976	0.013799
1103.515508	0.013036
1103.676021	0.009068
1103.836517	0.008304
1103.996994	0.013880
1104.157453	0.011934
1104.317893	0.009047
1104.478316	0.012087
1104.638720	0.014885
1104.799106	0.011898
1104.959474	0.016053
1105.119823	0.015852
1105.280155	0.015077
1105.440468	0.008902
1105.600763	0.007978
1105.761039	0.008469
1105.921298	0.006384
1106.081538	0.007897
1106.241760	0.005734
1106.401964	0.003365
1106.562149	0.005960
1106.722316	0.006519
1106.882465	0.010159
1107.042596	0.009252
1107.202709	0.008289
1107.362803	0.011055
1107.522879	0.011532
1107.682937	0.014666
1107.842977	0.016807
1108.002999	0.014806
1108.163002	0.014692
1108.322987	0.013179
1108.482954	0.017182
1108.642902	0.016186
1108.802833	0.013878
1108.962745	0.011003
1109.122639	0.008687
1109.282515	0.009677
1109.442372	0.011853
1109.602211	0.013560
1109.762032	0.012380
1109.921835	0.005515
1110.081620	0.007671
1110.241386	0.012922
1110.401134	0.012938
1110.560864	0.017906
1110.720576	0.020591
1110.880269	0.020474
1111.039945	0.020321
1111.199602	0.019622
1111.359240	0.023719
1111.518861	0.027657
1111.678463	0.018848
1111.838047	0.015935
1111.997613	0.013368
1112.157161	0.009340
1112.316690	0.008355
1112.476202	0.004976
1112.635695	0.005998
1112.795169	0.005106
1112.954626	0.002729
1113.114064	0.003644
1113.273484	0.003364
1113.432886	0.002411
1113.592270	0.001819
1113.751635	0.000924
1113.910983	0.004589
1114.070312	0.004980
1114.229622	0.004114
1114.388915	0.002432
1114.548189	0.005958
1114.707445	0.008559
1114.866683	0.013160
1115.025903	0.005234
1115.185104	0.005595
1115.344287	0.001797
1115.503452	-0.003439
1115.662599	-0.001070
1115.821727	-0.000082
1115.980838	-0.000936
1116.139930	-0.000045
1116.299004	-0.003466
1116.458059	0.012974
1116.617097	0.014747
1116.776116	0.018084
1116.935117	0.025922
1117.094099	0.026369
1117.253064	0.023740
1117.412010	0.025335
1117.570938	0.027797
1117.729848	0.027241
1117.888740	0.015370
1118.047613	0.014611
1118.206468	0.011916
1118.365305	0.008633
1118.524124	0.005904
1118.682924	0.005093
1118.841707	0.002184
1119.000471	-0.001624
1119.159216	-0.001932
1119.317944	0.000028
1119.476653	0.002063
1119.635344	0.004739
1119.794017	0.003157
1119.952672	0.004515
1120.111308	0.007228
1120.269927	0.006172
1120.428527	0.006291
1120.587108	0.005271
1120.745672	0.004631
1120.904217	0.001926
1121.062744	0.001674
1121.221253	0.002056
1121.379744	-0.002918
1121.538216	-0.003273
1121.696671	-0.000428
1121.855107	0.001048
1122.013524	0.004458
1122.171924	0.005467
1122.330305	0.005456
1122.488668	0.005821
1122.647013	0.005096
1122.805340	0.006948
1122.963648	0.003743
1123.121938	0.003480
1123.280210	0.006185
1123.438464	0.000091
1123.596700	0.004345
1123.754917	0.007614
1123.913116	0.007302
1124.071297	0.008489
1124.229459	0.015123
1124.387604	0.023122
1124.545730	0.020541
1124.703838	0.019863
1124.861928	0.024072
1125.019999	0.018758
1125.178052	0.016897
1125.336088	0.017134
1125.494104	0.019790
1125.652103	0.013874
1125.810083	0.005130
1125.968045	0.005304
1126.125989	0.003781
1126.283915	0.004276
1126.441823	0.006181
1126.599712	0.006451
1126.757583	0.006364
1126.915436	0.007747
1127.073270	0.008871
1127.231087	0.011456
1127.388885	0.018323
1127.546665	0.019926
1127.704426	0.017929
1127.862170	0.013168
1128.019895	0.010750
1128.177602	0.010383
1128.335291	0.008238
1128.492961	0.013180
1128.650614	0.010605
1128.808248	0.007989
1128.965864	0.005371
1129.123461	0.007534
1129.281041	0.008822
1129.438602	0.006526
1129.596145	0.000082
1129.753670	0.002399
1129.911176	-0.004110
1130.068665	-0.002386
1130.226135	-0.005358
1130.383587	-0.003147
1130.541020	-0.004634
1130.698436	-0.003710
1130.855833	-0.000077
1131.013212	0.004522
1131.170573	0.002063
1131.327915	0.002918
1131.485239	0.009069
1131.642545	0.010315
1131.799833	0.010176
1131.957103	0.014210
1132.114354	0.019828
1132.271588	0.016183
1132.428803	0.021321
1132.585999	0.019763
1132.743178	0.020754
1132.900338	0.017441
1133.057480	0.015084
1133.214604	0.013693
1133.371710	0.001996
1133.528797	-0.002621
1133.685866	-0.001915
1133.842917	-0.003943
1133.999950	0.002434
1134.156964	0.001930
1134.313960	0.001857
1134.470938	0.009590
1134.627898	0.013164
1134.784840	0.020634
1134.941763	0.022520
1135.098668	0.023583
1135.255555	0.022755
1135.412424	0.019688
1135.569274	0.018116
1135.726107	0.019076
1135.882921	0.017036
1136.039716	0.016426
1136.196494	0.022531
1136.353253	0.019548
1136.509995	0.024274
1136.666717	0.026613
1136.823422	0.018425
1136.980109	0.018913
1137.136777	0.013502
1137.293427	0.008361
1137.450059	0.007957
1137.606672	0.006492
1137.763267	0.004523
1137.919844	0.000257
1138.076403	-0.001785
1138.232944	0.001472
1138.389466	0.004389
1138.545971	0.013636
1138.702457	0.011682
1138.858924	0.007900
1139.015374	-0.000145
1139.171805	0.008213
1139.328218	0.013078
1139.484613	0.012133
1139.640990	0.014801
1139.797348	0.015223
1139.953688	0.012540
1140.110010	0.016019
1140.266314	0.018188
1140.422600	0.030522
1140.578867	0.024265
1140.735116	0.020469
1140.891347	0.020768
1141.047559	0.019688
1141.203754	0.020183
1141.359930	0.020181
1141.516088	0.022077
1141.672228	0.017334
1141.828349	0.009381
1141.984452	0.011851
1142.140537	0.014387
1142.296604	0.011790
1142.452653	0.011930
1142.608683	0.008226
1142.764695	-0.001413
1142.920689	0.002731
1143.076665	0.011028
1143.232622	0.010743
1143.388562	0.001556
1143.544483	-0.002907
1143.700385	0.003140
1143.856270	0.006347
1144.012136	0.012167
1144.167985	0.014991
1144.323814	0.010363
1144.479626	-0.001713
1144.635420	-0.002905
1144.791195	0.004477
1144.946952	0.005594
1145.102691	-0.001881
1145.258411	-0.002906
1145.414113	-0.005918
1145.569798	-0.004558
1145.725463	-0.006624
1145.881111	-0.003907
1146.036741	-0.007626
1146.192352	-0.008197
1146.347945	-0.001327
1146.503519	0.006906
1146.659076	0.008157
1146.814614	0.009837
1146.970134	0.011620
1147.125636	0.005893
1147.281120	0.007824
1147.436585	0.013081
1147.592032	0.013957
1147.747461	0.009283
1147.902872	0.004914
1148.058265	-0.003441
1148.213639	-0.006489
1148.368995	-0.006105
1148.524333	0.000650
1148.679653	0.008654
1148.834954	0.008982
1148.990237	0.007512
1149.145502	0.006954
1149.300749	0.006971
1149.455977	0.011664
1149.611188	0.008450
1149.766380	0.006197
1149.921553	0.014168
1150.076709	0.008488
1150.231846	0.009032
1150.386966	0.011855
1150.542066	0.013574
1150.697149	0.013027
1150.852214	0.012583
1151.007260	0.009703
1151.162288	0.004215
1151.317298	-0.004611
1151.472289	-0.003742
1151.627263	-0.003506
1151.782218	-0.007877
1151.937155	-0.007280
1152.092073	0.005781
1152.246974	0.006207
1152.401856	0.007883
1152.556720	0.017259
1152.711566	0.017179
1152.866393	0.020220
1153.021203	0.001463
1153.175994	0.000629
1153.330767	-0.012111
1153.485521	-0.020753
1153.640258	-0.022045
1153.794976	-0.022516
1153.949676	-0.017432
1154.104358	-0.005750
1154.259021	-0.005761
1154.413667	0.017480
1154.568294	0.018168
1154.722903	0.039608
1154.877493	0.045900
1155.032066	0.055629
1155.186620	0.054314
1155.341156	0.054170
1155.495674	0.047622
1155.650173	0.037982
1155.804654	0.035968
1155.959118	0.037387
1156.113562	0.022341
1156.267989	0.013117
1156.422397	0.007306
1156.576788	0.020307
1156.731160	0.013373
1156.885513	0.006659
1157.039849	0.003854
1157.194166	0.002075
1157.348465	-0.002706
1157.502746	0.003659
1157.657009	0.006569
1157.811253	0.003029
1157.965479	-0.004192
1158.119687	-0.004644
1158.273877	-0.004741
1158.428048	-0.000539
1158.582201	0.002248
1158.736337	0.005917
1158.890453	0.009098
1159.044552	0.006629
1159.198632	0.010403
1159.352694	0.007221
1159.506738	0.006985
1159.660764	0.016317
1159.814771	0.025887
1159.968761	0.017219
1160.122732	0.007699
1160.276685	-0.001435
1160.430619	-0.010518
1160.584535	-0.011515
1160.738434	-0.008877
1160.892313	-0.009729
1161.046175	-0.019601
1161.200019	-0.024400
1161.353844	-0.019528
1161.507651	-0.005642
1161.661440	-0.011866
1161.815210	-0.004032
1161.968962	-0.003242
1162.122697	-0.012984
1162.276412	-0.016729
1162.430110	-0.005766
1162.583789	-0.008606
1162.737451	-0.007986
1162.891094	-0.005792
1163.044718	0.007554
1163.198325	0.003255
1163.351913	0.000654
1163.505483	0.015421
1163.659035	0.030792
1163.812569	0.014562
1163.966084	0.017148
1164.119581	0.010273
1164.273060	0.005830
1164.426521	-0.003063
1164.579964	-0.000174
1164.733388	-0.000902
1164.886794	-0.005110
1165.040182	-0.018370
1165.193551	-0.017889
1165.346903	-0.029345
1165.500236	-0.021090
1165.653551	-0.017105
1165.806848	-0.002716
1165.960126	-0.007552
1166.113386	-0.005056
1166.266628	-0.009972
1166.419852	-0.004796
1166.573058	0.000409
1166.726245	0.009971
1166.879414	0.003563
1167.032565	0.005031
1167.185698	-0.010292
1167.338812	0.008078
1167.491909	0.006418
1167.644987	0.010801
1167.798046	0.004090
1167.951088	0.004147
1168.104111	0.007672
1168.257117	0.004720
1168.410103	-0.002879
1168.563072	0.009208
1168.716023	-0.008424
1168.868955	-0.002373
1169.021869	-0.009345
1169.174765	0.011017
1169.327642	0.014463
1169.480501	0.020008
1169.633343	0.026143
1169.786165	0.028833
1169.938970	0.014871
1170.091757	0.022900
1170.244525	0.023338
1170.397275	0.027948
1170.550007	0.015625
1170.702720	0.002695
1170.855415	0.007396
1171.008092	0.010176
1171.160751	0.008173
1171.313392	0.018840
1171.466014	0.108669
1171.618619	0.028884
1171.771205	0.028884
1171.923772	0.028884
