sample name	sample
index	510
start time	 03-11-2021  03:16:51 PM
880	0.073182
Peak Time (s)	90.035
Peak Height 	0.07318
calc peak height	90,93
Baseline Time (s)	11.037
Baseline Value 	-0.002432
subtract baseline	10,4
Abs	0.036740
Peak Time (s)	91.036
Peak Height 	0.03674
calc peak height	90,93
Baseline Time (s)	9.536
Baseline Value 	0.004215
subtract baseline	10,3
PK_550	0.026512
Peak Time (s)	91.536
Peak Height 	0.02651
calc peak height	90,93
Baseline Time (s)	11.037
Baseline Value 	7.0501E-4
subtract baseline	10,2
PK_880	0.039994
Peak Time (s)	92.537
Peak Height 	0.03999
calc peak height	90,93
Baseline Time (s)	11.037
Baseline Value 	0.001092
subtract baseline	10,1


Time (s)	A880-A510	A880-A775	A880-A975	A880	I510	I775	I975	I880	
0.038500	-0.004894	-0.000532	-0.004942	0.007629	6934.002464	44566.091713	3961.677309	23710.184798
0.536000	-0.001932	-0.000139	-0.005935	0.004661	6989.257072	44889.037715	3966.615406	23852.757346
1.036000	-0.001991	-0.000841	-0.003821	0.003377	7000.765931	44945.244083	3975.160683	23914.720614
1.538500	-0.001955	-0.000507	-0.003447	0.000828	7025.159724	45224.684335	3982.568370	24038.297248
2.037000	-0.001085	-0.000537	-0.001659	0.003246	7010.537095	44987.289959	3980.965940	23921.041579
2.537000	0.000754	-0.000687	-0.004250	0.000503	7053.983429	45238.739227	3981.353921	24054.115960
3.034500	0.000682	-0.000501	-0.000777	-0.001095	7068.556403	45412.753789	3994.309710	24132.059468
3.538000	-0.001778	-0.000324	-0.002807	0.000683	7028.219787	45256.649066	3984.568249	24045.384726
4.035500	-0.000951	-0.000145	-0.008436	0.001251	7030.663974	45218.777200	3968.894991	24017.748122
4.535500	-0.000640	0.000565	-0.000471	0.001483	7031.418886	45265.227399	3988.485741	24006.479858
5.036000	-0.000841	0.000525	0.000756	0.001172	7032.461700	45291.599116	3992.423064	24021.578166
5.536500	0.000512	0.000028	0.003400	0.000959	7047.334188	45264.050645	3999.775685	24031.954538
6.037000	0.001118	-0.000337	-0.000215	0.000401	7058.436316	45282.829748	3991.911935	24059.114247
6.536500	-0.001248	-0.000817	-0.003629	-0.000470	7044.193885	45320.905375	3985.410794	24101.540117
7.037500	-0.002124	-0.000390	-0.004061	0.000180	7029.707970	45299.156336	3982.655076	24069.864161
7.537500	-0.000258	-0.000135	0.002182	0.000104	7048.147155	45331.402997	3998.839686	24073.556559
8.035000	-0.001791	0.000014	-0.003718	0.000189	7032.766303	45337.681674	3983.504524	24069.397457
8.538000	-0.001154	0.000237	-0.004615	0.000371	7037.085096	45341.689552	3980.761733	24060.543470
9.035500	-0.000109	-0.000392	0.001936	-0.000056	7051.088785	45321.973401	3998.617439	24081.361608
9.535500	-0.001229	-0.000711	0.000000	-0.000318	7042.926954	45316.469357	3994.308815	24094.133302
10.036000	0.001949	0.000622	0.000848	0.000243	7067.882867	45391.752466	3995.045943	24066.787035
10.536500	0.000451	-0.000101	-0.001736	0.001044	7045.942401	45243.198262	3986.376246	24027.812375
11.037000	0.000000	0.000000	0.000164	0.000000	7051.593542	45354.748031	3993.911367	24078.622226
11.537000	0.000210	0.000097	-0.006197	-0.000411	7057.517961	45404.304216	3978.735036	24098.660707
12.034500	-0.000273	0.000554	-0.000745	0.000045	7048.573994	45404.507758	3991.465875	24076.451245
12.534500	-0.002496	-0.000676	-0.005807	0.001322	7015.381742	45160.218369	3975.336039	24014.298654
13.038000	0.000879	-0.000133	0.001547	-0.002224	7081.252497	45559.170679	4003.214651	24187.240787
13.535500	-0.000189	-0.000602	-0.004841	-0.000646	7055.948008	45358.962142	3982.770632	24110.098084
14.036000	0.000040	0.000335	-0.004846	-0.000555	7057.257381	45441.642125	3982.526076	24105.659718
14.536000	-0.002122	0.000028	-0.009263	0.002371	7009.009633	45126.769666	3964.015438	23963.419859
15.039000	0.000391	-0.000489	0.000526	-0.000268	7057.871973	45333.151593	3995.531595	24091.676406
15.569000	0.001171	0.000124	0.001225	-0.000663	7069.096931	45431.577642	3998.348319	24110.926836
16.036500	-0.000265	-0.001311	-0.001956	-0.001662	7064.915889	45388.968035	3992.735236	24159.733435
16.537000	-0.001673	-0.000327	-0.002146	0.001777	7018.852982	45149.973031	3983.463727	23992.201061
17.037500	0.001270	-0.000308	-0.003925	-0.000325	7066.812877	45356.324526	3984.286201	24094.439281
17.537500	0.001459	-0.000354	-0.002407	-0.003538	7099.472061	45666.489877	3996.398773	24251.704447
18.035000	0.000109	-0.000688	-0.007603	-0.000149	7054.051069	45302.227659	3974.515218	24085.876563
18.535500	-0.001524	-0.000073	0.001920	0.001380	7024.017697	45213.250213	3994.880123	24011.499623
19.035500	-0.000568	-0.000093	-0.003190	0.001099	7035.743113	45238.623284	3982.533357	24025.155686
19.536500	0.000213	-0.000610	-0.000389	0.000857	7045.462694	45211.864534	3990.294478	24036.888662
20.036500	0.000761	0.000300	-0.004754	0.001236	7047.066048	45263.444489	3978.215266	24018.466235
20.536500	-0.001624	-0.000769	-0.003037	0.001381	7023.066930	45145.528700	3982.204729	24011.452788
21.037000	0.000048	-0.000100	0.001867	0.000882	7043.652517	45259.060308	3996.023944	24035.698582
21.537000	-0.000888	-0.000611	-0.002150	0.000500	7038.390863	45246.446979	3986.708023	24054.254422
22.037500	-0.001539	-0.000365	-0.005304	0.000901	7028.415840	45231.441561	3977.672585	24034.763888
22.535000	-0.000620	-0.000708	0.000764	0.000697	7039.059606	45217.849636	3993.662369	24044.667124
23.035500	0.001249	0.000122	-0.000774	0.001232	7051.755701	45246.629097	3988.353126	24018.680440
23.536000	-0.000888	-0.000162	-0.000069	0.001119	7032.520299	45229.971763	3990.445649	24024.190396
24.036000	-0.001417	-0.000501	-0.004071	0.000803	7030.499444	45227.686242	3981.044917	24039.520178
24.536500	-0.000637	-0.001069	-0.003267	0.000920	7036.791412	45161.207933	3982.793543	24033.866100
25.036500	-0.001107	-0.001054	-0.002262	0.000030	7040.772894	45249.116694	3987.623521	24077.168701
25.537000	0.000799	0.000332	-0.004565	0.001085	7048.871581	45281.388056	3979.077865	24025.838246
26.034000	-0.001454	-0.000841	-0.003001	0.000200	7035.867870	45253.338881	3985.304395	24068.897130
26.540500	-0.002619	-0.000284	-0.002211	0.000560	7021.417380	45272.430802	3986.397281	24051.336450
27.035000	0.000270	-0.000644	-0.002459	0.000400	7050.356058	45252.969664	3986.175412	24059.132959
27.535000	-0.002135	-0.000033	0.000005	0.002743	7005.379198	45084.778923	3986.482558	23945.391037
28.035000	-0.000169	0.000062	0.000755	-0.002351	7072.431557	45590.798293	4001.494858	24193.492533
28.536000	-0.000324	-0.000021	-0.001950	-0.000889	7056.977927	45439.503218	3990.770749	24121.995781
29.036000	-0.000336	-0.000843	-0.001831	-0.001018	7058.100981	45371.854563	3991.406143	24128.295543
29.536500	-0.001109	-0.000564	-0.000251	0.002443	7017.893766	45062.465640	3986.595101	23959.934807
30.036500	-0.000464	-0.000315	-0.002784	-0.000970	7056.418673	45418.677403	3988.842841	24125.933308
30.537000	0.000356	-0.000779	-0.003567	-0.001397	7068.328926	45415.051907	3987.932990	24146.779454
31.055500	0.000180	-0.000670	0.000954	-0.001769	7070.201556	45462.120660	4000.504774	24164.992250
31.537500	-0.002187	-0.000093	-0.003184	0.003413	6998.585586	45014.132682	3976.682414	23912.989865
32.035000	0.000076	0.000253	-0.002068	0.000404	7048.471225	45340.011323	3987.161383	24058.939446
32.557000	0.001980	0.000817	-0.001721	0.001186	7059.165140	45318.836744	3986.053849	24020.930587
33.036000	-0.000269	0.000375	-0.000492	-0.000596	7054.709783	45449.598664	3993.759145	24107.698279
33.535500	-0.002053	-0.000476	-0.000100	0.002680	7006.753989	45047.980612	3986.376469	23948.462900
34.036500	-0.000636	0.000099	-0.002441	-0.000894	7054.055170	45451.757530	3989.527605	24122.236641
34.536000	-0.001110	-0.000647	-0.001733	0.001791	7024.047293	45117.528725	3984.479977	23991.534807
35.037000	0.001759	-0.000244	0.000645	-0.002281	7090.265389	45553.905114	4001.029122	24190.050947
35.539500	-0.002717	-0.000519	-0.001381	0.002271	7004.346018	45083.441676	3984.152915	23968.269427
36.034500	-0.001463	-0.000066	-0.000690	0.001339	7024.982249	45217.889150	3988.292276	24013.466412
36.535000	0.000497	-0.000117	-0.003526	0.001289	7044.053862	45217.870016	3981.197655	24015.921293
37.035500	-0.001663	-0.000193	0.000133	0.001725	7019.440597	45167.969133	3989.409346	23994.725489
37.535000	-0.002630	-0.000455	0.000097	0.002694	7001.185755	45048.690187	3986.842807	23947.787321
38.036000	-0.000843	-0.000061	-0.007013	0.001685	7027.578861	45184.752297	3971.381279	23996.696074
38.536000	-0.001436	0.000325	0.000077	0.001995	7019.031643	45192.053680	3988.575218	23981.621405
39.036000	0.000454	-0.000666	-0.002085	0.001131	7045.141984	45179.794571	3985.263151	24023.565745
39.536500	-0.001143	-0.000718	-0.002256	0.001071	7030.548506	45180.546243	3984.981551	24026.492738
40.040000	-0.001132	-0.000871	-0.003096	0.000848	7032.769861	45187.339450	3983.409711	24037.342161
40.537000	-0.000098	0.000442	-0.003091	0.002052	7031.165371	45197.976086	3980.364956	23978.894114
41.037000	-0.000280	0.000096	-0.000493	0.001697	7032.801532	45198.862598	3987.882949	23996.122824
41.535000	-0.002023	0.000427	-0.002960	0.001863	7014.733948	45214.889990	3981.175638	23988.038956
42.035000	-0.001374	-0.000083	-0.001174	0.001302	7026.171560	45219.789634	3987.150555	24015.266679
42.535500	0.000279	-0.000354	-0.001825	0.001539	7039.608732	45170.549656	3984.886962	24003.788272
43.036000	0.001698	0.000562	-0.005712	0.002084	7047.918393	45206.529791	3973.653445	23977.319455
43.536500	-0.001722	-0.000267	-0.001334	0.001386	7022.090174	45193.826538	3986.530791	24011.208804
44.036500	0.000450	0.000010	0.000217	0.001636	7040.305243	45196.398402	3989.852996	23999.041308
44.539500	-0.001214	-0.001399	-0.003411	0.000326	7036.950162	45186.801134	3983.936762	24062.748019
45.036500	0.001175	0.000078	0.003884	0.000546	7057.584959	45309.090025	4002.094500	24052.016573
45.537500	0.001787	0.000396	0.007036	-0.000395	7072.436201	45432.025046	4012.735002	24097.880385
46.037500	0.002322	0.000445	-0.000896	-0.000225	7075.933035	45420.222367	3991.770232	24089.610289
46.549000	-0.002371	-0.001037	-0.001137	0.000022	7028.855921	45251.544910	3990.518446	24077.537156
47.035500	0.001270	0.000658	0.002474	-0.000066	7064.343690	45425.423423	4000.030534	24081.829123
47.535500	0.000727	0.000056	0.000474	-0.000719	7065.389914	45430.401071	3996.558276	24113.681738
48.036000	0.001722	0.001005	0.002267	-0.000076	7068.760953	45460.389659	3999.525121	24082.344342
48.551500	-0.003601	-0.000530	-0.001140	0.004483	6975.292267	44868.525105	3979.147512	23861.344618
49.039500	-0.000716	-0.000478	-0.003530	0.001220	7033.194477	45189.477789	3981.361444	24019.275824
49.536500	-0.000947	-0.000568	0.000600	0.003450	7009.921070	44964.587318	3986.197876	23911.220493
50.054000	0.002246	-0.000004	0.000659	-0.000315	7076.070983	45385.109681	3995.996970	24093.997154
50.537500	-0.004213	-0.000919	-0.001310	0.004106	6973.094234	44867.312444	3979.671258	23879.489523
51.037500	0.000174	-0.000373	-0.002418	-0.001040	7063.177799	45419.900996	3989.959464	24129.355250
51.535000	-0.002450	-0.000421	-0.002616	0.003650	6993.895439	44959.526412	3977.519692	23901.552397
52.035500	0.001032	-0.000182	0.000759	-0.002008	7080.653074	45533.272294	4000.619728	24176.686336
52.535500	-0.000624	-0.000407	0.002730	0.001533	7031.100942	45165.896986	3996.569551	24004.078128
53.036500	0.001012	-0.000027	0.001945	0.002333	7039.026601	45125.150893	3992.496618	23965.254746
53.539500	-0.005167	-0.000573	-0.004784	0.124410	5984.290492	34759.368448	3706.563889	18808.033291
54.036500	-0.033460	-0.014209	-0.006127	0.045530	6363.549177	39909.797831	3868.441387	21972.624470
54.537000	-0.045061	-0.020893	-0.008981	-0.063573	7231.755632	49729.861286	4142.852682	27414.184143
55.034500	-0.022149	-0.050719	-0.002469	-0.204592	9211.723258	63369.518745	4654.364203	36811.286395
55.537500	-0.020887	-0.027909	0.001165	-0.146464	8438.837466	58653.377876	4444.934854	32565.448887
56.035500	-0.021756	-0.021967	0.002613	-0.113438	8024.047138	55287.775921	4335.070517	30394.542250
56.535000	-0.024063	-0.018411	-0.006164	-0.102278	7868.037875	54380.023031	4269.712983	29697.498630
57.035500	-0.027449	-0.016395	-0.009143	-0.093592	7732.224367	53596.719766	4232.839419	29167.238736
57.536000	-0.027543	-0.011862	-0.018445	-0.085526	7642.551436	53186.624730	4179.741429	28684.246276
58.039000	-0.000573	-0.006917	-0.005749	-0.116157	8313.167908	57472.087694	4316.268656	30567.108916
58.536500	0.009565	-0.001654	-0.002513	-0.106953	8324.774942	56979.799337	4296.642153	29987.291667
59.036500	0.021371	0.003415	0.002307	-0.103761	8433.175801	57213.750664	4301.971313	29789.126117
59.537000	0.012318	0.006666	-0.000944	-0.044566	7630.597061	50659.527242	4111.314285	26365.286280
60.034500	0.014614	0.010696	0.004703	-0.009954	7292.396404	47417.985809	4031.769231	24569.223128
60.535000	0.005325	0.007493	0.009199	-0.007761	7178.149883	46869.274323	4037.898934	24460.141298
61.035000	0.009022	0.004832	0.004910	-0.049295	7646.189775	50978.409702	4141.727797	26621.992011
61.535000	-0.001597	0.009419	0.004043	0.052422	6567.691807	41360.542683	3875.942322	21672.647484
62.036000	0.004193	0.009277	0.005762	0.035637	6762.625987	42859.664073	3919.363694	22411.665070
62.538500	0.011737	0.013315	0.010195	0.033685	6847.694594	43413.345297	3934.780897	22499.446720
63.036500	0.013774	0.013464	0.011458	0.018237	7009.300797	44891.663412	3976.220432	23208.489198
63.536500	0.011099	0.016825	0.012418	0.057651	6631.048414	41553.338380	3883.193743	21448.178289
64.037000	0.029033	0.023761	0.016531	0.072993	6653.304550	40814.051770	3857.547085	20805.059940
64.534500	0.032747	0.022479	0.017581	0.023797	7137.750864	45226.369265	3977.646213	22950.399307
65.037500	0.033520	0.022144	0.012482	0.017243	7209.609924	45835.625778	3981.335830	23254.987353
65.549000	0.033686	0.022891	0.018591	0.019891	7185.124775	45648.359687	3990.156613	23131.334885
66.035500	0.033410	0.023499	0.022895	0.026935	7113.738950	45020.838784	3983.165447	22806.138964
66.535500	0.033685	0.023042	0.016881	0.035411	7035.184847	44165.064912	3946.915554	22421.795412
67.039000	0.032469	0.022612	0.020635	0.042472	6957.395785	43460.928048	3938.809057	22107.287020
67.536000	0.031809	0.023497	0.017573	0.047960	6900.553387	43034.181757	3918.136473	21866.313727
68.036500	0.034016	0.022926	0.016018	0.053476	6870.300838	42476.812562	3901.346076	21627.200198
68.536000	0.029518	0.023093	0.023599	0.060346	6768.087449	41871.996113	3903.021079	21333.588062
69.040000	0.031966	0.023341	0.022706	0.061358	6780.847973	41803.605473	3898.535739	21290.696457
69.537000	0.034240	0.024157	0.024853	0.062336	6792.412120	41789.110356	3901.287618	21249.394641
70.035000	0.032674	0.025082	0.026393	0.066658	6740.179777	41486.824383	3894.755440	21067.861875
70.538000	0.033000	0.025171	0.021822	0.074320	6676.101610	40821.250650	3866.526786	20750.486225
71.035500	0.032999	0.026005	0.027864	0.073300	6684.940584	40983.186994	3882.726337	20792.427732
71.538500	0.035495	0.026465	0.024578	0.068965	6744.713052	41404.963730	3885.153427	20971.700331
72.036000	0.038155	0.025811	0.024824	0.064920	6804.307106	41706.070165	3895.148533	21140.633951
72.536000	0.038610	0.026409	0.026304	0.063000	6825.639056	41931.246612	3903.141971	21221.378600
73.036500	0.039119	0.027402	0.025465	0.064147	6819.908220	41917.469914	3898.466694	21173.128517
73.536500	0.037597	0.028211	0.023652	0.073859	6720.166686	41127.513080	3871.752404	20769.437979
74.037000	0.040849	0.029415	0.023645	0.073340	6753.351922	41279.077853	3872.922596	20790.752875
74.538000	0.040236	0.028717	0.025516	0.080879	6681.962242	40559.649375	3860.028415	20483.202246
75.035000	0.043444	0.030637	0.031255	0.089356	6636.532159	39996.695715	3853.860704	20143.698382
75.535500	0.040905	0.030856	0.023584	0.102073	6508.038760	38946.767292	3809.123167	19646.613245
76.038500	0.040372	0.030784	0.028325	0.104468	6483.899273	38743.079964	3814.165614	19554.634351
76.535500	0.041955	0.029725	0.024259	0.110326	6448.931132	38178.098507	3793.026468	19331.755944
77.036000	0.041232	0.028619	0.022417	0.105980	6478.539246	38441.626597	3798.313918	19496.814215
77.536000	0.036305	0.027393	0.029468	0.101187	6477.443416	38734.025517	3823.746368	19680.784202
78.037000	0.033416	0.025626	0.029239	0.084807	6589.862813	39957.334532	3859.565675	20325.060805
78.537000	0.033801	0.025428	0.028256	0.072798	6696.273697	40976.602291	3884.795638	20813.093996
79.037500	0.034508	0.026336	0.028273	0.069554	6730.840739	41341.514153	3892.381558	20947.263613
79.534500	0.030732	0.025027	0.030855	0.078535	6620.358104	40443.401433	3877.549485	20578.251949
80.035000	0.035712	0.027646	0.027473	0.084515	6611.837024	40154.656298	3856.239854	20336.760756
80.538500	0.041237	0.030031	0.038029	0.092875	6587.775750	39646.774420	3861.196955	20004.679106
81.036000	0.042810	0.031431	0.034212	0.092765	6602.038834	39774.525991	3852.844541	20009.027202
81.536000	0.038484	0.030008	0.026368	0.085748	6624.961984	40251.401060	3850.992908	20287.401215
82.036500	0.039551	0.028394	0.028343	0.069564	6775.331222	41522.862050	3892.521970	20946.851119
82.536500	0.037578	0.028753	0.031537	0.083611	6635.494779	40327.180499	3867.490963	20373.073908
83.037000	0.039788	0.029386	0.037239	0.099273	6521.996549	39057.061645	3845.065846	19754.827218
83.534500	0.033716	0.027051	0.034140	0.103602	6436.620671	38507.781943	3828.672656	19587.826400
84.037500	0.031385	0.024781	0.028321	0.101761	6432.653172	38472.777052	3820.009052	19658.660052
84.535000	0.026275	0.022801	0.030716	0.101588	6392.878232	38325.404216	3825.593801	19665.332898
85.037500	0.025446	0.022753	0.032109	0.103003	6374.948497	38206.486724	3825.544518	19610.842381
85.535500	0.024659	0.021692	0.028713	0.104806	6354.369482	37975.022463	3814.273355	19541.690718
86.036000	0.028567	0.022686	0.030056	0.099636	6427.037901	38475.126551	3828.414656	19740.751711
86.536000	0.029111	0.024122	0.030952	0.098757	6438.568698	38664.890823	3832.305622	19774.852402
87.036500	0.033055	0.025386	0.032228	0.098700	6471.186675	38773.615053	3835.238573	19777.069133
87.537000	0.032669	0.025360	0.032829	0.095456	6494.665029	39039.668112	3843.745308	19903.432678
88.037000	0.033617	0.025409	0.033048	0.086510	6577.178181	39794.298283	3864.336591	20256.959256
88.537000	0.034390	0.025578	0.032154	0.082703	6616.014756	40132.791023	3870.971329	20409.599134
89.037500	0.034894	0.025564	0.028595	0.079856	6644.684751	40375.923507	3869.346057	20524.641379
89.537000	0.035500	0.025322	0.035790	0.077102	6673.660931	40592.760391	3892.307625	20636.630144
90.035500	0.036985	0.025635	0.031156	0.073182	6720.739428	40961.062586	3890.641332	20797.273573
90.535500	0.039629	0.025367	0.032192	0.070250	6769.930286	41194.785139	3899.932223	20918.390423
91.036000	0.037815	0.025507	0.036740	0.067963	6774.128720	41408.847260	3916.137197	21013.414763
91.536000	0.038044	0.026512	0.029080	0.069917	6758.829738	41324.980599	3893.417482	20932.192075
92.036500	0.037742	0.025060	0.032382	0.066881	6783.107322	41465.124251	3908.338137	21058.551648
92.536500	0.039994	0.026460	0.035050	0.069346	6781.205047	41370.848959	3908.819813	20955.875906
93.037000	0.038166	0.025829	0.030971	0.067512	6781.266166	41477.348277	3903.508091	21032.228840
93.534500	0.035491	0.024090	0.029035	0.064610	6783.282969	41580.531349	3905.791738	21153.675858
94.038000	0.037313	0.025116	0.032847	0.062229	6820.911409	41884.493646	3920.545230	21253.906496
94.535500	0.037682	0.023837	0.031576	0.057033	6871.289551	42236.831968	3930.006452	21474.565169
95.035500	0.034773	0.023139	0.030419	0.052742	6883.899378	42563.001840	3937.622495	21658.834101
95.536000	0.035525	0.022896	0.032621	0.050699	6909.529025	42727.374860	3948.026996	21747.190979
96.036000	0.034171	0.022890	0.032431	0.053241	6873.850786	42494.965274	3941.320890	21637.328919
96.558000	0.035176	0.023777	0.029149	0.061256	6810.458408	41851.753677	3914.028080	21295.041361
97.036500	0.036648	0.023721	0.032997	0.067332	6769.369994	41306.890601	3908.728976	21039.742322
97.537000	0.036207	0.025824	0.027473	0.076718	6683.116967	40669.590258	3873.954923	20652.309821
98.037500	0.035469	0.024421	0.032840	0.083638	6617.237566	39954.292377	3870.401295	20371.986676
98.540500	0.031357	0.021718	0.031102	0.085000	6570.855777	39609.810453	3863.343650	20317.308517
99.035000	0.029908	0.021131	0.031366	0.079369	6606.234847	40037.631599	3876.805145	20544.377310
