sample name	sample
index	265
start time	 02-25-2021  11:17:38 AM


Wavelength (nm)	Absorbance
494.344910	0.767466
494.563924	0.767466
494.782919	0.767466
495.001897	-0.148262
495.220856	0.074286
495.439797	0.042072
495.658719	0.007200
495.877624	-0.040953
496.096510	-0.027592
496.315378	-0.009110
496.534227	0.003320
496.753059	-0.062921
496.971872	-0.054064
497.190667	-0.006377
497.409444	0.005307
497.628203	0.006221
497.846943	0.005352
498.065665	0.005474
498.284369	0.006758
498.503055	0.005910
498.721723	0.006096
498.940372	0.005979
499.159003	0.006550
499.377616	0.005883
499.596210	0.004689
499.814787	0.005543
500.033345	0.005659
500.251885	0.005170
500.470406	0.005477
500.688910	0.006141
500.907395	0.005740
501.125862	0.005655
501.344311	0.005374
501.562742	0.005450
501.781154	0.004782
501.999548	0.004998
502.217924	0.004727
502.436282	0.004559
502.654621	0.003893
502.872942	0.005057
503.091245	0.004846
503.309530	0.004900
503.527797	0.005701
503.746045	0.005385
503.964275	0.004351
504.182487	0.004805
504.400681	0.005178
504.618856	0.005358
504.837013	0.005125
505.055152	0.004757
505.273273	0.005098
505.491376	0.004901
505.709460	0.005035
505.927526	0.005160
506.145574	0.004678
506.363604	0.004814
506.581615	0.005697
506.799608	0.005470
507.017583	0.006115
507.235540	0.005857
507.453478	0.005774
507.671399	0.007029
507.889301	0.008046
508.107185	0.008502
508.325050	0.008344
508.542898	0.007236
508.760727	0.008017
508.978538	0.007533
509.196330	0.007613
509.414105	0.007829
509.631861	0.007051
509.849599	0.006390
510.067319	0.006133
510.285021	0.006618
510.502704	0.006522
510.720369	0.006043
510.938016	0.006536
511.155645	0.006173
511.373255	0.006161
511.590848	0.006185
511.808422	0.006433
512.025977	0.006131
512.243515	0.006293
512.461034	0.006157
512.678536	0.006042
512.896018	0.005853
513.113483	0.006568
513.330930	0.006399
513.548358	0.006610
513.765768	0.006637
513.983160	0.007203
514.200533	0.007167
514.417889	0.007561
514.635226	0.007083
514.852545	0.007204
515.069845	0.006680
515.287128	0.007177
515.504392	0.006850
515.721638	0.006905
515.938866	0.006313
516.156075	0.005501
516.373267	0.005644
516.590440	0.005295
516.807594	0.004887
517.024731	0.004867
517.241850	0.004504
517.458950	0.004305
517.676032	0.004814
517.893095	0.004755
518.110141	0.004928
518.327168	0.004679
518.544177	0.005106
518.761168	0.005536
518.978141	0.005791
519.195095	0.005810
519.412031	0.005719
519.628949	0.005349
519.845849	0.005727
520.062731	0.006550
520.279594	0.006652
520.496439	0.007066
520.713266	0.006838
520.930074	0.007139
521.146865	0.006885
521.363637	0.007401
521.580391	0.006917
521.797127	0.006853
522.013844	0.006235
522.230543	0.006199
522.447224	0.005386
522.663887	0.005829
522.880532	0.005379
523.097158	0.005616
523.313766	0.005163
523.530356	0.005256
523.746928	0.005427
523.963481	0.005232
524.180017	0.005536
524.396534	0.005692
524.613032	0.005666
524.829513	0.005319
525.045975	0.005200
525.262420	0.005447
525.478845	0.004947
525.695253	0.004682
525.911643	0.004730
526.128014	0.004648
526.344367	0.004727
526.560702	0.004514
526.777018	0.004964
526.993316	0.005055
527.209597	0.005011
527.425858	0.005848
527.642102	0.005853
527.858328	0.006464
528.074535	0.006396
528.290724	0.006853
528.506894	0.006610
528.723047	0.006510
528.939181	0.006511
529.155297	0.006882
529.371395	0.006683
529.587475	0.007018
529.803536	0.007087
530.019579	0.007313
530.235604	0.007044
530.451611	0.007154
530.667600	0.007411
530.883570	0.007717
531.099522	0.007507
531.315456	0.007866
531.531372	0.007639
531.747269	0.007261
531.963148	0.007132
532.179009	0.007834
532.394852	0.007934
532.610676	0.008364
532.826482	0.008285
533.042271	0.008402
533.258040	0.008495
533.473792	0.008858
533.689525	0.009084
533.905240	0.009413
534.120937	0.009418
534.336616	0.009761
534.552277	0.009300
534.767919	0.009592
534.983543	0.009437
535.199149	0.009215
535.414736	0.009230
535.630306	0.009329
535.845857	0.009140
536.061390	0.008561
536.276904	0.008302
536.492401	0.008578
536.707879	0.008358
536.923339	0.008431
537.138781	0.008550
537.354204	0.008601
537.569610	0.008303
537.784997	0.008570
538.000366	0.008845
538.215716	0.009453
538.431049	0.009606
538.646363	0.009686
538.861659	0.010036
539.076937	0.010304
539.292196	0.010373
539.507438	0.010531
539.722661	0.010389
539.937866	0.010638
540.153052	0.010174
540.368221	0.010003
540.583371	0.009808
540.798503	0.009802
541.013617	0.009392
541.228712	0.009242
541.443789	0.009494
541.658848	0.009502
541.873889	0.009162
542.088912	0.009217
542.303916	0.009011
542.518902	0.009165
542.733870	0.009227
542.948820	0.009549
543.163752	0.009916
543.378665	0.009593
543.593560	0.009256
543.808437	0.009569
544.023295	0.009498
544.238136	0.009954
544.452958	0.010258
544.667762	0.010123
544.882548	0.009898
545.097315	0.009606
545.312064	0.009666
545.526795	0.010105
545.741508	0.010287
545.956203	0.010575
546.170879	0.010224
546.385537	0.010354
546.600177	0.010315
546.814799	0.010238
547.029402	0.010390
547.243988	0.010408
547.458555	0.010090
547.673103	0.009706
547.887634	0.009667
548.102146	0.009768
548.316640	0.009672
548.531116	0.009904
548.745574	0.010152
548.960013	0.009936
549.174435	0.010079
549.388838	0.010096
549.603222	0.010135
549.817589	0.010106
550.031937	0.010039
550.246267	0.010212
550.460579	0.009893
550.674873	0.009811
550.889148	0.009893
551.103405	0.010212
551.317644	0.010557
551.531865	0.010685
551.746068	0.010774
551.960252	0.010727
552.174418	0.010578
552.388566	0.010850
552.602696	0.010814
552.816807	0.010883
553.030900	0.010631
553.244975	0.010679
553.459032	0.010584
553.673070	0.010567
553.887091	0.010720
554.101093	0.010774
554.315077	0.010840
554.529042	0.010831
554.742990	0.010742
554.956919	0.010865
555.170830	0.010816
555.384722	0.011019
555.598597	0.011266
555.812453	0.011150
556.026291	0.010962
556.240111	0.010799
556.453913	0.011179
556.667696	0.011202
556.881461	0.010929
557.095208	0.010823
557.308937	0.010681
557.522647	0.010280
557.736339	0.009985
557.950013	0.010074
558.163669	0.010134
558.377307	0.009950
558.590926	0.009642
558.804527	0.009949
559.018110	0.010055
559.231675	0.010066
559.445221	0.010224
559.658749	0.010980
559.872259	0.010980
560.085751	0.010992
560.299225	0.010849
560.512680	0.011423
560.726117	0.011171
560.939536	0.011147
561.152937	0.011212
561.366319	0.011008
561.579683	0.010671
561.793029	0.010811
562.006357	0.010826
562.219667	0.010783
562.432958	0.010444
562.646231	0.010533
562.859486	0.010502
563.072723	0.010354
563.285941	0.010423
563.499141	0.010391
563.712323	0.010503
563.925487	0.010501
564.138632	0.010551
564.351760	0.010414
564.564869	0.010484
564.777960	0.010662
564.991032	0.011010
565.204087	0.011264
565.417123	0.011401
565.630141	0.011346
565.843140	0.011607
566.056122	0.011653
566.269085	0.012257
566.482030	0.012266
566.694957	0.012273
566.907866	0.012104
567.120756	0.012307
567.333628	0.012358
567.546482	0.012323
567.759318	0.011933
567.972135	0.012582
568.184935	0.012308
568.397716	0.012375
568.610478	0.012273
568.823223	0.012288
569.035949	0.011920
569.248657	0.011703
569.461347	0.011508
569.674019	0.011629
569.886672	0.011105
570.099308	0.010957
570.311925	0.010736
570.524523	0.010536
570.737104	0.010543
570.949666	0.010546
571.162210	0.010745
571.374736	0.010828
571.587244	0.011177
571.799733	0.011119
572.012205	0.011413
572.224658	0.011475
572.437092	0.011663
572.649509	0.011770
572.861907	0.011786
573.074287	0.011739
573.286649	0.011752
573.498993	0.011497
573.711318	0.011154
573.923625	0.011335
574.135914	0.011320
574.348185	0.011374
574.560438	0.011023
574.772672	0.011206
574.984888	0.011142
575.197086	0.011260
575.409266	0.011212
575.621427	0.011826
575.833570	0.011562
576.045695	0.011824
576.257802	0.011421
576.469890	0.012002
576.681961	0.011853
576.894013	0.011769
577.106046	0.011764
577.318062	0.011429
577.530059	0.011187
577.742039	0.010945
577.954000	0.010727
578.165942	0.011085
578.377867	0.010905
578.589773	0.011118
578.801661	0.011318
579.013531	0.011218
579.225382	0.011575
579.437216	0.011691
579.649031	0.011825
579.860828	0.011864
580.072606	0.012344
580.284367	0.012229
580.496109	0.011949
580.707833	0.011972
580.919539	0.012108
581.131227	0.012216
581.342896	0.012283
581.554547	0.012381
581.766180	0.012349
581.977795	0.012094
582.189391	0.012203
582.400969	0.012700
582.612529	0.012864
582.824071	0.012705
583.035595	0.012544
583.247100	0.012576
583.458587	0.012985
583.670056	0.013214
583.881506	0.013162
584.092939	0.013085
584.304353	0.012544
584.515749	0.012556
584.727127	0.012700
584.938486	0.012805
585.149828	0.012862
585.361151	0.012416
585.572456	0.012293
585.783742	0.011971
585.995011	0.012196
586.206261	0.012526
586.417493	0.012228
586.628706	0.012316
586.839902	0.012507
587.051079	0.012471
587.262238	0.012915
587.473379	0.013305
587.684502	0.013466
587.895606	0.013238
588.106692	0.013291
588.317760	0.013631
588.528810	0.013661
588.739841	0.013594
588.950855	0.013577
589.161850	0.013410
589.372827	0.013233
589.583785	0.013588
589.794726	0.013662
590.005648	0.013340
590.216552	0.013180
590.427437	0.013144
590.638305	0.013429
590.849154	0.013495
591.059985	0.013221
591.270798	0.013155
591.481592	0.012940
591.692369	0.013092
591.903127	0.013458
592.113867	0.013751
592.324588	0.013580
592.535292	0.013444
592.745977	0.013145
592.956644	0.013328
593.167293	0.013446
593.377923	0.013377
593.588536	0.013340
593.799130	0.013206
594.009706	0.013057
594.220263	0.013137
594.430803	0.013212
594.641324	0.013607
594.851827	0.013702
595.062312	0.013589
595.272778	0.013775
595.483227	0.013738
595.693657	0.013747
595.904069	0.013773
596.114462	0.013676
596.324838	0.013592
596.535195	0.013498
596.745534	0.013568
596.955855	0.013619
597.166157	0.013620
597.376441	0.013787
597.586707	0.013602
597.796955	0.013477
598.007185	0.013646
598.217396	0.013624
598.427589	0.013695
598.637764	0.013685
598.847921	0.013647
599.058060	0.013710
599.268180	0.013503
599.478282	0.013676
599.688366	0.013657
599.898431	0.013633
600.108479	0.013599
600.318508	0.013582
600.528519	0.013339
600.738511	0.013477
600.948486	0.013492
601.158442	0.013503
601.368380	0.013565
601.578300	0.013738
601.788202	0.013676
601.998085	0.013688
602.207950	0.013587
602.417797	0.013834
602.627626	0.013558
602.837436	0.013471
603.047228	0.013662
603.257002	0.013614
603.466758	0.013451
603.676496	0.013674
603.886215	0.013617
604.095916	0.013817
604.305599	0.013606
604.515264	0.013934
604.724910	0.014095
604.934538	0.013784
605.144148	0.013676
605.353740	0.013821
605.563314	0.013715
605.772869	0.013784
605.982406	0.013636
606.191925	0.013712
606.401425	0.013564
606.610908	0.013458
606.820372	0.013742
607.029818	0.013911
607.239246	0.013862
607.448655	0.013946
607.658047	0.013860
607.867420	0.014037
608.076775	0.014047
608.286111	0.014108
608.495430	0.014190
608.704730	0.014041
608.914012	0.013870
609.123275	0.013868
609.332521	0.013701
609.541748	0.013774
609.750957	0.013711
609.960148	0.013730
610.169321	0.013686
610.378475	0.013562
610.587611	0.013598
610.796729	0.013768
611.005829	0.013801
611.214910	0.013848
611.423974	0.013723
611.633019	0.013572
611.842045	0.013578
612.051054	0.013701
612.260044	0.013866
612.469017	0.014136
612.677970	0.014181
612.886906	0.014382
613.095824	0.014478
613.304723	0.014823
613.513604	0.015207
613.722467	0.015335
613.931311	0.015415
614.140138	0.015379
614.348946	0.015275
614.557736	0.015287
614.766507	0.015408
614.975261	0.015206
615.183996	0.015145
615.392713	0.014806
615.601412	0.014867
615.810092	0.014639
616.018754	0.014556
616.227399	0.014534
616.436024	0.014450
616.644632	0.014241
616.853222	0.014624
617.061793	0.014373
617.270346	0.014582
617.478880	0.014597
617.687397	0.014549
617.895895	0.014551
618.104375	0.014638
618.312837	0.014902
618.521281	0.014892
618.729706	0.014730
618.938113	0.015140
619.146502	0.015046
619.354873	0.014970
619.563226	0.015137
619.771560	0.015463
619.979876	0.015385
620.188174	0.015138
620.396453	0.015261
620.604715	0.015356
620.812958	0.015320
621.021183	0.015529
621.229390	0.015521
621.437578	0.015761
621.645748	0.015896
621.853900	0.015960
622.062034	0.016318
622.270150	0.016543
622.478247	0.016609
622.686326	0.016585
622.894387	0.016612
623.102430	0.016990
623.310454	0.016845
623.518461	0.016705
623.726449	0.016866
623.934418	0.016945
624.142370	0.016940
624.350303	0.016828
624.558218	0.016887
624.766115	0.017089
624.973994	0.017030
625.181855	0.017082
625.389697	0.017043
625.597521	0.017127
625.805327	0.017105
626.013114	0.017013
626.220883	0.017303
626.428634	0.017393
626.636367	0.017278
626.844082	0.017253
627.051778	0.017417
627.259457	0.017335
627.467117	0.017128
627.674758	0.017117
627.882382	0.017244
628.089987	0.017098
628.297574	0.017024
628.505143	0.016932
628.712694	0.016750
628.920226	0.016520
629.127740	0.016518
629.335236	0.016819
629.542714	0.016658
629.750174	0.016472
629.957615	0.016596
630.165038	0.016439
630.372443	0.016438
630.579829	0.016638
630.787198	0.016752
630.994548	0.016941
631.201880	0.016680
631.409194	0.016792
631.616489	0.016866
631.823766	0.016888
632.031025	0.016911
632.238266	0.016948
632.445489	0.016844
632.652693	0.016846
632.859879	0.016781
633.067047	0.016962
633.274197	0.016833
633.481329	0.016858
633.688442	0.016911
633.895537	0.017079
634.102614	0.017105
634.309672	0.016902
634.516713	0.016934
634.723735	0.016945
634.930739	0.017113
635.137724	0.017153
635.344692	0.017046
635.551641	0.016943
635.758572	0.017038
635.965485	0.017076
636.172379	0.017341
636.379256	0.017062
636.586114	0.016933
636.792954	0.016649
636.999775	0.016724
637.206579	0.016776
637.413364	0.016899
637.620131	0.016969
637.826880	0.016973
638.033610	0.016966
638.240323	0.017221
638.447017	0.017537
638.653692	0.017521
638.860350	0.017623
639.066990	0.017728
639.273611	0.017594
639.480214	0.017498
639.686798	0.017409
639.893365	0.017351
640.099913	0.017496
640.306443	0.017268
640.512955	0.017341
640.719449	0.017148
640.925924	0.016991
641.132381	0.017048
641.338820	0.017035
641.545241	0.017192
641.751644	0.017328
641.958028	0.017295
642.164394	0.017466
642.370742	0.017604
642.577071	0.017903
642.783383	0.017884
642.989676	0.017916
643.195951	0.017924
643.402207	0.017644
643.608446	0.017685
643.814666	0.017874
644.020868	0.017914
644.227052	0.018099
644.433218	0.017881
644.639365	0.018225
644.845494	0.018124
645.051605	0.018103
645.257698	0.018343
645.463772	0.018268
645.669828	0.018164
645.875866	0.018185
646.081886	0.018004
646.287888	0.018252
646.493871	0.017991
646.699836	0.018148
646.905783	0.018236
647.111712	0.018462
647.317622	0.018499
647.523514	0.018583
647.729388	0.018591
647.935244	0.018587
648.141082	0.018508
648.346901	0.018770
648.552702	0.018804
648.758485	0.018968
648.964250	0.018805
649.169996	0.018887
649.375724	0.018906
649.581434	0.018994
649.787126	0.019079
649.992800	0.019136
650.198455	0.019331
650.404092	0.019593
650.609711	0.019674
650.815311	0.019805
651.020894	0.019869
651.226458	0.019842
651.432004	0.019947
651.637532	0.019957
651.843041	0.020118
652.048532	0.019804
652.254006	0.019418
652.459460	0.019196
652.664897	0.019087
652.870315	0.019300
653.075716	0.019453
653.281097	0.019388
653.486461	0.019545
653.691807	0.019378
653.897134	0.019574
654.102443	0.019725
654.307734	0.019708
654.513006	0.019896
654.718261	0.019648
654.923497	0.019395
655.128715	0.019402
655.333915	0.019369
655.539096	0.019475
655.744259	0.019376
655.949404	0.019514
656.154531	0.019642
656.359640	0.019601
656.564730	0.019671
656.769802	0.019986
656.974856	0.019860
657.179892	0.019798
657.384909	0.019812
657.589908	0.019928
657.794889	0.019924
657.999852	0.020005
658.204797	0.019945
658.409723	0.019895
658.614631	0.019666
658.819521	0.019684
659.024393	0.019671
659.229246	0.019810
659.434081	0.019855
659.638898	0.019951
659.843697	0.019911
660.048478	0.019876
660.253240	0.020034
660.457984	0.020065
660.662710	0.020358
660.867417	0.020523
661.072107	0.020499
661.276778	0.020479
661.481431	0.020417
661.686066	0.020487
661.890682	0.020757
662.095281	0.020675
662.299861	0.020758
662.504422	0.020809
662.708966	0.020967
662.913491	0.020939
663.117999	0.020910
663.322488	0.020883
663.526958	0.020844
663.731411	0.020740
663.935845	0.020924
664.140261	0.021086
664.344659	0.020841
664.549038	0.020771
664.753400	0.020887
664.957743	0.020802
665.162068	0.021025
665.366375	0.021234
665.570663	0.021324
665.774933	0.021195
665.979185	0.021234
666.183419	0.021183
666.387635	0.020930
666.591832	0.020783
666.796011	0.020831
667.000172	0.020494
667.204315	0.020070
667.408439	0.019937
667.612545	0.019943
667.816634	0.019756
668.020703	0.019876
668.224755	0.019869
668.428788	0.019904
668.632803	0.020005
668.836800	0.020143
669.040779	0.020364
669.244739	0.020296
669.448681	0.020286
669.652605	0.020357
669.856511	0.020401
670.060399	0.020475
670.264268	0.020549
670.468119	0.020478
670.671952	0.020532
670.875767	0.020552
671.079563	0.020627
671.283341	0.020717
671.487101	0.020923
671.690843	0.020983
671.894567	0.021084
672.098272	0.021086
672.301959	0.021205
672.505628	0.021198
672.709278	0.021317
672.912911	0.021579
673.116525	0.021673
673.320121	0.021598
673.523699	0.021613
673.727258	0.021827
673.930799	0.021931
674.134322	0.022206
674.337827	0.022321
674.541314	0.022461
674.744782	0.022517
674.948232	0.022672
675.151664	0.022792
675.355078	0.022749
675.558474	0.022692
675.761851	0.022837
675.965210	0.022792
676.168551	0.022814
676.371873	0.022825
676.575178	0.022673
676.778464	0.022686
676.981732	0.022814
677.184981	0.023046
677.388213	0.023154
677.591426	0.023171
677.794621	0.023229
677.997798	0.023408
678.200956	0.023437
678.404097	0.023722
678.607219	0.023699
678.810323	0.023511
679.013408	0.023450
679.216476	0.023491
679.419525	0.023444
679.622556	0.023476
679.825569	0.023536
680.028563	0.023659
680.231540	0.023491
680.434498	0.023418
680.637438	0.023537
680.840359	0.023706
681.043263	0.023842
681.246148	0.023966
681.449015	0.023774
681.651864	0.023749
681.854694	0.023704
682.057506	0.023885
682.260301	0.024015
682.463076	0.024147
682.665834	0.024080
682.868573	0.023930
683.071295	0.023885
683.273998	0.024115
683.476682	0.024059
683.679349	0.024100
683.881997	0.024077
684.084627	0.024119
684.287239	0.023942
684.489833	0.023890
684.692408	0.024007
684.894965	0.023976
685.097504	0.023969
685.300025	0.023919
685.502527	0.023757
685.705012	0.023642
685.907478	0.023619
686.109925	0.023565
686.312355	0.023528
686.514766	0.023291
686.717159	0.023162
686.919534	0.023038
687.121891	0.023030
687.324230	0.023178
687.526550	0.023143
687.728852	0.023264
687.931136	0.023285
688.133401	0.023406
688.335649	0.023593
688.537878	0.023656
688.740089	0.023820
688.942281	0.023905
689.144456	0.023979
689.346612	0.024074
689.548750	0.023961
689.750870	0.024207
689.952971	0.024114
690.155055	0.023998
690.357120	0.024076
690.559167	0.024095
690.761195	0.024130
690.963206	0.024010
691.165198	0.024111
691.367172	0.024086
691.569128	0.024048
691.771065	0.024178
691.972984	0.024273
692.174885	0.024229
692.376768	0.024147
692.578633	0.024050
692.780479	0.024051
692.982308	0.024034
693.184118	0.024072
693.385909	0.024115
693.587683	0.024001
693.789438	0.024046
693.991175	0.023965
694.192894	0.023989
694.394595	0.024165
694.596277	0.024135
694.797941	0.024185
694.999587	0.024128
695.201215	0.023964
695.402824	0.023961
695.604416	0.023715
695.805989	0.023772
696.007543	0.023639
696.209080	0.023634
696.410598	0.023710
696.612099	0.023664
696.813580	0.023714
697.015044	0.023823
697.216490	0.023969
697.417917	0.024160
697.619326	0.024477
697.820717	0.024581
698.022089	0.024708
698.223444	0.024929
698.424780	0.025009
698.626098	0.025198
698.827397	0.025304
699.028679	0.025454
699.229942	0.025597
699.431187	0.025448
699.632414	0.025690
699.833622	0.025591
700.034813	0.025471
700.235985	0.025535
700.437139	0.025472
700.638274	0.025355
700.839392	0.025303
701.040491	0.025370
701.241572	0.025354
701.442635	0.025417
701.643679	0.025440
701.844706	0.025473
702.045714	0.025530
702.246704	0.025430
702.447675	0.025510
702.648629	0.025633
702.849564	0.025573
703.050481	0.025741
703.251380	0.025551
703.452260	0.025645
703.653122	0.025655
703.853966	0.025422
704.054792	0.025399
704.255600	0.025297
704.456389	0.025154
704.657160	0.025147
704.857913	0.025009
705.058648	0.024972
705.259365	0.024816
705.460063	0.024623
705.660743	0.024657
705.861405	0.024763
706.062048	0.024798
706.262674	0.024789
706.463281	0.024758
706.663870	0.024707
706.864441	0.024771
707.064993	0.024835
707.265527	0.024980
707.466043	0.024849
707.666541	0.024713
707.867021	0.024903
708.067482	0.024995
708.267925	0.025042
708.468350	0.025185
708.668757	0.025402
708.869145	0.025564
709.069516	0.025671
709.269868	0.025898
709.470201	0.026160
709.670517	0.026035
709.870814	0.026070
710.071093	0.026188
710.271354	0.026125
710.471597	0.025953
710.671821	0.025992
710.872028	0.025862
711.072216	0.025949
711.272385	0.025969
711.472537	0.026029
711.672670	0.025892
711.872785	0.025743
712.072882	0.025870
712.272961	0.025793
712.473021	0.025690
712.673063	0.025741
712.873087	0.025767
713.073093	0.025658
713.273081	0.025623
713.473050	0.025608
713.673001	0.025577
713.872934	0.025405
714.072849	0.025394
714.272745	0.025249
714.472623	0.025330
714.672483	0.025207
714.872325	0.025146
715.072148	0.025160
715.271954	0.025085
715.471741	0.025120
715.671509	0.025318
715.871260	0.025541
716.070992	0.025761
716.270707	0.025826
716.470403	0.025897
716.670080	0.025983
716.869740	0.025931
717.069381	0.026124
717.269004	0.026240
717.468609	0.026195
717.668195	0.026082
717.867764	0.025986
718.067314	0.025888
718.266846	0.025849
718.466360	0.025837
718.665855	0.025728
718.865332	0.025528
719.064791	0.025540
719.264232	0.025477
719.463655	0.025415
719.663059	0.025320
719.862445	0.025323
720.061813	0.025329
720.261163	0.025194
720.460494	0.025312
720.659807	0.025287
720.859102	0.025139
721.058379	0.025052
721.257638	0.025010
721.456878	0.024996
721.656100	0.024799
721.855304	0.024780
722.054490	0.024877
722.253657	0.024864
722.452806	0.025039
722.651937	0.025074
722.851050	0.025118
723.050145	0.025118
723.249221	0.025194
723.448279	0.025424
723.647319	0.025497
723.846340	0.025481
724.045344	0.025481
724.244329	0.025333
724.443296	0.025329
724.642245	0.025305
724.841175	0.025275
725.040088	0.025194
725.238982	0.025112
725.437857	0.024984
725.636715	0.025030
725.835554	0.024953
726.034376	0.025035
726.233179	0.024941
726.431963	0.024939
726.630730	0.024895
726.829478	0.024865
727.028208	0.024730
727.226920	0.024671
727.425614	0.024631
727.624289	0.024579
727.822946	0.024521
728.021585	0.024582
728.220206	0.024632
728.418808	0.024648
728.617392	0.024643
728.815958	0.024688
729.014506	0.024838
729.213036	0.024794
729.411547	0.024896
729.610040	0.024969
729.808515	0.024796
730.006972	0.024677
730.205410	0.024591
730.403831	0.024490
730.602233	0.024425
730.800616	0.024267
730.998982	0.024184
731.197329	0.024125
731.395658	0.023881
731.593969	0.023950
731.792262	0.024014
731.990536	0.024049
732.188793	0.024036
732.387031	0.024035
732.585250	0.023954
732.783452	0.024059
732.981635	0.024008
733.179800	0.023941
733.377947	0.024051
733.576076	0.023946
733.774186	0.023920
733.972278	0.024129
734.170352	0.024203
734.368408	0.024267
734.566446	0.024204
734.764465	0.024321
734.962466	0.024497
735.160449	0.024314
735.358413	0.024211
735.556360	0.024389
735.754288	0.024314
735.952198	0.024199
736.150090	0.024247
736.347963	0.024107
736.545818	0.024069
736.743655	0.024042
736.941474	0.024103
737.139275	0.024301
737.337057	0.024158
737.534821	0.024043
737.732567	0.024106
737.930295	0.023976
738.128005	0.024160
738.325696	0.024097
738.523369	0.024176
738.721024	0.024197
738.918660	0.023920
739.116279	0.023943
739.313879	0.023985
739.511461	0.023976
739.709024	0.024024
739.906570	0.023875
740.104097	0.023873
740.301606	0.023800
740.499097	0.023820
740.696569	0.023883
740.894024	0.023737
741.091460	0.023665
741.288878	0.023612
741.486277	0.023434
741.683659	0.023531
741.881022	0.023302
742.078367	0.023485
742.275694	0.023271
742.473002	0.023429
742.670293	0.023467
742.867565	0.023404
743.064819	0.023380
743.262054	0.023510
743.459272	0.023455
743.656471	0.023695
743.853652	0.023521
744.050815	0.023596
744.247959	0.023575
744.445085	0.023455
744.642194	0.023636
744.839283	0.023717
745.036355	0.023839
745.233408	0.023781
745.430444	0.023674
745.627461	0.023789
745.824459	0.023815
746.021440	0.023741
746.218402	0.023880
746.415346	0.023685
746.612272	0.023421
746.809180	0.023318
747.006069	0.023388
747.202940	0.023533
747.399793	0.023406
747.596628	0.023246
747.793444	0.023289
747.990243	0.023426
748.187023	0.023461
748.383784	0.023626
748.580528	0.023734
748.777253	0.023642
748.973960	0.023679
749.170649	0.023718
749.367320	0.023915
749.563973	0.024014
749.760607	0.023891
749.957223	0.023989
750.153821	0.024086
750.350400	0.024086
750.546962	0.024195
750.743505	0.024077
750.940030	0.023980
751.136536	0.024059
751.333025	0.023848
751.529495	0.023790
751.725947	0.023764
751.922381	0.023877
752.118796	0.023727
752.315194	0.023688
752.511573	0.023797
752.707934	0.023839
752.904276	0.023876
753.100601	0.024169
753.296907	0.024355
753.493195	0.024458
753.689465	0.024333
753.885716	0.024440
754.081949	0.024437
754.278164	0.024612
754.474361	0.024727
754.670540	0.024599
754.866700	0.024511
755.062843	0.024377
755.258967	0.024267
755.455072	0.024246
755.651160	0.024145
755.847229	0.024065
756.043280	0.023861
756.239313	0.023835
756.435328	0.023850
756.631324	0.023900
756.827302	0.024001
757.023262	0.024100
757.219204	0.024066
757.415127	0.024206
757.611033	0.024229
757.806920	0.024230
758.002788	0.024089
758.198639	0.024069
758.394471	0.024111
758.590286	0.023938
758.786081	0.023766
758.981859	0.023787
759.177619	0.023601
759.373360	0.023585
759.569083	0.023530
759.764788	0.023660
759.960474	0.023761
760.156143	0.023568
760.351793	0.023631
760.547425	0.023696
760.743038	0.023755
760.938634	0.023759
761.134211	0.023765
761.329770	0.023664
761.525311	0.023561
761.720833	0.023422
761.916338	0.023349
762.111824	0.023208
762.307292	0.023130
762.502741	0.023045
762.698173	0.022992
762.893586	0.023030
763.088981	0.023137
763.284358	0.023066
763.479716	0.023067
763.675057	0.023119
763.870379	0.023297
764.065683	0.023369
764.260968	0.023079
764.456236	0.023193
764.651485	0.023084
764.846716	0.022935
765.041929	0.022915
765.237123	0.022992
765.432299	0.022816
765.627457	0.022771
765.822597	0.022775
766.017719	0.023098
766.212822	0.023054
766.407907	0.023331
766.602974	0.023431
766.798023	0.023627
766.993054	0.023475
767.188066	0.023615
767.383060	0.023877
767.578036	0.023876
767.772993	0.023846
767.967933	0.023838
768.162854	0.023618
768.357757	0.023623
768.552642	0.023625
768.747508	0.023694
768.942356	0.023662
769.137186	0.023318
769.331998	0.023188
769.526792	0.023102
769.721567	0.023229
769.916324	0.023227
770.111063	0.023300
770.305784	0.023154
770.500486	0.022942
770.695171	0.022983
770.889837	0.023094
771.084484	0.023233
771.279114	0.023190
771.473725	0.023026
771.668318	0.023023
771.862893	0.022842
772.057450	0.022862
772.251988	0.023026
772.446509	0.023019
772.641011	0.023044
772.835494	0.022911
773.029960	0.022996
773.224407	0.023077
773.418836	0.023080
773.613247	0.023037
773.807640	0.022981
774.002014	0.022960
774.196370	0.022942
774.390708	0.022767
774.585028	0.022798
774.779330	0.022573
774.973613	0.022432
775.167878	0.022403
775.362125	0.022413
775.556354	0.022470
775.750564	0.022436
775.944756	0.022443
776.138930	0.022305
776.333086	0.022032
776.527223	0.022079
776.721343	0.022026
776.915444	0.022010
777.109526	0.021920
777.303591	0.021805
777.497637	0.021811
777.691666	0.021820
777.885676	0.022053
778.079667	0.022291
778.273641	0.022415
778.467596	0.022567
778.661533	0.022530
778.855452	0.022619
779.049352	0.022591
779.243235	0.022508
779.437099	0.022424
779.630945	0.022427
779.824773	0.022503
780.018582	0.022501
780.212373	0.022418
780.406146	0.022520
780.599901	0.022452
780.793638	0.022253
780.987356	0.022270
781.181056	0.022250
781.374738	0.022401
781.568402	0.022344
781.762047	0.022400
781.955674	0.022610
782.149283	0.022581
782.342874	0.022649
782.536447	0.023028
782.730001	0.023201
782.923537	0.023193
783.117055	0.022987
783.310555	0.023028
783.504036	0.023091
783.697499	0.022805
783.890944	0.022813
784.084371	0.022828
784.277780	0.022825
784.471170	0.022735
784.664542	0.022967
784.857896	0.022754
785.051231	0.022775
785.244549	0.022947
785.437848	0.023089
785.631129	0.023059
785.824392	0.023000
786.017636	0.022807
786.210863	0.022698
786.404071	0.022296
786.597260	0.022321
786.790432	0.022221
786.983585	0.021795
787.176721	0.021592
787.369838	0.021464
787.562936	0.021397
787.756017	0.021269
787.949079	0.021285
788.142123	0.021295
788.335149	0.021229
788.528156	0.021055
788.721146	0.021013
788.914117	0.020899
789.107070	0.020920
789.300005	0.020954
789.492921	0.020989
789.685819	0.021072
789.878699	0.021186
790.071561	0.021375
790.264405	0.021536
790.457230	0.021743
790.650037	0.021871
790.842826	0.021816
791.035597	0.021907
791.228349	0.022354
791.421084	0.022616
791.613800	0.022688
791.806497	0.022648
791.999177	0.022775
792.191838	0.022849
792.384481	0.023281
792.577106	0.023494
792.769713	0.023540
792.962301	0.023329
793.154871	0.023143
793.347423	0.023063
793.539957	0.023135
793.732473	0.023053
793.924970	0.023031
794.117449	0.022933
794.309910	0.023017
794.502353	0.023132
794.694777	0.023259
794.887183	0.023169
795.079571	0.023251
795.271941	0.023387
795.464293	0.023421
795.656626	0.023340
795.848941	0.023191
796.041238	0.023034
796.233516	0.022759
796.425777	0.022603
796.618019	0.022699
796.810243	0.022826
797.002449	0.022664
797.194636	0.022571
797.386805	0.022670
797.578956	0.022663
797.771089	0.022844
797.963204	0.023020
798.155300	0.023031
798.347378	0.023096
798.539438	0.023004
798.731480	0.022981
798.923503	0.023068
799.115509	0.023000
799.307496	0.022975
799.499465	0.022867
799.691415	0.022889
799.883348	0.022848
800.075262	0.022935
800.267158	0.022925
800.459035	0.023004
800.650895	0.023159
800.842736	0.023259
801.034559	0.023339
801.226364	0.023306
801.418150	0.023315
801.609919	0.023353
801.801669	0.023257
801.993401	0.023299
802.185114	0.023334
802.376810	0.023255
802.568487	0.023014
802.760146	0.022953
802.951787	0.022981
803.143409	0.022809
803.335014	0.022867
803.526600	0.022843
803.718168	0.022923
803.909717	0.022921
804.101249	0.022905
804.292762	0.022985
804.484257	0.022903
804.675734	0.022902
804.867192	0.023093
805.058632	0.023060
805.250054	0.023129
805.441458	0.023145
805.632844	0.023254
805.824211	0.023121
806.015561	0.023275
806.206891	0.023474
806.398204	0.023461
806.589499	0.023627
806.780775	0.023852
806.972033	0.023912
807.163273	0.023820
807.354495	0.023794
807.545698	0.023977
807.736883	0.023873
807.928050	0.023759
808.119199	0.023900
808.310329	0.023675
808.501441	0.023484
808.692535	0.023468
808.883611	0.023639
809.074669	0.023592
809.265708	0.023521
809.456729	0.023604
809.647732	0.023607
809.838717	0.023527
810.029683	0.023609
810.220632	0.023585
810.411562	0.023244
810.602474	0.023162
810.793367	0.023206
810.984242	0.023174
811.175100	0.023385
811.365938	0.023514
811.556759	0.023716
811.747562	0.023843
811.938346	0.023903
812.129112	0.024289
812.319860	0.024552
812.510589	0.024745
812.701300	0.024823
812.891994	0.024660
813.082668	0.024788
813.273325	0.024852
813.463964	0.025074
813.654584	0.025105
813.845186	0.025277
814.035769	0.025228
814.226335	0.025159
814.416882	0.025375
814.607411	0.025399
814.797922	0.025398
814.988415	0.025326
815.178889	0.025088
815.369345	0.025094
815.559783	0.025015
815.750203	0.024895
815.940605	0.024820
816.130988	0.024807
816.321353	0.024913
816.511700	0.024925
816.702028	0.024967
816.892339	0.025033
817.082631	0.024786
817.272905	0.024670
817.463161	0.024684
817.653398	0.024706
817.843617	0.024603
818.033819	0.024580
818.224001	0.024540
818.414166	0.024610
818.604312	0.024569
818.794440	0.024931
818.984550	0.024901
819.174642	0.024894
819.364716	0.024889
819.554771	0.025067
819.744808	0.024846
819.934827	0.024778
820.124827	0.024687
820.314810	0.024505
820.504774	0.024535
820.694720	0.024595
820.884647	0.024518
821.074557	0.024705
821.264448	0.024678
821.454321	0.024801
821.644176	0.024965
821.834012	0.024894
822.023831	0.025196
822.213631	0.025146
822.403413	0.025219
822.593176	0.025230
822.782922	0.025314
822.972649	0.025341
823.162358	0.025620
823.352049	0.025527
823.541721	0.025388
823.731376	0.025229
823.921012	0.025407
824.110629	0.025386
824.300229	0.025408
824.489811	0.025252
824.679374	0.025205
824.868919	0.025020
825.058445	0.025061
825.247954	0.025318
825.437444	0.025356
825.626916	0.025108
825.816370	0.025044
826.005806	0.025245
826.195223	0.025125
826.384622	0.025095
826.574003	0.025207
826.763366	0.025258
826.952711	0.025113
827.142037	0.025129
827.331345	0.025345
827.520635	0.025574
827.709906	0.025604
827.899160	0.025699
828.088395	0.025845
828.277612	0.025967
828.466810	0.026100
828.655991	0.026193
828.845153	0.026353
829.034297	0.026305
829.223423	0.026215
829.412531	0.026081
829.601620	0.025871
829.790691	0.025854
829.979744	0.025593
830.168779	0.025696
830.357795	0.025730
830.546793	0.025698
830.735773	0.025686
830.924735	0.025796
831.113679	0.025798
831.302604	0.026180
831.491511	0.026280
831.680400	0.026568
831.869271	0.026426
832.058123	0.026695
832.246957	0.026721
832.435773	0.026863
832.624571	0.026786
832.813351	0.027040
833.002112	0.027164
833.190855	0.026940
833.379580	0.026915
833.568287	0.026813
833.756975	0.026613
833.945645	0.026761
834.134297	0.026634
834.322931	0.026705
834.511547	0.026577
834.700144	0.026330
834.888723	0.026488
835.077284	0.026407
835.265826	0.026593
835.454351	0.026568
835.642857	0.026609
835.831345	0.026786
836.019815	0.026837
836.208266	0.026984
836.396699	0.027109
836.585114	0.027277
836.773511	0.027503
836.961890	0.027535
837.150250	0.027962
837.338592	0.027855
837.526916	0.028133
837.715222	0.028281
837.903510	0.028211
838.091779	0.028537
838.280030	0.028492
838.468263	0.028523
838.656477	0.028279
838.844674	0.028112
839.032852	0.028343
839.221012	0.028289
839.409153	0.028266
839.597277	0.028487
839.785382	0.028308
839.973469	0.028355
840.161538	0.028425
840.349589	0.028708
840.537621	0.028797
840.725635	0.028892
840.913631	0.028797
841.101609	0.028689
841.289568	0.028784
841.477509	0.029016
841.665432	0.029152
841.853337	0.029243
842.041224	0.029415
842.229092	0.029452
842.416942	0.029317
842.604774	0.029385
842.792588	0.029741
842.980383	0.029775
843.168160	0.029906
843.355919	0.030124
843.543660	0.030378
843.731382	0.030583
843.919087	0.030734
844.106773	0.030874
844.294441	0.031140
844.482090	0.031116
844.669722	0.031327
844.857335	0.031239
845.044930	0.031342
845.232507	0.031262
845.420065	0.031160
845.607605	0.031423
845.795127	0.031737
845.982631	0.031809
846.170117	0.031715
846.357584	0.031828
846.545033	0.032176
846.732464	0.032328
846.919877	0.032293
847.107272	0.032536
847.294648	0.032583
847.482006	0.032497
847.669346	0.032449
847.856667	0.032741
848.043971	0.032786
848.231256	0.032578
848.418523	0.032601
848.605771	0.032788
848.793002	0.032824
848.980214	0.032578
849.167408	0.032609
849.354584	0.032589
849.541742	0.032411
849.728881	0.032193
849.916002	0.032293
850.103105	0.032052
850.290190	0.032085
850.477256	0.031830
850.664304	0.031909
850.851334	0.031862
851.038346	0.031738
851.225340	0.031843
851.412315	0.031824
851.599272	0.031730
851.786211	0.031778
851.973132	0.031794
852.160034	0.031859
852.346918	0.032002
852.533784	0.032006
852.720632	0.032348
852.907462	0.032556
853.094273	0.032776
853.281066	0.032962
853.467841	0.033067
853.654598	0.033150
853.841336	0.033537
854.028056	0.033795
854.214758	0.033914
854.401442	0.034148
854.588107	0.034180
854.774755	0.034330
854.961384	0.034504
855.147995	0.034753
855.334587	0.034714
855.521162	0.034727
855.707718	0.034568
855.894256	0.034411
856.080775	0.034186
856.267277	0.034143
856.453760	0.034225
856.640225	0.034099
856.826672	0.033839
857.013101	0.033836
857.199511	0.033904
857.385903	0.033981
857.572277	0.034391
857.758633	0.034566
857.944970	0.034750
858.131290	0.034819
858.317591	0.034790
858.503873	0.034990
858.690138	0.035117
858.876384	0.035220
859.062612	0.035132
859.248822	0.034863
859.435014	0.034903
859.621188	0.034807
859.807343	0.034712
859.993480	0.034956
860.179599	0.034934
860.365699	0.035118
860.551781	0.034983
860.737846	0.035235
860.923891	0.035488
861.109919	0.035421
861.295929	0.035796
861.481920	0.035718
861.667893	0.035637
861.853848	0.035899
862.039784	0.035978
862.225702	0.036118
862.411603	0.036202
862.597484	0.036295
862.783348	0.036502
862.969193	0.036554
863.155021	0.036587
863.340830	0.036620
863.526620	0.036689
863.712393	0.036638
863.898147	0.036679
864.083883	0.036577
864.269601	0.036653
864.455301	0.036587
864.640982	0.036101
864.826645	0.036191
865.012290	0.036281
865.197917	0.036331
865.383526	0.036440
865.569116	0.036321
865.754688	0.036514
865.940242	0.036557
866.125777	0.036428
866.311295	0.036567
866.496794	0.036488
866.682275	0.036645
866.867737	0.036494
867.053182	0.036383
867.238608	0.036366
867.424016	0.036325
867.609406	0.036187
867.794778	0.036280
867.980131	0.036318
868.165466	0.036676
868.350783	0.036439
868.536082	0.036394
868.721362	0.036188
868.906625	0.036407
869.091869	0.036308
869.277094	0.036554
869.462302	0.036747
869.647491	0.037027
869.832662	0.036819
870.017815	0.037002
870.202950	0.037175
870.388066	0.037393
870.573165	0.037488
870.758245	0.037570
870.943306	0.037528
871.128350	0.037735
871.313375	0.037638
871.498382	0.037688
871.683371	0.037845
871.868342	0.037599
872.053294	0.037827
872.238229	0.037913
872.423144	0.038039
872.608042	0.038112
872.792922	0.038181
872.977783	0.038429
873.162626	0.038529
873.347451	0.038611
873.532258	0.038956
873.717046	0.038774
873.901816	0.038713
874.086568	0.038635
874.271302	0.038743
874.456017	0.038419
874.640715	0.038200
874.825394	0.038416
875.010055	0.038298
875.194697	0.038127
875.379322	0.038175
875.563928	0.038063
875.748516	0.038030
875.933085	0.037592
876.117637	0.037609
876.302170	0.037751
876.486685	0.037538
876.671182	0.037654
876.855661	0.037695
877.040121	0.037626
877.224563	0.037523
877.408987	0.037804
877.593393	0.037956
877.777780	0.038075
877.962150	0.037712
878.146501	0.037634
878.330833	0.037481
878.515148	0.037362
878.699444	0.037588
878.883722	0.037600
879.067982	0.037412
879.252224	0.037514
879.436447	0.037459
879.620653	0.037782
879.804840	0.038089
879.989008	0.038081
880.173159	0.038229
880.357291	0.038257
880.541405	0.038580
880.725501	0.038732
880.909579	0.038641
881.093638	0.038637
881.277680	0.038388
881.461703	0.037976
881.645707	0.038204
881.829694	0.038263
882.013662	0.038064
882.197612	0.037795
882.381544	0.037833
882.565458	0.037990
882.749353	0.038034
882.933230	0.038205
883.117089	0.038538
883.300930	0.038122
883.484753	0.037966
883.668557	0.038072
883.852343	0.037864
884.036111	0.037608
884.219861	0.037813
884.403592	0.037739
884.587305	0.037701
884.771000	0.037816
884.954677	0.038224
885.138335	0.038690
885.321976	0.038642
885.505598	0.039100
885.689201	0.039135
885.872787	0.038891
886.056354	0.038819
886.239904	0.038986
886.423434	0.038586
886.606947	0.038735
886.790442	0.038427
886.973918	0.038457
887.157376	0.038601
887.340816	0.038588
887.524237	0.038554
887.707641	0.038829
887.891026	0.038689
888.074393	0.039052
888.257741	0.038608
888.441072	0.038476
888.624384	0.038422
888.807678	0.038036
888.990954	0.038082
889.174211	0.037953
889.357451	0.037784
889.540672	0.038153
889.723875	0.038136
889.907059	0.038081
890.090226	0.038141
890.273374	0.038458
890.456504	0.038621
890.639616	0.038590
890.822709	0.038728
891.005785	0.038547
891.188842	0.038224
891.371881	0.038099
891.554901	0.038039
891.737904	0.038195
891.920888	0.037794
892.103854	0.037472
892.286802	0.037369
892.469731	0.037545
892.652643	0.037741
892.835536	0.037965
893.018410	0.037891
893.201267	0.038164
893.384106	0.038181
893.566926	0.038453
893.749728	0.038613
893.932511	0.039023
894.115277	0.038828
894.298024	0.038871
894.480753	0.038840
894.663464	0.038882
894.846157	0.038691
895.028831	0.038484
895.211487	0.038484
895.394125	0.038636
895.576745	0.038288
895.759346	0.038412
895.941930	0.038434
896.124495	0.038533
896.307041	0.038635
896.489570	0.038742
896.672080	0.038943
896.854573	0.038633
897.037046	0.038421
897.219502	0.038552
897.401940	0.038555
897.584359	0.038571
897.766760	0.038084
897.949143	0.037854
898.131507	0.037947
898.313854	0.037626
898.496182	0.037527
898.678492	0.037380
898.860783	0.036968
899.043057	0.036574
899.225312	0.036268
899.407549	0.036305
899.589768	0.036293
899.771968	0.036177
899.954151	0.036391
900.136315	0.036259
900.318461	0.036453
900.500588	0.036461
900.682698	0.036566
900.864789	0.036485
901.046862	0.036208
901.228917	0.036011
901.410953	0.035878
901.592971	0.035490
901.774972	0.035154
901.956953	0.034695
902.138917	0.034464
902.320862	0.034287
902.502790	0.034245
902.684699	0.034157
902.866589	0.034289
903.048462	0.034236
903.230316	0.034313
903.412152	0.034620
903.593970	0.034729
903.775770	0.035174
903.957551	0.035396
904.139314	0.035268
904.321059	0.035537
904.502786	0.035343
904.684494	0.035054
904.866185	0.034869
905.047857	0.034898
905.229510	0.035204
905.411146	0.034905
905.592763	0.034928
905.774363	0.035075
905.955943	0.035147
906.137506	0.035078
906.319051	0.035126
906.500577	0.035367
906.682085	0.035625
906.863575	0.035260
907.045046	0.035124
907.226500	0.034850
907.407935	0.034951
907.589352	0.034625
907.770750	0.034505
907.952131	0.034645
908.133493	0.034192
908.314837	0.033974
908.496163	0.034108
908.677470	0.034205
908.858760	0.034088
909.040031	0.034100
909.221284	0.034323
909.402518	0.034291
909.583735	0.033840
909.764933	0.034011
909.946113	0.033865
910.127275	0.033642
910.308418	0.033950
910.489544	0.033949
910.670651	0.033543
910.851740	0.033412
911.032810	0.033541
911.213863	0.033840
911.394897	0.033830
911.575913	0.033585
911.756911	0.033844
911.937890	0.033139
912.118851	0.033046
912.299794	0.033069
912.480719	0.032446
912.661626	0.032266
912.842514	0.031989
913.023384	0.031954
913.204236	0.031744
913.385070	0.031089
913.565886	0.030911
913.746683	0.030818
913.927462	0.030411
914.108223	0.030683
914.288965	0.030805
914.469690	0.030285
914.650396	0.030088
914.831084	0.030170
915.011754	0.030351
915.192405	0.030455
915.373038	0.030091
915.553653	0.030064
915.734250	0.029856
915.914829	0.029330
916.095389	0.029474
916.275931	0.029113
916.456455	0.028857
916.636961	0.028675
916.817448	0.028892
916.997917	0.028904
917.178368	0.028927
917.358801	0.028692
917.539216	0.028578
917.719612	0.028861
917.899990	0.028850
918.080350	0.028861
918.260692	0.028725
918.441015	0.028688
918.621320	0.028570
918.801607	0.028553
918.981876	0.028507
919.162127	0.028894
919.342359	0.028661
919.522573	0.028400
919.702769	0.028193
919.882947	0.028066
920.063106	0.027205
920.243247	0.027104
920.423370	0.026450
920.603475	0.026649
920.783562	0.026251
920.963630	0.025991
921.143680	0.026024
921.323712	0.025916
921.503725	0.025753
921.683721	0.025661
921.863698	0.024990
922.043657	0.025254
922.223598	0.024540
922.403520	0.023923
922.583424	0.023668
922.763311	0.023504
922.943178	0.023193
923.123028	0.023000
923.302859	0.023049
923.482673	0.023199
923.662467	0.022960
923.842244	0.022598
924.022003	0.022869
924.201743	0.022359
924.381465	0.022103
924.561169	0.022557
924.740854	0.022136
924.920522	0.021845
925.100171	0.021868
925.279802	0.021493
925.459414	0.022032
925.639009	0.021568
925.818585	0.021805
925.998143	0.021461
926.177683	0.020717
926.357205	0.021149
926.536708	0.021484
926.716193	0.021442
926.895660	0.021312
927.075109	0.020798
927.254539	0.020495
927.433951	0.020285
927.613345	0.020416
927.792721	0.020628
927.972079	0.019935
928.151418	0.019243
928.330739	0.019092
928.510042	0.018673
928.689327	0.018588
928.868593	0.018319
929.047841	0.017502
929.227071	0.016941
929.406283	0.016152
929.585476	0.015993
929.764652	0.015858
929.943809	0.015472
930.122948	0.015927
930.302068	0.015473
930.481171	0.015646
930.660255	0.016070
930.839321	0.015701
931.018369	0.015372
931.197398	0.015304
931.376409	0.014921
931.555402	0.014840
931.734377	0.014165
931.913334	0.013937
932.092272	0.013795
932.271192	0.013454
932.450094	0.013704
932.628978	0.013706
932.807844	0.012817
932.986691	0.012824
933.165520	0.012125
933.344331	0.012169
933.523123	0.012362
933.701898	0.011701
933.880654	0.011565
934.059392	0.011025
934.238111	0.011449
934.416813	0.012538
934.595496	0.012312
934.774161	0.011949
934.952808	0.011627
935.131437	0.011314
935.310047	0.011491
935.488639	0.011489
935.667213	0.011252
935.845769	0.010498
936.024306	0.009572
936.202825	0.009276
936.381326	0.009344
936.559809	0.009150
936.738274	0.009024
936.916720	0.008557
937.095148	0.008271
937.273558	0.008642
937.451950	0.008625
937.630323	0.008457
937.808678	0.008365
937.987015	0.008309
938.165334	0.007542
938.343635	0.007300
938.521917	0.006923
938.700181	0.006776
938.878427	0.006203
939.056655	0.006131
939.234864	0.005630
939.413055	0.005593
939.591228	0.005497
939.769383	0.006122
939.947519	0.005451
940.125638	0.005465
940.303738	0.005136
940.481820	0.005153
940.659883	0.004745
940.837929	0.005117
941.015956	0.004666
941.193965	0.004376
941.371955	0.003968
941.549928	0.004715
941.727882	0.005566
941.905818	0.005103
942.083736	0.004670
942.261636	0.004510
942.439517	0.004103
942.617380	0.003833
942.795225	0.003463
942.973052	0.003039
943.150860	0.002233
943.328651	0.000841
943.506423	0.000499
943.684176	-0.000469
943.861912	-0.000303
944.039629	-0.000634
944.217328	-0.001454
944.395009	-0.001243
944.572672	-0.001967
944.750317	-0.001683
944.927943	-0.001712
945.105551	-0.002114
945.283141	-0.001733
945.460712	-0.002276
945.638265	-0.002443
945.815801	-0.000865
945.993317	-0.001367
946.170816	-0.000959
946.348297	-0.002306
946.525759	-0.001450
946.703203	-0.000595
946.880629	-0.000853
947.058036	-0.000893
947.235425	-0.000540
947.412797	-0.002136
947.590149	-0.001912
947.767484	-0.001466
947.944800	-0.000809
948.122099	-0.002311
948.299379	-0.002946
948.476640	-0.002816
948.653884	-0.003750
948.831109	-0.004198
949.008316	-0.003835
949.185505	-0.003977
949.362676	-0.005006
949.539828	-0.004676
949.716962	-0.004134
949.894078	-0.003744
950.071176	-0.003777
950.248256	-0.004021
950.425317	-0.005708
950.602360	-0.005764
950.779385	-0.006203
950.956391	-0.006126
951.133380	-0.006510
951.310350	-0.006279
951.487302	-0.007381
951.664235	-0.007118
951.841151	-0.007099
952.018048	-0.005407
952.194927	-0.005410
952.371788	-0.004409
952.548631	-0.004083
952.725455	-0.004673
952.902261	-0.005822
953.079049	-0.005870
953.255819	-0.006835
953.432570	-0.006657
953.609303	-0.007458
953.786018	-0.007617
953.962715	-0.009190
954.139394	-0.008043
954.316054	-0.007085
954.492696	-0.004916
954.669320	-0.004347
954.845926	-0.003805
955.022513	-0.004088
955.199083	-0.004025
955.375634	-0.004988
955.552166	-0.004926
955.728681	-0.007025
955.905177	-0.006733
956.081655	-0.008303
956.258115	-0.009077
956.434557	-0.008096
956.610980	-0.007944
956.787385	-0.007896
956.963772	-0.006527
957.140141	-0.004988
957.316492	-0.004257
957.492824	-0.004442
957.669138	-0.004822
957.845434	-0.002367
958.021712	-0.002843
958.197971	-0.001956
958.374212	-0.001193
958.550435	-0.001326
958.726640	-0.002472
958.902826	-0.001891
959.078995	-0.002063
959.255145	-0.000278
959.431277	-0.001337
959.607390	-0.002107
959.783486	-0.001022
959.959563	-0.001012
960.135622	-0.000334
960.311662	0.000756
960.487685	-0.000597
960.663689	-0.000837
960.839675	-0.001348
961.015643	-0.001041
961.191593	-0.000773
961.367524	-0.000909
961.543437	-0.001154
961.719332	-0.001013
961.895209	-0.001176
962.071067	0.000611
962.246907	0.000557
962.422730	0.001382
962.598533	0.000820
962.774319	0.002528
962.950086	0.002615
963.125835	0.000735
963.301566	0.001499
963.477279	0.001213
963.652973	-0.000003
963.828650	0.000911
964.004308	0.001259
964.179947	0.000334
964.355569	-0.000781
964.531172	-0.001937
964.706757	-0.000560
964.882324	-0.000849
965.057873	-0.002135
965.233403	-0.001538
965.408916	-0.001561
965.584410	-0.003272
965.759885	-0.002105
965.935343	-0.000454
966.110782	-0.000109
966.286203	0.001036
966.461606	0.000402
966.636991	0.003457
966.812357	0.004749
966.987705	0.004805
967.163035	0.005028
967.338347	0.002984
967.513641	0.000907
967.688916	0.000672
967.864173	0.000475
968.039412	0.000434
968.214632	-0.000233
968.389835	-0.000649
968.565019	-0.000594
968.740185	0.000332
968.915333	0.000550
969.090462	0.001848
969.265573	0.002697
969.440667	0.003552
969.615741	0.003865
969.790798	0.002501
969.965836	0.003675
970.140856	0.003718
970.315858	0.003129
970.490842	0.006066
970.665808	0.004876
970.840755	0.007104
971.015684	0.007121
971.190595	0.006368
971.365487	0.006941
971.540362	0.007043
971.715218	0.006063
971.890056	0.006075
972.064875	0.004549
972.239677	0.005970
972.414460	0.003535
972.589225	0.003034
972.763972	0.002554
972.938700	0.002054
973.113411	0.001167
973.288103	0.002419
973.462777	0.002449
973.637432	0.003917
973.812070	0.004264
973.986689	0.005737
974.161290	0.005563
974.335873	0.005967
974.510437	0.006284
974.684984	0.004940
974.859512	0.004414
975.034022	0.004659
975.208513	0.007081
975.382987	0.005629
975.557442	0.004549
975.731879	0.003967
975.906298	0.005160
976.080698	0.006714
976.255080	0.006659
976.429445	0.006264
976.603790	0.006504
976.778118	0.002976
976.952427	0.004023
977.126719	0.004365
977.300992	0.005649
977.475246	0.005384
977.649483	0.004373
977.823701	0.008046
977.997901	0.008266
978.172083	0.008213
978.346247	0.007382
978.520392	0.007361
978.694519	0.006741
978.868628	0.007010
979.042719	0.005983
979.216791	0.005335
979.390845	0.003695
979.564882	0.004059
979.738899	0.004118
979.912899	0.005898
980.086880	0.006720
980.260843	0.006765
980.434788	0.006632
980.608715	0.007057
980.782623	0.007866
980.956514	0.008691
981.130386	0.009826
981.304240	0.009329
981.478075	0.009131
981.651892	0.008568
981.825692	0.009216
981.999472	0.009539
982.173235	0.009520
982.346980	0.009680
982.520706	0.007947
982.694414	0.007093
982.868104	0.005762
983.041775	0.005310
983.215428	0.004176
983.389064	0.005907
983.562680	0.003756
983.736279	0.004345
983.909860	0.003357
984.083422	0.004089
984.256966	0.004014
984.430491	0.005596
984.603999	0.005615
984.777488	0.006008
984.950959	0.004372
985.124412	0.005718
985.297847	0.005879
985.471263	0.005910
985.644661	0.006190
985.818041	0.006090
985.991403	0.006640
986.164747	0.007686
986.338072	0.008189
986.511379	0.007121
986.684668	0.006236
986.857938	0.006631
987.031191	0.007080
987.204425	0.006099
987.377641	0.006873
987.550839	0.006023
987.724018	0.004629
987.897179	0.003995
988.070322	0.005132
988.243447	0.004575
988.416554	0.005447
988.589642	0.004959
988.762712	0.007056
988.935764	0.006142
989.108798	0.007094
989.281813	0.007842
989.454811	0.008596
989.627790	0.008884
989.800751	0.009029
989.973693	0.006451
990.146617	0.005877
990.319524	0.004303
990.492412	0.003527
990.665281	0.002845
990.838133	0.002733
991.010966	0.003641
991.183781	0.003810
991.356578	0.003669
991.529356	0.003594
991.702117	0.004897
991.874859	0.004548
992.047583	0.005643
992.220288	0.005040
992.392976	0.005089
992.565645	0.002532
992.738296	0.001114
992.910929	0.002351
993.083543	0.001402
993.256139	0.001890
993.428718	0.002768
993.601277	0.003560
993.773819	0.004334
993.946342	0.004724
994.118848	0.004681
994.291335	0.004831
994.463803	0.004925
994.636254	0.006609
994.808686	0.006618
994.981100	0.006428
995.153496	0.003996
995.325874	0.002632
995.498233	0.003415
995.670574	0.004076
995.842897	0.004585
996.015202	0.004833
996.187488	0.005830
996.359757	0.006017
996.532007	0.005050
996.704239	0.005739
996.876452	0.006112
997.048648	0.004328
997.220825	0.004836
997.392984	0.004587
997.565124	0.004104
997.737247	0.002840
997.909351	0.000928
998.081437	0.000722
998.253505	0.000512
998.425554	0.002550
998.597586	0.002846
998.769599	0.003866
998.941594	0.003633
999.113571	0.003848
999.285529	0.005176
999.457469	0.004703
999.629391	0.004985
999.801295	0.006160
999.973181	0.004283
1000.145048	0.003400
1000.316897	0.002746
1000.488728	0.001478
1000.660541	0.001704
1000.832335	-0.000003
1001.004111	0.001706
1001.175869	0.002573
1001.347609	0.001068
1001.519331	0.001080
1001.691034	0.002133
1001.862719	0.001830
1002.034386	0.003775
1002.206035	0.002205
1002.377665	0.000552
1002.549277	0.000892
1002.720871	0.000807
1002.892447	0.001398
1003.064004	0.003326
1003.235544	0.003046
1003.407065	0.002682
1003.578568	0.001128
1003.750052	0.002656
1003.921519	0.004601
1004.092967	0.003673
1004.264397	0.003381
1004.435809	0.003623
1004.607202	0.002936
1004.778577	0.003845
1004.949934	0.002354
1005.121273	0.003429
1005.292594	0.003253
1005.463896	0.003499
1005.635180	0.003197
1005.806446	0.002463
1005.977694	0.003776
1006.148923	0.001376
1006.320135	0.000522
1006.491328	0.003384
1006.662503	0.002256
1006.833659	0.002976
1007.004798	0.003935
1007.175918	0.003173
1007.347020	0.003020
1007.518103	0.001844
1007.689169	0.003030
1007.860216	0.002504
1008.031245	0.002069
1008.202256	0.002063
1008.373248	-0.000305
1008.544223	-0.001529
1008.715179	0.000295
1008.886117	0.001415
1009.057036	0.002167
1009.227938	0.001840
1009.398821	0.002086
1009.569686	0.001338
1009.740533	0.002625
1009.911361	0.002765
1010.082172	0.002318
1010.252964	0.002574
1010.423738	0.001515
1010.594493	0.000359
1010.765231	0.001126
1010.935950	0.001138
1011.106651	0.000975
1011.277334	-0.000141
1011.447998	0.000823
1011.618645	0.001680
1011.789273	-0.000230
1011.959882	0.000893
1012.130474	0.001237
1012.301048	0.002687
1012.471603	0.002875
1012.642140	0.003420
1012.812658	0.004066
1012.983159	0.005631
1013.153641	0.005206
1013.324105	0.006773
1013.494551	0.006339
1013.664979	0.006834
1013.835388	0.006520
1014.005779	0.007144
1014.176152	0.007220
1014.346507	0.007556
1014.516843	0.006841
1014.687162	0.006485
1014.857462	0.005563
1015.027744	0.006906
1015.198007	0.005368
1015.368252	0.003968
1015.538480	0.003353
1015.708689	0.002682
1015.878879	0.002000
1016.049052	0.000384
1016.219206	0.000119
1016.389342	0.000278
1016.559460	-0.002012
1016.729559	-0.001952
1016.899641	-0.002975
1017.069704	-0.001150
1017.239749	-0.000251
1017.409775	-0.000060
1017.579784	0.001708
1017.749774	0.003656
1017.919746	0.004533
1018.089700	0.004936
1018.259635	0.006101
1018.429553	0.007904
1018.599452	0.006570
1018.769333	0.005387
1018.939195	0.005646
1019.109040	0.004425
1019.278866	0.003022
1019.448674	0.001974
1019.618464	0.002136
1019.788235	0.001065
1019.957989	0.000857
1020.127724	0.000886
1020.297441	0.001297
1020.467139	0.002892
1020.636820	0.003296
1020.806482	0.004333
1020.976126	0.004501
1021.145752	0.002494
1021.315359	0.003156
1021.484948	0.004084
1021.654519	0.003848
1021.824072	0.003830
1021.993607	0.002223
1022.163123	0.003633
1022.332621	0.002795
1022.502101	0.002133
1022.671563	0.005887
1022.841007	0.006210
1023.010432	0.004852
1023.179839	0.005069
1023.349228	0.005641
1023.518598	0.006435
1023.687951	0.005259
1023.857285	0.004381
1024.026601	0.002789
1024.195899	0.001787
1024.365178	0.001033
1024.534439	0.001768
1024.703682	0.001383
1024.872907	0.000892
1025.042114	0.001437
1025.211302	0.001239
1025.380472	0.003065
1025.549624	0.006156
1025.718758	0.005437
1025.887873	0.005439
1026.056970	0.004560
1026.226049	0.004089
1026.395110	0.003315
1026.564153	0.001644
1026.733177	0.002127
1026.902183	0.001636
1027.071171	0.000930
1027.240141	0.000994
1027.409092	0.000592
1027.578026	0.000224
1027.746940	0.000191
1027.915837	0.002043
1028.084716	0.002911
1028.253576	0.002005
1028.422418	0.001399
1028.591242	0.001439
1028.760048	0.001170
1028.928835	0.002532
1029.097604	0.001412
1029.266355	0.000490
1029.435088	-0.001385
1029.603803	-0.001692
1029.772499	-0.000837
1029.941177	-0.001475
1030.109837	-0.001047
1030.278478	-0.000044
1030.447102	-0.001984
1030.615707	-0.000978
1030.784294	0.000921
1030.952863	0.001930
1031.121413	0.000722
1031.289945	-0.000449
1031.458460	0.000497
1031.626955	-0.000632
1031.795433	-0.001111
1031.963892	0.000378
1032.132334	0.000331
1032.300756	-0.001810
1032.469161	-0.002562
1032.637548	-0.000826
1032.805916	0.000933
1032.974266	0.000411
1033.142598	0.000579
1033.310911	0.000334
1033.479207	0.000441
1033.647484	0.001777
1033.815743	0.003693
1033.983983	0.004212
1034.152206	0.003390
1034.320410	0.001960
1034.488596	0.003161
1034.656764	0.004801
1034.824914	0.004736
1034.993045	0.004894
1035.161158	0.004332
1035.329253	0.005392
1035.497330	0.005856
1035.665388	0.005606
1035.833428	0.004981
1036.001450	0.003573
1036.169454	0.002038
1036.337440	0.002670
1036.505407	0.002985
1036.673356	0.003307
1036.841287	0.002130
1037.009200	0.001065
1037.177094	0.002404
1037.344970	0.003361
1037.512828	0.002223
1037.680668	0.001930
1037.848489	0.001063
1038.016293	-0.000176
1038.184078	0.000266
1038.351845	0.000135
1038.519593	0.001444
1038.687324	-0.001075
1038.855036	-0.001644
1039.022730	0.000028
1039.190406	-0.000520
1039.358063	-0.000772
1039.525702	-0.000641
1039.693323	-0.001946
1039.860926	-0.001436
1040.028511	-0.002192
1040.196077	-0.001497
1040.363625	-0.001252
1040.531155	-0.001790
1040.698667	-0.001675
1040.866161	-0.001549
1041.033636	-0.001467
1041.201093	-0.001084
1041.368532	-0.000497
1041.535952	-0.001128
1041.703355	0.001616
1041.870739	0.002512
1042.038105	0.003027
1042.205452	0.004081
1042.372782	0.003321
1042.540093	0.003265
1042.707386	0.002499
1042.874661	0.001146
1043.041918	0.002009
1043.209156	-0.000489
1043.376376	-0.001492
1043.543578	-0.001410
1043.710762	-0.001808
1043.877927	-0.000527
1044.045074	-0.001006
1044.212203	-0.000745
1044.379314	0.000080
1044.546407	-0.001277
1044.713481	-0.001281
1044.880537	-0.001041
1045.047575	-0.001329
1045.214595	-0.003253
1045.381596	-0.004457
1045.548579	-0.003207
1045.715544	-0.002366
1045.882491	-0.003848
1046.049420	-0.003264
1046.216330	-0.001857
1046.383222	-0.000925
1046.550096	-0.001725
1046.716951	0.000300
1046.883789	0.000793
1047.050608	0.001712
1047.217409	0.002573
1047.384192	0.002733
1047.550956	0.003300
1047.717703	0.002359
1047.884431	0.000702
1048.051140	0.001603
1048.217832	0.001395
1048.384505	0.001594
1048.551161	0.000869
1048.717798	-0.000214
1048.884416	-0.000158
1049.051017	0.000156
1049.217599	0.000590
1049.384163	0.000778
1049.550709	0.001224
1049.717237	0.001041
1049.883746	0.000708
1050.050237	-0.001355
1050.216710	-0.001950
1050.383165	-0.002191
1050.549601	-0.002537
1050.716019	-0.003058
1050.882420	-0.003068
1051.048801	-0.005287
1051.215165	-0.004818
1051.381510	-0.004568
1051.547837	-0.001984
1051.714146	-0.002577
1051.880437	-0.002832
1052.046709	-0.004081
1052.212964	-0.002683
1052.379200	-0.001609
1052.545417	0.000486
1052.711617	0.001291
1052.877798	0.001349
1053.043961	0.001112
1053.210106	0.001830
1053.376233	0.003021
1053.542341	0.004348
1053.708432	0.002909
1053.874504	0.003670
1054.040557	0.001855
1054.206593	0.001874
1054.372610	0.002385
1054.538609	0.000655
1054.704590	-0.000007
1054.870553	0.000583
1055.036497	-0.000431
1055.202424	-0.000428
1055.368331	-0.002300
1055.534221	-0.000363
1055.700093	-0.001218
1055.865946	-0.000710
1056.031781	-0.001972
1056.197598	0.000891
1056.363397	-0.000058
1056.529177	-0.000034
1056.694939	-0.000733
1056.860683	-0.001403
1057.026409	-0.001810
1057.192116	-0.002048
1057.357806	-0.002373
1057.523477	-0.000443
1057.689130	-0.003218
1057.854764	-0.002664
1058.020381	-0.000849
1058.185979	-0.000652
1058.351559	0.000423
1058.517120	0.000316
1058.682664	0.002769
1058.848189	0.003214
1059.013696	0.003033
1059.179185	0.003956
1059.344656	0.004553
1059.510108	0.003176
1059.675542	0.003899
1059.840958	0.003629
1060.006356	0.004518
1060.171735	0.003421
1060.337096	0.002030
1060.502439	0.002956
1060.667764	0.001264
1060.833071	0.001057
1060.998359	0.000789
1061.163629	0.000493
1061.328881	0.001351
1061.494115	0.001631
1061.659330	0.000321
1061.824527	0.000425
1061.989706	-0.000877
1062.154867	-0.000085
1062.320010	-0.001379
1062.485134	-0.000052
1062.650240	0.000774
1062.815328	0.000753
1062.980398	0.000922
1063.145449	0.001441
1063.310482	0.000857
1063.475497	0.002197
1063.640494	0.004404
1063.805473	0.004790
1063.970433	0.004421
1064.135375	0.000945
1064.300299	0.000687
1064.465204	-0.000995
1064.630092	-0.000654
1064.794961	-0.001834
1064.959812	-0.002519
1065.124645	-0.003975
1065.289459	-0.004069
1065.454256	-0.005003
1065.619034	-0.001553
1065.783793	-0.002134
1065.948535	-0.002157
1066.113258	-0.002783
1066.277964	-0.000047
1066.442651	-0.000194
1066.607319	0.000866
1066.771970	0.000427
1066.936602	0.001594
1067.101216	0.000969
1067.265812	0.002132
1067.430389	0.002946
1067.594949	0.003577
1067.759490	0.001796
1067.924013	0.002914
1068.088518	0.001842
1068.253004	0.003280
1068.417472	0.002083
1068.581922	0.001523
1068.746354	0.000426
1068.910768	-0.000150
1069.075163	-0.001342
1069.239540	-0.000990
1069.403899	-0.003463
1069.568240	-0.004630
1069.732562	-0.005194
1069.896866	-0.003690
1070.061152	-0.002947
1070.225420	-0.002676
1070.389670	-0.002618
1070.553901	-0.003158
1070.718114	-0.002111
1070.882309	-0.001273
1071.046486	-0.000006
1071.210644	0.000993
1071.374784	0.000510
1071.538906	0.000631
1071.703010	0.001622
1071.867096	0.004054
1072.031163	0.004684
1072.195212	0.004319
1072.359243	0.006190
1072.523256	0.005096
1072.687250	0.003029
1072.851226	0.002084
1073.015184	0.001081
1073.179124	-0.000341
1073.343045	-0.002403
1073.506949	-0.000363
1073.670834	-0.000381
1073.834701	-0.000894
1073.998549	0.000912
1074.162380	0.001298
1074.326192	0.001798
1074.489986	0.001031
1074.653761	0.000088
1074.817519	-0.001441
1074.981258	-0.002359
1075.144979	-0.001724
1075.308682	-0.003457
1075.472367	-0.005779
1075.636033	-0.005489
1075.799681	-0.005766
1075.963311	-0.004473
1076.126923	-0.003497
1076.290516	-0.001741
1076.454092	-0.001430
1076.617649	-0.000436
1076.781187	0.000696
1076.944708	0.003168
1077.108210	0.002763
1077.271695	0.004445
1077.435160	0.005588
1077.598608	0.006467
1077.762038	0.004465
1077.925449	0.001611
1078.088842	0.001059
1078.252217	0.000984
1078.415573	-0.001207
1078.578912	0.000466
1078.742232	-0.000836
1078.905534	-0.002886
1079.068817	-0.002905
1079.232083	-0.000359
1079.395330	0.002415
1079.558559	0.001277
1079.721770	0.002713
1079.884962	0.003207
1080.048136	0.001318
1080.211293	0.000837
1080.374430	0.002962
1080.537550	0.002478
1080.700651	0.002035
1080.863735	0.001131
1081.026800	0.001979
1081.189846	0.000929
1081.352875	0.003215
1081.515885	0.004284
1081.678877	0.004106
1081.841851	0.003664
1082.004807	0.002949
1082.167744	0.001531
1082.330663	0.002948
1082.493564	0.002808
1082.656447	0.003232
1082.819312	0.002846
1082.982158	0.001975
1083.144986	0.003478
1083.307796	0.001379
1083.470587	0.001502
1083.633361	0.001161
1083.796116	0.000104
1083.958853	-0.001100
1084.121571	-0.004136
1084.284272	-0.005722
1084.446954	-0.006168
1084.609618	-0.005353
1084.772264	-0.004839
1084.934892	-0.003735
1085.097501	-0.003181
1085.260092	-0.003106
1085.422665	-0.004153
1085.585220	-0.001322
1085.747756	-0.000537
1085.910274	0.000067
1086.072774	-0.003123
1086.235256	0.000582
1086.397720	0.000203
1086.560165	0.001096
1086.722592	0.001981
1086.885001	0.004074
1087.047392	0.002432
1087.209764	0.002145
1087.372119	0.002081
1087.534455	0.005241
1087.696772	0.002438
1087.859072	0.003445
1088.021353	0.003376
1088.183616	0.000984
1088.345861	0.000526
1088.508088	0.002900
1088.670296	0.002272
1088.832486	0.002531
1088.994658	0.000621
1089.156812	0.000908
1089.318948	0.001182
1089.481065	0.002219
1089.643164	0.004686
1089.805245	0.004344
1089.967308	0.004424
1090.129352	0.007376
1090.291378	0.006296
1090.453386	0.007562
1090.615376	0.006461
1090.777347	0.006814
1090.939301	0.005630
1091.101236	0.004743
1091.263153	0.003930
1091.425051	0.002763
1091.586932	0.000836
1091.748794	0.005519
1091.910638	0.004608
1092.072463	0.007404
1092.234271	0.004963
1092.396060	0.003765
1092.557831	0.003936
1092.719584	0.008124
1092.881319	0.006984
1093.043035	0.007751
1093.204733	0.005037
1093.366413	0.005839
1093.528075	0.002680
1093.689718	0.003127
1093.851343	0.003479
1094.012950	0.006510
1094.174539	0.003250
1094.336110	0.004283
1094.497662	0.003327
1094.659196	0.003063
1094.820712	0.002288
1094.982210	0.002389
1095.143689	0.003641
1095.305151	0.005943
1095.466594	0.004758
1095.628018	0.005022
1095.789425	0.006069
1095.950813	0.006824
1096.112183	0.007263
1096.273535	0.007506
1096.434869	0.007470
1096.596184	0.007366
1096.757482	0.005093
1096.918761	0.003928
1097.080021	0.005880
1097.241264	0.004952
1097.402488	0.005340
1097.563694	0.006516
1097.724882	0.007674
1097.886052	0.009533
1098.047203	0.007949
1098.208336	0.010893
1098.369451	0.008568
1098.530548	0.007368
1098.691627	0.006706
1098.852687	0.003268
1099.013729	0.001644
1099.174753	-0.001092
1099.335758	-0.002673
1099.496746	-0.001842
1099.657715	-0.004828
1099.818666	-0.003288
1099.979599	-0.001921
1100.140513	-0.001874
1100.301409	-0.001161
1100.462287	-0.000597
1100.623147	0.000853
1100.783989	0.000888
1100.944812	0.001321
1101.105617	0.001639
1101.266404	0.001614
1101.427173	-0.000296
1101.587923	0.005123
1101.748656	0.003214
1101.909370	0.000516
1102.070066	-0.000068
1102.230743	0.000115
1102.391403	0.003068
1102.552044	0.003155
1102.712667	0.002380
1102.873271	0.002375
1103.033858	-0.002969
1103.194426	0.000902
1103.354976	0.001746
1103.515508	0.003109
1103.676021	0.005103
1103.836517	0.003140
1103.996994	0.003334
1104.157453	0.003330
1104.317893	0.001458
1104.478316	0.001601
1104.638720	0.002319
1104.799106	0.001894
1104.959474	-0.002953
1105.119823	-0.003518
1105.280155	-0.006052
1105.440468	-0.006695
1105.600763	-0.009105
1105.761039	-0.010108
1105.921298	-0.008415
1106.081538	-0.009658
1106.241760	-0.007117
1106.401964	-0.002929
1106.562149	-0.003402
1106.722316	-0.004106
1106.882465	-0.002475
1107.042596	-0.001778
1107.202709	0.002123
1107.362803	0.000631
1107.522879	0.000093
1107.682937	-0.002346
1107.842977	-0.003561
1108.002999	-0.005189
1108.163002	-0.005881
1108.322987	-0.007754
1108.482954	-0.004025
1108.642902	-0.003288
1108.802833	-0.001059
1108.962745	-0.002767
1109.122639	-0.001396
1109.282515	0.002676
1109.442372	0.003153
1109.602211	0.004292
1109.762032	0.004144
1109.921835	0.004783
1110.081620	0.003664
1110.241386	0.001556
1110.401134	0.003512
1110.560864	0.004165
1110.720576	0.002131
1110.880269	0.004253
1111.039945	0.007205
1111.199602	0.009473
1111.359240	0.009962
1111.518861	0.009842
1111.678463	0.006970
1111.838047	0.007692
1111.997613	0.008237
1112.157161	0.006064
1112.316690	0.006613
1112.476202	0.004784
1112.635695	0.005147
1112.795169	0.005615
1112.954626	0.002571
1113.114064	0.003416
1113.273484	0.003706
1113.432886	0.000034
1113.592270	0.002878
1113.751635	0.001418
1113.910983	-0.000445
1114.070312	0.000278
1114.229622	-0.000505
1114.388915	-0.000197
1114.548189	0.003477
1114.707445	0.002813
1114.866683	0.003802
1115.025903	0.000163
1115.185104	-0.000775
1115.344287	0.001324
1115.503452	0.003811
1115.662599	-0.002638
1115.821727	-0.000371
1115.980838	-0.002672
1116.139930	0.000359
1116.299004	0.001358
1116.458059	0.004500
1116.617097	0.005750
1116.776116	0.009893
1116.935117	0.005604
1117.094099	0.011380
1117.253064	0.009451
1117.412010	0.009918
1117.570938	0.006012
1117.729848	0.009744
1117.888740	0.007925
1118.047613	0.005848
1118.206468	0.002594
1118.365305	0.004243
1118.524124	0.003415
1118.682924	0.008181
1118.841707	0.009117
1119.000471	0.009195
1119.159216	0.007203
1119.317944	0.008504
1119.476653	0.013311
1119.635344	0.013725
1119.794017	0.010740
1119.952672	0.009412
1120.111308	0.005822
1120.269927	0.010945
1120.428527	0.009877
1120.587108	0.007611
1120.745672	0.005488
1120.904217	0.000281
1121.062744	-0.005239
1121.221253	-0.002512
1121.379744	-0.000607
1121.538216	-0.000721
1121.696671	-0.007209
1121.855107	-0.005028
1122.013524	-0.003288
1122.171924	-0.001566
1122.330305	0.003754
1122.488668	0.005413
1122.647013	0.004278
1122.805340	0.009835
1122.963648	0.010709
1123.121938	0.013696
1123.280210	0.013709
1123.438464	0.012886
1123.596700	0.009448
1123.754917	0.005430
1123.913116	0.009215
1124.071297	0.009896
1124.229459	0.000813
1124.387604	0.000098
1124.545730	-0.000403
1124.703838	-0.002500
1124.861928	-0.001692
1125.019999	0.002728
1125.178052	0.008197
1125.336088	0.007606
1125.494104	0.006609
1125.652103	0.012568
1125.810083	0.013595
1125.968045	0.015439
1126.125989	0.015581
1126.283915	0.015721
1126.441823	0.014643
1126.599712	0.013888
1126.757583	0.012350
1126.915436	0.013081
1127.073270	0.008720
1127.231087	0.007658
1127.388885	0.001401
1127.546665	0.006379
1127.704426	0.007445
1127.862170	0.003851
1128.019895	-0.000326
1128.177602	0.001915
1128.335291	0.002872
1128.492961	0.000822
1128.650614	0.001414
1128.808248	0.003913
1128.965864	-0.000890
1129.123461	0.002683
1129.281041	0.001989
1129.438602	0.002189
1129.596145	0.004422
1129.753670	0.002207
1129.911176	0.003840
1130.068665	0.001821
1130.226135	0.002991
1130.383587	-0.001355
1130.541020	-0.010343
1130.698436	-0.005242
1130.855833	-0.006411
1131.013212	-0.013123
1131.170573	-0.011810
1131.327915	-0.009797
1131.485239	-0.005177
1131.642545	-0.008132
1131.799833	-0.001841
1131.957103	0.003006
1132.114354	0.003450
1132.271588	0.004436
1132.428803	0.009405
1132.585999	0.006940
1132.743178	0.008740
1132.900338	0.004036
1133.057480	0.001270
1133.214604	0.001929
1133.371710	-0.001024
1133.528797	-0.000386
1133.685866	0.001044
1133.842917	0.002551
1133.999950	0.004390
1134.156964	0.002124
1134.313960	0.004553
1134.470938	0.008392
1134.627898	0.010287
1134.784840	0.012454
1134.941763	0.007074
1135.098668	0.002802
1135.255555	-0.002631
1135.412424	0.000610
1135.569274	0.000160
1135.726107	0.004213
1135.882921	0.011664
1136.039716	0.007749
1136.196494	0.005577
1136.353253	0.005985
1136.509995	0.006887
1136.666717	0.006914
1136.823422	0.004216
1136.980109	0.003890
1137.136777	-0.000120
1137.293427	-0.008130
1137.450059	-0.005404
1137.606672	-0.004830
1137.763267	0.000063
1137.919844	0.000722
1138.076403	0.005356
1138.232944	0.007807
1138.389466	0.004838
1138.545971	-0.000570
1138.702457	-0.002732
1138.858924	-0.001945
1139.015374	0.002496
1139.171805	0.000891
1139.328218	0.000439
1139.484613	-0.001987
1139.640990	-0.008987
1139.797348	-0.009503
1139.953688	-0.004142
1140.110010	0.000515
1140.266314	-0.001449
1140.422600	-0.007416
1140.578867	-0.005418
1140.735116	-0.002326
1140.891347	-0.000998
1141.047559	0.000356
1141.203754	0.004325
1141.359930	0.004788
1141.516088	0.006237
1141.672228	0.003012
1141.828349	0.003310
1141.984452	-0.001708
1142.140537	0.002872
1142.296604	0.001975
1142.452653	0.006142
1142.608683	0.002199
1142.764695	0.002807
1142.920689	0.003894
1143.076665	0.003210
1143.232622	0.003996
1143.388562	0.006077
1143.544483	-0.002998
1143.700385	-0.001493
1143.856270	-0.007007
1144.012136	-0.006522
1144.167985	-0.012235
1144.323814	-0.018148
1144.479626	-0.012677
1144.635420	-0.009587
1144.791195	-0.012247
1144.946952	-0.015333
1145.102691	-0.019968
1145.258411	-0.013165
1145.414113	-0.004023
1145.569798	0.000740
1145.725463	0.000130
1145.881111	0.001023
1146.036741	0.002193
1146.192352	0.004647
1146.347945	0.014585
1146.503519	0.020126
1146.659076	0.014786
1146.814614	0.011849
1146.970134	0.014265
1147.125636	0.021644
1147.281120	0.021034
1147.436585	0.021148
1147.592032	0.017425
1147.747461	0.014084
1147.902872	0.015767
1148.058265	0.015175
1148.213639	0.008752
1148.368995	0.010072
1148.524333	0.005070
1148.679653	0.002741
1148.834954	-0.002810
1148.990237	0.004390
1149.145502	0.008793
1149.300749	0.008486
1149.455977	0.018235
1149.611188	0.021488
1149.766380	0.013308
1149.921553	0.015610
1150.076709	0.015155
1150.231846	0.017402
1150.386966	0.015744
1150.542066	0.004276
1150.697149	0.000744
1150.852214	-0.009501
1151.007260	-0.006801
1151.162288	-0.001830
1151.317298	-0.002339
1151.472289	-0.004765
1151.627263	-0.006900
1151.782218	-0.011326
1151.937155	-0.010740
1152.092073	-0.009030
1152.246974	-0.008995
1152.401856	-0.007962
1152.556720	-0.008193
1152.711566	-0.012420
1152.866393	-0.010698
1153.021203	-0.008762
1153.175994	-0.001429
1153.330767	0.003385
1153.485521	0.004174
1153.640258	0.002917
1153.794976	-0.001710
1153.949676	-0.005316
1154.104358	-0.001708
1154.259021	-0.003698
1154.413667	-0.001183
1154.568294	0.003029
1154.722903	0.003333
1154.877493	0.008699
1155.032066	0.014919
1155.186620	0.019602
1155.341156	0.022133
1155.495674	0.027549
1155.650173	0.027170
1155.804654	0.026800
1155.959118	0.017271
1156.113562	0.017372
1156.267989	0.013199
1156.422397	0.009589
1156.576788	0.005795
1156.731160	0.004652
1156.885513	-0.004798
1157.039849	-0.000655
1157.194166	0.000600
1157.348465	-0.001643
1157.502746	-0.001255
1157.657009	-0.010740
1157.811253	-0.014597
1157.965479	-0.018174
1158.119687	-0.014398
1158.273877	-0.011239
1158.428048	-0.001372
1158.582201	-0.008092
1158.736337	-0.000801
1158.890453	0.004070
1159.044552	0.008745
1159.198632	0.010086
1159.352694	0.012032
1159.506738	0.019351
1159.660764	0.016835
1159.814771	0.003086
1159.968761	0.005699
1160.122732	0.000635
1160.276685	0.001239
1160.430619	0.002065
1160.584535	0.006766
1160.738434	0.011573
1160.892313	0.002966
1161.046175	0.005407
1161.200019	0.003756
1161.353844	0.007250
1161.507651	0.005552
1161.661440	-0.005402
1161.815210	-0.007292
1161.968962	-0.002191
1162.122697	-0.006291
1162.276412	-0.004820
1162.430110	-0.003366
1162.583789	-0.008835
1162.737451	-0.018547
1162.891094	-0.013563
1163.044718	-0.005731
1163.198325	0.002777
1163.351913	0.006456
1163.505483	0.006577
1163.659035	0.008525
1163.812569	0.010003
1163.966084	0.015584
1164.119581	0.028435
1164.273060	0.025633
1164.426521	0.023967
1164.579964	0.019241
1164.733388	0.011428
1164.886794	0.019585
1165.040182	0.012172
1165.193551	0.017770
1165.346903	0.020737
1165.500236	0.021657
1165.653551	0.025826
1165.806848	0.021997
1165.960126	0.023625
1166.113386	0.022469
1166.266628	0.012954
1166.419852	0.014244
1166.573058	0.012845
1166.726245	0.015155
1166.879414	0.010606
1167.032565	0.004642
1167.185698	0.022304
1167.338812	0.020514
1167.491909	0.026150
1167.644987	0.021416
1167.798046	0.025874
1167.951088	0.021590
1168.104111	0.025522
1168.257117	0.029887
1168.410103	0.032391
1168.563072	0.014085
1168.716023	0.020149
1168.868955	0.005041
1169.021869	0.012715
1169.174765	0.011743
1169.327642	0.011738
1169.480501	0.011137
1169.633343	0.013840
1169.786165	0.017158
1169.938970	0.019805
1170.091757	0.005172
1170.244525	0.018202
1170.397275	0.018525
1170.550007	0.011104
1170.702720	0.012220
1170.855415	0.016841
1171.008092	0.009719
1171.160751	0.006039
1171.313392	0.007853
1171.466014	0.090483
1171.618619	0.006139
1171.771205	0.006139
1171.923772	0.006139
