sample name	sample
index	873
start time	 04-08-2021  01:35:31 PM


Wavelength (nm)	Absorbance
494.344910	0.018881
494.563924	0.018881
494.782919	0.018881
495.001897	-0.002444
495.220856	0.005818
495.439797	0.002299
495.658719	0.000996
495.877624	-0.000152
496.096510	-0.004659
496.315378	-0.003441
496.534227	-0.000443
496.753059	0.001984
496.971872	0.004941
497.190667	0.066104
497.409444	0.107065
497.628203	0.123630
497.846943	0.136080
498.065665	0.140713
498.284369	0.145344
498.503055	0.147134
498.721723	0.149321
498.940372	0.150932
499.159003	0.152511
499.377616	0.153343
499.596210	0.152594
499.814787	0.151468
500.033345	0.152489
500.251885	0.152646
500.470406	0.154213
500.688910	0.154728
500.907395	0.155890
501.125862	0.156468
501.344311	0.156289
501.562742	0.157723
501.781154	0.157727
501.999548	0.157054
502.217924	0.157334
502.436282	0.156277
502.654621	0.157061
502.872942	0.157840
503.091245	0.156879
503.309530	0.156691
503.527797	0.156559
503.746045	0.157293
503.964275	0.158848
504.182487	0.158904
504.400681	0.159859
504.618856	0.159415
504.837013	0.159088
505.055152	0.159065
505.273273	0.159526
505.491376	0.159822
505.709460	0.160229
505.927526	0.159720
506.145574	0.159682
506.363604	0.160003
506.581615	0.159863
506.799608	0.159706
507.017583	0.160234
507.235540	0.160414
507.453478	0.161041
507.671399	0.161169
507.889301	0.162295
508.107185	0.162135
508.325050	0.162137
508.542898	0.163504
508.760727	0.163767
508.978538	0.165181
509.196330	0.165921
509.414105	0.166777
509.631861	0.166431
509.849599	0.166346
510.067319	0.166673
510.285021	0.166571
510.502704	0.165645
510.720369	0.165834
510.938016	0.165850
511.155645	0.165079
511.373255	0.164633
511.590848	0.165783
511.808422	0.165661
512.025977	0.165834
512.243515	0.166138
512.461034	0.167245
512.678536	0.167376
512.896018	0.167146
513.113483	0.167839
513.330930	0.168186
513.548358	0.167400
513.765768	0.168272
513.983160	0.169036
514.200533	0.169287
514.417889	0.169705
514.635226	0.169882
514.852545	0.170458
515.069845	0.171482
515.287128	0.171766
515.504392	0.172790
515.721638	0.172970
515.938866	0.173307
516.156075	0.174325
516.373267	0.174697
516.590440	0.175927
516.807594	0.176000
517.024731	0.175874
517.241850	0.176752
517.458950	0.177237
517.676032	0.176915
517.893095	0.177441
518.110141	0.177193
518.327168	0.177360
518.544177	0.177810
518.761168	0.177846
518.978141	0.178385
519.195095	0.178300
519.412031	0.178079
519.628949	0.178974
519.845849	0.179305
520.062731	0.180363
520.279594	0.181016
520.496439	0.180965
520.713266	0.181088
520.930074	0.181156
521.146865	0.181049
521.363637	0.180810
521.580391	0.181508
521.797127	0.181921
522.013844	0.181247
522.230543	0.181886
522.447224	0.181693
522.663887	0.182123
522.880532	0.183044
523.097158	0.183943
523.313766	0.185082
523.530356	0.185524
523.746928	0.185505
523.963481	0.186065
524.180017	0.185251
524.396534	0.186137
524.613032	0.186564
524.829513	0.186517
525.045975	0.186987
525.262420	0.187308
525.478845	0.187150
525.695253	0.186946
525.911643	0.187829
526.128014	0.188333
526.344367	0.188763
526.560702	0.189466
526.777018	0.189835
526.993316	0.189370
527.209597	0.189680
527.425858	0.190492
527.642102	0.191855
527.858328	0.191584
528.074535	0.192012
528.290724	0.192137
528.506894	0.192476
528.723047	0.192602
528.939181	0.193169
529.155297	0.193623
529.371395	0.192814
529.587475	0.192791
529.803536	0.192982
530.019579	0.193542
530.235604	0.194194
530.451611	0.194138
530.667600	0.194206
530.883570	0.194795
531.099522	0.194943
531.315456	0.195656
531.531372	0.196112
531.747269	0.197001
531.963148	0.197258
532.179009	0.196886
532.394852	0.197758
532.610676	0.199169
532.826482	0.199068
533.042271	0.199925
533.258040	0.200721
533.473792	0.200922
533.689525	0.201114
533.905240	0.201883
534.120937	0.202492
534.336616	0.202492
534.552277	0.202492
534.767919	0.203388
534.983543	0.203404
535.199149	0.204526
535.414736	0.204897
535.630306	0.205437
535.845857	0.205808
536.061390	0.206550
536.276904	0.206990
536.492401	0.207297
536.707879	0.208497
536.923339	0.208969
537.138781	0.208703
537.354204	0.209050
537.569610	0.209817
537.784997	0.209997
538.000366	0.209884
538.215716	0.210252
538.431049	0.210476
538.646363	0.209915
538.861659	0.210161
539.076937	0.210745
539.292196	0.211506
539.507438	0.212059
539.722661	0.212156
539.937866	0.212950
540.153052	0.213346
540.368221	0.213755
540.583371	0.214173
540.798503	0.214582
541.013617	0.214810
541.228712	0.214824
541.443789	0.214202
541.658848	0.214574
541.873889	0.214815
542.088912	0.215364
542.303916	0.215831
542.518902	0.216306
542.733870	0.216600
542.948820	0.217410
543.163752	0.217888
543.378665	0.218988
543.593560	0.219475
543.808437	0.220016
544.023295	0.220128
544.238136	0.220411
544.452958	0.220562
544.667762	0.220880
544.882548	0.220543
545.097315	0.220784
545.312064	0.221373
545.526795	0.221227
545.741508	0.221764
545.956203	0.222423
546.170879	0.222558
546.385537	0.222983
546.600177	0.223691
546.814799	0.224097
547.029402	0.224377
547.243988	0.224366
547.458555	0.225514
547.673103	0.225609
547.887634	0.225527
548.102146	0.226212
548.316640	0.226599
548.531116	0.226855
548.745574	0.227060
548.960013	0.227262
549.174435	0.227210
549.388838	0.227303
549.603222	0.227574
549.817589	0.228438
550.031937	0.228620
550.246267	0.228986
550.460579	0.229305
550.674873	0.230028
550.889148	0.230316
551.103405	0.230714
551.317644	0.231072
551.531865	0.231566
551.746068	0.230987
551.960252	0.230907
552.174418	0.230771
552.388566	0.230793
552.602696	0.230840
552.816807	0.231518
553.030900	0.231790
553.244975	0.231890
553.459032	0.231376
553.673070	0.232044
553.887091	0.232363
554.101093	0.232664
554.315077	0.232800
554.529042	0.233276
554.742990	0.233211
554.956919	0.233439
555.170830	0.233213
555.384722	0.233743
555.598597	0.234024
555.812453	0.234386
556.026291	0.234644
556.240111	0.235360
556.453913	0.235553
556.667696	0.235669
556.881461	0.236317
557.095208	0.237027
557.308937	0.236977
557.522647	0.237330
557.736339	0.237873
557.950013	0.237886
558.163669	0.237798
558.377307	0.237928
558.590926	0.238670
558.804527	0.238739
559.018110	0.238675
559.231675	0.239693
559.445221	0.239659
559.658749	0.239962
559.872259	0.240971
560.085751	0.240926
560.299225	0.241277
560.512680	0.241211
560.726117	0.241174
560.939536	0.241633
561.152937	0.241140
561.366319	0.241541
561.579683	0.241162
561.793029	0.240674
562.006357	0.241107
562.219667	0.240921
562.432958	0.240987
562.646231	0.241243
562.859486	0.241471
563.072723	0.242184
563.285941	0.242018
563.499141	0.242687
563.712323	0.243542
563.925487	0.243797
564.138632	0.244183
564.351760	0.244397
564.564869	0.244410
564.777960	0.244486
564.991032	0.244726
565.204087	0.245434
565.417123	0.245308
565.630141	0.245152
565.843140	0.245394
566.056122	0.245684
566.269085	0.245864
566.482030	0.245968
566.694957	0.246161
566.907866	0.246208
567.120756	0.246134
567.333628	0.246298
567.546482	0.246342
567.759318	0.246524
567.972135	0.246816
568.184935	0.247214
568.397716	0.247705
568.610478	0.247835
568.823223	0.247832
569.035949	0.248031
569.248657	0.248192
569.461347	0.248155
569.674019	0.248268
569.886672	0.248458
570.099308	0.248241
570.311925	0.248480
570.524523	0.248924
570.737104	0.249237
570.949666	0.249751
571.162210	0.250111
571.374736	0.250577
571.587244	0.250564
571.799733	0.250591
572.012205	0.251249
572.224658	0.251284
572.437092	0.251560
572.649509	0.251723
572.861907	0.251616
573.074287	0.251647
573.286649	0.251910
573.498993	0.252333
573.711318	0.252453
573.923625	0.252560
574.135914	0.252933
574.348185	0.252644
574.560438	0.252869
574.772672	0.252972
574.984888	0.253246
575.197086	0.253392
575.409266	0.253683
575.621427	0.253898
575.833570	0.253821
576.045695	0.253886
576.257802	0.254362
576.469890	0.254455
576.681961	0.254534
576.894013	0.254756
577.106046	0.255103
577.318062	0.255341
577.530059	0.255118
577.742039	0.255238
577.954000	0.255412
578.165942	0.255445
578.377867	0.255508
578.589773	0.255918
578.801661	0.256019
579.013531	0.256097
579.225382	0.256351
579.437216	0.256908
579.649031	0.257199
579.860828	0.257320
580.072606	0.257926
580.284367	0.258429
580.496109	0.258526
580.707833	0.258861
580.919539	0.259581
581.131227	0.259715
581.342896	0.259897
581.554547	0.260367
581.766180	0.260428
581.977795	0.260473
582.189391	0.260727
582.400969	0.260408
582.612529	0.260554
582.824071	0.260036
583.035595	0.259954
583.247100	0.260006
583.458587	0.260194
583.670056	0.260347
583.881506	0.260048
584.092939	0.259854
584.304353	0.260289
584.515749	0.260213
584.727127	0.260519
584.938486	0.260667
585.149828	0.261210
585.361151	0.261144
585.572456	0.261596
585.783742	0.262005
585.995011	0.262329
586.206261	0.262075
586.417493	0.262239
586.628706	0.262599
586.839902	0.262559
587.051079	0.261948
587.262238	0.261911
587.473379	0.261957
587.684502	0.261867
587.895606	0.261713
588.106692	0.262625
588.317760	0.263557
588.528810	0.263363
588.739841	0.264088
588.950855	0.264563
589.161850	0.264795
589.372827	0.265015
589.583785	0.265614
589.794726	0.266293
590.005648	0.266535
590.216552	0.266005
590.427437	0.266448
590.638305	0.266006
590.849154	0.266522
591.059985	0.267035
591.270798	0.267048
591.481592	0.267037
591.692369	0.266908
591.903127	0.266909
592.113867	0.267458
592.324588	0.267461
592.535292	0.268327
592.745977	0.268293
592.956644	0.268132
593.167293	0.268554
593.377923	0.268819
593.588536	0.269018
593.799130	0.269540
594.009706	0.269392
594.220263	0.269315
594.430803	0.269039
594.641324	0.269573
594.851827	0.269913
595.062312	0.269777
595.272778	0.269708
595.483227	0.269994
595.693657	0.269846
595.904069	0.270019
596.114462	0.270404
596.324838	0.270231
596.535195	0.270183
596.745534	0.270400
596.955855	0.271017
597.166157	0.271081
597.376441	0.271239
597.586707	0.271465
597.796955	0.271854
598.007185	0.271847
598.217396	0.272472
598.427589	0.272516
598.637764	0.272440
598.847921	0.272611
599.058060	0.273180
599.268180	0.273357
599.478282	0.273319
599.688366	0.273129
599.898431	0.274078
600.108479	0.274185
600.318508	0.274497
600.528519	0.274860
600.738511	0.274758
600.948486	0.275169
601.158442	0.275397
601.368380	0.275819
601.578300	0.276208
601.788202	0.275796
601.998085	0.276135
602.207950	0.276243
602.417797	0.276584
602.627626	0.276911
602.837436	0.276649
603.047228	0.276724
603.257002	0.276670
603.466758	0.276685
603.676496	0.276875
603.886215	0.276882
604.095916	0.277163
604.305599	0.277659
604.515264	0.277877
604.724910	0.277625
604.934538	0.277376
605.144148	0.277727
605.353740	0.277962
605.563314	0.278058
605.772869	0.278145
605.982406	0.278265
606.191925	0.277758
606.401425	0.278047
606.610908	0.278634
606.820372	0.279319
607.029818	0.279490
607.239246	0.279236
607.448655	0.279496
607.658047	0.279931
607.867420	0.279944
608.076775	0.280054
608.286111	0.280197
608.495430	0.280315
608.704730	0.280469
608.914012	0.280589
609.123275	0.280997
609.332521	0.280873
609.541748	0.280854
609.750957	0.281115
609.960148	0.281563
610.169321	0.281400
610.378475	0.281335
610.587611	0.281349
610.796729	0.281443
611.005829	0.281547
611.214910	0.282059
611.423974	0.282371
611.633019	0.282454
611.842045	0.282614
612.051054	0.282712
612.260044	0.283022
612.469017	0.283296
612.677970	0.282998
612.886906	0.283559
613.095824	0.283916
613.304723	0.284040
613.513604	0.284270
613.722467	0.284329
613.931311	0.284684
614.140138	0.285017
614.348946	0.285114
614.557736	0.285517
614.766507	0.285388
614.975261	0.285085
615.183996	0.284937
615.392713	0.285018
615.601412	0.285208
615.810092	0.284948
616.018754	0.285011
616.227399	0.285073
616.436024	0.285482
616.644632	0.285753
616.853222	0.286118
617.061793	0.286508
617.270346	0.286603
617.478880	0.286832
617.687397	0.287303
617.895895	0.287238
618.104375	0.287425
618.312837	0.287525
618.521281	0.287671
618.729706	0.287682
618.938113	0.287864
619.146502	0.288023
619.354873	0.288248
619.563226	0.288697
619.771560	0.289211
619.979876	0.289287
620.188174	0.289150
620.396453	0.289174
620.604715	0.289237
620.812958	0.289439
621.021183	0.289623
621.229390	0.289660
621.437578	0.289274
621.645748	0.289333
621.853900	0.289748
622.062034	0.290154
622.270150	0.290310
622.478247	0.290643
622.686326	0.290610
622.894387	0.290922
623.102430	0.291052
623.310454	0.291333
623.518461	0.291505
623.726449	0.291363
623.934418	0.291537
624.142370	0.291714
624.350303	0.291834
624.558218	0.292146
624.766115	0.292268
624.973994	0.292472
625.181855	0.292535
625.389697	0.292816
625.597521	0.293357
625.805327	0.293560
626.013114	0.293642
626.220883	0.293843
626.428634	0.293716
626.636367	0.293772
626.844082	0.293812
627.051778	0.294170
627.259457	0.294065
627.467117	0.293866
627.674758	0.293886
627.882382	0.294340
628.089987	0.294499
628.297574	0.294810
628.505143	0.295128
628.712694	0.295200
628.920226	0.295389
629.127740	0.295571
629.335236	0.295923
629.542714	0.296192
629.750174	0.296356
629.957615	0.296548
630.165038	0.296495
630.372443	0.296687
630.579829	0.297407
630.787198	0.297476
630.994548	0.298113
631.201880	0.298510
631.409194	0.298641
631.616489	0.298692
631.823766	0.298884
632.031025	0.299305
632.238266	0.299215
632.445489	0.298882
632.652693	0.299352
632.859879	0.299072
633.067047	0.298854
633.274197	0.299078
633.481329	0.299262
633.688442	0.299478
633.895537	0.299542
634.102614	0.299561
634.309672	0.299740
634.516713	0.299896
634.723735	0.300104
634.930739	0.300413
635.137724	0.300539
635.344692	0.300479
635.551641	0.300494
635.758572	0.300624
635.965485	0.301227
636.172379	0.301544
636.379256	0.301557
636.586114	0.302102
636.792954	0.302108
636.999775	0.302131
637.206579	0.302610
637.413364	0.302777
637.620131	0.303008
637.826880	0.302968
638.033610	0.303208
638.240323	0.303284
638.447017	0.302977
638.653692	0.303358
638.860350	0.303684
639.066990	0.303724
639.273611	0.303873
639.480214	0.304193
639.686798	0.304245
639.893365	0.304257
640.099913	0.304464
640.306443	0.304359
640.512955	0.304227
640.719449	0.304423
640.925924	0.304945
641.132381	0.305134
641.338820	0.305212
641.545241	0.305602
641.751644	0.306079
641.958028	0.306151
642.164394	0.306901
642.370742	0.307510
642.577071	0.308005
642.783383	0.307946
642.989676	0.308097
643.195951	0.308156
643.402207	0.308149
643.608446	0.308128
643.814666	0.308377
644.020868	0.308493
644.227052	0.308504
644.433218	0.308360
644.639365	0.308541
644.845494	0.308888
645.051605	0.309140
645.257698	0.309442
645.463772	0.309518
645.669828	0.309934
645.875866	0.310045
646.081886	0.310314
646.287888	0.310552
646.493871	0.310420
646.699836	0.310612
646.905783	0.311316
647.111712	0.311724
647.317622	0.311799
647.523514	0.311764
647.729388	0.311801
647.935244	0.311691
648.141082	0.311604
648.346901	0.311861
648.552702	0.312183
648.758485	0.311887
648.964250	0.311793
649.169996	0.312258
649.375724	0.312560
649.581434	0.312888
649.787126	0.313272
649.992800	0.313829
650.198455	0.314466
650.404092	0.314438
650.609711	0.314675
650.815311	0.314820
651.020894	0.314754
651.226458	0.314995
651.432004	0.315323
651.637532	0.315344
651.843041	0.315519
652.048532	0.315450
652.254006	0.315463
652.459460	0.315507
652.664897	0.315646
652.870315	0.315887
653.075716	0.315939
653.281097	0.315921
653.486461	0.316259
653.691807	0.316304
653.897134	0.316716
654.102443	0.317088
654.307734	0.317346
654.513006	0.317871
654.718261	0.318393
654.923497	0.318482
655.128715	0.318752
655.333915	0.319192
655.539096	0.319334
655.744259	0.319472
655.949404	0.320231
656.154531	0.320642
656.359640	0.320626
656.564730	0.320765
656.769802	0.321251
656.974856	0.321247
657.179892	0.321453
657.384909	0.322076
657.589908	0.322335
657.794889	0.322055
657.999852	0.322249
658.204797	0.322281
658.409723	0.322630
658.614631	0.323163
658.819521	0.323665
659.024393	0.323617
659.229246	0.323684
659.434081	0.323713
659.638898	0.324126
659.843697	0.324143
660.048478	0.324542
660.253240	0.324367
660.457984	0.324218
660.662710	0.324329
660.867417	0.324628
661.072107	0.324916
661.276778	0.325518
661.481431	0.325625
661.686066	0.326018
661.890682	0.326635
662.095281	0.327071
662.299861	0.327506
662.504422	0.328159
662.708966	0.328511
662.913491	0.328764
663.117999	0.328743
663.322488	0.329004
663.526958	0.329199
663.731411	0.329172
663.935845	0.329324
664.140261	0.329420
664.344659	0.329419
664.549038	0.329505
664.753400	0.329610
664.957743	0.330009
665.162068	0.330213
665.366375	0.330343
665.570663	0.330426
665.774933	0.330720
665.979185	0.331051
666.183419	0.331380
666.387635	0.331650
666.591832	0.331775
666.796011	0.331841
667.000172	0.332090
667.204315	0.332686
667.408439	0.333134
667.612545	0.333295
667.816634	0.333432
668.020703	0.333367
668.224755	0.333721
668.428788	0.333992
668.632803	0.334561
668.836800	0.334438
669.040779	0.334740
669.244739	0.335044
669.448681	0.335478
669.652605	0.335474
669.856511	0.335730
670.060399	0.335793
670.264268	0.335989
670.468119	0.335971
670.671952	0.336558
670.875767	0.336698
671.079563	0.336965
671.283341	0.337198
671.487101	0.337439
671.690843	0.337656
671.894567	0.337950
672.098272	0.338256
672.301959	0.338472
672.505628	0.338681
672.709278	0.338713
672.912911	0.339032
673.116525	0.338947
673.320121	0.339314
673.523699	0.339688
673.727258	0.339823
673.930799	0.340164
674.134322	0.340273
674.337827	0.340444
674.541314	0.340656
674.744782	0.340451
674.948232	0.340731
675.151664	0.340718
675.355078	0.340880
675.558474	0.341106
675.761851	0.341366
675.965210	0.341390
676.168551	0.341757
676.371873	0.341915
676.575178	0.342144
676.778464	0.342525
676.981732	0.343052
677.184981	0.343107
677.388213	0.343295
677.591426	0.343370
677.794621	0.343318
677.997798	0.343519
678.200956	0.343869
678.404097	0.344327
678.607219	0.344624
678.810323	0.344653
679.013408	0.345152
679.216476	0.345467
679.419525	0.345623
679.622556	0.346381
679.825569	0.346416
680.028563	0.346654
680.231540	0.346792
680.434498	0.346742
680.637438	0.346980
680.840359	0.347011
681.043263	0.347251
681.246148	0.347533
681.449015	0.347703
681.651864	0.347903
681.854694	0.348045
682.057506	0.348237
682.260301	0.348767
682.463076	0.349010
682.665834	0.349431
682.868573	0.349600
683.071295	0.349912
683.273998	0.350160
683.476682	0.350764
683.679349	0.350887
683.881997	0.351222
684.084627	0.351359
684.287239	0.351627
684.489833	0.351826
684.692408	0.352128
684.894965	0.352160
685.097504	0.352476
685.300025	0.352264
685.502527	0.352445
685.705012	0.352516
685.907478	0.352703
686.109925	0.352932
686.312355	0.353309
686.514766	0.353665
686.717159	0.353884
686.919534	0.353914
687.121891	0.354532
687.324230	0.354890
687.526550	0.355218
687.728852	0.355229
687.931136	0.355620
688.133401	0.355526
688.335649	0.355294
688.537878	0.355617
688.740089	0.355942
688.942281	0.356053
689.144456	0.356529
689.346612	0.356479
689.548750	0.356991
689.750870	0.357024
689.952971	0.357243
690.155055	0.357988
690.357120	0.358258
690.559167	0.358319
690.761195	0.358211
690.963206	0.358180
691.165198	0.358439
691.367172	0.358380
691.569128	0.358395
691.771065	0.358513
691.972984	0.358335
692.174885	0.358465
692.376768	0.358671
692.578633	0.359188
692.780479	0.359456
692.982308	0.359802
693.184118	0.360088
693.385909	0.360306
693.587683	0.360710
693.789438	0.360934
693.991175	0.360879
694.192894	0.360944
694.394595	0.360970
694.596277	0.361078
694.797941	0.361239
694.999587	0.361335
695.201215	0.361640
695.402824	0.361600
695.604416	0.361717
695.805989	0.362046
696.007543	0.362375
696.209080	0.362381
696.410598	0.362393
696.612099	0.362421
696.813580	0.362504
697.015044	0.362528
697.216490	0.362651
697.417917	0.362742
697.619326	0.363075
697.820717	0.363100
698.022089	0.363090
698.223444	0.363222
698.424780	0.363333
698.626098	0.363611
698.827397	0.363796
699.028679	0.363934
699.229942	0.364294
699.431187	0.364158
699.632414	0.364364
699.833622	0.364740
700.034813	0.364904
700.235985	0.365102
700.437139	0.365376
700.638274	0.365564
700.839392	0.365652
701.040491	0.365859
701.241572	0.366291
701.442635	0.366430
701.643679	0.366629
701.844706	0.366908
702.045714	0.367056
702.246704	0.366939
702.447675	0.367166
702.648629	0.367648
702.849564	0.367862
703.050481	0.367619
703.251380	0.367669
703.452260	0.367679
703.653122	0.367626
703.853966	0.367634
704.054792	0.367845
704.255600	0.367734
704.456389	0.367511
704.657160	0.366960
704.857913	0.366936
705.058648	0.366932
705.259365	0.366947
705.460063	0.366926
705.660743	0.367245
705.861405	0.367098
706.062048	0.367201
706.262674	0.367067
706.463281	0.367538
706.663870	0.367681
706.864441	0.367734
707.064993	0.367503
707.265527	0.367411
707.466043	0.367308
707.666541	0.367496
707.867021	0.367410
708.067482	0.367471
708.267925	0.367454
708.468350	0.367736
708.668757	0.367653
708.869145	0.368117
709.069516	0.368536
709.269868	0.368394
709.470201	0.368367
709.670517	0.368406
709.870814	0.368636
710.071093	0.368725
710.271354	0.368632
710.471597	0.368948
710.671821	0.368944
710.872028	0.368867
711.072216	0.368981
711.272385	0.368892
711.472537	0.368799
711.672670	0.368634
711.872785	0.368562
712.072882	0.368415
712.272961	0.368281
712.473021	0.368008
712.673063	0.367913
712.873087	0.368017
713.073093	0.368198
713.273081	0.368375
713.473050	0.368367
713.673001	0.368322
713.872934	0.368396
714.072849	0.368569
714.272745	0.368453
714.472623	0.368168
714.672483	0.368172
714.872325	0.367920
715.072148	0.367737
715.271954	0.367904
715.471741	0.367925
715.671509	0.367918
715.871260	0.367300
716.070992	0.367340
716.270707	0.367374
716.470403	0.367086
716.670080	0.367016
716.869740	0.367031
717.069381	0.367099
717.269004	0.366782
717.468609	0.366329
717.668195	0.366647
717.867764	0.366815
718.067314	0.366718
718.266846	0.366607
718.466360	0.366648
718.665855	0.366704
718.865332	0.366206
719.064791	0.366112
719.264232	0.366529
719.463655	0.366417
719.663059	0.366173
719.862445	0.365889
720.061813	0.365794
720.261163	0.365740
720.460494	0.365567
720.659807	0.365669
720.859102	0.365790
721.058379	0.365345
721.257638	0.365133
721.456878	0.365191
721.656100	0.365299
721.855304	0.365114
722.054490	0.364913
722.253657	0.364802
722.452806	0.364611
722.651937	0.364173
722.851050	0.364079
723.050145	0.363898
723.249221	0.363698
723.448279	0.363806
723.647319	0.363781
723.846340	0.363786
724.045344	0.363576
724.244329	0.363469
724.443296	0.363430
724.642245	0.363051
724.841175	0.363042
725.040088	0.362829
725.238982	0.362623
725.437857	0.362606
725.636715	0.362540
725.835554	0.362585
726.034376	0.362389
726.233179	0.362231
726.431963	0.362508
726.630730	0.362305
726.829478	0.362197
727.028208	0.361984
727.226920	0.361897
727.425614	0.361659
727.624289	0.361380
727.822946	0.361215
728.021585	0.361241
728.220206	0.361066
728.418808	0.361051
728.617392	0.360857
728.815958	0.360807
729.014506	0.360723
729.213036	0.360554
729.411547	0.360381
729.610040	0.360289
729.808515	0.359971
730.006972	0.359832
730.205410	0.359732
730.403831	0.359708
730.602233	0.359646
730.800616	0.359152
730.998982	0.358856
731.197329	0.358679
731.395658	0.358384
731.593969	0.358217
731.792262	0.357818
731.990536	0.357233
732.188793	0.357080
732.387031	0.356507
732.585250	0.356621
732.783452	0.356374
732.981635	0.356215
733.179800	0.355944
733.377947	0.356089
733.576076	0.355975
733.774186	0.355988
733.972278	0.355535
734.170352	0.355394
734.368408	0.354876
734.566446	0.354999
734.764465	0.354753
734.962466	0.354849
735.160449	0.354751
735.358413	0.354727
735.556360	0.354628
735.754288	0.354411
735.952198	0.354585
736.150090	0.354363
736.347963	0.353884
736.545818	0.353616
736.743655	0.353396
736.941474	0.352824
737.139275	0.352271
737.337057	0.351645
737.534821	0.351614
737.732567	0.351132
737.930295	0.350928
738.128005	0.350680
738.325696	0.350403
738.523369	0.349946
738.721024	0.349557
738.918660	0.349485
739.116279	0.349434
739.313879	0.349085
739.511461	0.348917
739.709024	0.348842
739.906570	0.348797
740.104097	0.348739
740.301606	0.348666
740.499097	0.348438
740.696569	0.348430
740.894024	0.348409
741.091460	0.348096
741.288878	0.347850
741.486277	0.347604
741.683659	0.346940
741.881022	0.346540
742.078367	0.346330
742.275694	0.346156
742.473002	0.345960
742.670293	0.345590
742.867565	0.345474
743.064819	0.345248
743.262054	0.345162
743.459272	0.345117
743.656471	0.344994
743.853652	0.344646
744.050815	0.344446
744.247959	0.343978
744.445085	0.344308
744.642194	0.344124
744.839283	0.343998
745.036355	0.343719
745.233408	0.343468
745.430444	0.343408
745.627461	0.343503
745.824459	0.343439
746.021440	0.343290
746.218402	0.342481
746.415346	0.342474
746.612272	0.341982
746.809180	0.341848
747.006069	0.341493
747.202940	0.341249
747.399793	0.340832
747.596628	0.340576
747.793444	0.340558
747.990243	0.340372
748.187023	0.339859
748.383784	0.339807
748.580528	0.339493
748.777253	0.339522
748.973960	0.339295
749.170649	0.338836
749.367320	0.338676
749.563973	0.338343
749.760607	0.337995
749.957223	0.338046
750.153821	0.337697
750.350400	0.337196
750.546962	0.336710
750.743505	0.336316
750.940030	0.336321
751.136536	0.336020
751.333025	0.335653
751.529495	0.335601
751.725947	0.335012
751.922381	0.334881
752.118796	0.334730
752.315194	0.334997
752.511573	0.334870
752.707934	0.334456
752.904276	0.334063
753.100601	0.334005
753.296907	0.333708
753.493195	0.333742
753.689465	0.333334
753.885716	0.333080
754.081949	0.332717
754.278164	0.332582
754.474361	0.332325
754.670540	0.332202
754.866700	0.332004
755.062843	0.332040
755.258967	0.331620
755.455072	0.331477
755.651160	0.331369
755.847229	0.331066
756.043280	0.330899
756.239313	0.330927
756.435328	0.330790
756.631324	0.330483
756.827302	0.330362
757.023262	0.330315
757.219204	0.330162
757.415127	0.330383
757.611033	0.330462
757.806920	0.330241
758.002788	0.330230
758.198639	0.330255
758.394471	0.330032
758.590286	0.329696
758.786081	0.329528
758.981859	0.329643
759.177619	0.329300
759.373360	0.329007
759.569083	0.328602
759.764788	0.328252
759.960474	0.327668
760.156143	0.327442
760.351793	0.327125
760.547425	0.326969
760.743038	0.326497
760.938634	0.326129
761.134211	0.325868
761.329770	0.325697
761.525311	0.325498
761.720833	0.325693
761.916338	0.325483
762.111824	0.325267
762.307292	0.325189
762.502741	0.325296
762.698173	0.325321
762.893586	0.325254
763.088981	0.325222
763.284358	0.325193
763.479716	0.324789
763.675057	0.324895
763.870379	0.325037
764.065683	0.324792
764.260968	0.324464
764.456236	0.324007
764.651485	0.323799
764.846716	0.323949
765.041929	0.323661
765.237123	0.323850
765.432299	0.323637
765.627457	0.323483
765.822597	0.323362
766.017719	0.323293
766.212822	0.323333
766.407907	0.323122
766.602974	0.322696
766.798023	0.322716
766.993054	0.322370
767.188066	0.322188
767.383060	0.321854
767.578036	0.321464
767.772993	0.321273
767.967933	0.321162
768.162854	0.321175
768.357757	0.320952
768.552642	0.320892
768.747508	0.320819
768.942356	0.320940
769.137186	0.321071
769.331998	0.321081
769.526792	0.321064
769.721567	0.321083
769.916324	0.320811
770.111063	0.320916
770.305784	0.320998
770.500486	0.321029
770.695171	0.320886
770.889837	0.320488
771.084484	0.320829
771.279114	0.320533
771.473725	0.320423
771.668318	0.320369
771.862893	0.320217
772.057450	0.319928
772.251988	0.319749
772.446509	0.319436
772.641011	0.319624
772.835494	0.319229
773.029960	0.319450
773.224407	0.319163
773.418836	0.319302
773.613247	0.319174
773.807640	0.319183
774.002014	0.319406
774.196370	0.319477
774.390708	0.319363
774.585028	0.319544
774.779330	0.319457
774.973613	0.319720
775.167878	0.319521
775.362125	0.319567
775.556354	0.319170
775.750564	0.318850
775.944756	0.318888
776.138930	0.318739
776.333086	0.318668
776.527223	0.318496
776.721343	0.318145
776.915444	0.318022
777.109526	0.317995
777.303591	0.318128
777.497637	0.317726
777.691666	0.317469
777.885676	0.317482
778.079667	0.317376
778.273641	0.317591
778.467596	0.317516
778.661533	0.318000
778.855452	0.317895
779.049352	0.318006
779.243235	0.318189
779.437099	0.318194
779.630945	0.318167
779.824773	0.318149
780.018582	0.317706
780.212373	0.317517
780.406146	0.317077
780.599901	0.317023
780.793638	0.317103
780.987356	0.317344
781.181056	0.317345
781.374738	0.317514
781.568402	0.317428
781.762047	0.317425
781.955674	0.317821
782.149283	0.317886
782.342874	0.318216
782.536447	0.318011
782.730001	0.317760
782.923537	0.317885
783.117055	0.317842
783.310555	0.318081
783.504036	0.318064
783.697499	0.318163
783.890944	0.318339
784.084371	0.317955
784.277780	0.318019
784.471170	0.318278
784.664542	0.318325
784.857896	0.318605
785.051231	0.318316
785.244549	0.318623
785.437848	0.318487
785.631129	0.318446
785.824392	0.318755
786.017636	0.318822
786.210863	0.318816
786.404071	0.318927
786.597260	0.318744
786.790432	0.318780
786.983585	0.318901
787.176721	0.319365
787.369838	0.319401
787.562936	0.319458
787.756017	0.319739
787.949079	0.319908
788.142123	0.320041
788.335149	0.320130
788.528156	0.320351
788.721146	0.320450
788.914117	0.319998
789.107070	0.319947
789.300005	0.320363
789.492921	0.320376
789.685819	0.320481
789.878699	0.320687
790.071561	0.320797
790.264405	0.321041
790.457230	0.321103
790.650037	0.321548
790.842826	0.321859
791.035597	0.321670
791.228349	0.321757
791.421084	0.321957
791.613800	0.321929
791.806497	0.322167
791.999177	0.322289
792.191838	0.322495
792.384481	0.322272
792.577106	0.322331
792.769713	0.322577
792.962301	0.322699
793.154871	0.322752
793.347423	0.322965
793.539957	0.322903
793.732473	0.322989
793.924970	0.323119
794.117449	0.323373
794.309910	0.323730
794.502353	0.323883
794.694777	0.324003
794.887183	0.324176
795.079571	0.324268
795.271941	0.324345
795.464293	0.324451
795.656626	0.324396
795.848941	0.324701
796.041238	0.324851
796.233516	0.324832
796.425777	0.324764
796.618019	0.325028
796.810243	0.325030
797.002449	0.325450
797.194636	0.325702
797.386805	0.326078
797.578956	0.326424
797.771089	0.326714
797.963204	0.327192
798.155300	0.327713
798.347378	0.327680
798.539438	0.327952
798.731480	0.328131
798.923503	0.328403
799.115509	0.328696
799.307496	0.328789
799.499465	0.328777
799.691415	0.329051
799.883348	0.329248
800.075262	0.329710
800.267158	0.330164
800.459035	0.330180
800.650895	0.330352
800.842736	0.330536
801.034559	0.330892
801.226364	0.330996
801.418150	0.330912
801.609919	0.331384
801.801669	0.331572
801.993401	0.331695
802.185114	0.332157
802.376810	0.332401
802.568487	0.332676
802.760146	0.332812
802.951787	0.333130
803.143409	0.333378
803.335014	0.333192
803.526600	0.333271
803.718168	0.333178
803.909717	0.333260
804.101249	0.333594
804.292762	0.333906
804.484257	0.334447
804.675734	0.334978
804.867192	0.335386
805.058632	0.335969
805.250054	0.336489
805.441458	0.337378
805.632844	0.337672
805.824211	0.337814
806.015561	0.338012
806.206891	0.338117
806.398204	0.338274
806.589499	0.338493
806.780775	0.338680
806.972033	0.338649
807.163273	0.338785
807.354495	0.339304
807.545698	0.339826
807.736883	0.340424
807.928050	0.340809
808.119199	0.340925
808.310329	0.341125
808.501441	0.341424
808.692535	0.341969
808.883611	0.342271
809.074669	0.342811
809.265708	0.342981
809.456729	0.343405
809.647732	0.343643
809.838717	0.344424
810.029683	0.344690
810.220632	0.344828
810.411562	0.345208
810.602474	0.345506
810.793367	0.345915
810.984242	0.346387
811.175100	0.346391
811.365938	0.346710
811.556759	0.347116
811.747562	0.347571
811.938346	0.348109
812.129112	0.348326
812.319860	0.348660
812.510589	0.348312
812.701300	0.348751
812.891994	0.349097
813.082668	0.349340
813.273325	0.349122
813.463964	0.349461
813.654584	0.349856
813.845186	0.349994
814.035769	0.350346
814.226335	0.351186
814.416882	0.351336
814.607411	0.351627
814.797922	0.352150
814.988415	0.352750
815.178889	0.353363
815.369345	0.353601
815.559783	0.354260
815.750203	0.354636
815.940605	0.355359
816.130988	0.355921
816.321353	0.356447
816.511700	0.356806
816.702028	0.357273
816.892339	0.357856
817.082631	0.358364
817.272905	0.358846
817.463161	0.359136
817.653398	0.359224
817.843617	0.359420
818.033819	0.359439
818.224001	0.359817
818.414166	0.360182
818.604312	0.360546
818.794440	0.360808
818.984550	0.361066
819.174642	0.361713
819.364716	0.362005
819.554771	0.362428
819.744808	0.363210
819.934827	0.363523
820.124827	0.363656
820.314810	0.363766
820.504774	0.364595
820.694720	0.364694
820.884647	0.365054
821.074557	0.365325
821.264448	0.365722
821.454321	0.366219
821.644176	0.366991
821.834012	0.367339
822.023831	0.367890
822.213631	0.368044
822.403413	0.368768
822.593176	0.369343
822.782922	0.369872
822.972649	0.370188
823.162358	0.370508
823.352049	0.370752
823.541721	0.371456
823.731376	0.372210
823.921012	0.372630
824.110629	0.373126
824.300229	0.373546
824.489811	0.374086
824.679374	0.374559
824.868919	0.374794
825.058445	0.375123
825.247954	0.375876
825.437444	0.375834
825.626916	0.376780
825.816370	0.377447
826.005806	0.377567
826.195223	0.377894
826.384622	0.378503
826.574003	0.378706
826.763366	0.379209
826.952711	0.379380
827.142037	0.379700
827.331345	0.379885
827.520635	0.380138
827.709906	0.380620
827.899160	0.381060
828.088395	0.381377
828.277612	0.382340
828.466810	0.382789
828.655991	0.383041
828.845153	0.383596
829.034297	0.383871
829.223423	0.384575
829.412531	0.385420
829.601620	0.385688
829.790691	0.385845
829.979744	0.386229
830.168779	0.386643
830.357795	0.387078
830.546793	0.387821
830.735773	0.388093
830.924735	0.388154
831.113679	0.388551
831.302604	0.389297
831.491511	0.390187
831.680400	0.390552
831.869271	0.390981
832.058123	0.391704
832.246957	0.391933
832.435773	0.392428
832.624571	0.392956
832.813351	0.393300
833.002112	0.393759
833.190855	0.394124
833.379580	0.394568
833.568287	0.395303
833.756975	0.395739
833.945645	0.396367
834.134297	0.397176
834.322931	0.397966
834.511547	0.398317
834.700144	0.398804
834.888723	0.399519
835.077284	0.400269
835.265826	0.400698
835.454351	0.400947
835.642857	0.401686
835.831345	0.402260
836.019815	0.402787
836.208266	0.403529
836.396699	0.403779
836.585114	0.404088
836.773511	0.404604
836.961890	0.405022
837.150250	0.405822
837.338592	0.406093
837.526916	0.406748
837.715222	0.407085
837.903510	0.407143
838.091779	0.407976
838.280030	0.408504
838.468263	0.408859
838.656477	0.409535
838.844674	0.410178
839.032852	0.410552
839.221012	0.410614
839.409153	0.411249
839.597277	0.411805
839.785382	0.411997
839.973469	0.412602
840.161538	0.413230
840.349589	0.413925
840.537621	0.414216
840.725635	0.414862
840.913631	0.415421
841.101609	0.415735
841.289568	0.416431
841.477509	0.417059
841.665432	0.417656
841.853337	0.418008
842.041224	0.418094
842.229092	0.418588
842.416942	0.418978
842.604774	0.419545
842.792588	0.420171
842.980383	0.420869
843.168160	0.421507
843.355919	0.421891
843.543660	0.422375
843.731382	0.423144
843.919087	0.423979
844.106773	0.424575
844.294441	0.425177
844.482090	0.425579
844.669722	0.425912
844.857335	0.426511
845.044930	0.427105
845.232507	0.427713
845.420065	0.428015
845.607605	0.428993
845.795127	0.429743
845.982631	0.430126
846.170117	0.430735
846.357584	0.431503
846.545033	0.431921
846.732464	0.432314
846.919877	0.433316
847.107272	0.434157
847.294648	0.434594
847.482006	0.434608
847.669346	0.435374
847.856667	0.435941
848.043971	0.436204
848.231256	0.436835
848.418523	0.437317
848.605771	0.437256
848.793002	0.437428
848.980214	0.437817
849.167408	0.438822
849.354584	0.438969
849.541742	0.439244
849.728881	0.440126
849.916002	0.440583
850.103105	0.441351
850.290190	0.442093
850.477256	0.442269
850.664304	0.442264
850.851334	0.442648
851.038346	0.443921
851.225340	0.444644
851.412315	0.444793
851.599272	0.445258
851.786211	0.445500
851.973132	0.445602
852.160034	0.446489
852.346918	0.447215
852.533784	0.447785
852.720632	0.447879
852.907462	0.448907
853.094273	0.449428
853.281066	0.450283
853.467841	0.451186
853.654598	0.452205
853.841336	0.453065
854.028056	0.453390
854.214758	0.454255
854.401442	0.454551
854.588107	0.454524
854.774755	0.454963
854.961384	0.455427
855.147995	0.456087
855.334587	0.457078
855.521162	0.457148
855.707718	0.457929
855.894256	0.457614
856.080775	0.458111
856.267277	0.458931
856.453760	0.459524
856.640225	0.460297
856.826672	0.460180
857.013101	0.460480
857.199511	0.461246
857.385903	0.461605
857.572277	0.462274
857.758633	0.463053
857.944970	0.463257
858.131290	0.464181
858.317591	0.463823
858.503873	0.464584
858.690138	0.464472
858.876384	0.464551
859.062612	0.465135
859.248822	0.465679
859.435014	0.466368
859.621188	0.466604
859.807343	0.466705
859.993480	0.468012
860.179599	0.468082
860.365699	0.468675
860.551781	0.469017
860.737846	0.469811
860.923891	0.470131
861.109919	0.470126
861.295929	0.471027
861.481920	0.471710
861.667893	0.471897
861.853848	0.472847
862.039784	0.473400
862.225702	0.474491
862.411603	0.474600
862.597484	0.475256
862.783348	0.475845
862.969193	0.476301
863.155021	0.476444
863.340830	0.476533
863.526620	0.476716
863.712393	0.476845
863.898147	0.477267
864.083883	0.477806
864.269601	0.478607
864.455301	0.479015
864.640982	0.479320
864.826645	0.479385
865.012290	0.480118
865.197917	0.480576
865.383526	0.481521
865.569116	0.481641
865.754688	0.482047
865.940242	0.481849
866.125777	0.482231
866.311295	0.482695
866.496794	0.483505
866.682275	0.483950
866.867737	0.484511
867.053182	0.484633
867.238608	0.485019
867.424016	0.484763
867.609406	0.485622
867.794778	0.486247
867.980131	0.486282
868.165466	0.486944
868.350783	0.487203
868.536082	0.487321
868.721362	0.487232
868.906625	0.487554
869.091869	0.488446
869.277094	0.488448
869.462302	0.488193
869.647491	0.488509
869.832662	0.488735
870.017815	0.489313
870.202950	0.489989
870.388066	0.490751
870.573165	0.491530
870.758245	0.491481
870.943306	0.491760
871.128350	0.492040
871.313375	0.492355
871.498382	0.492111
871.683371	0.491524
871.868342	0.491594
872.053294	0.491613
872.238229	0.491456
872.423144	0.492251
872.608042	0.492973
872.792922	0.493864
872.977783	0.494326
873.162626	0.495199
873.347451	0.495962
873.532258	0.496583
873.717046	0.497479
873.901816	0.498034
874.086568	0.498428
874.271302	0.498202
874.456017	0.498413
874.640715	0.498766
874.825394	0.499090
875.010055	0.499909
875.194697	0.499728
875.379322	0.499653
875.563928	0.499806
875.748516	0.499706
875.933085	0.500200
876.117637	0.500329
876.302170	0.500637
876.486685	0.499940
876.671182	0.499626
876.855661	0.500123
877.040121	0.500294
877.224563	0.500428
877.408987	0.500778
877.593393	0.500567
877.777780	0.500745
877.962150	0.500122
878.146501	0.500523
878.330833	0.500852
878.515148	0.501029
878.699444	0.501293
878.883722	0.501692
879.067982	0.502295
879.252224	0.502996
879.436447	0.503211
879.620653	0.504185
879.804840	0.504694
879.989008	0.505048
880.173159	0.505022
880.357291	0.505293
880.541405	0.505341
880.725501	0.505254
880.909579	0.505825
881.093638	0.505863
881.277680	0.506074
881.461703	0.506398
881.645707	0.506930
881.829694	0.507107
882.013662	0.507498
882.197612	0.507940
882.381544	0.507678
882.565458	0.507541
882.749353	0.507808
882.933230	0.507973
883.117089	0.507480
883.300930	0.507343
883.484753	0.507835
883.668557	0.507513
883.852343	0.506942
884.036111	0.507520
884.219861	0.507664
884.403592	0.507967
884.587305	0.508148
884.771000	0.509111
884.954677	0.509443
885.138335	0.509168
885.321976	0.509519
885.505598	0.509830
885.689201	0.510056
885.872787	0.510272
886.056354	0.510583
886.239904	0.510593
886.423434	0.509902
886.606947	0.509078
886.790442	0.509197
886.973918	0.509371
887.157376	0.509261
887.340816	0.508938
887.524237	0.508890
887.707641	0.508466
887.891026	0.508365
888.074393	0.508417
888.257741	0.508853
888.441072	0.508754
888.624384	0.508371
888.807678	0.509125
888.990954	0.508857
889.174211	0.508725
889.357451	0.508765
889.540672	0.508854
889.723875	0.509418
889.907059	0.509352
890.090226	0.509456
890.273374	0.509233
890.456504	0.508892
890.639616	0.508750
890.822709	0.508038
891.005785	0.507946
891.188842	0.507434
891.371881	0.507552
891.554901	0.507255
891.737904	0.507156
891.920888	0.507237
892.103854	0.507001
892.286802	0.507242
892.469731	0.507652
892.652643	0.507628
892.835536	0.507618
893.018410	0.507345
893.201267	0.507307
893.384106	0.506886
893.566926	0.506355
893.749728	0.506404
893.932511	0.505974
894.115277	0.505656
894.298024	0.505697
894.480753	0.506195
894.663464	0.505228
894.846157	0.505481
895.028831	0.505822
895.211487	0.506615
895.394125	0.506630
895.576745	0.506268
895.759346	0.506686
895.941930	0.506319
896.124495	0.505223
896.307041	0.505957
896.489570	0.505158
896.672080	0.504788
896.854573	0.504448
897.037046	0.503994
897.219502	0.504152
897.401940	0.503836
897.584359	0.503144
897.766760	0.503816
897.949143	0.503086
898.131507	0.502956
898.313854	0.502270
898.496182	0.501831
898.678492	0.501003
898.860783	0.500520
899.043057	0.499155
899.225312	0.498880
899.407549	0.498217
899.589768	0.498128
899.771968	0.497904
899.954151	0.498195
900.136315	0.497631
900.318461	0.497732
900.500588	0.497913
900.682698	0.498651
900.864789	0.498457
901.046862	0.497476
901.228917	0.496327
901.410953	0.496488
901.592971	0.495690
901.774972	0.495656
901.956953	0.495646
902.138917	0.495264
902.320862	0.494920
902.502790	0.495104
902.684699	0.495417
902.866589	0.495386
903.048462	0.494156
903.230316	0.494449
903.412152	0.494457
903.593970	0.493922
903.775770	0.493179
903.957551	0.492810
904.139314	0.491187
904.321059	0.490460
904.502786	0.490330
904.684494	0.489898
904.866185	0.489014
905.047857	0.487394
905.229510	0.486763
905.411146	0.485823
905.592763	0.484020
905.774363	0.484124
905.955943	0.483782
906.137506	0.483759
906.319051	0.483513
906.500577	0.483313
906.682085	0.483950
906.863575	0.483123
907.045046	0.482766
907.226500	0.483130
907.407935	0.483300
907.589352	0.482991
907.770750	0.482338
907.952131	0.482263
908.133493	0.481543
908.314837	0.480956
908.496163	0.479881
908.677470	0.479590
908.858760	0.478921
909.040031	0.477680
909.221284	0.476742
909.402518	0.475629
909.583735	0.474769
909.764933	0.474742
909.946113	0.473343
910.127275	0.473780
910.308418	0.473041
910.489544	0.472551
910.670651	0.472295
910.851740	0.471819
911.032810	0.471465
911.213863	0.470412
911.394897	0.469334
911.575913	0.469071
911.756911	0.468462
911.937890	0.468594
912.118851	0.467920
912.299794	0.467347
912.480719	0.467240
912.661626	0.467056
912.842514	0.467235
913.023384	0.466586
913.204236	0.465811
913.385070	0.464642
913.565886	0.463669
913.746683	0.463181
913.927462	0.462392
914.108223	0.460978
914.288965	0.459704
914.469690	0.458787
914.650396	0.457995
914.831084	0.457138
915.011754	0.457338
915.192405	0.456496
915.373038	0.455386
915.553653	0.454281
915.734250	0.454286
915.914829	0.453858
916.095389	0.453782
916.275931	0.453432
916.456455	0.452265
916.636961	0.450827
916.817448	0.449722
916.997917	0.448862
917.178368	0.448488
917.358801	0.447363
917.539216	0.446504
917.719612	0.444698
917.899990	0.443752
918.080350	0.444114
918.260692	0.443670
918.441015	0.443438
918.621320	0.443008
918.801607	0.441777
918.981876	0.441077
919.162127	0.440275
919.342359	0.439297
919.522573	0.437821
919.702769	0.436835
919.882947	0.435081
920.063106	0.433957
920.243247	0.433462
920.423370	0.432404
920.603475	0.431566
920.783562	0.430363
920.963630	0.429878
921.143680	0.429517
921.323712	0.428693
921.503725	0.428386
921.683721	0.427260
921.863698	0.425961
922.043657	0.425459
922.223598	0.424341
922.403520	0.423839
922.583424	0.422528
922.763311	0.421840
922.943178	0.420595
923.123028	0.419734
923.302859	0.419172
923.482673	0.418003
923.662467	0.417786
923.842244	0.416089
924.022003	0.414907
924.201743	0.414175
924.381465	0.413258
924.561169	0.412191
924.740854	0.411152
924.920522	0.410291
925.100171	0.409810
925.279802	0.407150
925.459414	0.405983
925.639009	0.404893
925.818585	0.404012
925.998143	0.402378
926.177683	0.401127
926.357205	0.400604
926.536708	0.399233
926.716193	0.397457
926.895660	0.397159
927.075109	0.396260
927.254539	0.394483
927.433951	0.394036
927.613345	0.393008
927.792721	0.392063
927.972079	0.390499
928.151418	0.389523
928.330739	0.388236
928.510042	0.387875
928.689327	0.387429
928.868593	0.386886
929.047841	0.384625
929.227071	0.382995
929.406283	0.381738
929.585476	0.380621
929.764652	0.379298
929.943809	0.379379
930.122948	0.377251
930.302068	0.375975
930.481171	0.375393
930.660255	0.374177
930.839321	0.372830
931.018369	0.371195
931.197398	0.370168
931.376409	0.368970
931.555402	0.368067
931.734377	0.367080
931.913334	0.365622
932.092272	0.364730
932.271192	0.364354
932.450094	0.364429
932.628978	0.364171
932.807844	0.362658
932.986691	0.361851
933.165520	0.360075
933.344331	0.359461
933.523123	0.359215
933.701898	0.357374
933.880654	0.355568
934.059392	0.352831
934.238111	0.351084
934.416813	0.350097
934.595496	0.348006
934.774161	0.347006
934.952808	0.345239
935.131437	0.343006
935.310047	0.340754
935.488639	0.339440
935.667213	0.339108
935.845769	0.338934
936.024306	0.337334
936.202825	0.335510
936.381326	0.333642
936.559809	0.332757
936.738274	0.331723
936.916720	0.331539
937.095148	0.329815
937.273558	0.327794
937.451950	0.325372
937.630323	0.324513
937.808678	0.324536
937.987015	0.323002
938.165334	0.321654
938.343635	0.319606
938.521917	0.318784
938.700181	0.318272
938.878427	0.317542
939.056655	0.317348
939.234864	0.315199
939.413055	0.312760
939.591228	0.311834
939.769383	0.309243
939.947519	0.308063
940.125638	0.305872
940.303738	0.303104
940.481820	0.302274
940.659883	0.299296
940.837929	0.297735
941.015956	0.295932
941.193965	0.293303
941.371955	0.292100
941.549928	0.290619
941.727882	0.289466
941.905818	0.289540
942.083736	0.287435
942.261636	0.286652
942.439517	0.285250
942.617380	0.285297
942.795225	0.285426
942.973052	0.284501
943.150860	0.283273
943.328651	0.281735
943.506423	0.280432
943.684176	0.279284
943.861912	0.278007
944.039629	0.277359
944.217328	0.275224
944.395009	0.273144
944.572672	0.271941
944.750317	0.270963
944.927943	0.269578
945.105551	0.267464
945.283141	0.266351
945.460712	0.263918
945.638265	0.261262
945.815801	0.259910
945.993317	0.258233
946.170816	0.256470
946.348297	0.254195
946.525759	0.253025
946.703203	0.251991
946.880629	0.249059
947.058036	0.248572
947.235425	0.246982
947.412797	0.244945
947.590149	0.243452
947.767484	0.242224
947.944800	0.240162
948.122099	0.237896
948.299379	0.236554
948.476640	0.236217
948.653884	0.233767
948.831109	0.233611
949.008316	0.232713
949.185505	0.232070
949.362676	0.229917
949.539828	0.228399
949.716962	0.227145
949.894078	0.224771
950.071176	0.222381
950.248256	0.220475
950.425317	0.217513
950.602360	0.215249
950.779385	0.213953
950.956391	0.213019
951.133380	0.211795
951.310350	0.209511
951.487302	0.208603
951.664235	0.206349
951.841151	0.206228
952.018048	0.205447
952.194927	0.203805
952.371788	0.202239
952.548631	0.200235
952.725455	0.198911
952.902261	0.198054
953.079049	0.194909
953.255819	0.193773
953.432570	0.192152
953.609303	0.190107
953.786018	0.188933
953.962715	0.185470
954.139394	0.184226
954.316054	0.184550
954.492696	0.182872
954.669320	0.183534
954.845926	0.182940
955.022513	0.180479
955.199083	0.178573
955.375634	0.177211
955.552166	0.177966
955.728681	0.176569
955.905177	0.174527
956.081655	0.174148
956.258115	0.172053
956.434557	0.170733
956.610980	0.169222
956.787385	0.169579
956.963772	0.169168
957.140141	0.166342
957.316492	0.165055
957.492824	0.162952
957.669138	0.161357
957.845434	0.159298
958.021712	0.158253
958.197971	0.158941
958.374212	0.158621
958.550435	0.156375
958.726640	0.156720
958.902826	0.155099
959.078995	0.156474
959.255145	0.155210
959.431277	0.154984
959.607390	0.154605
959.783486	0.151171
959.959563	0.149557
960.135622	0.148665
960.311662	0.147186
960.487685	0.147498
960.663689	0.144855
960.839675	0.142894
961.015643	0.141500
961.191593	0.139905
961.367524	0.140215
961.543437	0.138979
961.719332	0.139468
961.895209	0.139798
962.071067	0.139449
962.246907	0.137893
962.422730	0.138354
962.598533	0.139152
962.774319	0.138056
962.950086	0.137340
963.125835	0.137707
963.301566	0.135740
963.477279	0.132314
963.652973	0.131885
963.828650	0.131719
964.004308	0.132519
964.179947	0.131237
964.355569	0.131545
964.531172	0.130292
964.706757	0.128355
964.882324	0.128349
965.057873	0.128940
965.233403	0.127884
965.408916	0.127636
965.584410	0.125820
965.759885	0.125394
965.935343	0.126003
966.110782	0.126275
966.286203	0.127313
966.461606	0.125846
966.636991	0.126459
966.812357	0.124320
966.987705	0.126274
967.163035	0.125578
967.338347	0.124956
967.513641	0.124973
967.688916	0.124501
967.864173	0.124374
968.039412	0.124988
968.214632	0.124559
968.389835	0.125797
968.565019	0.123733
968.740185	0.124200
968.915333	0.125624
969.090462	0.125006
969.265573	0.124791
969.440667	0.123312
969.615741	0.124356
969.790798	0.124762
969.965836	0.125210
970.140856	0.126824
970.315858	0.126256
970.490842	0.126439
970.665808	0.125741
970.840755	0.124580
971.015684	0.123635
971.190595	0.124831
971.365487	0.123110
971.540362	0.122861
971.715218	0.120905
971.890056	0.121463
972.064875	0.121803
972.239677	0.122986
972.414460	0.126703
972.589225	0.128617
972.763972	0.126280
972.938700	0.129237
973.113411	0.128237
973.288103	0.129118
973.462777	0.129418
973.637432	0.126278
973.812070	0.123771
973.986689	0.124371
974.161290	0.125789
974.335873	0.127222
974.510437	0.124615
974.684984	0.125766
974.859512	0.125457
975.034022	0.124231
975.208513	0.125164
975.382987	0.126683
975.557442	0.124166
975.731879	0.122256
975.906298	0.121691
976.080698	0.122216
976.255080	0.122351
976.429445	0.122547
976.603790	0.120968
976.778118	0.121763
976.952427	0.121955
977.126719	0.121670
977.300992	0.119676
977.475246	0.120026
977.649483	0.120316
977.823701	0.121207
977.997901	0.120544
978.172083	0.123501
978.346247	0.121949
978.520392	0.119900
978.694519	0.121321
978.868628	0.125018
979.042719	0.124557
979.216791	0.123729
979.390845	0.124091
979.564882	0.124959
979.738899	0.123444
979.912899	0.124899
980.086880	0.127925
980.260843	0.127673
980.434788	0.126195
980.608715	0.124122
980.782623	0.126425
980.956514	0.126346
981.130386	0.124205
981.304240	0.124996
981.478075	0.122574
981.651892	0.121778
981.825692	0.120552
981.999472	0.119309
982.173235	0.121442
982.346980	0.120600
982.520706	0.119225
982.694414	0.120738
982.868104	0.121185
983.041775	0.123992
983.215428	0.123128
983.389064	0.124416
983.562680	0.125427
983.736279	0.124502
983.909860	0.123460
984.083422	0.123643
984.256966	0.124260
984.430491	0.124631
984.603999	0.124679
984.777488	0.123664
984.950959	0.122646
985.124412	0.122900
985.297847	0.125419
985.471263	0.125281
985.644661	0.123819
985.818041	0.123439
985.991403	0.122481
986.164747	0.119887
986.338072	0.121306
986.511379	0.122491
986.684668	0.122855
986.857938	0.120645
987.031191	0.122784
987.204425	0.123115
987.377641	0.124224
987.550839	0.124209
987.724018	0.127354
987.897179	0.127844
988.070322	0.127789
988.243447	0.127322
988.416554	0.128499
988.589642	0.126749
988.762712	0.128140
988.935764	0.128861
989.108798	0.130951
989.281813	0.129076
989.454811	0.129192
989.627790	0.129118
989.800751	0.128441
989.973693	0.129169
990.146617	0.128988
990.319524	0.128177
990.492412	0.125353
990.665281	0.123171
990.838133	0.125191
991.010966	0.125117
991.183781	0.125668
991.356578	0.126260
991.529356	0.125071
991.702117	0.127130
991.874859	0.128213
992.047583	0.128774
992.220288	0.129190
992.392976	0.129719
992.565645	0.128981
992.738296	0.128131
992.910929	0.128477
993.083543	0.129588
993.256139	0.126847
993.428718	0.128003
993.601277	0.128966
993.773819	0.131200
993.946342	0.129604
994.118848	0.130586
994.291335	0.131015
994.463803	0.132914
994.636254	0.132413
994.808686	0.132629
994.981100	0.130810
995.153496	0.130296
995.325874	0.129227
995.498233	0.128869
995.670574	0.128091
995.842897	0.126770
996.015202	0.125437
996.187488	0.125023
996.359757	0.125427
996.532007	0.125781
996.704239	0.127206
996.876452	0.126900
997.048648	0.126763
997.220825	0.126933
997.392984	0.128071
997.565124	0.128267
997.737247	0.128716
997.909351	0.129503
998.081437	0.128770
998.253505	0.126845
998.425554	0.126299
998.597586	0.127101
998.769599	0.128362
998.941594	0.130029
999.113571	0.129367
999.285529	0.130962
999.457469	0.130571
999.629391	0.131457
999.801295	0.133525
999.973181	0.133829
1000.145048	0.133488
1000.316897	0.133211
1000.488728	0.132601
1000.660541	0.131210
1000.832335	0.130292
1001.004111	0.131974
1001.175869	0.131765
1001.347609	0.131775
1001.519331	0.131776
1001.691034	0.131228
1001.862719	0.130639
1002.034386	0.131582
1002.206035	0.132836
1002.377665	0.132406
1002.549277	0.132820
1002.720871	0.132658
1002.892447	0.132096
1003.064004	0.133062
1003.235544	0.135176
1003.407065	0.135272
1003.578568	0.135236
1003.750052	0.135901
1003.921519	0.136816
1004.092967	0.135747
1004.264397	0.135800
1004.435809	0.136193
1004.607202	0.135374
1004.778577	0.133471
1004.949934	0.132515
1005.121273	0.131539
1005.292594	0.131732
1005.463896	0.131228
1005.635180	0.131248
1005.806446	0.131221
1005.977694	0.130426
1006.148923	0.130597
1006.320135	0.130333
1006.491328	0.130891
1006.662503	0.129656
1006.833659	0.131623
1007.004798	0.130780
1007.175918	0.130613
1007.347020	0.131500
1007.518103	0.132031
1007.689169	0.132673
1007.860216	0.133510
1008.031245	0.133853
1008.202256	0.136021
1008.373248	0.134276
1008.544223	0.133506
1008.715179	0.132907
1008.886117	0.131551
1009.057036	0.131501
1009.227938	0.131032
1009.398821	0.131088
1009.569686	0.131592
1009.740533	0.129473
1009.911361	0.130399
1010.082172	0.132186
1010.252964	0.132974
1010.423738	0.134816
1010.594493	0.134101
1010.765231	0.134361
1010.935950	0.134690
1011.106651	0.134469
1011.277334	0.136475
1011.447998	0.134868
1011.618645	0.133834
1011.789273	0.133901
1011.959882	0.133053
1012.130474	0.133976
1012.301048	0.133822
1012.471603	0.134320
1012.642140	0.133962
1012.812658	0.132542
1012.983159	0.133516
1013.153641	0.134238
1013.324105	0.133741
1013.494551	0.132116
1013.664979	0.132239
1013.835388	0.133256
1014.005779	0.133108
1014.176152	0.134493
1014.346507	0.133501
1014.516843	0.132285
1014.687162	0.132443
1014.857462	0.131214
1015.027744	0.133870
1015.198007	0.133699
1015.368252	0.131945
1015.538480	0.130560
1015.708689	0.130605
1015.878879	0.132479
1016.049052	0.133233
1016.219206	0.132991
1016.389342	0.135205
1016.559460	0.134890
1016.729559	0.134006
1016.899641	0.134862
1017.069704	0.136775
1017.239749	0.135587
1017.409775	0.135797
1017.579784	0.135183
1017.749774	0.134158
1017.919746	0.135109
1018.089700	0.135008
1018.259635	0.137410
1018.429553	0.137774
1018.599452	0.136962
1018.769333	0.137121
1018.939195	0.136735
1019.109040	0.137164
1019.278866	0.138083
1019.448674	0.137308
1019.618464	0.136681
1019.788235	0.135226
1019.957989	0.134587
1020.127724	0.135493
1020.297441	0.135145
1020.467139	0.135234
1020.636820	0.135657
1020.806482	0.136250
1020.976126	0.134783
1021.145752	0.136113
1021.315359	0.136616
1021.484948	0.136988
1021.654519	0.137328
1021.824072	0.137402
1021.993607	0.136545
1022.163123	0.137311
1022.332621	0.137990
1022.502101	0.139104
1022.671563	0.137529
1022.841007	0.137224
1023.010432	0.135461
1023.179839	0.135473
1023.349228	0.134605
1023.518598	0.134903
1023.687951	0.134060
1023.857285	0.132555
1024.026601	0.133241
1024.195899	0.135107
1024.365178	0.135387
1024.534439	0.137609
1024.703682	0.137266
1024.872907	0.138501
1025.042114	0.139307
1025.211302	0.139197
1025.380472	0.140634
1025.549624	0.140071
1025.718758	0.138529
1025.887873	0.137818
1026.056970	0.137927
1026.226049	0.136885
1026.395110	0.136650
1026.564153	0.136387
1026.733177	0.136764
1026.902183	0.135753
1027.071171	0.134501
1027.240141	0.135052
1027.409092	0.133939
1027.578026	0.132185
1027.746940	0.132708
1027.915837	0.132874
1028.084716	0.133323
1028.253576	0.132598
1028.422418	0.132173
1028.591242	0.133513
1028.760048	0.133046
1028.928835	0.135103
1029.097604	0.136247
1029.266355	0.136387
1029.435088	0.135089
1029.603803	0.133394
1029.772499	0.133904
1029.941177	0.134497
1030.109837	0.132976
1030.278478	0.132471
1030.447102	0.132424
1030.615707	0.132587
1030.784294	0.131450
1030.952863	0.132146
1031.121413	0.131766
1031.289945	0.131579
1031.458460	0.132711
1031.626955	0.132207
1031.795433	0.133793
1031.963892	0.132857
1032.132334	0.133716
1032.300756	0.133109
1032.469161	0.135036
1032.637548	0.135218
1032.805916	0.134667
1032.974266	0.134827
1033.142598	0.135411
1033.310911	0.134596
1033.479207	0.134168
1033.647484	0.133463
1033.815743	0.135011
1033.983983	0.133227
1034.152206	0.135464
1034.320410	0.135511
1034.488596	0.133065
1034.656764	0.135020
1034.824914	0.135346
1034.993045	0.135577
1035.161158	0.136316
1035.329253	0.135058
1035.497330	0.136664
1035.665388	0.135054
1035.833428	0.134954
1036.001450	0.135340
1036.169454	0.135802
1036.337440	0.137120
1036.505407	0.138509
1036.673356	0.137859
1036.841287	0.137678
1037.009200	0.136370
1037.177094	0.136565
1037.344970	0.137481
1037.512828	0.138143
1037.680668	0.136440
1037.848489	0.134339
1038.016293	0.132949
1038.184078	0.132421
1038.351845	0.132992
1038.519593	0.133093
1038.687324	0.132247
1038.855036	0.132443
1039.022730	0.132353
1039.190406	0.132112
1039.358063	0.131651
1039.525702	0.132213
1039.693323	0.131478
1039.860926	0.132509
1040.028511	0.133002
1040.196077	0.133762
1040.363625	0.131338
1040.531155	0.131748
1040.698667	0.132172
1040.866161	0.134715
1041.033636	0.135802
1041.201093	0.138059
1041.368532	0.137732
1041.535952	0.136323
1041.703355	0.137058
1041.870739	0.139529
1042.038105	0.139508
1042.205452	0.139777
1042.372782	0.137385
1042.540093	0.136063
1042.707386	0.134953
1042.874661	0.133527
1043.041918	0.136550
1043.209156	0.137664
1043.376376	0.137331
1043.543578	0.137611
1043.710762	0.137319
1043.877927	0.136906
1044.045074	0.136419
1044.212203	0.134201
1044.379314	0.135744
1044.546407	0.133047
1044.713481	0.131935
1044.880537	0.131060
1045.047575	0.130015
1045.214595	0.129735
1045.381596	0.129988
1045.548579	0.130793
1045.715544	0.132876
1045.882491	0.133465
1046.049420	0.133412
1046.216330	0.132124
1046.383222	0.133167
1046.550096	0.133724
1046.716951	0.134319
1046.883789	0.134047
1047.050608	0.132550
1047.217409	0.132401
1047.384192	0.131199
1047.550956	0.132220
1047.717703	0.130855
1047.884431	0.130532
1048.051140	0.129971
1048.217832	0.129749
1048.384505	0.130140
1048.551161	0.130459
1048.717798	0.130744
1048.884416	0.130441
1049.051017	0.129077
1049.217599	0.131699
1049.384163	0.132507
1049.550709	0.131353
1049.717237	0.131242
1049.883746	0.131295
1050.050237	0.131693
1050.216710	0.131152
1050.383165	0.131212
1050.549601	0.132114
1050.716019	0.131030
1050.882420	0.129451
1051.048801	0.129052
1051.215165	0.128687
1051.381510	0.126828
1051.547837	0.126604
1051.714146	0.126310
1051.880437	0.125759
1052.046709	0.125469
1052.212964	0.125181
1052.379200	0.125062
1052.545417	0.125877
1052.711617	0.127117
1052.877798	0.128597
1053.043961	0.129723
1053.210106	0.130860
1053.376233	0.133318
1053.542341	0.133240
1053.708432	0.133620
1053.874504	0.135709
1054.040557	0.135090
1054.206593	0.133748
1054.372610	0.136743
1054.538609	0.135626
1054.704590	0.134705
1054.870553	0.132470
1055.036497	0.130741
1055.202424	0.129743
1055.368331	0.128656
1055.534221	0.129313
1055.700093	0.130250
1055.865946	0.129187
1056.031781	0.129251
1056.197598	0.128855
1056.363397	0.129351
1056.529177	0.132509
1056.694939	0.133180
1056.860683	0.133225
1057.026409	0.134510
1057.192116	0.132627
1057.357806	0.130764
1057.523477	0.130531
1057.689130	0.130275
1057.854764	0.129683
1058.020381	0.128366
1058.185979	0.129255
1058.351559	0.128673
1058.517120	0.128270
1058.682664	0.129189
1058.848189	0.131508
1059.013696	0.131803
1059.179185	0.131943
1059.344656	0.134157
1059.510108	0.136288
1059.675542	0.136416
1059.840958	0.136683
1060.006356	0.135367
1060.171735	0.135997
1060.337096	0.133513
1060.502439	0.132591
1060.667764	0.134375
1060.833071	0.133276
1060.998359	0.132805
1061.163629	0.131608
1061.328881	0.132598
1061.494115	0.134644
1061.659330	0.133306
1061.824527	0.133442
1061.989706	0.135428
1062.154867	0.134416
1062.320010	0.135028
1062.485134	0.133361
1062.650240	0.135065
1062.815328	0.134419
1062.980398	0.133139
1063.145449	0.134611
1063.310482	0.136925
1063.475497	0.137878
1063.640494	0.137544
1063.805473	0.137473
1063.970433	0.138587
1064.135375	0.137903
1064.300299	0.138582
1064.465204	0.140597
1064.630092	0.140920
1064.794961	0.140217
1064.959812	0.138530
1065.124645	0.136812
1065.289459	0.134814
1065.454256	0.133011
1065.619034	0.134021
1065.783793	0.132201
1065.948535	0.132455
1066.113258	0.130582
1066.277964	0.130063
1066.442651	0.130437
1066.607319	0.131712
1066.771970	0.132963
1066.936602	0.133669
1067.101216	0.133196
1067.265812	0.134045
1067.430389	0.133387
1067.594949	0.132722
1067.759490	0.131923
1067.924013	0.131423
1068.088518	0.132528
1068.253004	0.132867
1068.417472	0.132527
1068.581922	0.131532
1068.746354	0.132321
1068.910768	0.131696
1069.075163	0.133156
1069.239540	0.135011
1069.403899	0.136054
1069.568240	0.135005
1069.732562	0.134494
1069.896866	0.135963
1070.061152	0.136584
1070.225420	0.137935
1070.389670	0.137581
1070.553901	0.139087
1070.718114	0.136347
1070.882309	0.135308
1071.046486	0.137539
1071.210644	0.136611
1071.374784	0.136818
1071.538906	0.135540
1071.703010	0.131639
1071.867096	0.132479
1072.031163	0.130837
1072.195212	0.134496
1072.359243	0.135611
1072.523256	0.135490
1072.687250	0.135595
1072.851226	0.132807
1073.015184	0.135467
1073.179124	0.139021
1073.343045	0.138364
1073.506949	0.138612
1073.670834	0.136442
1073.834701	0.138040
1073.998549	0.136420
1074.162380	0.138365
1074.326192	0.140954
1074.489986	0.140624
1074.653761	0.139088
1074.817519	0.140853
1074.981258	0.140612
1075.144979	0.141947
1075.308682	0.139028
1075.472367	0.140489
1075.636033	0.142220
1075.799681	0.142491
1075.963311	0.141738
1076.126923	0.142040
1076.290516	0.140360
1076.454092	0.141815
1076.617649	0.141814
1076.781187	0.143804
1076.944708	0.143104
1077.108210	0.140638
1077.271695	0.140404
1077.435160	0.139918
1077.598608	0.138928
1077.762038	0.138868
1077.925449	0.138619
1078.088842	0.137798
1078.252217	0.135876
1078.415573	0.135856
1078.578912	0.136267
1078.742232	0.134834
1078.905534	0.136797
1079.068817	0.137939
1079.232083	0.139318
1079.395330	0.138208
1079.558559	0.136856
1079.721770	0.138334
1079.884962	0.139432
1080.048136	0.140450
1080.211293	0.139003
1080.374430	0.138801
1080.537550	0.139549
1080.700651	0.138567
1080.863735	0.140289
1081.026800	0.142407
1081.189846	0.142500
1081.352875	0.139965
1081.515885	0.138396
1081.678877	0.139250
1081.841851	0.138543
1082.004807	0.138927
1082.167744	0.138427
1082.330663	0.137966
1082.493564	0.137383
1082.656447	0.136083
1082.819312	0.137063
1082.982158	0.136458
1083.144986	0.136677
1083.307796	0.136773
1083.470587	0.134103
1083.633361	0.136204
1083.796116	0.137296
1083.958853	0.138331
1084.121571	0.138925
1084.284272	0.140217
1084.446954	0.141909
1084.609618	0.140138
1084.772264	0.140752
1084.934892	0.142323
1085.097501	0.141583
1085.260092	0.138103
1085.422665	0.137486
1085.585220	0.137423
1085.747756	0.137307
1085.910274	0.136987
1086.072774	0.139469
1086.235256	0.137720
1086.397720	0.137197
1086.560165	0.137460
1086.722592	0.140088
1086.885001	0.139663
1087.047392	0.140930
1087.209764	0.140340
1087.372119	0.140410
1087.534455	0.140952
1087.696772	0.141756
1087.859072	0.143354
1088.021353	0.144125
1088.183616	0.143046
1088.345861	0.144303
1088.508088	0.142916
1088.670296	0.145593
1088.832486	0.144050
1088.994658	0.144005
1089.156812	0.143319
1089.318948	0.143191
1089.481065	0.144298
1089.643164	0.144395
1089.805245	0.142501
1089.967308	0.142610
1090.129352	0.140789
1090.291378	0.141108
1090.453386	0.139943
1090.615376	0.140925
1090.777347	0.138780
1090.939301	0.135563
1091.101236	0.135972
1091.263153	0.137313
1091.425051	0.137167
1091.586932	0.137537
1091.748794	0.137268
1091.910638	0.138013
1092.072463	0.135393
1092.234271	0.134994
1092.396060	0.136359
1092.557831	0.135746
1092.719584	0.134413
1092.881319	0.132537
1093.043035	0.130394
1093.204733	0.130799
1093.366413	0.130232
1093.528075	0.132108
1093.689718	0.133473
1093.851343	0.135886
1094.012950	0.139033
1094.174539	0.139900
1094.336110	0.142911
1094.497662	0.144553
1094.659196	0.145563
1094.820712	0.146444
1094.982210	0.147486
1095.143689	0.145485
1095.305151	0.141982
1095.466594	0.140222
1095.628018	0.140619
1095.789425	0.138995
1095.950813	0.138365
1096.112183	0.138309
1096.273535	0.137061
1096.434869	0.135383
1096.596184	0.136882
1096.757482	0.136328
1096.918761	0.133565
1097.080021	0.130432
1097.241264	0.129438
1097.402488	0.127266
1097.563694	0.125571
1097.724882	0.126562
1097.886052	0.124442
1098.047203	0.126569
1098.208336	0.128346
1098.369451	0.129792
1098.530548	0.129767
1098.691627	0.132134
1098.852687	0.134811
1099.013729	0.137599
1099.174753	0.138036
1099.335758	0.141986
1099.496746	0.138837
1099.657715	0.135626
1099.818666	0.138191
1099.979599	0.139988
1100.140513	0.140052
1100.301409	0.137619
1100.462287	0.135851
1100.623147	0.137950
1100.783989	0.136662
1100.944812	0.137700
1101.105617	0.139067
1101.266404	0.135049
1101.427173	0.134475
1101.587923	0.133496
1101.748656	0.133980
1101.909370	0.133221
1102.070066	0.131338
1102.230743	0.128805
1102.391403	0.129487
1102.552044	0.128399
1102.712667	0.132720
1102.873271	0.136686
1103.033858	0.137658
1103.194426	0.136928
1103.354976	0.138614
1103.515508	0.140734
1103.676021	0.143035
1103.836517	0.143425
1103.996994	0.146577
1104.157453	0.143531
1104.317893	0.141652
1104.478316	0.141952
1104.638720	0.142561
1104.799106	0.141099
1104.959474	0.142674
1105.119823	0.142169
1105.280155	0.140600
1105.440468	0.139597
1105.600763	0.141686
1105.761039	0.140925
1105.921298	0.138778
1106.081538	0.140779
1106.241760	0.144399
1106.401964	0.139491
1106.562149	0.138987
1106.722316	0.138746
1106.882465	0.139251
1107.042596	0.138787
1107.202709	0.138808
1107.362803	0.135814
1107.522879	0.133702
1107.682937	0.130404
1107.842977	0.128752
1108.002999	0.130026
1108.163002	0.129694
1108.322987	0.131339
1108.482954	0.129929
1108.642902	0.128001
1108.802833	0.131848
1108.962745	0.128661
1109.122639	0.126947
1109.282515	0.130460
1109.442372	0.130407
1109.602211	0.131626
1109.762032	0.129492
1109.921835	0.128573
1110.081620	0.129427
1110.241386	0.134085
1110.401134	0.137372
1110.560864	0.139887
1110.720576	0.144619
1110.880269	0.147529
1111.039945	0.148653
1111.199602	0.151039
1111.359240	0.150938
1111.518861	0.150411
1111.678463	0.145143
1111.838047	0.147473
1111.997613	0.147343
1112.157161	0.141916
1112.316690	0.140552
1112.476202	0.140126
1112.635695	0.135061
1112.795169	0.138127
1112.954626	0.137116
1113.114064	0.136515
1113.273484	0.134164
1113.432886	0.132839
1113.592270	0.133221
1113.751635	0.133107
1113.910983	0.135242
1114.070312	0.136199
1114.229622	0.136703
1114.388915	0.138438
1114.548189	0.141534
1114.707445	0.145319
1114.866683	0.145387
1115.025903	0.146244
1115.185104	0.146096
1115.344287	0.142623
1115.503452	0.141466
1115.662599	0.137950
1115.821727	0.137398
1115.980838	0.132674
1116.139930	0.129707
1116.299004	0.130323
1116.458059	0.130433
1116.617097	0.129078
1116.776116	0.129792
1116.935117	0.132884
1117.094099	0.131822
1117.253064	0.129877
1117.412010	0.133501
1117.570938	0.133958
1117.729848	0.135913
1117.888740	0.132830
1118.047613	0.133076
1118.206468	0.137688
1118.365305	0.136216
1118.524124	0.136853
1118.682924	0.138244
1118.841707	0.135096
1119.000471	0.133534
1119.159216	0.134207
1119.317944	0.138991
1119.476653	0.136600
1119.635344	0.132164
1119.794017	0.134631
1119.952672	0.134896
1120.111308	0.139369
1120.269927	0.143149
1120.428527	0.142822
1120.587108	0.142581
1120.745672	0.142105
1120.904217	0.144865
1121.062744	0.143234
1121.221253	0.141841
1121.379744	0.143429
1121.538216	0.139279
1121.696671	0.139866
1121.855107	0.140667
1122.013524	0.136360
1122.171924	0.131734
1122.330305	0.129805
1122.488668	0.133714
1122.647013	0.131384
1122.805340	0.131938
1122.963648	0.133465
1123.121938	0.132497
1123.280210	0.134404
1123.438464	0.134135
1123.596700	0.138132
1123.754917	0.140646
1123.913116	0.138256
1124.071297	0.140857
1124.229459	0.139230
1124.387604	0.136403
1124.545730	0.136337
1124.703838	0.136666
1124.861928	0.136169
1125.019999	0.131663
1125.178052	0.129566
1125.336088	0.128793
1125.494104	0.127833
1125.652103	0.130136
1125.810083	0.133729
1125.968045	0.132226
1126.125989	0.132746
1126.283915	0.132866
1126.441823	0.136135
1126.599712	0.135388
1126.757583	0.132387
1126.915436	0.132099
1127.073270	0.130276
1127.231087	0.129748
1127.388885	0.128236
1127.546665	0.126802
1127.704426	0.128269
1127.862170	0.127367
1128.019895	0.130718
1128.177602	0.131810
1128.335291	0.131127
1128.492961	0.133558
1128.650614	0.132987
1128.808248	0.134150
1128.965864	0.131250
1129.123461	0.129215
1129.281041	0.128752
1129.438602	0.127709
1129.596145	0.130238
1129.753670	0.131826
1129.911176	0.129490
1130.068665	0.129358
1130.226135	0.129436
1130.383587	0.134682
1130.541020	0.137988
1130.698436	0.137935
1130.855833	0.135858
1131.013212	0.135460
1131.170573	0.134367
1131.327915	0.128892
1131.485239	0.126470
1131.642545	0.130204
1131.799833	0.127245
1131.957103	0.130268
1132.114354	0.128976
1132.271588	0.129168
1132.428803	0.126179
1132.585999	0.123223
1132.743178	0.125894
1132.900338	0.128318
1133.057480	0.123849
1133.214604	0.121380
1133.371710	0.117546
1133.528797	0.119427
1133.685866	0.123882
1133.842917	0.127838
1133.999950	0.130183
1134.156964	0.131116
1134.313960	0.131933
1134.470938	0.135115
1134.627898	0.135924
1134.784840	0.135325
1134.941763	0.138262
1135.098668	0.135607
1135.255555	0.136352
1135.412424	0.138860
1135.569274	0.140645
1135.726107	0.140622
1135.882921	0.139508
1136.039716	0.139377
1136.196494	0.142663
1136.353253	0.138445
1136.509995	0.137615
1136.666717	0.137209
1136.823422	0.135839
1136.980109	0.133655
1137.136777	0.134209
1137.293427	0.127802
1137.450059	0.129524
1137.606672	0.124470
1137.763267	0.126841
1137.919844	0.121293
1138.076403	0.118642
1138.232944	0.118845
1138.389466	0.120487
1138.545971	0.118260
1138.702457	0.122391
1138.858924	0.122976
1139.015374	0.125495
1139.171805	0.124373
1139.328218	0.129627
1139.484613	0.133501
1139.640990	0.136675
1139.797348	0.136457
1139.953688	0.134894
1140.110010	0.136485
1140.266314	0.136868
1140.422600	0.136866
1140.578867	0.136148
1140.735116	0.133736
1140.891347	0.129226
1141.047559	0.128847
1141.203754	0.131017
1141.359930	0.131317
1141.516088	0.128480
1141.672228	0.122679
1141.828349	0.121658
1141.984452	0.122236
1142.140537	0.126241
1142.296604	0.130037
1142.452653	0.123658
1142.608683	0.120273
1142.764695	0.122496
1142.920689	0.120385
1143.076665	0.125239
1143.232622	0.127100
1143.388562	0.125789
1143.544483	0.120926
1143.700385	0.117261
1143.856270	0.118060
1144.012136	0.116745
1144.167985	0.115212
1144.323814	0.118193
1144.479626	0.118408
1144.635420	0.117699
1144.791195	0.116543
1144.946952	0.114775
1145.102691	0.115203
1145.258411	0.117759
1145.414113	0.119540
1145.569798	0.118742
1145.725463	0.121845
1145.881111	0.121802
1146.036741	0.119472
1146.192352	0.118675
1146.347945	0.123679
1146.503519	0.121964
1146.659076	0.120892
1146.814614	0.115774
1146.970134	0.116424
1147.125636	0.113216
1147.281120	0.113828
1147.436585	0.114582
1147.592032	0.116994
1147.747461	0.112016
1147.902872	0.114409
1148.058265	0.109703
1148.213639	0.112992
1148.368995	0.116648
1148.524333	0.116480
1148.679653	0.115262
1148.834954	0.116557
1148.990237	0.119450
1149.145502	0.120940
1149.300749	0.123103
1149.455977	0.125611
1149.611188	0.123965
1149.766380	0.121585
1149.921553	0.118448
1150.076709	0.117587
1150.231846	0.120095
1150.386966	0.118593
1150.542066	0.118976
1150.697149	0.115171
1150.852214	0.118116
1151.007260	0.121985
1151.162288	0.123929
1151.317298	0.128185
1151.472289	0.129716
1151.627263	0.124824
1151.782218	0.123020
1151.937155	0.123217
1152.092073	0.118963
1152.246974	0.116957
1152.401856	0.113550
1152.556720	0.108760
1152.711566	0.106342
1152.866393	0.104144
1153.021203	0.109667
1153.175994	0.109506
1153.330767	0.114647
1153.485521	0.119845
1153.640258	0.120853
1153.794976	0.120438
1153.949676	0.122088
1154.104358	0.119783
1154.259021	0.117179
1154.413667	0.114183
1154.568294	0.113184
1154.722903	0.113455
1154.877493	0.109672
1155.032066	0.108727
1155.186620	0.109335
1155.341156	0.108281
1155.495674	0.111901
1155.650173	0.119647
1155.804654	0.119656
1155.959118	0.123564
1156.113562	0.122443
1156.267989	0.126289
1156.422397	0.121352
1156.576788	0.126361
1156.731160	0.126181
1156.885513	0.126078
1157.039849	0.118427
1157.194166	0.115249
1157.348465	0.113690
1157.502746	0.105882
1157.657009	0.106815
1157.811253	0.113016
1157.965479	0.106827
1158.119687	0.109161
1158.273877	0.107029
1158.428048	0.104661
1158.582201	0.106351
1158.736337	0.102390
1158.890453	0.106694
1159.044552	0.104225
1159.198632	0.101139
1159.352694	0.101569
1159.506738	0.096884
1159.660764	0.097418
1159.814771	0.099981
1159.968761	0.098158
1160.122732	0.098085
1160.276685	0.095867
1160.430619	0.096606
1160.584535	0.101272
1160.738434	0.104336
1160.892313	0.103111
1161.046175	0.101409
1161.200019	0.108317
1161.353844	0.111934
1161.507651	0.110773
1161.661440	0.113009
1161.815210	0.108114
1161.968962	0.101316
1162.122697	0.097313
1162.276412	0.102386
1162.430110	0.104595
1162.583789	0.098142
1162.737451	0.095467
1162.891094	0.099014
1163.044718	0.099139
1163.198325	0.104923
1163.351913	0.108283
1163.505483	0.110104
1163.659035	0.103410
1163.812569	0.101777
1163.966084	0.102416
1164.119581	0.102531
1164.273060	0.099786
1164.426521	0.097896
1164.579964	0.093984
1164.733388	0.098458
1164.886794	0.093936
1165.040182	0.096801
1165.193551	0.100148
1165.346903	0.098445
1165.500236	0.097216
1165.653551	0.095715
1165.806848	0.097316
1165.960126	0.100034
1166.113386	0.097932
1166.266628	0.101114
1166.419852	0.100366
1166.573058	0.095413
1166.726245	0.097003
1166.879414	0.096340
1167.032565	0.093529
1167.185698	0.090008
1167.338812	0.090743
1167.491909	0.086043
1167.644987	0.088656
1167.798046	0.086745
1167.951088	0.090342
1168.104111	0.091737
1168.257117	0.089444
1168.410103	0.095205
1168.563072	0.094658
1168.716023	0.088455
1168.868955	0.089699
1169.021869	0.087942
1169.174765	0.091129
1169.327642	0.089879
1169.480501	0.086790
1169.633343	0.088341
1169.786165	0.090212
1169.938970	0.090891
1170.091757	0.095168
1170.244525	0.092927
1170.397275	0.096241
1170.550007	0.096950
1170.702720	0.094884
1170.855415	0.096472
1171.008092	0.098604
1171.160751	0.095553
1171.313392	0.097130
1171.466014	0.099366
1171.618619	0.099683
1171.771205	0.099683
1171.923772	0.099683
