sample name	sample
index	729
start time	 03-25-2021  02:37:25 PM
880	0.168998
Peak Time (s)	101.035
Peak Height 	0.169
calc peak height	100,103
Baseline Time (s)	9.035
Baseline Value 	-0.006302
subtract baseline	10,4
Abs	0.107586
Peak Time (s)	102.536
Peak Height 	0.1076
calc peak height	100,103
Baseline Time (s)	11.537
Baseline Value 	0.002543
subtract baseline	10,3
PK_550	0.064715
Peak Time (s)	101.535
Peak Height 	0.06472
calc peak height	100,103
Baseline Time (s)	8.537
Baseline Value 	3.4439E-4
subtract baseline	10,2
PK_880	0.101258
Peak Time (s)	102.035
Peak Height 	0.1013
calc peak height	100,103
Baseline Time (s)	10.035
Baseline Value 	0.002669
subtract baseline	10,1


Time (s)	A880-A510	A880-A775	A880-A975	A880	I510	I775	I975	I880	
0.036000	-0.000530	-0.000154	0.003117	0.002165	7131.366601	43858.477779	3953.861414	23398.750134
0.535500	-0.001690	-0.000514	-0.001716	0.002180	7119.841832	43823.147435	3941.470254	23398.030241
1.035000	-0.001139	-0.000071	-0.001972	0.001817	7128.803488	43899.257857	3941.742300	23415.228149
1.538500	-0.002984	-0.000824	0.001791	0.002367	7105.358387	43776.359934	3949.940548	23389.201429
2.035500	-0.001689	0.000279	0.000434	0.000036	7140.906829	44100.813162	3952.436682	23499.667632
2.538500	0.000604	-0.000029	-0.002095	0.002143	7142.738351	43872.355699	3940.599616	23399.765351
3.036500	-0.000823	-0.000200	-0.000949	0.002540	7124.810050	43818.795865	3942.505352	23381.016729
3.537000	0.000020	-0.000121	0.000703	0.001362	7144.674817	43937.398671	3949.729421	23436.753876
4.037500	0.001724	0.000407	0.000242	0.001790	7157.279259	43946.879354	3947.454862	23416.502725
4.537500	0.001296	-0.000650	-0.000142	0.000745	7163.383475	43945.806293	3949.145048	23466.038725
5.035000	-0.001245	0.000454	0.004114	0.002807	7118.050578	43855.263413	3954.773227	23368.394626
5.535000	0.001819	-0.000064	0.002663	-0.001047	7186.348820	44171.204739	3960.974746	23551.231661
6.035500	0.000205	-0.000363	0.006643	-0.001469	7174.506849	44182.847968	3972.417358	23571.323025
6.535500	-0.002765	-0.000133	-0.001667	0.000763	7123.184610	43992.913407	3945.202612	23465.151944
7.036000	-0.003696	-0.000358	-0.003619	0.003121	7091.062200	43749.231547	3934.264811	23353.591199
7.536500	-0.000533	-0.000150	0.000734	-0.001253	7165.054074	44182.578380	3956.526742	23561.044323
8.036500	-0.000616	-0.000200	-0.000088	-0.001495	7166.621458	44200.741877	3955.031985	23572.561146
8.537000	-0.001005	0.000000	-0.001908	-0.001074	7158.613682	44179.851700	3949.282087	23552.532289
9.035000	-0.001547	-0.000695	-0.001466	0.000000	7142.662163	44011.965411	3947.663958	23501.397662
9.535000	-0.000274	-0.000534	0.003386	-0.001035	7165.452998	44125.405209	3962.813986	23550.659679
10.035000	0.000000	-0.000203	0.001797	-0.000565	7163.518163	44112.232562	3957.492573	23528.286763
10.535500	0.002021	0.000696	0.003142	0.000059	7177.364585	44138.277561	3959.353157	23498.599555
11.036000	0.002278	0.000373	-0.003727	0.000262	7177.902396	44088.303508	3941.233358	23488.934079
11.536500	0.000844	0.001250	0.000000	0.000380	7162.517493	44160.426689	3950.444687	23483.365465
12.036500	0.002258	0.000398	0.000146	-0.000237	7182.667051	44138.086526	3952.399638	23512.669800
12.536000	-0.000803	-0.000584	0.002666	-0.001482	7164.645861	44163.048082	3962.108342	23571.958903
13.037000	-0.000423	-0.000223	-0.000228	-0.000581	7159.482826	44111.804056	3952.323828	23529.018922
13.947500	-0.000378	0.000194	0.000042	-0.000904	7163.121808	44182.108125	3953.846989	23544.399990
14.449500	0.001557	0.000598	0.004401	-0.000147	7174.810267	44148.549760	3963.142992	23508.396667
14.540500	-0.000150	0.000364	-0.000981	-0.000514	7161.522012	44161.175797	3950.220943	23525.829081
15.035500	-0.000122	0.000408	-0.000958	-0.000404	7160.717198	44154.946376	3949.997130	23520.607720
15.535500	0.000421	-0.000021	0.001438	-0.000794	7169.951143	44151.221874	3957.157558	23539.163072
16.036000	-0.001955	-0.000524	0.000711	-0.001046	7148.951662	44127.309685	3955.931766	23551.172042
16.539000	0.001891	0.000509	0.003908	-0.000292	7179.553528	44153.859528	3962.241025	23515.265189
17.036000	0.000950	0.000688	-0.001244	-0.000100	7168.323579	44152.600998	3948.487103	23506.155845
17.537000	-0.000282	0.000016	0.002199	-0.000645	7161.521221	44140.616238	3958.736698	23532.086668
18.037000	0.001563	0.000047	0.003434	-0.000864	7181.989167	44164.297328	3962.496701	23542.513846
18.537500	0.001930	0.000470	-0.001586	-0.000682	7183.827359	44187.211275	3949.102220	23533.847433
19.034500	-0.001456	-0.000338	-0.000064	0.000676	7136.895555	43981.728823	3949.520480	23469.280962
19.535000	0.001421	0.000951	0.000148	-0.001915	7191.034619	44350.497830	3956.722239	23592.625252
20.035500	0.000246	-0.000416	0.003056	-0.001927	7179.457527	44221.308248	3964.270425	23593.184632
20.535500	0.001480	-0.000165	-0.000172	-0.001866	7191.128149	44239.423698	3955.770989	23590.286151
21.039000	-0.002644	-0.000183	-0.000262	0.003722	7095.447447	43709.121476	3941.246354	23325.227363
21.536000	0.001189	-0.000339	0.001635	-0.001551	7185.100170	44192.923785	3959.620177	23575.249180
22.036500	0.002270	-0.000186	0.002556	-0.001651	7196.871289	44217.060024	3962.261389	23580.041924
22.537000	0.002287	0.000449	-0.000107	-0.001437	7194.894308	44257.070285	3954.833562	23569.808345
23.037000	-0.000465	0.000082	-0.000173	0.003495	7118.959348	43755.488691	3942.049514	23335.949331
23.537500	0.001449	0.000373	0.002610	-0.000921	7181.418499	44200.740376	3960.511782	23545.238067
24.035000	0.000521	0.000291	-0.000403	-0.001511	7178.056698	44249.066999	3954.263304	23573.350275
24.535500	0.001129	0.000268	0.005116	-0.001424	7183.236977	44238.623375	3968.319328	23569.208989
25.035500	-0.001085	-0.001071	0.003318	0.002349	7124.114231	43754.785963	3953.904087	23390.029791
25.538500	0.001913	0.000300	0.001482	-0.001354	7190.340381	44234.981143	3958.714234	23565.836891
26.036000	-0.000940	-0.000302	0.003206	-0.001546	7163.920051	44196.011240	3963.672299	23575.014728
26.536500	-0.000352	0.000140	0.003077	-0.001351	7167.811510	44219.439277	3962.832473	23565.711573
27.039500	-0.001201	0.000216	0.001177	0.003052	7116.082887	43809.705859	3946.618721	23356.823933
27.537000	0.001079	-0.000102	0.000774	-0.001163	7180.147319	44178.540765	3956.395264	23556.736239
28.037000	-0.000501	0.000497	-0.003254	-0.001132	7164.164722	44232.549485	3945.987371	23555.266378
28.534500	0.001487	0.000604	0.006793	-0.001382	7186.384592	44266.630308	3972.581905	23567.185223
29.035000	-0.002412	-0.000233	0.002183	0.002554	7109.112787	43814.351241	3950.466325	23380.334138
29.535000	0.002478	0.000714	0.004436	-0.000810	7190.552393	44222.599572	3964.954363	23539.939697
30.038500	0.001536	0.000502	0.004486	-0.001574	7188.781989	44275.183153	3967.069798	23576.337344
30.536000	-0.000948	-0.001121	0.000421	-0.002593	7174.219539	44217.693208	3959.175322	23625.010751
31.036500	-0.001702	-0.000006	-0.001615	0.002987	7111.829560	43795.002896	3939.678266	23359.918839
31.536000	0.000300	0.000161	0.002166	-0.001269	7173.461663	44213.673904	3960.262113	23561.812103
32.036500	0.000970	0.000464	0.000873	-0.001363	7181.044823	44251.421971	3957.167473	23566.271136
32.537000	0.000846	0.000291	-0.001931	-0.001786	7184.026425	44275.266723	3951.045224	23586.475269
33.034500	-0.002840	-0.001008	0.000813	0.003053	7100.064568	43694.510048	3945.685941	23356.774724
33.535000	0.001589	-0.000729	-0.001787	-0.001736	7190.922017	44173.508405	3951.287146	23584.100524
34.035000	0.002715	0.000605	0.002306	-0.000797	7192.787927	44211.064394	3959.405143	23539.324845
34.535500	0.000894	-0.000366	-0.001009	-0.001520	7181.862780	44187.415054	3952.729092	23573.793516
35.035500	-0.001995	-0.000448	-0.003202	0.004651	7092.728845	43597.107054	3931.457039	23281.518195
35.536000	0.002186	-0.000121	0.003799	-0.001198	7191.515462	44180.135314	3964.309724	23558.433895
36.036500	0.001212	0.000071	0.001740	-0.001375	7183.581305	44215.231996	3959.436782	23566.882552
36.536500	0.001169	0.000318	0.002161	-0.001068	7180.103938	44209.531186	3959.730329	23552.245289
37.037000	-0.001425	-0.000888	0.001014	0.001042	7133.609794	43895.189572	3951.344778	23451.930186
37.537000	0.001443	0.000151	0.002677	-0.001019	7182.332358	44188.954286	3960.938305	23549.903423
38.038000	0.002452	0.000228	0.002714	-0.001246	7194.636347	44217.786739	3961.620056	23560.689700
38.535000	-0.000162	0.000788	0.001434	-0.000898	7165.203831	44238.002991	3957.415334	23544.117444
39.035500	0.000105	0.000139	0.001085	0.002642	7132.916395	43841.106970	3947.431572	23376.185720
39.535500	0.000705	0.001195	0.001764	-0.000685	7171.684490	44256.528087	3957.716025	23533.985926
40.036000	0.001305	0.000088	-0.000664	-0.001572	7186.463201	44235.601545	3953.749318	23576.257027
40.536000	-0.000826	-0.000424	0.003093	-0.001545	7165.032285	44184.193199	3963.374931	23574.948159
41.036500	-0.002347	0.000310	-0.003358	0.003441	7101.088459	43781.975252	3934.116429	23338.504409
41.536500	-0.000567	0.000496	0.004221	-0.000736	7159.601802	44194.870082	3964.206046	23536.434490
42.037000	0.001963	0.000409	0.003078	-0.000861	7185.927465	44198.399575	3961.564989	23542.354357
42.537500	0.002622	0.000480	-0.003973	-0.001361	7197.479112	44252.791830	3944.737548	23566.172649
43.034500	-0.002100	-0.000634	0.001998	0.003842	7099.583922	43655.517550	3946.699556	23319.583573
43.535500	0.000928	0.000621	-0.000896	-0.000617	7173.225244	44195.396532	3950.703737	23530.761433
44.038500	0.002606	0.000844	0.002028	-0.000350	7187.238271	44191.140069	3957.532096	23518.021175
44.535500	0.003094	0.000154	-0.003342	-0.000784	7196.433481	44166.904677	3944.874811	23538.690716
45.036000	-0.001440	0.000536	-0.001851	0.002941	7114.827961	43850.296604	3939.192907	23362.051526
45.536500	-0.000082	0.000917	-0.000264	-0.000316	7160.248410	44194.942428	3951.553271	23516.446212
46.036500	-0.000869	0.000196	0.002237	-0.001168	7160.886471	44207.414801	3960.184496	23556.985334
46.537000	0.000975	-0.000079	0.003673	-0.000771	7175.220209	44143.526482	3962.873873	23538.085945
47.080000	-0.001674	0.000356	0.002008	0.002367	7118.165552	43887.639567	3950.499685	23389.213130
47.534000	0.003376	0.000842	-0.002051	-0.000341	7194.825384	44190.119670	3947.041404	23517.608468
48.034500	0.001330	0.000395	0.003802	-0.001029	7181.304316	44213.012009	3963.875387	23550.345940
48.538000	0.001009	0.001007	0.000668	-0.000728	7175.136165	44242.756004	3955.003961	23536.046628
49.035000	-0.002303	0.000034	0.001372	0.003687	7099.116666	43732.817654	3945.494799	23326.882430
49.535500	0.001331	0.000512	0.004908	-0.000755	7178.596436	44198.200666	3966.038004	23537.315582
50.036000	0.002674	0.000913	0.001176	-0.000733	7191.741110	44234.242435	3956.325169	23536.275123
50.537000	0.000522	0.000388	0.001449	-0.001193	7174.919361	44228.043007	3958.214449	23558.192591
51.036500	-0.001805	-0.000003	-0.000770	0.001495	7125.431855	43936.042619	3945.623128	23430.470243
51.537000	0.002008	0.000026	0.001998	-0.000796	7185.733487	44155.833584	3958.607164	23539.274040
52.034500	0.002083	0.001602	0.006268	-0.000275	7181.300907	44256.219241	3968.324888	23514.461764
52.537500	0.001300	-0.000120	0.001342	-0.001266	7183.360646	44186.609677	3958.125196	23561.645756
53.035500	-0.001968	-0.000219	0.002017	0.003364	7105.541494	43739.432057	3947.969898	23342.130451
53.535500	0.003929	0.001120	0.007515	-0.003322	7230.213545	44501.229119	3979.564051	23659.922145
54.035500	-0.000689	0.000215	0.008481	0.000327	7147.898768	44067.193347	3972.527957	23485.862879
54.535500	-0.000887	0.000137	-0.003871	-0.000348	7152.598104	44123.840836	3942.419025	23517.939086
55.036000	-0.000324	0.000265	0.003652	0.000901	7145.832111	44017.535391	3958.493863	23458.599183
55.536500	-0.001167	0.000402	0.001891	0.000314	7143.304869	44086.135377	3955.469025	23486.472133
56.033500	-0.000084	-0.000679	-0.000775	-0.000116	7158.246676	44024.529430	3949.730626	23506.930417
56.537000	0.001118	-0.000338	0.000574	0.000397	7165.065981	44008.233366	3951.872811	23482.550431
57.037500	0.000761	0.000006	0.006512	0.000351	7161.985809	44045.188929	3967.332239	23484.733923
57.535000	0.001148	0.000664	0.003583	0.000695	7162.408449	44074.870941	3958.849241	23468.374963
58.035000	0.000003	-0.000009	0.002060	0.000717	7150.867968	44008.957516	3954.865786	23467.321962
58.535500	0.000680	0.000337	0.006945	0.000320	7161.484412	44079.397982	3968.538115	23486.172769
59.035500	0.001229	0.000414	0.003042	0.000461	7165.529729	44073.380910	3958.057270	23479.499052
59.536500	0.001367	0.000107	-0.002298	0.000503	7166.476889	44040.327608	3944.259022	23477.520920
60.036000	0.001752	-0.000112	0.004161	0.000451	7170.807392	44024.523827	3960.974436	23479.982445
60.537000	0.003069	0.000162	0.002396	0.000243	7185.956171	44070.144735	3956.953575	23489.842094
61.039500	0.000595	0.000076	0.000355	0.000689	7156.999557	44019.705829	3950.561293	23468.670356
61.537500	0.000044	0.000515	0.004580	0.000629	7152.145572	44067.017766	3961.596989	23471.535025
62.034500	0.001846	0.001211	0.003433	0.001517	7161.187615	44048.825887	3956.342813	23429.435772
62.537500	0.000813	0.000273	0.001533	0.000358	7162.423568	44069.711084	3954.434753	23484.367782
63.035500	0.000614	-0.000032	0.003942	0.000610	7157.965443	44017.001654	3959.998175	23472.431126
63.536000	0.001804	0.000258	0.003577	-0.002841	7204.088332	44372.746183	3967.999720	23636.866006
64.036000	0.002422	0.000049	0.003089	-0.002630	7208.157563	44332.727664	3966.183908	23626.804639
64.536500	0.002504	0.001627	0.001880	-0.000132	7184.066150	44244.959327	3956.589779	23507.683633
65.036500	-0.001893	-0.000253	-0.000511	0.003205	7107.823819	43751.260462	3941.928708	23349.635265
65.534000	0.000794	0.000541	-0.000938	-0.000598	7171.716013	44186.060229	3950.546197	23529.863316
66.037000	0.002559	0.000774	0.006198	-0.000763	7190.892224	44223.816848	3969.413711	23537.678416
66.537000	0.001195	0.000961	0.006568	-0.000589	7175.604705	44225.104253	3969.926268	23529.426184
67.040500	-0.001190	0.000054	0.002245	0.001843	7128.043833	43908.569258	3952.448405	23413.982604
67.535500	0.000928	0.000371	0.001201	0.001038	7156.845255	44014.628461	3951.836593	23452.132355
68.036000	0.000283	0.000509	0.004342	0.000490	7155.874082	44079.656913	3961.340711	23478.109385
68.535500	0.001927	0.000800	0.003894	-0.000759	7184.556183	44225.921349	3963.416106	23537.493570
69.036000	-0.001688	0.000411	0.001792	0.004916	7093.140566	43652.799495	3943.435791	23269.056001
69.536000	0.001665	0.000055	0.002935	-0.001092	7185.264700	44186.737870	3961.792865	23553.357703
70.036500	0.001742	-0.000059	0.005074	-0.004202	7217.092686	44472.573328	3975.463834	23702.098463
70.537000	0.002205	0.001053	0.002029	-0.000378	7183.534218	44213.799717	3957.609626	23519.374892
71.037500	0.001162	-0.000697	0.002856	0.003433	7135.529114	43688.056084	3949.937690	23338.855480
71.537500	-0.055059	-0.017354	0.007510	0.061346	6148.511736	37251.573125	3821.554297	20781.987166
72.035000	-0.047814	-0.014692	0.014508	0.073518	6111.463104	36507.308831	3809.899732	20286.600890
72.535500	-0.017337	-0.006219	0.010920	-0.026208	7246.520063	46017.809320	4050.831657	24785.506752
73.035500	-0.029289	-0.010933	0.024770	-0.064713	7522.788016	49507.170605	4206.277195	26818.395826
73.535500	-0.017445	-0.003993	0.029640	-0.062094	7622.797146	49973.399772	4213.394056	26674.377964
74.036500	-0.004060	0.001863	0.030366	-0.079038	7966.953497	52511.107310	4270.526524	27621.938343
74.536500	0.016216	0.009267	0.031013	-0.080126	8224.213524	53490.819463	4276.257865	27684.007163
75.036500	0.030568	0.014722	0.036636	-0.084602	8461.679389	54661.281955	4310.107573	27941.225050
75.534500	0.047336	0.022540	0.045953	-0.070293	8493.469429	53893.227072	4293.280872	27128.271298
76.037500	0.049688	0.028371	0.053262	-0.045286	8207.365044	51690.339371	4235.148990	25770.234995
76.537500	0.057283	0.034366	0.056622	-0.015135	7936.954069	49050.171539	4151.534774	24233.472817
77.035500	0.064861	0.040449	0.066620	0.009553	7741.018577	47114.528246	4107.834882	23052.263474
77.535500	0.068160	0.043484	0.061746	0.030760	7544.025053	45302.324797	4033.792107	22089.833756
78.035500	0.073503	0.045944	0.070142	0.050748	7388.865419	43624.724354	4002.287002	21224.783395
78.536000	0.079209	0.050298	0.073780	0.061079	7340.942382	43067.987463	3984.474262	20793.016502
79.036500	0.077421	0.050705	0.076968	0.068743	7244.572580	42402.273214	3972.713831	20479.298201
79.558000	0.078719	0.051492	0.073796	0.072814	7216.696381	42104.641413	3953.938205	20314.899600
80.037000	0.081210	0.051161	0.077287	0.077284	7196.914274	41673.584806	3951.426440	20136.160147
80.537500	0.080061	0.051937	0.081008	0.083422	7124.826009	41197.608535	3945.242807	19893.647328
81.037500	0.081976	0.052198	0.076120	0.089643	7082.800661	40675.582721	3917.270034	19651.382855
81.536000	0.082599	0.052936	0.076954	0.093737	7049.212499	40384.641422	3909.192250	19493.793486
82.035000	0.083126	0.053007	0.084322	0.097401	7019.099086	40075.822931	3918.371716	19354.040424
82.536000	0.082331	0.053859	0.079549	0.101683	6970.819666	39783.274339	3896.069591	19192.195725
83.035500	0.081873	0.054406	0.081046	0.110207	6886.770108	39111.919870	3879.081597	18874.749023
83.536500	0.080799	0.054556	0.087433	0.109565	6882.768617	39177.952901	3896.076424	18898.424643
84.036500	0.083889	0.055849	0.085083	0.113061	6879.018318	38994.370680	3881.921146	18769.817987
84.536500	0.084522	0.055348	0.087710	0.116019	6857.582856	38708.043305	3881.126093	18661.818816
85.037000	0.082413	0.055230	0.088272	0.122722	6777.384835	38149.818324	3866.472390	18419.758564
85.537500	0.084002	0.056721	0.090906	0.122564	6793.148898	38283.993921	3873.109744	18425.421212
86.038000	0.083601	0.056324	0.090826	0.124928	6768.216998	38059.702466	3867.297119	18340.913655
86.535500	0.086111	0.057163	0.091115	0.128385	6759.716916	37848.352944	3859.815120	18218.169806
87.035500	0.084605	0.057463	0.084623	0.133642	6699.534852	37451.643819	3832.529590	18033.347634
87.538500	0.087783	0.057757	0.091951	0.133206	6731.574406	37509.768523	3850.475909	18048.587017
88.036000	0.088020	0.058229	0.096031	0.134908	6718.558342	37411.841788	3856.038350	17989.178109
88.536000	0.088334	0.058399	0.092368	0.136915	6703.564013	37266.158643	3842.828021	17919.428985
89.036500	0.088599	0.059148	0.093995	0.141318	6667.159964	36978.182868	3836.422588	17767.506770
89.537000	0.090378	0.059197	0.095113	0.140440	6690.493056	37050.993395	3841.025584	17797.673308
90.040000	0.090437	0.059713	0.097492	0.142539	6672.566978	36926.702158	3841.670894	17725.625845
90.539500	0.091031	0.059899	0.097229	0.143585	6668.603778	36859.323438	3838.649292	17689.853842
91.035000	0.090215	0.058370	0.096759	0.144405	6654.302353	36676.136802	3835.679676	17661.883581
91.536000	0.094676	0.061450	0.098656	0.146653	6673.661376	36740.978283	3834.874174	17585.461641
92.035500	0.092557	0.061890	0.100343	0.147962	6643.716395	36673.285426	3835.742936	17541.146290
92.536000	0.092108	0.061183	0.095291	0.148736	6633.085573	36558.253679	3822.439739	17514.974608
93.036000	0.092084	0.061795	0.100847	0.150709	6615.803979	36452.985845	3830.599582	17448.562175
93.536500	0.093797	0.062889	0.096911	0.151802	6621.165834	36453.033325	3819.167264	17411.895576
94.036500	0.091786	0.062329	0.098724	0.152405	6598.615767	36363.280989	3821.905321	17391.691893
94.537500	0.093765	0.062310	0.101111	0.153416	6606.948206	36284.019299	3825.028656	17357.895524
95.034500	0.096981	0.061247	0.100304	0.154433	6625.941408	36124.457814	3820.891929	17323.977992
95.534500	0.094744	0.062618	0.102078	0.155896	6594.036592	36117.360174	3821.594199	17275.324412
96.035000	0.095396	0.063393	0.098922	0.156855	6591.400305	36103.350747	3812.316441	17243.530271
96.535500	0.095501	0.063588	0.103039	0.157989	6582.585837	36031.584680	3819.033978	17206.019248
97.035500	0.092372	0.063156	0.101400	0.162008	6521.894619	35693.705110	3806.329510	17073.858894
97.536000	0.097176	0.063181	0.107385	0.159827	6581.191036	35860.753320	3824.718361	17145.432679
98.036500	0.097027	0.063140	0.101230	0.160633	6573.023622	35796.508821	3809.022191	17118.934503
98.537000	0.097745	0.063795	0.102215	0.161461	6572.090741	35783.375121	3809.374178	17091.774526
99.036500	0.097251	0.063987	0.103480	0.163919	6546.971632	35612.219094	3806.707352	17011.435305
99.537000	0.097775	0.064392	0.099486	0.163772	6552.668871	35653.871547	3798.160268	17016.230066
100.037000	0.098372	0.063905	0.102066	0.164103	6554.918883	35592.115855	3803.145996	17005.420563
100.535500	0.098233	0.063959	0.102300	0.164989	6546.221661	35529.577692	3801.699695	16976.604435
101.035000	0.099275	0.064266	0.099633	0.168998	6521.160904	35252.525097	3786.989633	16846.869547
101.535500	0.097916	0.064715	0.103898	0.167182	6525.001027	35421.773518	3800.376678	16905.475091
102.035500	0.101258	0.064293	0.106716	0.166968	6555.102880	35406.226250	3807.125010	16912.417943
102.536000	0.099534	0.064240	0.107586	0.168141	6530.568569	35314.602875	3806.449800	16874.519119
103.036500	0.101347	0.064585	0.101283	0.171207	6519.996643	35112.043650	3785.769556	16775.885823
103.537000	0.102146	0.066248	0.107920	0.170869	6529.591517	35260.871031	3801.121777	16786.752387
104.040000	0.099660	0.066131	0.110135	0.171424	6504.013799	35210.802147	3804.813115	16768.956719
104.537500	0.101462	0.065721	0.110561	0.171616	6517.528641	35166.063649	3805.332574	16762.803843
105.034500	0.100593	0.065188	0.108169	0.174745	6484.050808	34895.024281	3793.106701	16662.965160
105.541000	0.105451	0.066449	0.110130	0.173364	6536.434143	35090.338666	3800.490358	16706.960815
106.035000	0.101239	0.064704	0.106890	0.172565	6507.683315	35020.238211	3795.091328	16732.442506
106.538000	0.100361	0.064380	0.109625	0.173356	6493.720092	34937.877018	3799.389055	16707.213162
107.036000	0.102499	0.066057	0.105713	0.174689	6500.445224	34963.213687	3787.839528	16664.743346
107.536500	0.102644	0.067536	0.108920	0.176237	6488.718128	34958.127584	3791.478657	16615.619334
108.036500	0.102614	0.066132	0.103816	0.175411	6495.366036	34915.488863	3782.127879	16641.811379
108.540000	0.103776	0.066388	0.110150	0.177376	6488.662642	34789.774629	3791.679714	16579.603286
109.037500	0.101091	0.065995	0.108464	0.179456	6449.118884	34608.643128	3783.442099	16514.045748
109.593500	0.106258	0.066483	0.109968	0.177714	6506.603444	34771.976888	3790.537546	16568.936936
110.034500	0.105365	0.066550	0.108538	0.178553	6492.104633	34715.323960	3785.571356	16542.469173
110.535000	0.103732	0.065385	0.104880	0.178612	6477.993579	34625.738637	3777.490852	16540.590369
111.035500	0.102811	0.066378	0.108355	0.181819	6443.814739	34464.413759	3778.072901	16439.947596
111.535500	0.103982	0.066373	0.114200	0.178981	6477.013217	34671.058957	3797.066867	16528.995489
112.036000	0.104370	0.066192	0.108501	0.180104	6470.895264	34575.715786	3782.110149	16493.667744
112.536500	0.105940	0.067641	0.113061	0.182644	6462.849839	34496.173246	3786.512915	16414.149547
