sample name	sample
index	414
start time	 03-08-2021  11:17:13 AM


Wavelength (nm)	Absorbance
494.344910	NaN
494.563924	NaN
494.782919	NaN
495.001897	-0.225353
495.220856	0.013797
495.439797	-0.065732
495.658719	-0.002624
495.877624	-0.066227
496.096510	-0.152566
496.315378	-0.219767
496.534227	-0.254679
496.753059	-0.244171
496.971872	-0.171161
497.190667	-0.007260
497.409444	0.008065
497.628203	0.008710
497.846943	0.010718
498.065665	0.012298
498.284369	0.012311
498.503055	0.012413
498.721723	0.012590
498.940372	0.012335
499.159003	0.012720
499.377616	0.012205
499.596210	0.011987
499.814787	0.011883
500.033345	0.010989
500.251885	0.011538
500.470406	0.011714
500.688910	0.011047
500.907395	0.012060
501.125862	0.011937
501.344311	0.011617
501.562742	0.011636
501.781154	0.010993
501.999548	0.010901
502.217924	0.010255
502.436282	0.010279
502.654621	0.011048
502.872942	0.010761
503.091245	0.010363
503.309530	0.010516
503.527797	0.010513
503.746045	0.012555
503.964275	0.012325
504.182487	0.011780
504.400681	0.011725
504.618856	0.011689
504.837013	0.011646
505.055152	0.012662
505.273273	0.012267
505.491376	0.012805
505.709460	0.011383
505.927526	0.011918
506.145574	0.012993
506.363604	0.012603
506.581615	0.011776
506.799608	0.011130
507.017583	0.010721
507.235540	0.010985
507.453478	0.010932
507.671399	0.010755
507.889301	0.010544
508.107185	0.010814
508.325050	0.011056
508.542898	0.011782
508.760727	0.011899
508.978538	0.012288
509.196330	0.012434
509.414105	0.012272
509.631861	0.012273
509.849599	0.012179
510.067319	0.011730
510.285021	0.011626
510.502704	0.011790
510.720369	0.011941
510.938016	0.011475
511.155645	0.011381
511.373255	0.010358
511.590848	0.010354
511.808422	0.010652
512.025977	0.010753
512.243515	0.010633
512.461034	0.010587
512.678536	0.011065
512.896018	0.010700
513.113483	0.010591
513.330930	0.011744
513.548358	0.012082
513.765768	0.011906
513.983160	0.012518
514.200533	0.012735
514.417889	0.011945
514.635226	0.011906
514.852545	0.012373
515.069845	0.012962
515.287128	0.012684
515.504392	0.012407
515.721638	0.013348
515.938866	0.012833
516.156075	0.013061
516.373267	0.013751
516.590440	0.013507
516.807594	0.013520
517.024731	0.013110
517.241850	0.012144
517.458950	0.012133
517.676032	0.011853
517.893095	0.011931
518.110141	0.011335
518.327168	0.011144
518.544177	0.011393
518.761168	0.011449
518.978141	0.011776
519.195095	0.013116
519.412031	0.012893
519.628949	0.012971
519.845849	0.013036
520.062731	0.013969
520.279594	0.013793
520.496439	0.013170
520.713266	0.012721
520.930074	0.012609
521.146865	0.011965
521.363637	0.012180
521.580391	0.011826
521.797127	0.012028
522.013844	0.011338
522.230543	0.011574
522.447224	0.011614
522.663887	0.012134
522.880532	0.012322
523.097158	0.012029
523.313766	0.012084
523.530356	0.012294
523.746928	0.011785
523.963481	0.011274
524.180017	0.011156
524.396534	0.011186
524.613032	0.010904
524.829513	0.010565
525.045975	0.011039
525.262420	0.011289
525.478845	0.010849
525.695253	0.011163
525.911643	0.011647
526.128014	0.011844
526.344367	0.011875
526.560702	0.011777
526.777018	0.012052
526.993316	0.011978
527.209597	0.011403
527.425858	0.011684
527.642102	0.011844
527.858328	0.011693
528.074535	0.011754
528.290724	0.011939
528.506894	0.012453
528.723047	0.012717
528.939181	0.013098
529.155297	0.013720
529.371395	0.013614
529.587475	0.013052
529.803536	0.013047
530.019579	0.012954
530.235604	0.012951
530.451611	0.012969
530.667600	0.012610
530.883570	0.012477
531.099522	0.012051
531.315456	0.012208
531.531372	0.013092
531.747269	0.013618
531.963148	0.013753
532.179009	0.013727
532.394852	0.013463
532.610676	0.013697
532.826482	0.013570
533.042271	0.014117
533.258040	0.014174
533.473792	0.013633
533.689525	0.013480
533.905240	0.013345
534.120937	0.013903
534.336616	0.014503
534.552277	0.014583
534.767919	0.014455
534.983543	0.014693
535.199149	0.014894
535.414736	0.015163
535.630306	0.015379
535.845857	0.015170
536.061390	0.014611
536.276904	0.014365
536.492401	0.014445
536.707879	0.015170
536.923339	0.015125
537.138781	0.014931
537.354204	0.015332
537.569610	0.014904
537.784997	0.015258
538.000366	0.015860
538.215716	0.016101
538.431049	0.015581
538.646363	0.015385
538.861659	0.015121
539.076937	0.015359
539.292196	0.014949
539.507438	0.015401
539.722661	0.015181
539.937866	0.014666
540.153052	0.014599
540.368221	0.014937
540.583371	0.015096
540.798503	0.015184
541.013617	0.014866
541.228712	0.014699
541.443789	0.014686
541.658848	0.014745
541.873889	0.015071
542.088912	0.014807
542.303916	0.014800
542.518902	0.014511
542.733870	0.014553
542.948820	0.015175
543.163752	0.015175
543.378665	0.015064
543.593560	0.015282
543.808437	0.015227
544.023295	0.015710
544.238136	0.015773
544.452958	0.016325
544.667762	0.016517
544.882548	0.016024
545.097315	0.016220
545.312064	0.016482
545.526795	0.016114
545.741508	0.016321
545.956203	0.016101
546.170879	0.016412
546.385537	0.016121
546.600177	0.015836
546.814799	0.015837
547.029402	0.016137
547.243988	0.016166
547.458555	0.016734
547.673103	0.016243
547.887634	0.016176
548.102146	0.016141
548.316640	0.016297
548.531116	0.016190
548.745574	0.016508
548.960013	0.016335
549.174435	0.016262
549.388838	0.016171
549.603222	0.016656
549.817589	0.016401
550.031937	0.016412
550.246267	0.016227
550.460579	0.016441
550.674873	0.016490
550.889148	0.016336
551.103405	0.016062
551.317644	0.015972
551.531865	0.016003
551.746068	0.016483
551.960252	0.016297
552.174418	0.016473
552.388566	0.016586
552.602696	0.016574
552.816807	0.016806
553.030900	0.016946
553.244975	0.017033
553.459032	0.017058
553.673070	0.016956
553.887091	0.017030
554.101093	0.016871
554.315077	0.016893
554.529042	0.016676
554.742990	0.016632
554.956919	0.016851
555.170830	0.016825
555.384722	0.016830
555.598597	0.016783
555.812453	0.016329
556.026291	0.016240
556.240111	0.016408
556.453913	0.016966
556.667696	0.016678
556.881461	0.016413
557.095208	0.016624
557.308937	0.016556
557.522647	0.016784
557.736339	0.017166
557.950013	0.017276
558.163669	0.017084
558.377307	0.016740
558.590926	0.016950
558.804527	0.017137
559.018110	0.017026
559.231675	0.017020
559.445221	0.017028
559.658749	0.017389
559.872259	0.017613
560.085751	0.017399
560.299225	0.017404
560.512680	0.017499
560.726117	0.017339
560.939536	0.017480
561.152937	0.017539
561.366319	0.017119
561.579683	0.016773
561.793029	0.016500
562.006357	0.016778
562.219667	0.016904
562.432958	0.016631
562.646231	0.016775
562.859486	0.016527
563.072723	0.016463
563.285941	0.016728
563.499141	0.016855
563.712323	0.016777
563.925487	0.016448
564.138632	0.016251
564.351760	0.016446
564.564869	0.016456
564.777960	0.016708
564.991032	0.016762
565.204087	0.016959
565.417123	0.016840
565.630141	0.016972
565.843140	0.017443
566.056122	0.017652
566.269085	0.017744
566.482030	0.018036
566.694957	0.018085
566.907866	0.018135
567.120756	0.017789
567.333628	0.018190
567.546482	0.018191
567.759318	0.017953
567.972135	0.018050
568.184935	0.018007
568.397716	0.017823
568.610478	0.017947
568.823223	0.017984
569.035949	0.018277
569.248657	0.017782
569.461347	0.017573
569.674019	0.017647
569.886672	0.017507
570.099308	0.017670
570.311925	0.017952
570.524523	0.017428
570.737104	0.017372
570.949666	0.017501
571.162210	0.017688
571.374736	0.017897
571.587244	0.018020
571.799733	0.017789
572.012205	0.017850
572.224658	0.017621
572.437092	0.018128
572.649509	0.018051
572.861907	0.017984
573.074287	0.018334
573.286649	0.018481
573.498993	0.018346
573.711318	0.018596
573.923625	0.018412
574.135914	0.018647
574.348185	0.018572
574.560438	0.018660
574.772672	0.018379
574.984888	0.017900
575.197086	0.018000
575.409266	0.018431
575.621427	0.018704
575.833570	0.019023
576.045695	0.018934
576.257802	0.018865
576.469890	0.019065
576.681961	0.019515
576.894013	0.019952
577.106046	0.019676
577.318062	0.019228
577.530059	0.019154
577.742039	0.018796
577.954000	0.018532
578.165942	0.018528
578.377867	0.018442
578.589773	0.018262
578.801661	0.018091
579.013531	0.018400
579.225382	0.018426
579.437216	0.018346
579.649031	0.018492
579.860828	0.018573
580.072606	0.018712
580.284367	0.018650
580.496109	0.018719
580.707833	0.019123
580.919539	0.019096
581.131227	0.019415
581.342896	0.019348
581.554547	0.019654
581.766180	0.019807
581.977795	0.020006
582.189391	0.020342
582.400969	0.020245
582.612529	0.020129
582.824071	0.020205
583.035595	0.020090
583.247100	0.020231
583.458587	0.019848
583.670056	0.019904
583.881506	0.019848
584.092939	0.019877
584.304353	0.019707
584.515749	0.019435
584.727127	0.019432
584.938486	0.019423
585.149828	0.019409
585.361151	0.019591
585.572456	0.019711
585.783742	0.019418
585.995011	0.019399
586.206261	0.020086
586.417493	0.020423
586.628706	0.020508
586.839902	0.020578
587.051079	0.020688
587.262238	0.020618
587.473379	0.020678
587.684502	0.020852
587.895606	0.020662
588.106692	0.020362
588.317760	0.019912
588.528810	0.019491
588.739841	0.019096
588.950855	0.019047
589.161850	0.019450
589.372827	0.019456
589.583785	0.019658
589.794726	0.019788
590.005648	0.019763
590.216552	0.020166
590.427437	0.020555
590.638305	0.020868
590.849154	0.020709
591.059985	0.020609
591.270798	0.020458
591.481592	0.020427
591.692369	0.020388
591.903127	0.020534
592.113867	0.020568
592.324588	0.020544
592.535292	0.020594
592.745977	0.020783
592.956644	0.020906
593.167293	0.020872
593.377923	0.020930
593.588536	0.021231
593.799130	0.021236
594.009706	0.021240
594.220263	0.021286
594.430803	0.021651
594.641324	0.021871
594.851827	0.021752
595.062312	0.021999
595.272778	0.021772
595.483227	0.021579
595.693657	0.021672
595.904069	0.021793
596.114462	0.021756
596.324838	0.021513
596.535195	0.021309
596.745534	0.021382
596.955855	0.021282
597.166157	0.021210
597.376441	0.021291
597.586707	0.021012
597.796955	0.021005
598.007185	0.021038
598.217396	0.021142
598.427589	0.020977
598.637764	0.021063
598.847921	0.021177
599.058060	0.021603
599.268180	0.021482
599.478282	0.022055
599.688366	0.022177
599.898431	0.022352
600.108479	0.022552
600.318508	0.023042
600.528519	0.023097
600.738511	0.023232
600.948486	0.023174
601.158442	0.023491
601.368380	0.023240
601.578300	0.022949
601.788202	0.022926
601.998085	0.022879
602.207950	0.022768
602.417797	0.022643
602.627626	0.022373
602.837436	0.022233
603.047228	0.021724
603.257002	0.021521
603.466758	0.021720
603.676496	0.021796
603.886215	0.021702
604.095916	0.021811
604.305599	0.021781
604.515264	0.021748
604.724910	0.021954
604.934538	0.022374
605.144148	0.022649
605.353740	0.022805
605.563314	0.022794
605.772869	0.022932
605.982406	0.022872
606.191925	0.023116
606.401425	0.023354
606.610908	0.023213
606.820372	0.023095
607.029818	0.023207
607.239246	0.023069
607.448655	0.023107
607.658047	0.022821
607.867420	0.023102
608.076775	0.023265
608.286111	0.023270
608.495430	0.023353
608.704730	0.023439
608.914012	0.023172
609.123275	0.023372
609.332521	0.023329
609.541748	0.023574
609.750957	0.023221
609.960148	0.023002
610.169321	0.023153
610.378475	0.023217
610.587611	0.023413
610.796729	0.023633
611.005829	0.023474
611.214910	0.023471
611.423974	0.023424
611.633019	0.023579
611.842045	0.023708
612.051054	0.023588
612.260044	0.023544
612.469017	0.023321
612.677970	0.023442
612.886906	0.023545
613.095824	0.023568
613.304723	0.023680
613.513604	0.023757
613.722467	0.023753
613.931311	0.023900
614.140138	0.024042
614.348946	0.024187
614.557736	0.024121
614.766507	0.024225
614.975261	0.024298
615.183996	0.024243
615.392713	0.024129
615.601412	0.024069
615.810092	0.023996
616.018754	0.024128
616.227399	0.024053
616.436024	0.024023
616.644632	0.024037
616.853222	0.024284
617.061793	0.024523
617.270346	0.024682
617.478880	0.024517
617.687397	0.024473
617.895895	0.024252
618.104375	0.024181
618.312837	0.024069
618.521281	0.023975
618.729706	0.023732
618.938113	0.023592
619.146502	0.023407
619.354873	0.023567
619.563226	0.023472
619.771560	0.023516
619.979876	0.023837
620.188174	0.023835
620.396453	0.023855
620.604715	0.024088
620.812958	0.023908
621.021183	0.024151
621.229390	0.024242
621.437578	0.024520
621.645748	0.024606
621.853900	0.024321
622.062034	0.024534
622.270150	0.024495
622.478247	0.024380
622.686326	0.024500
622.894387	0.024432
623.102430	0.024438
623.310454	0.024419
623.518461	0.024396
623.726449	0.024522
623.934418	0.024581
624.142370	0.024598
624.350303	0.024546
624.558218	0.024721
624.766115	0.024752
624.973994	0.024622
625.181855	0.024768
625.389697	0.024903
625.597521	0.025023
625.805327	0.024938
626.013114	0.025090
626.220883	0.025170
626.428634	0.025198
626.636367	0.025200
626.844082	0.025470
627.051778	0.025369
627.259457	0.025290
627.467117	0.025157
627.674758	0.025216
627.882382	0.025242
628.089987	0.025199
628.297574	0.025449
628.505143	0.025633
628.712694	0.025553
628.920226	0.025853
629.127740	0.026126
629.335236	0.026271
629.542714	0.026241
629.750174	0.026378
629.957615	0.026599
630.165038	0.026267
630.372443	0.026216
630.579829	0.026283
630.787198	0.025898
630.994548	0.025681
631.201880	0.025697
631.409194	0.025828
631.616489	0.025824
631.823766	0.025641
632.031025	0.025683
632.238266	0.025528
632.445489	0.025547
632.652693	0.025674
632.859879	0.025842
633.067047	0.026056
633.274197	0.026091
633.481329	0.025832
633.688442	0.025857
633.895537	0.026106
634.102614	0.026181
634.309672	0.025995
634.516713	0.026136
634.723735	0.026063
634.930739	0.025996
635.137724	0.025973
635.344692	0.026326
635.551641	0.026367
635.758572	0.026150
635.965485	0.026212
636.172379	0.026511
636.379256	0.026496
636.586114	0.026417
636.792954	0.026327
636.999775	0.026322
637.206579	0.026240
637.413364	0.026302
637.620131	0.026491
637.826880	0.026603
638.033610	0.026662
638.240323	0.026785
638.447017	0.027039
638.653692	0.027108
638.860350	0.027142
639.066990	0.027226
639.273611	0.027277
639.480214	0.027387
639.686798	0.027394
639.893365	0.027291
640.099913	0.027096
640.306443	0.027061
640.512955	0.027176
640.719449	0.027078
640.925924	0.026935
641.132381	0.027116
641.338820	0.026955
641.545241	0.026867
641.751644	0.026934
641.958028	0.027008
642.164394	0.027139
642.370742	0.026998
642.577071	0.027233
642.783383	0.027381
642.989676	0.027312
643.195951	0.027308
643.402207	0.027399
643.608446	0.027490
643.814666	0.027537
644.020868	0.027514
644.227052	0.027658
644.433218	0.027574
644.639365	0.027678
644.845494	0.027688
645.051605	0.027958
645.257698	0.027961
645.463772	0.027791
645.669828	0.027852
645.875866	0.027829
646.081886	0.027923
646.287888	0.028069
646.493871	0.028042
646.699836	0.027978
646.905783	0.027796
647.111712	0.027733
647.317622	0.027951
647.523514	0.027843
647.729388	0.027798
647.935244	0.027631
648.141082	0.027635
648.346901	0.027507
648.552702	0.027634
648.758485	0.027781
648.964250	0.028150
649.169996	0.028201
649.375724	0.028400
649.581434	0.028488
649.787126	0.028739
649.992800	0.028749
650.198455	0.028905
650.404092	0.028884
650.609711	0.028945
650.815311	0.028738
651.020894	0.028810
651.226458	0.028835
651.432004	0.028870
651.637532	0.028815
651.843041	0.028726
652.048532	0.028743
652.254006	0.028873
652.459460	0.028892
652.664897	0.029085
652.870315	0.028956
653.075716	0.028954
653.281097	0.029058
653.486461	0.029142
653.691807	0.029088
653.897134	0.029118
654.102443	0.029109
654.307734	0.028999
654.513006	0.028873
654.718261	0.029028
654.923497	0.029102
655.128715	0.028999
655.333915	0.029178
655.539096	0.029301
655.744259	0.029286
655.949404	0.029386
656.154531	0.029658
656.359640	0.029729
656.564730	0.029700
656.769802	0.029739
656.974856	0.029765
657.179892	0.029582
657.384909	0.029743
657.589908	0.029645
657.794889	0.029595
657.999852	0.029342
658.204797	0.029294
658.409723	0.029311
658.614631	0.029337
658.819521	0.029373
659.024393	0.029467
659.229246	0.029405
659.434081	0.029654
659.638898	0.029520
659.843697	0.029714
660.048478	0.029856
660.253240	0.029833
660.457984	0.029830
660.662710	0.030070
660.867417	0.029953
661.072107	0.029963
661.276778	0.030008
661.481431	0.030202
661.686066	0.030114
661.890682	0.029935
662.095281	0.030017
662.299861	0.030141
662.504422	0.029957
662.708966	0.030030
662.913491	0.030156
663.117999	0.030011
663.322488	0.030127
663.526958	0.030296
663.731411	0.030531
663.935845	0.030561
664.140261	0.030487
664.344659	0.030596
664.549038	0.030729
664.753400	0.030625
664.957743	0.030731
665.162068	0.030647
665.366375	0.030459
665.570663	0.030459
665.774933	0.030427
665.979185	0.030473
666.183419	0.030451
666.387635	0.030531
666.591832	0.030676
666.796011	0.030734
667.000172	0.030965
667.204315	0.031224
667.408439	0.031379
667.612545	0.031558
667.816634	0.031726
668.020703	0.031840
668.224755	0.031893
668.428788	0.031889
668.632803	0.032001
668.836800	0.032061
669.040779	0.032028
669.244739	0.032110
669.448681	0.032145
669.652605	0.032250
669.856511	0.032407
670.060399	0.032341
670.264268	0.032483
670.468119	0.032557
670.671952	0.032407
670.875767	0.032464
671.079563	0.032373
671.283341	0.032209
671.487101	0.032133
671.690843	0.031964
671.894567	0.031916
672.098272	0.031974
672.301959	0.031872
672.505628	0.031909
672.709278	0.031840
672.912911	0.031812
673.116525	0.032015
673.320121	0.031905
673.523699	0.031855
673.727258	0.031764
673.930799	0.031603
674.134322	0.031779
674.337827	0.031794
674.541314	0.031861
674.744782	0.032024
674.948232	0.032019
675.151664	0.032112
675.355078	0.032250
675.558474	0.032377
675.761851	0.032487
675.965210	0.032491
676.168551	0.032414
676.371873	0.032599
676.575178	0.032483
676.778464	0.032508
676.981732	0.032427
677.184981	0.032457
677.388213	0.032566
677.591426	0.032709
677.794621	0.032668
677.997798	0.032760
678.200956	0.032658
678.404097	0.032645
678.607219	0.032591
678.810323	0.032819
679.013408	0.032842
679.216476	0.032832
679.419525	0.032772
679.622556	0.032846
679.825569	0.032956
680.028563	0.033003
680.231540	0.033019
680.434498	0.033002
680.637438	0.032990
680.840359	0.032917
681.043263	0.032916
681.246148	0.032694
681.449015	0.032574
681.651864	0.032554
681.854694	0.032619
682.057506	0.032756
682.260301	0.032852
682.463076	0.032804
682.665834	0.032925
682.868573	0.033186
683.071295	0.033558
683.273998	0.033860
683.476682	0.033914
683.679349	0.034052
683.881997	0.034100
684.084627	0.034246
684.287239	0.034358
684.489833	0.034298
684.692408	0.034269
684.894965	0.034215
685.097504	0.034016
685.300025	0.034106
685.502527	0.034017
685.705012	0.034060
685.907478	0.034046
686.109925	0.033951
686.312355	0.034144
686.514766	0.034049
686.717159	0.034127
686.919534	0.034221
687.121891	0.034214
687.324230	0.034377
687.526550	0.034381
687.728852	0.034296
687.931136	0.034444
688.133401	0.034484
688.335649	0.034561
688.537878	0.034620
688.740089	0.034608
688.942281	0.034725
689.144456	0.034691
689.346612	0.034774
689.548750	0.034953
689.750870	0.034873
689.952971	0.034842
690.155055	0.034967
690.357120	0.034725
690.559167	0.034874
690.761195	0.034747
690.963206	0.034630
691.165198	0.034587
691.367172	0.034525
691.569128	0.034588
691.771065	0.034599
691.972984	0.034403
692.174885	0.034492
692.376768	0.034332
692.578633	0.034447
692.780479	0.034405
692.982308	0.034556
693.184118	0.034634
693.385909	0.034580
693.587683	0.034702
693.789438	0.034903
693.991175	0.035131
694.192894	0.035286
694.394595	0.035240
694.596277	0.035268
694.797941	0.035249
694.999587	0.035346
695.201215	0.035445
695.402824	0.035433
695.604416	0.035444
695.805989	0.035418
696.007543	0.035476
696.209080	0.035555
696.410598	0.035731
696.612099	0.035732
696.813580	0.035725
697.015044	0.035771
697.216490	0.035702
697.417917	0.035628
697.619326	0.035571
697.820717	0.035460
698.022089	0.035417
698.223444	0.035323
698.424780	0.035307
698.626098	0.035177
698.827397	0.035259
699.028679	0.035319
699.229942	0.035380
699.431187	0.035348
699.632414	0.035538
699.833622	0.035602
700.034813	0.035657
700.235985	0.035642
700.437139	0.035774
700.638274	0.035739
700.839392	0.035818
701.040491	0.035901
701.241572	0.035951
701.442635	0.035853
701.643679	0.035907
701.844706	0.036136
702.045714	0.036071
702.246704	0.035936
702.447675	0.036006
702.648629	0.035918
702.849564	0.035890
703.050481	0.035873
703.251380	0.035954
703.452260	0.035864
703.653122	0.035791
703.853966	0.036019
704.054792	0.036020
704.255600	0.035921
704.456389	0.035906
704.657160	0.036003
704.857913	0.036076
705.058648	0.035904
705.259365	0.036054
705.460063	0.035863
705.660743	0.035897
705.861405	0.035970
706.062048	0.035941
706.262674	0.036063
706.463281	0.035922
706.663870	0.035771
706.864441	0.035746
707.064993	0.035682
707.265527	0.035799
707.466043	0.035537
707.666541	0.035543
707.867021	0.035724
708.067482	0.035724
708.267925	0.035840
708.468350	0.036077
708.668757	0.036189
708.869145	0.036238
709.069516	0.036323
709.269868	0.036405
709.470201	0.036510
709.670517	0.036487
709.870814	0.036567
710.071093	0.036647
710.271354	0.036595
710.471597	0.036805
710.671821	0.036813
710.872028	0.036720
711.072216	0.036857
711.272385	0.036743
711.472537	0.036665
711.672670	0.036444
711.872785	0.036456
712.072882	0.036651
712.272961	0.036457
712.473021	0.036582
712.673063	0.036525
712.873087	0.036448
713.073093	0.036419
713.273081	0.036563
713.473050	0.036733
713.673001	0.036644
713.872934	0.036620
714.072849	0.036760
714.272745	0.036825
714.472623	0.036964
714.672483	0.036910
714.872325	0.037010
715.072148	0.036989
715.271954	0.036914
715.471741	0.036718
715.671509	0.036534
715.871260	0.036407
716.070992	0.036117
716.270707	0.036040
716.470403	0.036128
716.670080	0.036110
716.869740	0.035986
717.069381	0.035867
717.269004	0.035858
717.468609	0.035824
717.668195	0.035839
717.867764	0.035962
718.067314	0.035918
718.266846	0.035905
718.466360	0.035829
718.665855	0.035928
718.865332	0.035995
719.064791	0.036016
719.264232	0.035946
719.463655	0.035939
719.663059	0.035760
719.862445	0.035795
720.061813	0.035806
720.261163	0.035763
720.460494	0.035748
720.659807	0.035785
720.859102	0.035855
721.058379	0.035647
721.257638	0.035382
721.456878	0.035418
721.656100	0.035329
721.855304	0.035117
722.054490	0.035224
722.253657	0.034957
722.452806	0.034868
722.651937	0.034750
722.851050	0.034910
723.050145	0.035257
723.249221	0.035195
723.448279	0.035178
723.647319	0.035189
723.846340	0.035056
724.045344	0.035210
724.244329	0.035251
724.443296	0.035307
724.642245	0.035343
724.841175	0.035052
725.040088	0.035155
725.238982	0.035307
725.437857	0.035224
725.636715	0.035415
725.835554	0.035449
726.034376	0.035443
726.233179	0.035425
726.431963	0.035542
726.630730	0.035646
726.829478	0.035648
727.028208	0.035469
727.226920	0.035644
727.425614	0.035438
727.624289	0.035338
727.822946	0.035284
728.021585	0.035139
728.220206	0.035133
728.418808	0.035165
728.617392	0.035125
728.815958	0.035242
729.014506	0.035316
729.213036	0.035388
729.411547	0.035450
729.610040	0.035564
729.808515	0.035751
730.006972	0.035550
730.205410	0.035515
730.403831	0.035457
730.602233	0.035341
730.800616	0.035201
730.998982	0.035286
731.197329	0.035169
731.395658	0.034974
731.593969	0.034944
731.792262	0.035013
731.990536	0.034853
732.188793	0.034800
732.387031	0.034628
732.585250	0.034585
732.783452	0.034486
732.981635	0.034514
733.179800	0.034462
733.377947	0.034383
733.576076	0.034244
733.774186	0.034289
733.972278	0.034336
734.170352	0.034521
734.368408	0.034511
734.566446	0.034285
734.764465	0.034164
734.962466	0.034195
735.160449	0.034234
735.358413	0.034423
735.556360	0.034332
735.754288	0.034179
735.952198	0.034060
736.150090	0.033937
736.347963	0.033953
736.545818	0.034015
736.743655	0.034104
736.941474	0.034103
737.139275	0.034014
737.337057	0.034036
737.534821	0.034121
737.732567	0.034062
737.930295	0.034245
738.128005	0.034335
738.325696	0.034296
738.523369	0.034235
738.721024	0.034212
738.918660	0.034313
739.116279	0.034351
739.313879	0.034286
739.511461	0.034319
739.709024	0.034237
739.906570	0.034211
740.104097	0.034170
740.301606	0.034015
740.499097	0.033836
740.696569	0.033765
740.894024	0.033864
741.091460	0.033701
741.288878	0.033764
741.486277	0.033693
741.683659	0.033627
741.881022	0.033522
742.078367	0.033659
742.275694	0.033785
742.473002	0.033698
742.670293	0.033548
742.867565	0.033678
743.064819	0.033654
743.262054	0.033551
743.459272	0.033565
743.656471	0.033614
743.853652	0.033555
744.050815	0.033552
744.247959	0.033509
744.445085	0.033460
744.642194	0.033363
744.839283	0.033352
745.036355	0.033485
745.233408	0.033462
745.430444	0.033465
745.627461	0.033433
745.824459	0.033389
746.021440	0.033148
746.218402	0.033110
746.415346	0.033057
746.612272	0.032879
746.809180	0.032758
747.006069	0.032842
747.202940	0.032845
747.399793	0.032625
747.596628	0.032530
747.793444	0.032830
747.990243	0.032904
748.187023	0.032893
748.383784	0.032837
748.580528	0.032772
748.777253	0.032446
748.973960	0.032308
749.170649	0.032397
749.367320	0.032315
749.563973	0.031938
749.760607	0.031765
749.957223	0.031667
750.153821	0.031548
750.350400	0.031610
750.546962	0.031839
750.743505	0.032027
750.940030	0.032167
751.136536	0.032242
751.333025	0.032421
751.529495	0.032466
751.725947	0.032628
751.922381	0.032945
752.118796	0.032857
752.315194	0.032743
752.511573	0.032635
752.707934	0.032606
752.904276	0.032550
753.100601	0.032624
753.296907	0.032567
753.493195	0.032339
753.689465	0.032113
753.885716	0.032077
754.081949	0.032258
754.278164	0.032163
754.474361	0.032237
754.670540	0.032295
754.866700	0.032397
755.062843	0.032398
755.258967	0.032602
755.455072	0.032758
755.651160	0.032844
755.847229	0.032679
756.043280	0.032620
756.239313	0.032564
756.435328	0.032507
756.631324	0.032418
756.827302	0.032560
757.023262	0.032503
757.219204	0.032362
757.415127	0.032456
757.611033	0.032502
757.806920	0.032582
758.002788	0.032475
758.198639	0.032420
758.394471	0.032350
758.590286	0.032257
758.786081	0.032352
758.981859	0.032411
759.177619	0.032135
759.373360	0.032046
759.569083	0.032096
759.764788	0.032120
759.960474	0.032103
760.156143	0.031943
760.351793	0.031926
760.547425	0.031819
760.743038	0.031813
760.938634	0.032001
761.134211	0.031918
761.329770	0.031747
761.525311	0.031739
761.720833	0.031769
761.916338	0.031864
762.111824	0.031846
762.307292	0.031893
762.502741	0.031913
762.698173	0.031988
762.893586	0.032104
763.088981	0.032172
763.284358	0.032145
763.479716	0.032257
763.675057	0.032369
763.870379	0.032400
764.065683	0.032306
764.260968	0.032181
764.456236	0.031950
764.651485	0.032001
764.846716	0.031870
765.041929	0.031757
765.237123	0.031581
765.432299	0.031540
765.627457	0.031451
765.822597	0.031466
766.017719	0.031557
766.212822	0.031489
766.407907	0.031550
766.602974	0.031805
766.798023	0.031789
766.993054	0.031712
767.188066	0.031407
767.383060	0.031429
767.578036	0.031446
767.772993	0.031339
767.967933	0.031422
768.162854	0.031248
768.357757	0.031057
768.552642	0.031021
768.747508	0.031000
768.942356	0.031295
769.137186	0.031248
769.331998	0.031259
769.526792	0.031319
769.721567	0.031459
769.916324	0.031455
770.111063	0.031409
770.305784	0.031436
770.500486	0.031708
770.695171	0.031582
770.889837	0.031657
771.084484	0.031603
771.279114	0.031603
771.473725	0.031602
771.668318	0.031584
771.862893	0.031564
772.057450	0.031663
772.251988	0.031476
772.446509	0.031554
772.641011	0.031404
772.835494	0.031299
773.029960	0.031367
773.224407	0.031223
773.418836	0.031175
773.613247	0.031269
773.807640	0.031071
774.002014	0.030911
774.196370	0.030604
774.390708	0.030797
774.585028	0.030824
774.779330	0.030655
774.973613	0.030714
775.167878	0.030748
775.362125	0.030636
775.556354	0.030566
775.750564	0.030737
775.944756	0.030938
776.138930	0.030761
776.333086	0.030782
776.527223	0.030719
776.721343	0.030519
776.915444	0.030284
777.109526	0.030392
777.303591	0.030577
777.497637	0.030514
777.691666	0.030443
777.885676	0.030446
778.079667	0.030448
778.273641	0.030549
778.467596	0.030745
778.661533	0.030985
778.855452	0.031020
779.049352	0.030956
779.243235	0.030918
779.437099	0.030927
779.630945	0.030958
779.824773	0.030930
780.018582	0.031008
780.212373	0.030992
780.406146	0.030927
780.599901	0.031086
780.793638	0.031276
780.987356	0.031395
781.181056	0.031438
781.374738	0.031421
781.568402	0.031513
781.762047	0.031344
781.955674	0.031380
782.149283	0.031432
782.342874	0.031358
782.536447	0.031311
782.730001	0.031115
782.923537	0.031046
783.117055	0.031166
783.310555	0.031120
783.504036	0.031373
783.697499	0.031326
783.890944	0.031285
784.084371	0.031131
784.277780	0.030874
784.471170	0.031013
784.664542	0.031051
784.857896	0.030932
785.051231	0.030931
785.244549	0.030798
785.437848	0.030914
785.631129	0.030994
785.824392	0.031020
786.017636	0.031122
786.210863	0.031153
786.404071	0.031141
786.597260	0.031171
786.790432	0.031083
786.983585	0.030970
787.176721	0.030679
787.369838	0.030647
787.562936	0.030570
787.756017	0.030730
787.949079	0.030612
788.142123	0.030490
788.335149	0.030461
788.528156	0.030398
788.721146	0.030496
788.914117	0.030700
789.107070	0.030710
789.300005	0.030758
789.492921	0.030607
789.685819	0.030685
789.878699	0.030677
790.071561	0.030647
790.264405	0.030812
790.457230	0.030858
790.650037	0.030850
790.842826	0.030924
791.035597	0.030866
791.228349	0.030871
791.421084	0.030792
791.613800	0.030940
791.806497	0.030916
791.999177	0.030835
792.191838	0.030696
792.384481	0.030484
792.577106	0.030344
792.769713	0.030458
792.962301	0.030713
793.154871	0.030771
793.347423	0.030865
793.539957	0.031084
793.732473	0.031261
793.924970	0.031370
794.117449	0.031414
794.309910	0.031547
794.502353	0.031450
794.694777	0.031293
794.887183	0.031414
795.079571	0.031376
795.271941	0.031129
795.464293	0.031023
795.656626	0.031014
795.848941	0.030935
796.041238	0.030768
796.233516	0.030912
796.425777	0.030917
796.618019	0.030835
796.810243	0.030918
797.002449	0.031139
797.194636	0.030996
797.386805	0.031026
797.578956	0.031309
797.771089	0.031366
797.963204	0.031282
798.155300	0.031127
798.347378	0.031067
798.539438	0.030869
798.731480	0.030790
798.923503	0.031068
799.115509	0.031040
799.307496	0.030954
799.499465	0.030974
799.691415	0.031094
799.883348	0.031207
800.075262	0.031285
800.267158	0.031424
800.459035	0.031365
800.650895	0.031200
800.842736	0.031150
801.034559	0.031275
801.226364	0.031443
801.418150	0.031385
801.609919	0.031473
801.801669	0.031565
801.993401	0.031555
802.185114	0.031744
802.376810	0.031871
802.568487	0.031955
802.760146	0.031761
802.951787	0.031919
803.143409	0.031805
803.335014	0.031819
803.526600	0.031801
803.718168	0.031958
803.909717	0.031976
804.101249	0.031984
804.292762	0.032056
804.484257	0.032139
804.675734	0.032021
804.867192	0.032116
805.058632	0.032182
805.250054	0.032343
805.441458	0.032334
805.632844	0.032361
805.824211	0.032339
806.015561	0.032449
806.206891	0.032497
806.398204	0.032471
806.589499	0.032743
806.780775	0.032781
806.972033	0.032669
807.163273	0.032757
807.354495	0.032799
807.545698	0.032900
807.736883	0.032707
807.928050	0.032769
808.119199	0.032719
808.310329	0.032409
808.501441	0.032343
808.692535	0.032498
808.883611	0.032286
809.074669	0.032067
809.265708	0.032040
809.456729	0.032099
809.647732	0.032128
809.838717	0.032071
810.029683	0.032276
810.220632	0.032148
810.411562	0.031846
810.602474	0.032002
810.793367	0.032006
810.984242	0.032000
811.175100	0.032049
811.365938	0.031962
811.556759	0.031988
811.747562	0.031888
811.938346	0.032090
812.129112	0.032305
812.319860	0.032190
812.510589	0.032518
812.701300	0.032653
812.891994	0.032669
813.082668	0.032752
813.273325	0.032940
813.463964	0.033077
813.654584	0.033182
813.845186	0.033201
814.035769	0.033392
814.226335	0.033173
814.416882	0.033130
814.607411	0.033365
814.797922	0.033576
814.988415	0.033606
815.178889	0.033618
815.369345	0.033680
815.559783	0.033723
815.750203	0.033595
815.940605	0.033874
816.130988	0.034026
816.321353	0.033954
816.511700	0.033971
816.702028	0.033984
816.892339	0.034074
817.082631	0.034075
817.272905	0.034405
817.463161	0.034578
817.653398	0.034493
817.843617	0.034532
818.033819	0.034478
818.224001	0.034258
818.414166	0.034318
818.604312	0.034365
818.794440	0.034209
818.984550	0.033720
819.174642	0.033704
819.364716	0.033616
819.554771	0.033571
819.744808	0.033753
819.934827	0.033840
820.124827	0.033824
820.314810	0.033846
820.504774	0.034046
820.694720	0.034368
820.884647	0.034349
821.074557	0.034425
821.264448	0.034303
821.454321	0.034117
821.644176	0.034242
821.834012	0.034294
822.023831	0.034280
822.213631	0.034113
822.403413	0.034033
822.593176	0.034070
822.782922	0.033974
822.972649	0.034096
823.162358	0.034215
823.352049	0.034167
823.541721	0.033948
823.731376	0.033731
823.921012	0.033608
824.110629	0.033560
824.300229	0.033502
824.489811	0.033554
824.679374	0.033500
824.868919	0.033432
825.058445	0.033410
825.247954	0.033545
825.437444	0.033795
825.626916	0.034062
825.816370	0.034163
826.005806	0.034255
826.195223	0.034420
826.384622	0.034413
826.574003	0.034659
826.763366	0.034756
826.952711	0.034839
827.142037	0.034943
827.331345	0.034964
827.520635	0.034926
827.709906	0.035001
827.899160	0.034974
828.088395	0.035329
828.277612	0.035242
828.466810	0.035425
828.655991	0.035582
828.845153	0.035759
829.034297	0.035882
829.223423	0.035990
829.412531	0.035942
829.601620	0.036001
829.790691	0.035642
829.979744	0.035651
830.168779	0.035551
830.357795	0.035489
830.546793	0.035264
830.735773	0.035286
830.924735	0.035264
831.113679	0.035417
831.302604	0.035456
831.491511	0.035483
831.680400	0.035688
831.869271	0.035857
832.058123	0.035940
832.246957	0.035861
832.435773	0.035931
832.624571	0.035848
832.813351	0.035809
833.002112	0.035734
833.190855	0.035926
833.379580	0.035888
833.568287	0.035670
833.756975	0.035606
833.945645	0.035681
834.134297	0.035584
834.322931	0.035797
834.511547	0.035826
834.700144	0.036143
834.888723	0.036210
835.077284	0.036225
835.265826	0.036260
835.454351	0.036473
835.642857	0.036526
835.831345	0.036534
836.019815	0.036547
836.208266	0.036666
836.396699	0.036553
836.585114	0.036629
836.773511	0.036655
836.961890	0.036826
837.150250	0.036784
837.338592	0.036764
837.526916	0.036741
837.715222	0.036719
837.903510	0.036724
838.091779	0.036831
838.280030	0.036671
838.468263	0.036630
838.656477	0.036789
838.844674	0.036608
839.032852	0.036837
839.221012	0.036942
839.409153	0.037165
839.597277	0.037364
839.785382	0.037305
839.973469	0.037391
840.161538	0.037472
840.349589	0.037340
840.537621	0.037619
840.725635	0.037830
840.913631	0.038040
841.101609	0.037992
841.289568	0.038001
841.477509	0.038089
841.665432	0.038258
841.853337	0.038418
842.041224	0.038613
842.229092	0.038693
842.416942	0.038696
842.604774	0.038766
842.792588	0.038793
842.980383	0.038822
843.168160	0.039020
843.355919	0.039137
843.543660	0.039183
843.731382	0.039343
843.919087	0.039404
844.106773	0.039386
844.294441	0.039518
844.482090	0.039839
844.669722	0.040096
844.857335	0.040178
845.044930	0.040308
845.232507	0.040151
845.420065	0.040258
845.607605	0.040303
845.795127	0.040346
845.982631	0.040337
846.170117	0.040363
846.357584	0.040124
846.545033	0.040109
846.732464	0.040290
846.919877	0.040720
847.107272	0.040889
847.294648	0.040988
847.482006	0.040974
847.669346	0.041151
847.856667	0.041063
848.043971	0.041283
848.231256	0.041236
848.418523	0.041016
848.605771	0.041037
848.793002	0.041188
848.980214	0.041137
849.167408	0.041318
849.354584	0.041425
849.541742	0.041520
849.728881	0.041722
849.916002	0.041928
850.103105	0.042426
850.290190	0.042458
850.477256	0.042160
850.664304	0.042493
850.851334	0.042538
851.038346	0.042400
851.225340	0.042664
851.412315	0.042749
851.599272	0.042718
851.786211	0.042641
851.973132	0.042596
852.160034	0.042910
852.346918	0.042928
852.533784	0.043315
852.720632	0.043548
852.907462	0.043395
853.094273	0.043497
853.281066	0.043744
853.467841	0.043731
853.654598	0.043954
853.841336	0.044163
854.028056	0.044177
854.214758	0.044121
854.401442	0.043922
854.588107	0.044169
854.774755	0.043918
854.961384	0.043891
855.147995	0.044062
855.334587	0.044094
855.521162	0.043899
855.707718	0.044058
855.894256	0.043922
856.080775	0.044057
856.267277	0.043989
856.453760	0.044114
856.640225	0.044247
856.826672	0.044040
857.013101	0.044070
857.199511	0.044060
857.385903	0.044000
857.572277	0.044127
857.758633	0.044068
857.944970	0.044283
858.131290	0.044402
858.317591	0.044559
858.503873	0.044826
858.690138	0.044901
858.876384	0.044987
859.062612	0.045320
859.248822	0.045490
859.435014	0.045857
859.621188	0.045857
859.807343	0.046038
859.993480	0.045751
860.179599	0.045744
860.365699	0.045954
860.551781	0.046197
860.737846	0.045921
860.923891	0.046086
861.109919	0.045972
861.295929	0.045884
861.481920	0.046047
861.667893	0.046340
861.853848	0.046522
862.039784	0.046254
862.225702	0.046126
862.411603	0.046398
862.597484	0.046259
862.783348	0.046689
862.969193	0.047062
863.155021	0.046857
863.340830	0.046952
863.526620	0.046943
863.712393	0.047256
863.898147	0.047312
864.083883	0.047293
864.269601	0.047584
864.455301	0.047561
864.640982	0.047493
864.826645	0.047796
865.012290	0.047963
865.197917	0.047938
865.383526	0.048089
865.569116	0.048265
865.754688	0.048421
865.940242	0.048259
866.125777	0.048205
866.311295	0.048416
866.496794	0.048305
866.682275	0.048297
866.867737	0.048279
867.053182	0.048185
867.238608	0.048137
867.424016	0.048167
867.609406	0.048269
867.794778	0.048390
867.980131	0.048172
868.165466	0.048267
868.350783	0.048352
868.536082	0.048484
868.721362	0.048542
868.906625	0.048735
869.091869	0.048771
869.277094	0.048588
869.462302	0.048576
869.647491	0.048746
869.832662	0.048918
870.017815	0.048781
870.202950	0.048978
870.388066	0.049047
870.573165	0.048912
870.758245	0.048890
870.943306	0.049055
871.128350	0.048977
871.313375	0.048854
871.498382	0.049019
871.683371	0.048955
871.868342	0.049128
872.053294	0.049397
872.238229	0.049691
872.423144	0.049774
872.608042	0.050075
872.792922	0.050395
872.977783	0.050815
873.162626	0.050562
873.347451	0.050948
873.532258	0.050842
873.717046	0.050657
873.901816	0.050496
874.086568	0.050541
874.271302	0.050356
874.456017	0.049961
874.640715	0.049724
874.825394	0.049772
875.010055	0.049850
875.194697	0.049765
875.379322	0.049921
875.563928	0.050063
875.748516	0.050066
875.933085	0.050032
876.117637	0.050155
876.302170	0.050229
876.486685	0.050607
876.671182	0.050555
876.855661	0.050500
877.040121	0.050489
877.224563	0.050488
877.408987	0.050421
877.593393	0.050948
877.777780	0.051403
877.962150	0.051637
878.146501	0.051422
878.330833	0.051353
878.515148	0.051541
878.699444	0.051391
878.883722	0.051576
879.067982	0.051631
879.252224	0.051556
879.436447	0.051600
879.620653	0.051497
879.804840	0.051488
879.989008	0.051789
880.173159	0.051891
880.357291	0.051963
880.541405	0.052080
880.725501	0.052459
880.909579	0.052475
881.093638	0.052169
881.277680	0.051974
881.461703	0.051901
881.645707	0.051917
881.829694	0.052039
882.013662	0.051905
882.197612	0.051868
882.381544	0.051624
882.565458	0.051276
882.749353	0.051420
882.933230	0.051502
883.117089	0.051784
883.300930	0.051712
883.484753	0.051614
883.668557	0.052063
883.852343	0.052192
884.036111	0.052332
884.219861	0.052341
884.403592	0.052544
884.587305	0.052549
884.771000	0.052435
884.954677	0.052471
885.138335	0.052591
885.321976	0.052516
885.505598	0.052266
885.689201	0.052259
885.872787	0.052510
886.056354	0.052346
886.239904	0.052353
886.423434	0.052368
886.606947	0.052065
886.790442	0.051929
886.973918	0.052016
887.157376	0.051587
887.340816	0.051453
887.524237	0.051219
887.707641	0.051181
887.891026	0.051441
888.074393	0.051643
888.257741	0.051794
888.441072	0.051897
888.624384	0.051858
888.807678	0.052427
888.990954	0.052526
889.174211	0.052810
889.357451	0.052727
889.540672	0.052768
889.723875	0.052530
889.907059	0.052443
890.090226	0.052581
890.273374	0.052442
890.456504	0.052528
890.639616	0.052777
890.822709	0.052727
891.005785	0.052726
891.188842	0.052425
891.371881	0.052361
891.554901	0.052533
891.737904	0.052122
891.920888	0.051976
892.103854	0.051759
892.286802	0.051359
892.469731	0.051402
892.652643	0.051583
892.835536	0.051683
893.018410	0.051727
893.201267	0.051924
893.384106	0.052062
893.566926	0.052024
893.749728	0.052331
893.932511	0.052585
894.115277	0.052503
894.298024	0.052074
894.480753	0.052580
894.663464	0.052756
894.846157	0.052684
895.028831	0.052705
895.211487	0.052696
895.394125	0.052594
895.576745	0.052405
895.759346	0.052248
895.941930	0.052531
896.124495	0.052040
896.307041	0.051882
896.489570	0.051882
896.672080	0.052060
896.854573	0.052274
897.037046	0.052070
897.219502	0.052142
897.401940	0.052236
897.584359	0.052280
897.766760	0.052027
897.949143	0.051735
898.131507	0.050974
898.313854	0.050620
898.496182	0.050542
898.678492	0.050403
898.860783	0.050346
899.043057	0.050074
899.225312	0.050038
899.407549	0.049926
899.589768	0.049864
899.771968	0.050341
899.954151	0.050359
900.136315	0.050123
900.318461	0.050067
900.500588	0.049795
900.682698	0.049834
900.864789	0.049629
901.046862	0.049873
901.228917	0.050239
901.410953	0.050219
901.592971	0.050253
901.774972	0.050200
901.956953	0.049991
902.138917	0.049987
902.320862	0.050082
902.502790	0.050124
902.684699	0.049790
902.866589	0.049300
903.048462	0.049097
903.230316	0.049124
903.412152	0.049025
903.593970	0.049048
903.775770	0.049094
903.957551	0.048788
904.139314	0.048730
904.321059	0.048802
904.502786	0.049345
904.684494	0.049563
904.866185	0.049610
905.047857	0.049968
905.229510	0.049815
905.411146	0.049739
905.592763	0.050052
905.774363	0.050215
905.955943	0.050218
906.137506	0.050120
906.319051	0.050075
906.500577	0.049919
906.682085	0.049761
906.863575	0.049800
907.045046	0.049980
907.226500	0.049649
907.407935	0.048974
907.589352	0.048762
907.770750	0.048204
907.952131	0.047830
908.133493	0.047732
908.314837	0.047325
908.496163	0.047394
908.677470	0.047213
908.858760	0.046898
909.040031	0.046956
909.221284	0.047171
909.402518	0.047426
909.583735	0.047594
909.764933	0.047349
909.946113	0.047321
910.127275	0.047137
910.308418	0.047097
910.489544	0.047372
910.670651	0.047463
910.851740	0.047456
911.032810	0.047194
911.213863	0.046734
911.394897	0.046589
911.575913	0.046795
911.756911	0.046444
911.937890	0.046221
912.118851	0.045753
912.299794	0.045619
912.480719	0.045522
912.661626	0.045266
912.842514	0.045320
913.023384	0.045181
913.204236	0.044793
913.385070	0.045065
913.565886	0.044766
913.746683	0.044838
913.927462	0.045004
914.108223	0.044855
914.288965	0.045307
914.469690	0.045126
914.650396	0.044835
914.831084	0.045340
915.011754	0.045113
915.192405	0.045197
915.373038	0.045266
915.553653	0.044866
915.734250	0.044538
915.914829	0.044037
916.095389	0.044412
916.275931	0.044641
916.456455	0.043676
916.636961	0.043809
916.817448	0.043559
916.997917	0.043105
917.178368	0.042796
917.358801	0.042781
917.539216	0.042433
917.719612	0.042202
917.899990	0.041841
918.080350	0.041942
918.260692	0.041543
918.441015	0.041363
918.621320	0.041486
918.801607	0.041641
918.981876	0.041443
919.162127	0.041540
919.342359	0.041207
919.522573	0.040976
919.702769	0.040794
919.882947	0.040379
920.063106	0.040068
920.243247	0.039441
920.423370	0.039129
920.603475	0.038824
920.783562	0.038629
920.963630	0.038017
921.143680	0.037976
921.323712	0.037829
921.503725	0.038019
921.683721	0.037816
921.863698	0.038092
922.043657	0.038031
922.223598	0.037765
922.403520	0.037550
922.583424	0.037688
922.763311	0.037153
922.943178	0.037150
923.123028	0.036430
923.302859	0.036757
923.482673	0.036804
923.662467	0.036489
923.842244	0.036464
924.022003	0.036083
924.201743	0.035754
924.381465	0.035884
924.561169	0.035390
924.740854	0.035228
924.920522	0.034734
925.100171	0.033868
925.279802	0.033656
925.459414	0.033459
925.639009	0.033681
925.818585	0.033131
925.998143	0.032955
926.177683	0.032475
926.357205	0.033028
926.536708	0.032526
926.716193	0.032594
926.895660	0.032626
927.075109	0.032448
927.254539	0.031785
927.433951	0.031929
927.613345	0.031987
927.792721	0.031658
927.972079	0.030865
928.151418	0.030792
928.330739	0.030324
928.510042	0.029670
928.689327	0.029185
928.868593	0.029098
929.047841	0.029122
929.227071	0.028542
929.406283	0.028681
929.585476	0.028236
929.764652	0.027743
929.943809	0.027663
930.122948	0.027586
930.302068	0.027452
930.481171	0.026865
930.660255	0.025854
930.839321	0.025509
931.018369	0.025762
931.197398	0.025754
931.376409	0.025545
931.555402	0.025580
931.734377	0.025052
931.913334	0.024812
932.092272	0.024099
932.271192	0.024325
932.450094	0.024621
932.628978	0.023872
932.807844	0.023794
932.986691	0.023681
933.165520	0.023375
933.344331	0.023171
933.523123	0.022630
933.701898	0.022841
933.880654	0.022843
934.059392	0.022161
934.238111	0.022026
934.416813	0.021665
934.595496	0.021472
934.774161	0.021597
934.952808	0.021475
935.131437	0.020773
935.310047	0.020987
935.488639	0.020820
935.667213	0.020324
935.845769	0.019833
936.024306	0.019379
936.202825	0.019420
936.381326	0.018574
936.559809	0.018112
936.738274	0.018714
936.916720	0.018503
937.095148	0.017394
937.273558	0.017445
937.451950	0.017301
937.630323	0.016770
937.808678	0.015838
937.987015	0.015488
938.165334	0.014834
938.343635	0.014242
938.521917	0.013543
938.700181	0.013402
938.878427	0.012711
939.056655	0.012242
939.234864	0.012533
939.413055	0.012747
939.591228	0.012272
939.769383	0.012930
939.947519	0.012772
940.125638	0.012150
940.303738	0.011731
940.481820	0.012032
940.659883	0.011993
940.837929	0.012233
941.015956	0.012120
941.193965	0.012046
941.371955	0.011524
941.549928	0.011652
941.727882	0.011918
941.905818	0.012239
942.083736	0.011754
942.261636	0.012148
942.439517	0.010872
942.617380	0.009550
942.795225	0.009704
942.973052	0.009247
943.150860	0.007529
943.328651	0.007641
943.506423	0.006578
943.684176	0.005756
943.861912	0.004486
944.039629	0.004297
944.217328	0.004486
944.395009	0.003508
944.572672	0.003001
944.750317	0.004446
944.927943	0.003121
945.105551	0.003569
945.283141	0.003285
945.460712	0.003402
945.638265	0.002929
945.815801	0.002900
945.993317	0.003593
946.170816	0.004022
946.348297	0.003886
946.525759	0.004071
946.703203	0.003920
946.880629	0.004554
947.058036	0.004330
947.235425	0.004472
947.412797	0.004943
947.590149	0.004017
947.767484	0.003648
947.944800	0.003521
948.122099	0.003360
948.299379	0.003995
948.476640	0.003471
948.653884	0.003326
948.831109	0.003194
949.008316	0.002984
949.185505	0.003076
949.362676	0.003071
949.539828	0.001771
949.716962	0.002280
949.894078	0.000686
950.071176	0.000713
950.248256	0.000846
950.425317	0.001139
950.602360	0.001053
950.779385	0.001445
950.956391	0.001193
951.133380	0.001568
951.310350	0.000896
951.487302	0.002229
951.664235	0.002778
951.841151	0.001468
952.018048	0.001290
952.194927	0.001210
952.371788	-0.000147
952.548631	-0.000100
952.725455	0.000338
952.902261	0.000795
953.079049	0.000957
953.255819	0.000626
953.432570	0.002293
953.609303	0.002737
953.786018	0.002419
953.962715	0.003019
954.139394	0.003388
954.316054	0.004029
954.492696	0.003067
954.669320	0.001720
954.845926	0.000962
955.022513	0.000101
955.199083	0.000340
955.375634	0.000165
955.552166	0.000001
955.728681	-0.000781
955.905177	-0.001663
956.081655	-0.001370
956.258115	-0.001730
956.434557	-0.001647
956.610980	-0.001210
956.787385	-0.001070
956.963772	-0.001403
957.140141	-0.000615
957.316492	0.000912
957.492824	0.000395
957.669138	0.002069
957.845434	0.002855
958.021712	0.004720
958.197971	0.005340
958.374212	0.004392
958.550435	0.004499
958.726640	0.005529
958.902826	0.006084
959.078995	0.006912
959.255145	0.006704
959.431277	0.007126
959.607390	0.005051
959.783486	0.005148
959.959563	0.005920
960.135622	0.005265
960.311662	0.004006
960.487685	0.002040
960.663689	0.001711
960.839675	0.000298
961.015643	0.000756
961.191593	0.003179
961.367524	0.001420
961.543437	0.002275
961.719332	0.003331
961.895209	0.004642
962.071067	0.004597
962.246907	0.004588
962.422730	0.007347
962.598533	0.007033
962.774319	0.006227
962.950086	0.008264
963.125835	0.006426
963.301566	0.006789
963.477279	0.006044
963.652973	0.005454
963.828650	0.006192
964.004308	0.004817
964.179947	0.004868
964.355569	0.004721
964.531172	0.003595
964.706757	0.003994
964.882324	0.003214
965.057873	0.002084
965.233403	0.004778
965.408916	0.005075
965.584410	0.005478
965.759885	0.005007
965.935343	0.004566
966.110782	0.005228
966.286203	0.006354
966.461606	0.009600
966.636991	0.009829
966.812357	0.009054
966.987705	0.008378
967.163035	0.007611
967.338347	0.009620
967.513641	0.009187
967.688916	0.008642
967.864173	0.007786
968.039412	0.006387
968.214632	0.006467
968.389835	0.006219
968.565019	0.005389
968.740185	0.005385
968.915333	0.004535
969.090462	0.006043
969.265573	0.007700
969.440667	0.008829
969.615741	0.008388
969.790798	0.010073
969.965836	0.009032
970.140856	0.010859
970.315858	0.011013
970.490842	0.011496
970.665808	0.009888
970.840755	0.008470
971.015684	0.006970
971.190595	0.006196
971.365487	0.005796
971.540362	0.007213
971.715218	0.006357
971.890056	0.005301
972.064875	0.004227
972.239677	0.004282
972.414460	0.005401
972.589225	0.008161
972.763972	0.009632
972.938700	0.010360
973.113411	0.009491
973.288103	0.008929
973.462777	0.010519
973.637432	0.010775
973.812070	0.011406
973.986689	0.012259
974.161290	0.009286
974.335873	0.008518
974.510437	0.006068
974.684984	0.008402
974.859512	0.010520
975.034022	0.010140
975.208513	0.009953
975.382987	0.009274
975.557442	0.007511
975.731879	0.007512
975.906298	0.007315
976.080698	0.010287
976.255080	0.008657
976.429445	0.008219
976.603790	0.008872
976.778118	0.011076
976.952427	0.011733
977.126719	0.012332
977.300992	0.014169
977.475246	0.014011
977.649483	0.012773
977.823701	0.013582
977.997901	0.013308
978.172083	0.015241
978.346247	0.014969
978.520392	0.015484
978.694519	0.016249
978.868628	0.014682
979.042719	0.015354
979.216791	0.015044
979.390845	0.014873
979.564882	0.014662
979.738899	0.012379
979.912899	0.010452
980.086880	0.009810
980.260843	0.008788
980.434788	0.010820
980.608715	0.009725
980.782623	0.009941
980.956514	0.009147
981.130386	0.009198
981.304240	0.008028
981.478075	0.009800
981.651892	0.010804
981.825692	0.011455
981.999472	0.009704
982.173235	0.011908
982.346980	0.012363
982.520706	0.012436
982.694414	0.011119
982.868104	0.012733
983.041775	0.012662
983.215428	0.010318
983.389064	0.009638
983.562680	0.009965
983.736279	0.009085
983.909860	0.008182
984.083422	0.007310
984.256966	0.008154
984.430491	0.007852
984.603999	0.005582
984.777488	0.008816
984.950959	0.010049
985.124412	0.009664
985.297847	0.008739
985.471263	0.010040
985.644661	0.009226
985.818041	0.008555
985.991403	0.010413
986.164747	0.011887
986.338072	0.010011
986.511379	0.009473
986.684668	0.009770
986.857938	0.009918
987.031191	0.008780
987.204425	0.010601
987.377641	0.010127
987.550839	0.010325
987.724018	0.009504
987.897179	0.010844
988.070322	0.010147
988.243447	0.009932
988.416554	0.010146
988.589642	0.009770
988.762712	0.009189
988.935764	0.010623
989.108798	0.008687
989.281813	0.009367
989.454811	0.008800
989.627790	0.008616
989.800751	0.008395
989.973693	0.010042
990.146617	0.009371
990.319524	0.010216
990.492412	0.010016
990.665281	0.009454
990.838133	0.010121
991.010966	0.008046
991.183781	0.009954
991.356578	0.011649
991.529356	0.010171
991.702117	0.009855
991.874859	0.007947
992.047583	0.007182
992.220288	0.007868
992.392976	0.007873
992.565645	0.010064
992.738296	0.008931
992.910929	0.007443
993.083543	0.007332
993.256139	0.009272
993.428718	0.011015
993.601277	0.010984
993.773819	0.011476
993.946342	0.011047
994.118848	0.011847
994.291335	0.013385
994.463803	0.013710
994.636254	0.013470
994.808686	0.012565
994.981100	0.011229
995.153496	0.011413
995.325874	0.009703
995.498233	0.009483
995.670574	0.008185
995.842897	0.007018
996.015202	0.006815
996.187488	0.006551
996.359757	0.007179
996.532007	0.006983
996.704239	0.008101
996.876452	0.009176
997.048648	0.008518
997.220825	0.009288
997.392984	0.009125
997.565124	0.007666
997.737247	0.009635
997.909351	0.009711
998.081437	0.009723
998.253505	0.009355
998.425554	0.009117
998.597586	0.009991
998.769599	0.009888
998.941594	0.009008
999.113571	0.010999
999.285529	0.009699
999.457469	0.008776
999.629391	0.009722
999.801295	0.009433
999.973181	0.008299
1000.145048	0.007101
1000.316897	0.005648
1000.488728	0.007558
1000.660541	0.007087
1000.832335	0.006342
1001.004111	0.005046
1001.175869	0.004966
1001.347609	0.005322
1001.519331	0.006714
1001.691034	0.007092
1001.862719	0.008500
1002.034386	0.006456
1002.206035	0.007507
1002.377665	0.008693
1002.549277	0.009906
1002.720871	0.011157
1002.892447	0.011050
1003.064004	0.009512
1003.235544	0.009133
1003.407065	0.008219
1003.578568	0.008717
1003.750052	0.007547
1003.921519	0.006827
1004.092967	0.006581
1004.264397	0.004621
1004.435809	0.003287
1004.607202	0.004312
1004.778577	0.004420
1004.949934	0.003949
1005.121273	0.003981
1005.292594	0.003980
1005.463896	0.004478
1005.635180	0.004953
1005.806446	0.005652
1005.977694	0.006542
1006.148923	0.007732
1006.320135	0.009309
1006.491328	0.011376
1006.662503	0.011321
1006.833659	0.011233
1007.004798	0.010198
1007.175918	0.010166
1007.347020	0.011329
1007.518103	0.011802
1007.689169	0.010660
1007.860216	0.008730
1008.031245	0.007842
1008.202256	0.007187
1008.373248	0.007911
1008.544223	0.009818
1008.715179	0.010550
1008.886117	0.008769
1009.057036	0.009109
1009.227938	0.009182
1009.398821	0.010718
1009.569686	0.010207
1009.740533	0.012538
1009.911361	0.011695
1010.082172	0.010192
1010.252964	0.008875
1010.423738	0.009535
1010.594493	0.007679
1010.765231	0.006719
1010.935950	0.006117
1011.106651	0.005882
1011.277334	0.003406
1011.447998	0.003790
1011.618645	0.003862
1011.789273	0.005090
1011.959882	0.005338
1012.130474	0.005391
1012.301048	0.005997
1012.471603	0.005905
1012.642140	0.006016
1012.812658	0.006439
1012.983159	0.006086
1013.153641	0.006206
1013.324105	0.005488
1013.494551	0.005781
1013.664979	0.006594
1013.835388	0.007361
1014.005779	0.008472
1014.176152	0.007783
1014.346507	0.009497
1014.516843	0.011041
1014.687162	0.010473
1014.857462	0.010042
1015.027744	0.009469
1015.198007	0.011088
1015.368252	0.008867
1015.538480	0.008384
1015.708689	0.010615
1015.878879	0.008158
1016.049052	0.006484
1016.219206	0.007676
1016.389342	0.008662
1016.559460	0.009918
1016.729559	0.008577
1016.899641	0.012358
1017.069704	0.012271
1017.239749	0.009767
1017.409775	0.010946
1017.579784	0.011621
1017.749774	0.013024
1017.919746	0.013157
1018.089700	0.012437
1018.259635	0.013224
1018.429553	0.010774
1018.599452	0.009841
1018.769333	0.011359
1018.939195	0.009708
1019.109040	0.009879
1019.278866	0.006857
1019.448674	0.005539
1019.618464	0.004160
1019.788235	0.001952
1019.957989	0.002451
1020.127724	0.003425
1020.297441	0.002333
1020.467139	0.002899
1020.636820	0.001727
1020.806482	0.002169
1020.976126	0.001290
1021.145752	0.002362
1021.315359	0.003531
1021.484948	0.003646
1021.654519	0.002573
1021.824072	0.002387
1021.993607	0.002312
1022.163123	0.003602
1022.332621	0.004638
1022.502101	0.007339
1022.671563	0.005806
1022.841007	0.005625
1023.010432	0.006133
1023.179839	0.006074
1023.349228	0.005931
1023.518598	0.007487
1023.687951	0.007661
1023.857285	0.007465
1024.026601	0.005759
1024.195899	0.007674
1024.365178	0.008194
1024.534439	0.008069
1024.703682	0.008666
1024.872907	0.010003
1025.042114	0.008470
1025.211302	0.008237
1025.380472	0.007665
1025.549624	0.007472
1025.718758	0.007303
1025.887873	0.006104
1026.056970	0.004114
1026.226049	0.003544
1026.395110	0.003607
1026.564153	0.005270
1026.733177	0.004805
1026.902183	0.005909
1027.071171	0.006054
1027.240141	0.005285
1027.409092	0.005955
1027.578026	0.007383
1027.746940	0.007593
1027.915837	0.007539
1028.084716	0.005947
1028.253576	0.006643
1028.422418	0.005068
1028.591242	0.005761
1028.760048	0.007577
1028.928835	0.008884
1029.097604	0.008357
1029.266355	0.008884
1029.435088	0.008830
1029.603803	0.008220
1029.772499	0.008535
1029.941177	0.008072
1030.109837	0.008614
1030.278478	0.006661
1030.447102	0.004966
1030.615707	0.004963
1030.784294	0.003848
1030.952863	0.003085
1031.121413	0.004038
1031.289945	0.002375
1031.458460	0.002293
1031.626955	0.001959
1031.795433	0.003058
1031.963892	0.003494
1032.132334	0.005516
1032.300756	0.006255
1032.469161	0.006316
1032.637548	0.007461
1032.805916	0.007460
1032.974266	0.007691
1033.142598	0.007371
1033.310911	0.008026
1033.479207	0.008710
1033.647484	0.007978
1033.815743	0.008331
1033.983983	0.008267
1034.152206	0.007721
1034.320410	0.008341
1034.488596	0.008668
1034.656764	0.008853
1034.824914	0.006096
1034.993045	0.005458
1035.161158	0.005531
1035.329253	0.006562
1035.497330	0.006840
1035.665388	0.005037
1035.833428	0.004946
1036.001450	0.005993
1036.169454	0.005802
1036.337440	0.007278
1036.505407	0.006545
1036.673356	0.004658
1036.841287	0.001629
1037.009200	0.001566
1037.177094	0.003647
1037.344970	0.003448
1037.512828	0.003327
1037.680668	0.003488
1037.848489	0.003199
1038.016293	0.003484
1038.184078	0.005268
1038.351845	0.007006
1038.519593	0.006789
1038.687324	0.006497
1038.855036	0.006333
1039.022730	0.006061
1039.190406	0.006208
1039.358063	0.006381
1039.525702	0.007350
1039.693323	0.005761
1039.860926	0.006176
1040.028511	0.005595
1040.196077	0.004503
1040.363625	0.003970
1040.531155	0.004649
1040.698667	0.004982
1040.866161	0.003378
1041.033636	0.003317
1041.201093	0.004827
1041.368532	0.003215
1041.535952	0.003784
1041.703355	0.004099
1041.870739	0.005146
1042.038105	0.003383
1042.205452	0.003989
1042.372782	0.005698
1042.540093	0.005185
1042.707386	0.004706
1042.874661	0.004836
1043.041918	0.004499
1043.209156	0.005368
1043.376376	0.003868
1043.543578	0.005192
1043.710762	0.003830
1043.877927	0.003857
1044.045074	0.004916
1044.212203	0.003976
1044.379314	0.004740
1044.546407	0.006104
1044.713481	0.004945
1044.880537	0.006917
1045.047575	0.005792
1045.214595	0.005939
1045.381596	0.005743
1045.548579	0.004204
1045.715544	0.005435
1045.882491	0.003879
1046.049420	0.002518
1046.216330	0.002206
1046.383222	0.001490
1046.550096	0.002308
1046.716951	0.002376
1046.883789	0.001438
1047.050608	0.002064
1047.217409	0.001813
1047.384192	0.002863
1047.550956	0.003398
1047.717703	0.003759
1047.884431	0.002725
1048.051140	0.001638
1048.217832	0.001859
1048.384505	0.002906
1048.551161	0.001985
1048.717798	0.001418
1048.884416	0.002895
1049.051017	0.002625
1049.217599	0.002052
1049.384163	0.002616
1049.550709	0.003345
1049.717237	0.005329
1049.883746	0.004789
1050.050237	0.005548
1050.216710	0.006550
1050.383165	0.006103
1050.549601	0.006746
1050.716019	0.006927
1050.882420	0.005751
1051.048801	0.005995
1051.215165	0.002862
1051.381510	0.004080
1051.547837	0.003149
1051.714146	0.002675
1051.880437	0.000581
1052.046709	0.001207
1052.212964	0.002058
1052.379200	0.001350
1052.545417	0.001376
1052.711617	0.001857
1052.877798	0.000140
1053.043961	0.002151
1053.210106	0.001499
1053.376233	0.004206
1053.542341	0.004031
1053.708432	0.005055
1053.874504	0.006155
1054.040557	0.005381
1054.206593	0.004875
1054.372610	0.006499
1054.538609	0.004850
1054.704590	0.005344
1054.870553	0.003886
1055.036497	0.002447
1055.202424	0.000133
1055.368331	0.001109
1055.534221	0.003113
1055.700093	0.003941
1055.865946	0.004141
1056.031781	0.004580
1056.197598	0.003186
1056.363397	0.003411
1056.529177	0.003397
1056.694939	0.004496
1056.860683	0.003116
1057.026409	0.001638
1057.192116	0.001818
1057.357806	0.002234
1057.523477	0.002084
1057.689130	0.002166
1057.854764	0.003422
1058.020381	0.003048
1058.185979	0.004251
1058.351559	0.005706
1058.517120	0.006070
1058.682664	0.005591
1058.848189	0.005624
1059.013696	0.006803
1059.179185	0.008646
1059.344656	0.007503
1059.510108	0.007896
1059.675542	0.006495
1059.840958	0.006444
1060.006356	0.006564
1060.171735	0.006713
1060.337096	0.004608
1060.502439	0.003435
1060.667764	0.002049
1060.833071	0.002337
1060.998359	0.003826
1061.163629	0.004012
1061.328881	0.003739
1061.494115	0.004180
1061.659330	0.004966
1061.824527	0.006850
1061.989706	0.006116
1062.154867	0.005574
1062.320010	0.004972
1062.485134	0.003747
1062.650240	0.004489
1062.815328	0.004975
1062.980398	0.002883
1063.145449	0.001047
1063.310482	-0.001312
1063.475497	0.001054
1063.640494	0.001893
1063.805473	0.002564
1063.970433	0.002094
1064.135375	0.002436
1064.300299	0.001700
1064.465204	0.003297
1064.630092	0.005617
1064.794961	0.005963
1064.959812	0.004242
1065.124645	0.004722
1065.289459	0.002785
1065.454256	0.002447
1065.619034	0.002769
1065.783793	0.002400
1065.948535	0.002594
1066.113258	0.001373
1066.277964	0.002711
1066.442651	0.004037
1066.607319	0.004484
1066.771970	0.006010
1066.936602	0.007126
1067.101216	0.004307
1067.265812	0.006823
1067.430389	0.006134
1067.594949	0.006179
1067.759490	0.005578
1067.924013	0.002588
1068.088518	0.001621
1068.253004	0.002349
1068.417472	0.003585
1068.581922	0.006007
1068.746354	0.003045
1068.910768	0.004334
1069.075163	0.003857
1069.239540	0.003403
1069.403899	0.005396
1069.568240	0.005392
1069.732562	0.004361
1069.896866	0.001355
1070.061152	-0.000969
1070.225420	0.000693
1070.389670	0.000572
1070.553901	0.001131
1070.718114	0.001119
1070.882309	0.001875
1071.046486	0.001395
1071.210644	0.002771
1071.374784	0.004146
1071.538906	0.006586
1071.703010	0.007225
1071.867096	0.006729
1072.031163	0.006313
1072.195212	0.006372
1072.359243	0.004716
1072.523256	0.004405
1072.687250	0.002728
1072.851226	0.004048
1073.015184	0.004176
1073.179124	0.002745
1073.343045	0.002122
1073.506949	0.001379
1073.670834	0.002615
1073.834701	0.003360
1073.998549	0.004228
1074.162380	0.003426
1074.326192	0.004351
1074.489986	0.001854
1074.653761	0.002524
1074.817519	0.002161
1074.981258	0.004539
1075.144979	0.002177
1075.308682	0.002302
1075.472367	0.003196
1075.636033	0.006300
1075.799681	0.003541
1075.963311	0.005546
1076.126923	0.006076
1076.290516	0.004746
1076.454092	0.001461
1076.617649	0.003241
1076.781187	0.003102
1076.944708	0.002485
1077.108210	0.001293
1077.271695	0.001956
1077.435160	0.002462
1077.598608	0.003596
1077.762038	0.005908
1077.925449	0.009300
1078.088842	0.009694
1078.252217	0.009495
1078.415573	0.011849
1078.578912	0.009421
1078.742232	0.008248
1078.905534	0.006646
1079.068817	0.007456
1079.232083	0.005855
1079.395330	0.004612
1079.558559	0.003842
1079.721770	0.003770
1079.884962	0.001181
1080.048136	0.002426
1080.211293	0.002805
1080.374430	0.003531
1080.537550	0.000885
1080.700651	0.001412
1080.863735	-0.000834
1081.026800	-0.001149
1081.189846	-0.000018
1081.352875	-0.001378
1081.515885	-0.001328
1081.678877	-0.000589
1081.841851	-0.001938
1082.004807	-0.001822
1082.167744	-0.002598
1082.330663	-0.000877
1082.493564	-0.000751
1082.656447	-0.001241
1082.819312	-0.000415
1082.982158	-0.000280
1083.144986	0.000931
1083.307796	0.001317
1083.470587	0.002408
1083.633361	0.003455
1083.796116	0.004054
1083.958853	0.004143
1084.121571	0.004151
1084.284272	0.005012
1084.446954	0.004029
1084.609618	0.002090
1084.772264	0.003865
1084.934892	0.003529
1085.097501	0.001882
1085.260092	0.002038
1085.422665	0.002629
1085.585220	0.002684
1085.747756	0.001188
1085.910274	0.003542
1086.072774	0.004353
1086.235256	0.001521
1086.397720	0.001224
1086.560165	0.003298
1086.722592	0.001151
1086.885001	0.000406
1087.047392	0.000575
1087.209764	0.002494
1087.372119	0.002501
1087.534455	0.002209
1087.696772	0.003223
1087.859072	0.002211
1088.021353	0.002181
1088.183616	0.004678
1088.345861	0.004706
1088.508088	0.003101
1088.670296	0.003643
1088.832486	0.001861
1088.994658	0.000221
1089.156812	0.000896
1089.318948	-0.000352
1089.481065	-0.001144
1089.643164	-0.002758
1089.805245	-0.004169
1089.967308	-0.003984
1090.129352	-0.005783
1090.291378	-0.004932
1090.453386	-0.002487
1090.615376	-0.003006
1090.777347	-0.001805
1090.939301	-0.001547
1091.101236	-0.000515
1091.263153	0.002528
1091.425051	0.001604
1091.586932	0.002300
1091.748794	0.002413
1091.910638	0.002190
1092.072463	0.001592
1092.234271	0.002428
1092.396060	0.003058
1092.557831	0.005274
1092.719584	0.004517
1092.881319	0.007293
1093.043035	0.006771
1093.204733	0.006907
1093.366413	0.004141
1093.528075	0.005011
1093.689718	0.003651
1093.851343	0.004463
1094.012950	0.001006
1094.174539	-0.003005
1094.336110	-0.004412
1094.497662	-0.004409
1094.659196	-0.003613
1094.820712	-0.000719
1094.982210	-0.000121
1095.143689	-0.000242
1095.305151	-0.002587
1095.466594	-0.003925
1095.628018	-0.000955
1095.789425	-0.003029
1095.950813	-0.004002
1096.112183	-0.006405
1096.273535	-0.006727
1096.434869	-0.007140
1096.596184	-0.005701
1096.757482	-0.005479
1096.918761	-0.001449
1097.080021	0.000546
1097.241264	0.004056
1097.402488	0.004964
1097.563694	0.006132
1097.724882	0.005565
1097.886052	0.005123
1098.047203	0.003002
1098.208336	0.005534
1098.369451	0.003317
1098.530548	0.002682
1098.691627	0.001020
1098.852687	-0.000585
1099.013729	-0.000062
1099.174753	0.000735
1099.335758	-0.000533
1099.496746	0.001784
1099.657715	0.000762
1099.818666	0.000987
1099.979599	-0.001358
1100.140513	-0.001311
1100.301409	0.000735
1100.462287	-0.000839
1100.623147	-0.005229
1100.783989	-0.003307
1100.944812	-0.003557
1101.105617	-0.005915
1101.266404	-0.006890
1101.427173	-0.007402
1101.587923	-0.008762
1101.748656	-0.009876
1101.909370	-0.008029
1102.070066	-0.003469
1102.230743	-0.004901
1102.391403	-0.005379
1102.552044	-0.002986
1102.712667	-0.000481
1102.873271	0.000074
1103.033858	0.000590
1103.194426	0.003370
1103.354976	0.004344
1103.515508	0.004685
1103.676021	0.005430
1103.836517	0.004928
1103.996994	0.004384
1104.157453	0.006974
1104.317893	0.008296
1104.478316	0.009708
1104.638720	0.009186
1104.799106	0.009061
1104.959474	0.007132
1105.119823	0.005409
1105.280155	0.003886
1105.440468	0.003442
1105.600763	-0.001558
1105.761039	-0.001554
1105.921298	-0.001886
1106.081538	-0.001976
1106.241760	-0.001985
1106.401964	-0.001668
1106.562149	0.002198
1106.722316	0.004193
1106.882465	0.002917
1107.042596	0.004040
1107.202709	0.001525
1107.362803	0.001499
1107.522879	0.001507
1107.682937	-0.000542
1107.842977	-0.000903
1108.002999	-0.002579
1108.163002	-0.002532
1108.322987	-0.001145
1108.482954	-0.003779
1108.642902	-0.001023
1108.802833	-0.002162
1108.962745	-0.002960
1109.122639	-0.005512
1109.282515	-0.005578
1109.442372	-0.005163
1109.602211	-0.005621
1109.762032	-0.006475
1109.921835	-0.005142
1110.081620	-0.005952
1110.241386	-0.002990
1110.401134	-0.004604
1110.560864	-0.001774
1110.720576	-0.001731
1110.880269	-0.000844
1111.039945	-0.002210
1111.199602	-0.002352
1111.359240	-0.001530
1111.518861	-0.002692
1111.678463	-0.006591
1111.838047	-0.006562
1111.997613	-0.007465
1112.157161	-0.006341
1112.316690	-0.006979
1112.476202	-0.005314
1112.635695	-0.004896
1112.795169	-0.004106
1112.954626	0.001118
1113.114064	0.004181
1113.273484	0.003636
1113.432886	0.005282
1113.592270	0.007483
1113.751635	0.008011
1113.910983	0.007824
1114.070312	0.008182
1114.229622	0.004986
1114.388915	0.000854
1114.548189	-0.001097
1114.707445	-0.000006
1114.866683	0.002478
1115.025903	-0.000763
1115.185104	-0.003006
1115.344287	0.000259
1115.503452	0.002071
1115.662599	0.004618
1115.821727	0.006392
1115.980838	0.009933
1116.139930	0.008376
1116.299004	0.003984
1116.458059	0.003931
1116.617097	0.004472
1116.776116	0.001457
1116.935117	-0.000190
1117.094099	0.000087
1117.253064	-0.002459
1117.412010	-0.008199
1117.570938	-0.006185
1117.729848	-0.002925
1117.888740	-0.002181
1118.047613	-0.001605
1118.206468	-0.004655
1118.365305	-0.002760
1118.524124	-0.003629
1118.682924	0.000030
1118.841707	0.005217
1119.000471	0.003638
1119.159216	0.004764
1119.317944	0.007856
1119.476653	0.009999
1119.635344	0.010511
1119.794017	0.008410
1119.952672	0.011151
1120.111308	0.007572
1120.269927	0.007368
1120.428527	0.009077
1120.587108	0.009079
1120.745672	0.005859
1120.904217	0.007230
1121.062744	0.011757
1121.221253	0.013607
1121.379744	0.011199
1121.538216	0.009870
1121.696671	0.007830
1121.855107	0.004618
1122.013524	0.000618
1122.171924	0.003505
1122.330305	0.002462
1122.488668	0.002267
1122.647013	-0.001759
1122.805340	-0.001665
1122.963648	0.004433
1123.121938	0.004792
1123.280210	0.010906
1123.438464	0.011380
1123.596700	0.008564
1123.754917	0.005565
1123.913116	0.004690
1124.071297	0.006820
1124.229459	0.008649
1124.387604	0.004682
1124.545730	0.004356
1124.703838	0.003118
1124.861928	0.002717
1125.019999	0.007368
1125.178052	0.004951
1125.336088	0.006188
1125.494104	0.005865
1125.652103	0.003013
1125.810083	0.000593
1125.968045	0.005307
1126.125989	0.003877
1126.283915	0.005324
1126.441823	0.000649
1126.599712	0.001579
1126.757583	-0.001126
1126.915436	0.000653
1127.073270	0.002279
1127.231087	0.002527
1127.388885	0.001060
1127.546665	0.003003
1127.704426	0.000919
1127.862170	0.003569
1128.019895	0.003020
1128.177602	0.002884
1128.335291	0.002297
1128.492961	0.001926
1128.650614	0.007029
1128.808248	0.006018
1128.965864	0.000861
1129.123461	0.000608
1129.281041	0.002168
1129.438602	0.003238
1129.596145	0.001979
1129.753670	-0.001331
1129.911176	-0.000872
1130.068665	-0.001112
1130.226135	-0.007928
1130.383587	-0.001708
1130.541020	0.002636
1130.698436	0.002264
1130.855833	0.006723
1131.013212	0.010738
1131.170573	0.018332
1131.327915	0.016322
1131.485239	0.016379
1131.642545	0.020691
1131.799833	0.017057
1131.957103	0.011086
1132.114354	0.003619
1132.271588	0.003328
1132.428803	0.004266
1132.585999	-0.001259
1132.743178	0.000407
1132.900338	-0.000542
1133.057480	0.005699
1133.214604	0.005053
1133.371710	0.009689
1133.528797	0.014652
1133.685866	0.011971
1133.842917	0.004365
1133.999950	0.011482
1134.156964	0.010913
1134.313960	0.010068
1134.470938	0.006770
1134.627898	0.009879
1134.784840	0.009468
1134.941763	0.004577
1135.098668	0.000379
1135.255555	0.004111
1135.412424	-0.003820
1135.569274	-0.001006
1135.726107	0.000098
1135.882921	0.005357
1136.039716	0.002433
1136.196494	0.001817
1136.353253	0.002071
1136.509995	0.006266
1136.666717	0.010344
1136.823422	0.014168
1136.980109	0.010532
1137.136777	0.008700
1137.293427	-0.000903
1137.450059	-0.001433
1137.606672	0.000733
1137.763267	0.009311
1137.919844	0.009030
1138.076403	0.003906
1138.232944	0.002252
1138.389466	0.002484
1138.545971	0.003494
1138.702457	0.008065
1138.858924	0.011728
1139.015374	0.009456
1139.171805	0.001950
1139.328218	0.005149
1139.484613	0.005956
1139.640990	0.007306
1139.797348	0.010405
1139.953688	0.006910
1140.110010	0.003160
1140.266314	0.000957
1140.422600	-0.001561
1140.578867	0.003657
1140.735116	-0.002416
1140.891347	0.001591
1141.047559	-0.002277
1141.203754	-0.007680
1141.359930	-0.005718
1141.516088	0.000209
1141.672228	-0.001263
1141.828349	0.002534
1141.984452	-0.002046
1142.140537	-0.001393
1142.296604	-0.003924
1142.452653	0.000350
1142.608683	-0.002889
1142.764695	-0.004550
1142.920689	-0.010396
1143.076665	-0.007878
1143.232622	-0.009043
1143.388562	-0.003450
1143.544483	-0.001536
1143.700385	0.002455
1143.856270	0.001139
1144.012136	0.007565
1144.167985	0.012424
1144.323814	0.015137
1144.479626	0.018931
1144.635420	0.023370
1144.791195	0.026388
1144.946952	0.023605
1145.102691	0.018934
1145.258411	0.019074
1145.414113	0.020303
1145.569798	0.023312
1145.725463	0.022794
1145.881111	0.020363
1146.036741	0.010781
1146.192352	0.001608
1146.347945	0.007559
1146.503519	0.005173
1146.659076	0.005265
1146.814614	0.003451
1146.970134	-0.002788
1147.125636	-0.003271
1147.281120	0.003365
1147.436585	0.012090
1147.592032	0.012501
1147.747461	0.008326
1147.902872	0.011225
1148.058265	0.006596
1148.213639	0.008720
1148.368995	0.014261
1148.524333	0.004362
1148.679653	-0.003839
1148.834954	-0.013983
1148.990237	-0.017662
1149.145502	-0.018382
1149.300749	-0.020113
1149.455977	-0.017307
1149.611188	-0.015809
1149.766380	-0.024260
1149.921553	-0.017458
1150.076709	-0.019161
1150.231846	-0.014740
1150.386966	-0.010182
1150.542066	0.000213
1150.697149	0.003942
1150.852214	0.005238
1151.007260	0.005951
1151.162288	0.005798
1151.317298	0.010837
1151.472289	0.013760
1151.627263	0.016227
1151.782218	0.019600
1151.937155	0.010850
1152.092073	0.008284
1152.246974	0.011537
1152.401856	0.011916
1152.556720	0.014088
1152.711566	0.012455
1152.866393	0.012618
1153.021203	0.012472
1153.175994	0.006052
1153.330767	0.004155
1153.485521	0.004665
1153.640258	0.000837
1153.794976	0.002073
1153.949676	-0.000835
1154.104358	0.004635
1154.259021	0.006765
1154.413667	0.007002
1154.568294	0.013499
1154.722903	0.016828
1154.877493	0.019743
1155.032066	0.019361
1155.186620	0.020230
1155.341156	0.030344
1155.495674	0.025505
1155.650173	0.019504
1155.804654	0.013971
1155.959118	0.010239
1156.113562	0.008273
1156.267989	0.012127
1156.422397	0.017538
1156.576788	0.009390
1156.731160	0.000915
1156.885513	0.000687
1157.039849	0.003765
1157.194166	0.007268
1157.348465	0.013167
1157.502746	0.013223
1157.657009	0.005596
1157.811253	0.003517
1157.965479	0.013708
1158.119687	0.011699
1158.273877	0.004919
1158.428048	0.004190
1158.582201	0.004355
1158.736337	0.000369
1158.890453	-0.001576
1159.044552	0.000373
1159.198632	0.002536
1159.352694	-0.005675
1159.506738	0.002507
1159.660764	0.014199
1159.814771	0.020650
1159.968761	0.016530
1160.122732	0.014518
1160.276685	0.014562
1160.430619	0.013307
1160.584535	0.007211
1160.738434	0.001979
1160.892313	0.001847
1161.046175	-0.001670
1161.200019	-0.017748
1161.353844	-0.005677
1161.507651	-0.001842
1161.661440	0.005892
1161.815210	0.012446
1161.968962	0.017982
1162.122697	0.020955
1162.276412	0.019561
1162.430110	0.019997
1162.583789	0.028616
1162.737451	0.009728
1162.891094	0.011832
1163.044718	0.008307
1163.198325	0.001330
1163.351913	-0.002458
1163.505483	0.002645
1163.659035	0.000673
1163.812569	-0.000638
1163.966084	-0.009538
1164.119581	0.002570
1164.273060	0.002149
1164.426521	-0.003750
1164.579964	-0.005186
1164.733388	-0.001742
1164.886794	-0.007411
1165.040182	-0.003602
1165.193551	-0.007365
1165.346903	0.009127
1165.500236	0.003518
1165.653551	-0.004099
1165.806848	0.002592
1165.960126	0.002809
1166.113386	-0.003172
1166.266628	-0.005912
1166.419852	-0.006667
1166.573058	-0.003723
1166.726245	-0.017142
1166.879414	-0.000902
1167.032565	-0.000899
1167.185698	-0.010596
1167.338812	-0.012561
1167.491909	-0.016016
1167.644987	-0.019959
1167.798046	-0.027616
1167.951088	-0.030096
1168.104111	-0.022229
1168.257117	-0.036416
1168.410103	-0.038144
1168.563072	-0.035684
1168.716023	-0.030908
1168.868955	-0.020455
1169.021869	-0.011777
1169.174765	-0.002823
1169.327642	-0.001670
1169.480501	0.001396
1169.633343	-0.007030
1169.786165	-0.011291
1169.938970	-0.011858
1170.091757	-0.013580
1170.244525	-0.013912
1170.397275	-0.008238
1170.550007	-0.014809
1170.702720	-0.020450
1170.855415	-0.026601
1171.008092	-0.017000
1171.160751	-0.009136
1171.313392	-0.003397
1171.466014	-0.011674
1171.618619	-0.006573
1171.771205	-0.006573
1171.923772	-0.006573
