sample name	sample
index	25
start time	 02-11-2021  12:26:24 PM
880	-0.049389
Peak Time (s)	81.535
Peak Height 	-0.04939
calc peak height	80,83
Baseline Time (s)	11.036
Baseline Value 	-0.00401
subtract baseline	10,4
Abs	-0.016146
Peak Time (s)	80.535
Peak Height 	-0.01615
calc peak height	80,83
Baseline Time (s)	9.535
Baseline Value 	-0.001236
subtract baseline	10,3
PK_550	0.001795
Peak Time (s)	81.035
Peak Height 	0.001795
calc peak height	80,83
Baseline Time (s)	9.535
Baseline Value 	3.0159E-4
subtract baseline	10,2
PK_880	-0.016282
Peak Time (s)	80.535
Peak Height 	-0.01628
calc peak height	80,83
Baseline Time (s)	10.536
Baseline Value 	3.8083E-4
subtract baseline	10,1


Time (s)	A880-A510	A880-A775	A880-A975	A880	I510	I775	I975	I880	
0.036000	-0.005768	-0.001139	-0.003254	0.008317	4383.389945	18340.859140	3220.856652	9908.154761
0.536000	0.002646	0.001594	-0.003798	0.007143	4415.909600	18479.795276	3221.335315	9927.077339
1.036000	-0.005018	-0.002441	0.001508	0.000273	4413.190850	18581.397697	3230.721932	10038.874521
1.536000	-0.000962	-0.000693	0.008205	0.001273	4423.687627	18608.294839	3235.203744	10022.479076
2.036500	-0.002351	-0.000999	0.004870	0.007235	4398.559328	18384.151755	3227.918894	9925.594064
2.542500	0.000466	-0.000252	-0.004216	-0.000061	4433.238626	18672.374028	3226.533289	10044.342790
3.037500	-0.000743	-0.000898	0.000433	0.003817	4415.694080	18509.600666	3227.130142	9980.982278
3.538500	-0.006073	-0.001138	0.007054	0.002931	4400.531911	18532.713229	3232.986352	9995.398629
4.035000	-0.000037	-0.000545	0.015154	0.003281	4419.959710	18541.473313	3239.140688	9989.705118
4.568000	-0.001003	0.000110	0.007156	0.004037	4414.048828	18537.851828	3232.197618	9977.402352
5.035500	-0.001874	-0.000702	-0.005161	0.002970	4414.718412	18546.960731	3223.477277	9994.764950
5.535500	-0.001069	0.000294	0.006384	0.001807	4421.479464	18624.627268	3233.343986	10013.753165
6.036500	-0.000585	0.000648	-0.003810	-0.000056	4429.580770	18704.761974	3226.843136	10044.266353
6.536000	-0.001432	-0.000496	0.001156	0.001232	4422.210907	18616.898495	3229.698023	10023.156519
7.036500	0.001159	-0.000654	0.009797	0.001659	4429.682552	18595.832463	3236.161536	10016.179679
7.537000	0.003968	-0.000136	-0.000480	-0.000323	4446.354742	18686.037401	3229.634917	10048.645221
8.037000	0.003807	0.000520	0.012017	0.000367	4443.379168	18684.821993	3238.961269	10037.323142
8.537500	-0.000981	-0.000982	-0.003572	-0.001673	4433.812555	18704.305288	3228.280125	10070.853026
9.037500	0.003046	0.000514	-0.001457	-0.000867	4445.035289	18729.336095	3229.297338	10057.590897
9.535000	-0.000928	0.000000	0.000000	-0.002148	4435.643978	18757.183433	3231.435547	10078.680454
10.035500	0.001171	0.002276	0.003423	0.001998	4428.551494	18689.328618	3230.869868	10010.629534
10.536000	0.000000	0.000710	0.012207	0.001421	4426.497238	18653.563523	3238.270652	10020.064202
11.036000	-0.000317	-0.001112	-0.007243	0.000000	4430.313547	18639.087266	3224.158046	10043.347691
11.536500	0.000009	-0.000197	0.001762	0.000349	4430.233160	18659.539707	3230.860624	10037.615557
12.039500	-0.001009	-0.000512	0.010460	0.000123	4427.498896	18656.340484	3237.912193	10041.336259
12.538500	-0.002783	0.000402	-0.005045	0.001225	4417.591217	18649.554565	3224.904953	10023.276330
13.034500	-0.001522	0.000257	-0.000332	0.000745	4423.580312	18661.665760	3228.919048	10031.138837
13.536000	-0.002039	-0.000412	-0.000371	0.000382	4423.046700	18650.555555	3229.170593	10037.075912
14.038500	-0.002304	0.000961	0.002952	0.001043	4419.859213	18676.316610	3231.248760	10026.253892
14.546000	0.001921	0.000134	-0.003159	0.000796	4435.316449	18655.344035	3226.687765	10030.290533
15.036000	0.000143	0.000080	-0.005230	0.000033	4431.793874	18680.990008	3225.679262	10042.811323
15.536000	0.000158	-0.000163	0.002692	-0.000510	4433.729351	18691.847416	3232.262599	10051.727342
16.036500	0.001104	-0.000115	-0.001777	0.000218	4434.485152	18667.237736	3228.205744	10039.771675
16.539500	-0.000728	-0.000818	-0.005811	0.000392	4427.535952	18635.552883	3224.956559	10036.918378
17.037000	0.002755	-0.001774	-0.004546	-0.000386	4442.339021	18629.163793	3226.530362	10049.688957
17.537500	0.000143	-0.000520	0.010750	0.000268	4430.981401	18650.806667	3238.027904	10038.949423
18.037500	-0.000934	-0.001372	0.006768	-0.000362	4429.435065	18642.793640	3235.361594	10049.297460
18.535000	-0.002048	-0.001097	-0.000291	-0.000004	4424.345303	18639.761153	3229.533631	10043.408242
19.035500	-0.003657	-0.000481	0.002348	-0.000430	4420.271329	18677.410215	3231.929393	10050.401449
19.535500	0.002550	-0.000340	0.000943	-0.002982	4450.703279	18775.168932	3232.830378	10092.449324
20.035500	0.000820	-0.000190	-0.007403	-0.002199	4441.910699	18752.131516	3225.724861	10079.524641
20.536000	-0.002049	-0.000399	0.009409	0.001050	4420.715066	18626.959041	3236.336513	10026.139136
21.036500	-0.002519	-0.000225	0.001076	-0.001912	4429.310605	18740.457873	3232.094903	10074.795725
21.536000	0.000580	0.000121	0.013880	-0.001172	4437.498030	18726.141248	3241.696399	10062.607805
22.037000	0.002414	0.000451	0.005632	-0.000124	4440.231652	18700.094033	3234.273753	10045.381623
22.534000	-0.001971	-0.002165	-0.000020	-0.000943	4427.856910	18635.130841	3230.477824	10058.843667
23.037500	-0.001627	-0.001015	0.001909	0.000679	4423.445179	18618.100188	3230.717422	10032.212474
23.538000	-0.001513	-0.000747	0.000216	-0.001208	4430.358163	18695.996085	3230.869041	10063.202891
24.037500	0.000043	-0.000442	0.006203	-0.001329	4436.176107	18711.429149	3235.679928	10065.192334
24.536000	-0.000330	0.000392	0.003275	-0.001612	4435.863401	18751.946578	3233.588163	10069.852756
25.036000	-0.002800	-0.001312	0.001973	-0.002442	4430.173820	18720.218073	3233.216328	10083.540164
25.536500	-0.001428	0.000093	0.002811	-0.001285	4430.918850	18729.230827	3232.965317	10064.467301
26.039500	-0.000796	-0.000262	-0.004406	-0.001823	4434.974197	18735.852060	3227.749614	10073.321563
26.538500	0.000421	0.000643	0.000486	0.001084	4429.118060	18663.329121	3229.291864	10025.581260
27.037000	0.004181	-0.001125	0.008377	-0.000081	4446.254245	18641.568729	3236.415628	10044.680893
27.537500	0.002356	-0.001005	0.000037	0.000352	4438.373894	18630.274263	3229.511546	10037.571457
28.035000	-0.002563	-0.000705	0.009094	0.000181	4421.935504	18647.265126	3236.776945	10040.375636
28.535000	0.002700	-0.001359	-0.002746	0.000167	4440.216088	18624.178327	3227.493869	10040.608248
29.036000	0.001619	-0.001256	-0.004767	0.000383	4435.703071	18620.115498	3225.766415	10037.068480
29.563500	0.000776	-0.001815	-0.003674	0.000105	4433.739282	18609.952541	3226.823530	10041.616492
30.036000	-0.000227	0.000593	0.012460	0.000568	4428.662267	18680.209882	3239.155561	10034.037647
30.536500	-0.001450	0.000296	0.004371	0.001010	4422.913050	18653.485904	3232.387399	10026.788847
31.037000	-0.001124	0.001146	0.008707	0.001296	4423.054013	18673.864316	3235.584668	10022.117205
31.538000	-0.003415	-0.000895	-0.002370	-0.000973	4422.973378	18682.099562	3228.669690	10059.332086
32.037500	-0.000463	-0.000773	-0.000802	0.000354	4428.585585	18638.559918	3228.857595	10037.547635
32.535000	-0.001356	-0.000925	0.002000	-0.000032	4426.833660	18647.012585	3231.344933	10043.872419
33.035000	0.000469	-0.001188	0.003393	0.000057	4432.843803	18634.302008	3232.368085	10042.416847
33.535500	-0.002967	-0.000707	-0.002192	0.000308	4420.107540	18642.606688	3227.814682	10038.302447
34.429500	-0.004929	0.000475	0.006556	0.000227	4413.650596	18688.271469	3234.726802	10039.621122
34.910000	-0.002920	-0.000183	0.000935	-0.000490	4423.018686	18690.417444	3230.870246	10051.398801
35.036500	0.000269	-0.001726	0.014817	-0.000542	4434.223584	18636.485739	3241.944552	10052.244096
35.539000	-0.000042	0.000572	0.012450	0.001005	4427.787293	18663.600302	3238.797703	10026.867927
36.037000	0.004047	0.000843	-0.000227	-0.002946	4455.839386	18816.973346	3231.883638	10091.856133
36.538500	0.002192	-0.000224	0.010487	-0.000309	4440.107883	18682.369534	3238.278915	10048.427916
37.037500	0.002187	-0.000311	0.002690	-0.002262	4446.906882	18750.014234	3233.639632	10080.562091
37.538000	0.000423	0.000585	0.016537	0.000588	4430.841971	18679.181975	3242.421494	10033.708235
38.035500	-0.001279	-0.000584	0.016257	-0.001248	4431.307448	18703.329457	3243.682300	10063.860965
38.535500	-0.002575	-0.000819	0.006334	-0.000160	4423.069329	18655.475286	3234.858057	10045.977190
39.036000	0.001899	-0.000734	0.002855	-0.002187	4445.638567	18731.964282	3233.710484	10079.331913
39.535500	0.001424	-0.000373	-0.001779	0.001079	4432.611534	18626.845057	3227.537437	10025.668612
40.036500	-0.002949	-0.000045	0.011868	0.001864	4414.826863	18610.384288	3237.646223	10012.823253
40.537000	0.000953	0.000690	0.014352	0.000916	4431.542830	18671.115810	3240.395331	10028.335352
41.037000	0.000783	-0.000143	0.008870	-0.002633	4443.298335	18769.644362	3238.844370	10086.695560
41.537500	0.000212	0.000066	0.003773	0.001648	4426.445804	18622.135825	3231.417506	10016.346508
42.034500	0.002975	-0.000664	0.007371	-0.002473	4450.410287	18744.889368	3237.519254	10084.055865
42.535000	0.005248	0.002050	0.008764	-0.008358	4479.308401	19060.432254	3243.371402	10181.854422
43.035500	0.008594	0.002280	0.007886	-0.014006	4511.799893	19279.730643	3247.259890	10276.954389
43.535000	-0.041382	-0.025850	0.027820	0.261250	3676.185526	11078.356411	3088.992446	6821.386828
44.036000	-0.058313	-0.022790	0.010306	0.174127	3807.692791	12950.752645	3123.375436	7689.010016
44.536500	-0.022114	-0.017048	-0.004091	-0.025160	4442.003340	18975.539591	3246.586177	10468.459305
45.041500	-0.031025	-0.022297	0.002510	-0.143378	4875.735831	23732.011414	3364.915024	12831.408073
45.536500	-0.032561	-0.012639	-0.002275	-0.147991	4889.595199	24425.792875	3364.727497	12937.299640
46.037000	-0.033519	-0.013537	-0.012711	-0.135913	4831.543775	23794.005383	3340.804833	12662.422624
46.534500	-0.033014	-0.011203	-0.020107	-0.158835	4937.133886	25041.244568	3357.169310	13190.674729
47.035000	-0.038340	-0.012008	-0.017297	-0.146689	4857.845080	24392.603635	3347.258568	12907.287206
47.535000	-0.037102	-0.009340	-0.006019	-0.141373	4839.798594	24262.402920	3353.562939	12785.739632
48.035500	-0.023042	-0.004518	-0.003073	-0.139958	4896.323493	24430.117967	3355.196250	12753.635693
48.535500	-0.027785	-0.003679	-0.018812	-0.130109	4831.238283	23989.350695	3328.648228	12533.027916
49.057500	-0.023722	-0.002519	-0.009970	-0.117352	4793.489435	23435.410943	3324.722628	12254.648793
49.539000	-0.026221	-0.000864	-0.028242	-0.108771	4746.458221	23111.520640	3298.729612	12071.931959
50.036500	-0.026560	-0.002534	-0.023597	-0.097697	4699.252546	22528.932367	3292.740873	11841.402990
50.536500	-0.026172	-0.001589	-0.027715	-0.084385	4647.276238	21979.720798	3276.945672	11571.977456
51.037000	-0.030571	0.000014	-0.014912	-0.075401	4595.058076	21659.266787	3280.352708	11394.748443
51.537500	-0.031476	-0.003060	-0.035260	-0.072996	4582.392713	21424.926505	3260.489911	11347.928666
52.043000	-0.027503	-0.002093	-0.016296	-0.076387	4610.706671	21611.067076	3279.996279	11414.016378
52.535000	-0.029512	-0.004099	-0.024510	-0.080992	4620.802547	21722.989376	3276.778131	11504.601542
53.035500	-0.026939	-0.002781	-0.025244	-0.082474	4636.697790	21844.334480	3277.443649	11533.968780
53.536000	-0.026169	-0.001733	-0.031302	-0.076055	4614.598377	21612.307825	3266.504798	11407.528889
54.036000	-0.023894	-0.002008	-0.017822	-0.079670	4637.646728	21756.244828	3281.572114	11478.496819
54.536500	-0.025679	-0.003033	-0.024679	-0.076573	4618.520519	21578.746934	3272.726681	11417.655564
55.036500	-0.021575	-0.000001	-0.012744	-0.073229	4621.482506	21565.371551	3280.348508	11352.438115
55.536500	-0.024305	-0.001063	-0.014087	-0.073678	4612.603215	21539.149195	3279.548790	11361.172839
56.037000	-0.026239	0.000058	-0.022211	-0.071328	4596.057658	21486.660078	3270.295391	11315.606880
56.537500	-0.022812	-0.001044	-0.014669	-0.071859	4611.337469	21462.291642	3277.407431	11325.866182
57.035000	-0.027623	0.000222	-0.024662	-0.069827	4584.998663	21429.702552	3266.861002	11286.606692
57.535500	-0.029438	-0.001333	-0.019507	-0.070902	4582.178873	21409.341005	3272.288728	11307.368281
58.035500	-0.028175	-0.002996	-0.027244	-0.070209	4584.352993	21309.525761	3264.962702	11293.985049
58.536000	-0.025852	-0.001365	-0.024987	-0.065101	4573.756758	21163.277274	3262.517366	11196.026339
59.039000	-0.025244	-0.000226	-0.007057	-0.066341	4580.777897	21263.196394	3279.273955	11219.684965
59.536500	-0.025781	-0.002399	-0.020307	-0.067014	4581.296043	21200.128943	3268.197686	11232.577281
60.037000	-0.024772	-0.001486	-0.013934	-0.064272	4574.708167	21123.522320	3271.362644	11180.233709
60.537000	-0.030709	-0.001198	-0.021371	-0.063373	4548.967006	21098.006517	3264.135718	11163.146440
61.037500	-0.024465	-0.001580	-0.009856	-0.062695	4569.890744	21053.738841	3273.557796	11150.267689
61.535000	-0.028454	-0.001539	-0.014337	-0.057052	4533.844561	20821.914098	3264.747375	11043.964736
62.035500	-0.024467	-0.000229	-0.025914	-0.061227	4564.340644	21048.874792	3258.435103	11122.483206
62.535500	-0.025463	-0.000234	-0.022764	-0.061845	4562.912541	21074.435547	3261.635160	11134.167064
63.036000	-0.026391	-0.001311	-0.020139	-0.062339	4561.282458	21050.132260	3264.305068	11143.527013
63.536000	-0.031898	-0.001251	-0.012423	-0.055606	4515.850151	20774.389428	3265.150160	11016.948332
64.036000	-0.023560	0.000409	-0.022481	-0.059331	4560.615888	20996.583010	3259.737084	11086.738637
64.537000	-0.028416	0.000390	-0.030042	-0.056793	4533.030804	20890.760107	3251.266480	11039.127198
65.037000	-0.025525	0.000696	-0.015314	-0.057946	4548.058236	20951.056328	3264.676145	11060.716156
65.534000	-0.027282	-0.000593	-0.021283	-0.051869	4519.069952	20648.556414	3254.460220	10947.538968
66.034500	-0.027349	0.000783	-0.018310	-0.057177	4538.406542	20922.815348	3261.452660	11046.308947
66.535000	-0.023755	0.000019	-0.008466	-0.056536	4549.402196	20864.844088	3269.382148	11034.316826
67.035500	-0.022900	-0.000962	-0.011875	-0.058170	4558.732191	20891.773145	3267.839450	11064.921307
67.535500	-0.025260	-0.000779	-0.023936	-0.052409	4528.492391	20662.992021	3252.696566	10957.533588
68.036000	-0.023027	-0.000466	-0.025175	-0.058267	4558.618799	20916.260949	3256.562280	11066.749007
68.539000	-0.021255	0.000031	-0.017436	-0.056273	4557.781918	20854.489308	3261.427115	11029.397527
69.036500	-0.017135	0.000305	-0.013759	-0.058974	4583.606036	20977.423082	3266.904054	11080.013390
69.536500	-0.024597	0.000035	-0.019934	-0.052989	4533.085548	20719.906297	3256.531174	10968.278866
70.037000	-0.018667	0.001979	-0.020414	-0.058137	4574.593984	21012.197441	3260.479238	11064.303300
70.534500	-0.022348	-0.000505	-0.031008	-0.057785	4559.357554	20894.728012	3251.287223	11057.689683
71.035000	-0.021908	0.001657	-0.020058	-0.057956	4561.655492	20991.296498	3260.626950	11060.898657
71.535000	-0.022855	0.000142	-0.018427	-0.054115	4543.729018	20770.344489	3258.752474	10989.180002
72.035500	-0.017866	0.000671	-0.017628	-0.059129	4581.410621	20999.092635	3263.705133	11082.942941
72.535500	-0.021581	0.000091	-0.017555	-0.057737	4562.060493	20917.340345	3262.575290	11056.790848
73.036500	-0.018601	0.001995	-0.017941	-0.058273	4575.358185	21018.522755	3262.703240	11066.850228
73.536000	-0.023894	0.000627	-0.039186	-0.052340	4533.284022	20717.539899	3240.167971	10956.252239
74.036500	-0.020207	0.002196	-0.018214	-0.057803	4567.495917	21007.357398	3262.068896	11058.038349
74.537000	-0.022453	0.001171	-0.033118	-0.058372	4561.170400	20988.403374	3250.027330	11068.713842
75.037000	-0.018645	0.000134	-0.013709	-0.058743	4576.976904	20960.795760	3266.747099	11075.674199
75.535000	-0.025204	0.000485	-0.016843	-0.051975	4527.099023	20696.866685	3258.282813	10949.509668
76.035000	-0.020336	0.000045	-0.024403	-0.058868	4571.036526	20962.308899	3257.718718	11078.031768
76.535500	-0.019530	0.001172	-0.017111	-0.054981	4559.411854	20848.271166	3260.604038	11005.301172
77.035500	-0.018578	0.000095	-0.020483	-0.056446	4568.521735	20864.264097	3258.985083	11032.630506
77.536000	-0.020452	-0.000355	-0.011142	-0.056266	4560.773847	20838.307282	3266.825542	11029.262829
78.039000	-0.018934	-0.000300	-0.012606	-0.055488	4563.562114	20808.597547	3264.892006	11014.752146
78.536500	-0.021790	0.001181	-0.021501	-0.052970	4543.431135	20765.998670	3255.199224	10967.923976
79.036500	-0.020296	0.001815	-0.014450	-0.054071	4553.120774	20837.290307	3262.096025	10988.362890
79.537000	-0.018801	0.001140	-0.021111	-0.054350	4559.777328	20820.986369	3256.685651	10993.545634
80.034500	-0.019969	0.000243	-0.019788	-0.054749	4556.889058	20800.496171	3258.137512	11000.971696
80.534500	-0.016282	0.000694	-0.016146	-0.054444	4569.636291	20806.555687	3260.968282	10995.310042
81.035500	-0.020201	0.001795	-0.025803	-0.053708	4552.118228	20821.514632	3252.224874	10981.625552
81.535500	-0.025074	0.000346	-0.023898	-0.049389	4518.071456	20585.923804	3250.223343	10901.803506
82.087500	-0.019487	0.001538	-0.035908	-0.053783	4555.074237	20814.043399	3243.982233	10983.018648
82.538500	-0.021227	0.000930	-0.021519	-0.052013	4541.964445	20716.586700	3254.383137	10950.202424
83.036500	-0.018097	0.001998	-0.016239	-0.053667	4559.857963	20828.191841	3260.228296	10980.863430
83.536500	-0.016279	0.001624	-0.010723	-0.049959	4552.765182	20661.085715	3261.767620	10912.297376
84.037000	-0.016692	0.002084	-0.013202	-0.053129	4563.120601	20809.584749	3262.356727	10970.868298
84.537000	-0.021209	0.001480	-0.024915	-0.051573	4540.397851	20721.095173	3251.189329	10942.072776
