sample name	sample
index	423
start time	 03-08-2021  11:45:58 AM
880	-0.022845
Peak Time (s)	92.037
Peak Height 	-0.02284
calc peak height	90,93
Baseline Time (s)	9.537
Baseline Value 	-0.004137
subtract baseline	10,4
Abs	-0.011144
Peak Time (s)	91.537
Peak Height 	-0.01114
calc peak height	90,93
Baseline Time (s)	9.036
Baseline Value 	0.00357
subtract baseline	10,3
PK_550	-0.001323
Peak Time (s)	92.537
Peak Height 	-0.001323
calc peak height	90,93
Baseline Time (s)	9.537
Baseline Value 	0.001111
subtract baseline	10,2
PK_880	-0.009245
Peak Time (s)	92.537
Peak Height 	-0.009245
calc peak height	90,93
Baseline Time (s)	8.536
Baseline Value 	0.002276
subtract baseline	10,1


Time (s)	A880-A510	A880-A775	A880-A975	A880	I510	I775	I975	I880	
0.036000	-0.001020	-0.001484	0.001248	0.000381	6968.107241	47011.439419	3999.372005	24782.779552
0.536500	-0.003413	-0.000635	-0.000111	0.006469	6889.039982	46482.487444	3979.848870	24477.772032
1.037000	-0.001897	-0.000899	0.002813	0.003197	6933.490197	46785.474460	3996.067822	24641.182094
1.539500	0.001273	-0.000889	0.002757	0.000400	6989.561231	47069.984078	4003.318193	24781.821243
2.037000	-0.000730	-0.000099	0.001327	0.000440	6970.278841	47146.266163	3999.422940	24779.798890
2.534500	-0.001188	-0.000469	-0.002604	0.005351	6920.029803	46611.571977	3976.281195	24533.488122
3.035500	0.000742	-0.000727	0.001908	-0.001777	7005.171337	47308.525068	4006.845655	24891.916433
3.535000	-0.001397	-0.000932	-0.001861	-0.000608	6973.863325	47168.219348	3993.777857	24832.732224
4.035500	-0.001214	-0.000437	0.002032	0.000168	6968.286594	47139.594704	4002.009825	24793.548269
4.536500	0.000024	-0.000211	-0.002034	0.000286	6978.845872	47150.703151	3990.976987	24787.599792
5.036500	-0.000133	-0.000758	-0.000689	-0.000178	6981.740515	47142.167977	3995.733702	24811.005346
5.536500	-0.000316	-0.000468	0.004308	-0.000169	6979.925496	47170.771692	4008.954256	24810.543490
6.039500	0.001207	-0.001079	0.002008	0.000004	6992.690663	47090.897052	4002.381660	24801.810423
6.534500	0.001810	-0.000494	0.001294	-0.000031	6998.737418	47154.056771	4000.583286	24803.595979
7.035000	-0.001791	-0.000427	0.004157	0.000257	6962.026394	47131.652209	4007.421249	24789.072717
7.535000	-0.001988	-0.001173	-0.000997	-0.000271	6965.133050	47109.371574	3995.166147	24815.705628
8.035500	-0.000618	-0.000415	-0.002887	-0.000045	6975.910663	47163.576401	3989.607390	24804.315329
8.535500	0.000000	0.001015	0.003647	0.001037	6971.528677	47199.019282	4003.987774	24749.695584
9.035500	0.000612	-0.000275	0.000000	-0.000183	6988.829195	47191.886376	3997.564387	24811.268974
9.536500	-0.000366	0.000000	0.003379	0.000000	6977.856665	47201.291455	4006.033699	24802.021948
10.036500	0.001225	0.000534	-0.000196	0.000181	6991.184743	47237.378633	3996.088478	24792.899484
10.537000	-0.001119	-0.000427	-0.001158	-0.000075	6971.473093	47165.408769	3994.228203	24805.831117
11.037000	-0.001153	-0.000726	-0.007160	0.000005	6970.392184	47126.765803	3978.329238	24801.756730
11.536000	0.000797	0.000013	0.002347	-0.000103	6989.818402	47213.144433	4003.565004	24807.221984
12.034500	-0.000963	-0.000874	0.002598	-0.000729	6979.105562	47186.555588	4005.894629	24838.868404
12.535500	-0.000991	0.000155	-0.000381	-0.000112	6973.022690	47228.581799	3996.373228	24807.698976
13.035500	0.002161	0.000380	0.005847	-0.001582	7016.815773	47401.966840	4016.855273	24882.076727
13.536000	-0.000198	0.000081	-0.003702	-0.001140	6990.216831	47325.963206	3990.339182	24859.644070
14.036000	-0.002089	-0.000875	0.004265	-0.000993	6970.983702	47213.362842	4011.041667	24852.232443
14.536500	-0.003545	-0.001538	-0.001018	0.001442	6934.491706	46898.386013	3990.609215	24729.341469
15.036500	-0.001305	-0.000615	0.002606	-0.000670	6975.323889	47206.929276	4005.760895	24835.903926
15.588000	0.000140	-0.000449	0.000530	-0.001764	6999.332987	47335.622034	4003.151254	24891.275682
16.038500	-0.000553	-0.000082	-0.001478	-0.001103	6986.508480	47305.497342	3996.090888	24857.781955
16.537500	0.000450	-0.000504	-0.005206	-0.001246	6997.367717	47277.106068	3986.680310	24865.052628
17.035000	0.001267	-0.000389	0.007190	-0.001035	7003.111548	47267.293155	4018.993550	24854.352466
17.535500	0.000852	-0.000262	0.005437	-0.003219	7019.939177	47503.916230	4020.152088	24965.173048
18.037500	0.001911	-0.001005	0.005275	-0.003007	7028.029070	47406.026446	4019.145238	24954.405117
18.536000	-0.000947	-0.000653	-0.000169	0.000468	6967.975765	47087.133969	3995.401769	24778.417410
19.036000	-0.001210	-0.000069	-0.003305	0.000758	6962.777057	47117.025364	3986.410656	24763.797081
19.536000	0.000416	-0.000573	0.001838	0.000226	6983.111847	47119.885419	4001.344083	24790.616427
20.039500	-0.002531	-0.000355	0.002978	0.000843	6949.571314	47079.202424	4002.726745	24759.475335
20.534000	0.000229	0.000123	-0.001683	0.001390	6970.369061	47072.230542	3989.000777	24731.944764
21.037000	-0.001387	-0.000900	-0.000273	0.000580	6962.785605	47050.604880	3994.831735	24772.755244
21.535000	-0.000169	0.000155	0.001022	0.001040	6969.908920	47111.104259	3997.034702	24749.571289
22.035000	-0.000292	-0.000583	0.002176	0.000700	6971.954529	47070.532995	4000.981940	24766.678775
22.535500	-0.002408	-0.000238	-0.001232	0.000442	6954.493384	47131.968819	3992.671888	24779.726370
23.035500	-0.002711	-0.000288	0.000692	0.000505	6951.056977	47120.530724	3997.576178	24776.545702
23.536000	-0.001781	-0.000723	0.002617	-0.000250	6966.880083	47153.021814	4004.669749	24814.633489
24.039000	0.000331	0.000484	0.003804	0.001366	6971.560052	47111.485304	4003.534793	24733.174400
24.536500	-0.001074	-0.000040	0.001211	0.000601	6965.530343	47135.901916	3998.691819	24771.692735
25.037000	-0.001402	-0.000457	0.002707	0.000349	6964.806707	47119.106666	4003.319311	24784.386280
25.537000	-0.001303	-0.000633	0.000615	0.000131	6967.789594	47123.417567	3998.357855	24795.384150
26.037500	0.000015	-0.000650	-0.002022	0.000509	6976.655595	47083.278436	3990.422359	24776.356464
26.535000	0.000696	-0.000738	0.002482	0.000254	6985.488245	47100.209680	4002.974158	24789.197316
27.035000	-0.000953	-0.000337	0.002049	0.000900	6963.847442	47075.262424	4000.115812	24756.615484
27.536000	-0.000150	-0.000321	-0.000733	0.000627	6973.987736	47104.732948	3993.499940	24770.405045
28.036000	-0.000883	-0.000002	-0.002074	-0.001424	6986.424782	47346.558819	3995.366911	24874.054975
28.535000	-0.000637	-0.000710	0.001184	-0.001041	6985.125587	47235.060154	4002.966188	24854.643827
29.048000	-0.000052	-0.001086	-0.000839	-0.001658	6996.501438	47259.657108	3999.244123	24885.885629
29.536500	0.000456	0.000059	0.002014	-0.000581	6991.118239	47266.626958	4003.950196	24831.385786
30.036500	0.000723	-0.000335	-0.000494	-0.000334	6991.306930	47201.184007	3996.658443	24818.902657
30.537500	0.000473	-0.000462	0.002622	-0.000571	6991.188350	47212.388531	4005.536703	24830.870688
31.034500	-0.000137	-0.000827	0.001686	-0.001162	6991.002673	47235.422944	4004.620242	24860.773209
31.535000	-0.001033	-0.000281	0.001624	0.001417	6958.242399	47028.482138	3997.629523	24730.599739
32.035000	-0.000029	0.000550	0.002349	0.003344	6949.580751	46917.118588	3994.457198	24633.783313
32.560500	0.000697	0.000567	0.002723	-0.000123	6989.068826	47271.719597	4004.615353	24808.249542
33.035500	-0.000349	-0.000288	-0.003130	-0.000343	6981.252409	47206.920505	3989.750368	24819.342554
33.541500	0.002213	0.000112	0.005283	-0.000658	7008.519254	47279.887112	4012.865362	24835.283422
34.036500	-0.000349	0.000251	0.004815	0.000889	6969.641917	47136.235097	4007.487144	24757.165776
34.536500	0.002797	0.000128	0.001215	-0.001487	7021.978561	47366.336238	4004.235703	24877.261482
35.037000	0.001184	0.000111	0.002256	0.001648	6976.936185	47044.882445	3998.688893	24718.984406
35.534500	0.000202	-0.000674	-0.002109	0.001327	6970.699702	46997.640016	3988.048770	24735.089873
36.034500	-0.001917	-0.000333	-0.000038	0.001971	6944.760117	46966.925940	3991.793230	24702.738490
36.540500	-0.001680	-0.000499	0.002824	0.001579	6950.648023	46989.783947	4000.371867	24722.432064
37.035500	-0.001771	-0.000583	0.001143	0.001992	6945.924378	46939.398508	3994.841581	24701.642444
37.535500	-0.002570	0.000056	-0.001574	0.001551	6942.579821	47048.993320	3988.863807	24723.817911
38.036000	-0.001318	0.000048	0.002151	0.002259	6947.673140	46976.260230	3996.795774	24688.235384
38.536000	-0.000531	-0.000298	-0.000829	0.001665	6960.621712	47001.481194	3990.516725	24718.085686
39.039000	-0.001008	-0.000571	0.000171	0.001689	6955.926970	46971.411013	3993.084159	24716.916723
39.536500	-0.001312	-0.000115	-0.001046	0.001932	6950.787355	46992.957664	3989.249086	24704.671383
40.037500	-0.001273	-0.000497	-0.001107	0.001908	6951.387421	46956.624206	3989.153739	24705.898705
40.534500	0.000201	-0.000206	0.005707	0.002177	6962.698349	46958.924961	4006.435210	24692.380373
41.035500	-0.000136	0.000673	0.000969	0.002307	6958.300305	47034.929548	3993.555988	24685.816904
41.535000	-0.002317	-0.000875	-0.000260	0.001239	6947.862770	46986.119486	3993.131566	24739.522647
42.035500	-0.001869	-0.000797	0.000007	0.001543	6949.212115	46963.246647	3993.033361	24724.222767
42.535500	-0.001603	-0.000674	0.001131	0.001775	6949.535147	46952.131755	3995.382610	24712.552175
43.036500	-0.001388	0.000156	0.002862	0.001803	6951.297942	47033.613175	3999.879139	24711.187628
43.536500	-0.001600	-0.000277	0.003547	0.001960	6947.830407	46973.699554	4001.276828	24703.271551
44.039500	-0.001626	-0.000519	-0.002996	0.001430	6952.554992	47002.911953	3985.461282	24729.944912
44.537000	0.000294	-0.000426	0.004550	0.001090	6973.800033	47046.893800	4006.247528	24747.039856
45.034500	0.002491	0.000173	0.001987	-0.001600	7020.135230	47382.570155	4006.587879	24882.985071
45.536000	0.002753	-0.000397	0.004805	-0.000743	7014.467735	47236.564413	4011.814031	24839.570334
46.043000	-0.003413	-0.000418	0.000940	0.003314	6918.272888	46822.264037	3990.833562	24635.301514
46.535500	-0.000118	-0.000631	-0.000207	-0.000654	6986.379425	47203.636375	3998.260942	24835.067323
47.035500	-0.000241	-0.000438	0.003495	0.001426	6965.599120	47011.552415	4002.554538	24730.120256
47.535500	-0.000082	-0.000398	0.003095	-0.001199	6991.877548	47283.033161	4008.469207	24862.645636
48.036500	-0.002027	-0.000768	-0.001307	0.002802	6935.959385	46838.582568	3986.288490	24660.979722
48.539500	-0.002292	0.000321	0.002671	0.002734	6934.122131	46955.816064	3996.914033	24664.380515
49.037000	-0.003264	-0.000416	-0.003333	0.001992	6931.976965	46956.389829	3983.116388	24701.664914
49.539000	0.000443	0.000219	0.005476	-0.000504	6990.272712	47275.118334	4012.970693	24827.490762
50.037500	-0.003017	-0.001176	-0.001315	0.002624	6928.379634	46815.331870	3986.733947	24669.899742
50.534000	0.002982	-0.000462	-0.001270	-0.001171	7020.719782	47273.610175	3996.817791	24861.217078
51.035000	0.001796	0.000055	-0.002591	0.000466	6993.891041	47159.305105	3989.040593	24778.483919
51.535500	0.002768	-0.000211	0.002756	-0.001242	7019.358875	47306.560845	4007.678578	24864.829067
52.036000	-0.003284	-0.000276	-0.004127	0.007135	6884.094937	46451.826891	3967.746368	24444.692607
52.541500	-0.012677	-0.011082	-0.006823	0.184159	5486.635767	31160.490811	3589.325070	17222.742302
53.038000	-0.044447	-0.025216	-0.019519	0.009486	6502.335592	43799.260185	3923.043465	24328.204925
53.535500	-0.044950	-0.027303	-0.019296	-0.081256	7338.930174	53061.353944	4172.819910	29314.184828
54.037000	-0.032852	-0.053506	-0.006994	-0.187259	8732.399612	63179.176203	4586.687786	36624.181129
54.539000	-0.027978	-0.031511	-0.009080	-0.144862	8247.965748	60412.861512	4417.715151	33484.853708
55.037500	-0.032692	-0.023673	-0.012654	-0.113005	7814.450357	57318.607954	4294.979544	31319.677250
55.535000	-0.023638	-0.031233	-0.011679	-0.152737	8401.101810	61502.820374	4436.864333	34045.048339
56.035500	-0.018608	-0.022566	-0.016622	-0.138081	8280.067062	60700.288535	4366.891633	33010.609178
56.535500	-0.011286	-0.025490	-0.011697	-0.150123	8526.297936	61926.528118	4427.283958	33857.967888
57.035000	-0.005462	-0.023569	-0.011641	-0.148724	8584.123415	61997.595925	4422.418520	33758.358540
57.536000	-0.006811	-0.017724	-0.012744	-0.133243	8367.288000	60700.754834	4363.543435	32676.698810
58.036500	-0.007154	-0.016422	-0.014000	-0.127360	8289.183465	60094.209876	4338.883487	32275.677174
58.537000	-0.007461	-0.012657	-0.014654	-0.108584	8056.654344	58151.344301	4273.788326	31031.561507
59.036500	-0.010469	-0.010192	-0.012284	-0.089927	7804.734778	56129.177082	4221.421371	29847.403389
59.535000	-0.012636	-0.009238	-0.018065	-0.076761	7633.899769	54653.380934	4162.922320	29041.916040
60.035000	-0.012558	-0.009243	-0.012060	-0.069293	7553.689890	53770.474737	4158.509707	28595.724341
60.534500	-0.010917	-0.007329	-0.012102	-0.057055	7441.020289	52575.365889	4122.058087	27880.941816
61.035000	-0.013043	-0.007253	-0.015810	-0.049994	7345.555847	51782.892929	4090.932166	27477.637605
61.535500	-0.017525	-0.008080	-0.021310	-0.037856	7177.882830	50345.162996	4041.583886	26799.421779
62.036000	-0.017645	-0.007934	-0.024313	-0.041722	7215.124451	50785.466147	4043.954394	27013.399274
62.539500	-0.013645	-0.007583	-0.020176	-0.053709	7377.680432	52165.412029	4089.074818	27689.014563
63.036500	-0.013687	-0.008460	-0.015770	-0.071556	7565.910972	54128.486843	4154.161182	28730.122209
63.537000	-0.012781	-0.006121	-0.015682	-0.072268	7583.395190	54489.638735	4156.564603	28772.536889
64.034500	-0.017148	-0.005924	-0.022359	-0.068316	7494.154929	54045.465623	4125.000729	28537.898126
64.534500	-0.017531	-0.006693	-0.023948	-0.066897	7475.053078	53788.454285	4116.208934	28454.199081
65.066500	-0.015714	-0.005886	-0.023082	-0.061850	7441.003441	53294.122969	4104.087049	28158.609082
65.535500	-0.014567	-0.005382	-0.018198	-0.055265	7384.245037	52593.374680	4099.188027	27778.063120
66.036000	-0.019642	-0.005231	-0.020142	-0.044290	7220.815860	51370.201146	4062.608457	27156.546423
66.536000	-0.015817	-0.003530	-0.021504	-0.043983	7256.123634	51526.028792	4057.959551	27139.368732
67.036000	-0.013554	-0.003806	-0.017055	-0.040622	7245.076200	51120.560388	4060.987781	26952.333824
67.536500	-0.016986	-0.003571	-0.017708	-0.038379	7188.405941	50898.045417	4052.945886	26828.260768
68.039500	-0.019465	-0.003263	-0.026138	-0.031588	7097.412915	50186.935700	4011.554000	26456.569731
68.537000	-0.014581	-0.003265	-0.020931	-0.036113	7189.779298	50681.938121	4037.850925	26703.568505
69.034500	-0.016598	-0.003445	-0.017774	-0.036422	7172.878643	50696.173355	4047.361274	26720.574800
69.535000	-0.016896	-0.003105	-0.017808	-0.037040	7176.029470	50801.637094	4048.969196	26754.497984
70.035000	-0.019390	-0.003006	-0.025108	-0.031536	7097.642615	50209.322427	4014.171612	26453.763542
70.535000	-0.015333	-0.003030	-0.016093	-0.038070	7201.762232	50923.766445	4056.566372	26811.229085
71.036000	-0.015149	-0.003305	-0.019004	-0.038397	7206.854316	50929.488843	4049.416306	26829.273555
71.536500	-0.015857	-0.003011	-0.015267	-0.039125	7207.046861	51042.637758	4061.800340	26869.460729
72.039000	-0.018319	-0.003447	-0.018866	-0.035075	7142.642598	50547.940777	4040.661779	26646.681375
72.537000	-0.014240	-0.003744	-0.017196	-0.041348	7245.477595	51208.016253	4062.616427	26992.579448
73.034000	-0.013769	-0.003100	-0.016853	-0.040904	7245.746327	51230.368208	4062.336101	26967.947687
73.537500	-0.013954	-0.003162	-0.019219	-0.041822	7253.119353	51325.655916	4058.305015	27018.916600
74.035000	-0.015353	-0.002422	-0.015608	-0.036151	7182.511661	50779.075482	4052.593968	26705.696861
74.535000	-0.012655	-0.002843	-0.018867	-0.042268	7270.727982	51411.014293	4060.525401	27043.749933
75.035500	-0.012805	-0.002758	-0.011838	-0.041939	7265.893661	51383.760643	4079.328536	27025.427704
75.535500	-0.010107	-0.002385	-0.016763	-0.042453	7298.454671	51482.947537	4066.917236	27054.057964
76.036000	-0.013875	-0.002597	-0.021849	-0.037007	7205.688770	50854.109401	4037.785478	26752.688515
76.536000	-0.010848	-0.002982	-0.016303	-0.043006	7296.536833	51477.986149	4069.756802	27084.867056
77.036500	-0.012527	-0.003179	-0.014366	-0.043208	7281.541268	51478.547939	4075.773497	27096.108726
77.536500	-0.008217	-0.002369	-0.015111	-0.042616	7319.386512	51502.897552	4072.007021	27063.117135
78.037000	-0.014963	-0.003863	-0.018807	-0.038090	7205.638621	50833.864566	4049.110055	26812.312200
78.537000	-0.010232	-0.003363	-0.014691	-0.043092	7303.688657	51445.136737	4074.530353	27089.682690
79.035000	-0.009527	-0.003267	-0.017200	-0.042552	7305.367457	51395.477756	4065.970496	27059.567652
79.535500	-0.009358	-0.003025	-0.010550	-0.042032	7301.786431	51364.394885	4083.240090	27030.607195
80.038500	-0.010865	-0.003494	-0.016662	-0.042290	7289.086730	51340.846016	4066.744737	27044.976353
80.535500	-0.010325	-0.003331	-0.010391	-0.041612	7287.683678	51283.412449	4082.499433	27007.242731
81.036000	-0.009936	-0.003025	-0.013174	-0.040188	7277.201872	51159.082027	4070.630435	26928.267577
81.538500	-0.009389	-0.003932	-0.013338	-0.040868	7289.637387	51133.778903	4072.077270	26965.944497
82.036500	-0.012197	-0.003811	-0.013278	-0.035425	7206.647640	50546.362251	4057.037754	26665.874682
82.536500	-0.011046	-0.004235	-0.015580	-0.039859	7262.649354	50988.421926	4062.972924	26910.055384
83.033500	-0.010080	-0.003846	-0.012745	-0.038037	7254.018933	50829.931158	4065.803092	26809.376814
83.537000	-0.011738	-0.003887	-0.015937	-0.038185	7238.842583	50841.693571	4057.319423	26817.553090
84.035000	-0.014008	-0.004034	-0.014212	-0.032631	7161.005694	50216.436693	4046.727911	26513.250027
84.535000	-0.008671	-0.003752	-0.017352	-0.035590	7243.580952	50571.004816	4046.232121	26674.900493
85.036000	-0.010025	-0.002933	-0.012027	-0.034561	7219.700612	50547.945593	4058.113202	26618.569978
85.536000	-0.010195	-0.004051	-0.012809	-0.034583	7218.224782	50427.806870	4056.003017	26619.789173
86.038500	-0.011034	-0.003610	-0.013208	-0.033586	7199.922607	50366.971801	4052.136254	26565.308615
86.536500	-0.008890	-0.004002	-0.013924	-0.032666	7212.114784	50223.798831	4047.619808	26515.170616
87.037000	-0.010192	-0.003292	-0.015995	-0.031233	7184.917655	50145.113451	4038.004420	26437.304744
87.537000	-0.010516	-0.003939	-0.014464	-0.031029	7179.689747	50052.736500	4041.638282	26426.252250
88.037500	-0.014298	-0.003829	-0.019675	-0.024978	7083.420837	49411.967492	4011.160751	26100.295980
88.534000	-0.011083	-0.003536	-0.016194	-0.029116	7155.201287	49889.039273	4031.693508	26322.722070
89.034500	-0.010810	-0.003946	-0.016414	-0.028272	7149.589624	49753.518920	4028.802783	26277.181773
89.535000	-0.010640	-0.002397	-0.015998	-0.027097	7139.718951	49793.857821	4026.746098	26213.929372
90.036000	-0.010987	-0.003566	-0.012841	-0.027318	7138.478058	49691.568915	4035.924601	26225.790462
90.536000	-0.010397	-0.003446	-0.017913	-0.026318	7134.459175	49596.855612	4019.474847	26172.074255
91.036500	-0.009311	-0.002689	-0.013301	-0.025098	7133.150098	49547.100262	4028.638012	26106.730135
91.536500	-0.010173	-0.003474	-0.011144	-0.025397	7127.636954	49494.997501	4035.316852	26122.746356
92.037000	-0.011096	-0.002710	-0.017176	-0.022845	7093.781048	49303.474598	4012.137031	25986.482317
92.537000	-0.009245	-0.001323	-0.011724	-0.022913	7112.446276	49459.197177	4026.989759	25990.120114
93.034500	-0.009145	-0.002560	-0.014671	-0.023441	7118.574456	49383.302766	4020.460284	26018.264544
93.535000	-0.011309	-0.002186	-0.013965	-0.023068	7093.886683	49383.375441	4021.355417	25998.379655
94.035000	-0.012020	-0.003014	-0.015352	-0.022835	7084.730852	49270.022875	4016.997424	25985.979219
94.535500	-0.009331	-0.001729	-0.014726	-0.021941	7102.145701	49311.702630	4016.278113	25938.433806
95.035500	-0.011096	-0.002834	-0.016404	-0.022212	7087.647433	49222.760194	4012.511637	25952.842818
95.536000	-0.011305	-0.002695	-0.011327	-0.021929	7082.889350	49207.370069	4025.402426	25937.831831
96.042000	-0.011401	-0.002082	-0.012038	-0.018396	7047.911773	48897.050963	4013.983327	25750.931269
96.536500	-0.012089	-0.001867	-0.014013	-0.020433	7060.882134	49136.179946	4014.150198	25858.502688
97.036500	-0.009254	-0.001108	-0.015500	-0.019293	7077.224819	49095.726951	4007.134020	25798.241084
97.537500	-0.009725	-0.002324	-0.016321	-0.020100	7080.472190	49052.166287	4007.098181	25840.875652
98.045500	-0.011969	-0.002090	-0.009885	-0.016610	7025.378752	48707.447477	4014.964341	25657.013829
98.535000	-0.009516	-0.002163	-0.017720	-0.019134	7073.159689	48966.701415	4000.817703	25789.814928
