sample name	sample
index	1232
start time	 04-29-2021  11:10:58 AM
880	0.437308
Peak Time (s)	92.036
Peak Height 	0.4373
calc peak height	90,93
Baseline Time (s)	11.537
Baseline Value 	-0.001702
subtract baseline	10,4
Abs	0.310590
Peak Time (s)	90.538
Peak Height 	0.3106
calc peak height	90,93
Baseline Time (s)	10.036
Baseline Value 	0.001643
subtract baseline	10,3
PK_550	0.179949
Peak Time (s)	91.035
Peak Height 	0.1799
calc peak height	90,93
Baseline Time (s)	9.035
Baseline Value 	5.0757E-4
subtract baseline	10,2
PK_880	0.296449
Peak Time (s)	91.035
Peak Height 	0.2964
calc peak height	90,93
Baseline Time (s)	11.537
Baseline Value 	-2.3368E-4
subtract baseline	10,1


Time (s)	A880-A510	A880-A775	A880-A975	A880	I510	I775	I975	I880	
0.035500	-0.001148	-0.000313	-0.004278	0.000812	6199.083954	44251.783919	3872.294414	22815.376817
0.536000	-0.001788	-0.000143	-0.002573	0.005465	6158.857767	43827.045137	3865.419028	22602.830135
1.039000	-0.000700	-0.000401	-0.005480	0.002803	6187.310316	44054.370324	3864.850956	22724.170126
1.537000	0.000266	-0.000045	0.001036	0.000648	6211.169509	44292.900694	3885.191813	22822.897572
2.037000	0.002390	0.000124	-0.000460	-0.000318	6234.974649	44401.336311	3883.936276	22867.347505
2.537500	0.000293	-0.000246	-0.002797	0.001172	6207.363427	44223.933157	3874.919996	22798.871361
3.037500	0.000550	-0.000468	-0.000399	-0.002067	6234.272703	44511.994168	3888.229803	22948.040203
3.535500	0.000817	0.000168	-0.001061	0.000662	6215.301686	44311.959143	3880.203091	22822.270812
4.035500	0.000307	-0.000118	-0.001732	0.000410	6213.313737	44308.706233	3879.215399	22833.844757
4.535500	-0.000495	0.000187	-0.002685	0.000626	6205.515304	44317.228298	3876.466068	22823.949793
5.035500	-0.000320	0.000292	-0.001148	0.000445	6208.237809	44344.530709	3880.509634	22832.259445
5.539000	-0.001639	0.000344	-0.003194	0.000410	6198.405477	44352.765681	3875.777414	22833.863225
6.036500	0.001715	-0.000027	-0.001813	-0.000027	6227.511503	44359.025204	3880.053727	22853.929743
6.537000	-0.000570	0.000504	0.006360	0.000341	6207.113075	44374.647967	3898.620413	22837.012366
7.037000	-0.001008	0.000109	0.001723	0.000522	6202.380042	44319.690260	3887.120014	22828.714323
7.537000	0.000150	-0.000649	0.000968	-0.000123	6216.206404	44308.899997	3886.858709	22858.353941
8.035000	0.000823	0.000520	-0.001987	0.000551	6216.197313	44356.073908	3878.280519	22827.353297
8.535000	-0.001496	-0.000470	0.000286	-0.000277	6204.755155	44340.631725	3885.605581	22865.456275
9.035000	0.000437	0.000000	-0.000515	0.000151	6216.308482	44344.701292	3882.698244	22845.777771
9.536000	-0.001148	-0.000564	0.001805	-0.000482	6208.992325	44351.224397	3889.700444	22874.879333
10.036000	0.001024	0.000082	0.000000	0.000077	6221.390537	44359.563190	3884.091200	22849.177029
10.536000	0.000563	-0.000210	-0.000270	-0.000037	6218.724012	44342.572089	3883.720570	22854.410914
11.036500	-0.000034	0.000537	0.003563	0.000232	6212.067063	44388.244762	3892.189074	22842.059474
11.537000	0.000000	0.000339	-0.004983	0.000000	6214.109410	44391.439683	3872.544375	22852.709609
12.037000	-0.001001	-0.000125	-0.001197	0.000135	6205.388028	44334.257173	3881.123012	22846.483251
12.537500	-0.000619	-0.000327	0.001115	-0.000141	6210.445576	44341.407842	3887.252182	22859.220354
13.035000	-0.001073	-0.000080	-0.002056	-0.001548	6217.758472	44499.549279	3883.070526	22924.073252
13.535500	0.001304	0.000349	-0.002514	-0.001059	6232.308767	44493.710626	3880.835560	22901.495755
14.035500	-0.003127	-0.000679	-0.002152	0.001258	6180.591952	44174.519594	3876.232787	22794.897891
14.535500	0.000873	0.000844	0.003236	0.002293	6203.215786	44220.968622	3886.507393	22747.468227
15.044500	0.000366	0.000174	0.001871	-0.001442	6228.025301	44513.692960	3892.145935	22919.163851
15.536500	0.000838	0.000566	-0.004066	-0.001291	6230.504716	44536.779319	3877.723723	22912.183040
16.036500	0.000083	0.000445	-0.002570	0.000019	6214.599938	44399.741287	3878.163019	22851.838385
16.537000	0.001979	0.000376	0.002689	-0.001044	6237.408559	44494.894283	3893.148965	22900.802969
17.037500	0.001300	-0.000027	0.005643	-0.004156	6256.283230	44755.153789	3907.732040	23044.840085
17.534500	-0.001891	0.000584	-0.002996	0.000799	6193.505987	44338.481996	3875.326533	22815.958058
18.035000	-0.001014	0.000596	-0.003054	0.000748	6200.603758	44344.599887	3875.312934	22818.318246
18.535500	-0.000627	-0.000852	-0.003082	-0.000086	6209.952233	44285.939468	3877.203506	22856.648489
19.035500	-0.000871	-0.000167	-0.000207	0.000468	6203.836405	44298.463588	3882.676985	22831.190382
19.536000	0.000003	0.000263	0.002501	0.000329	6211.604748	44352.811549	3889.427640	22837.585555
20.036500	0.000212	-0.000282	-0.001307	0.000380	6212.821925	44295.960042	3880.288213	22835.230239
20.536500	0.000781	0.000287	0.000712	0.000523	6216.090195	44336.485766	3884.719984	22828.647845
21.036500	-0.000496	-0.000845	-0.001556	0.000096	6209.559930	44269.317950	3880.369583	22848.277591
21.537000	-0.000529	0.000001	0.002109	0.000135	6209.010458	44346.329825	3888.957464	22846.507195
22.037500	-0.000614	-0.000311	-0.003062	0.000004	6209.364717	44328.969892	3877.040009	22852.511260
22.535000	-0.000519	0.000866	-0.000193	0.001196	6200.957819	44327.518862	3880.990484	22797.743397
23.035000	0.002160	0.000158	-0.002126	0.000614	6226.006571	44315.528059	3877.805385	22824.465226
23.535500	-0.000908	-0.000145	0.001779	0.000019	6206.994989	44343.456422	3888.448211	22851.837636
24.035500	-0.002302	0.000145	0.002008	0.000040	6196.166336	44369.106936	3888.943194	22850.876738
24.539000	-0.000173	0.000878	0.003291	0.001210	6203.503442	44327.422878	3889.211040	22797.119196
25.037000	-0.001741	0.000676	-0.003268	0.000894	6193.930850	44338.320405	3874.468513	22811.632438
25.536500	-0.001211	-0.000214	-0.003268	-0.000244	6206.686136	44361.901922	3877.139109	22863.927068
26.037000	0.000231	-0.000323	0.000098	0.000755	6210.083462	44256.278367	3882.718608	22817.990729
26.537000	-0.000667	0.000937	0.003631	0.001109	6200.495504	44342.685854	3890.260495	22801.759524
27.037500	-0.000005	-0.000023	0.000527	-0.001682	6227.013416	44517.734987	3889.514638	22930.243183
27.535000	0.000678	-0.000018	0.000332	-0.002219	6236.435361	44569.809385	3890.328781	22955.076363
28.035500	-0.000362	0.000285	-0.003475	0.001818	6197.401695	44212.926077	3871.819572	22769.218843
28.535500	0.001451	0.001074	-0.000433	-0.000152	6226.448529	44476.345768	3883.606977	22859.704405
29.039000	0.002984	0.000492	0.000640	-0.000992	6244.790626	44501.051762	3888.142805	22898.406898
29.536000	0.000928	0.000074	-0.005719	-0.001028	6229.172911	44464.502329	3873.229965	22900.085184
30.036500	-0.000132	0.000547	0.000046	0.002297	6195.504312	44192.402737	3878.958673	22747.311815
30.536500	-0.001225	0.000441	-0.004262	0.002543	6185.292030	44158.954950	3868.289923	22736.065180
31.037000	-0.000518	0.000763	-0.002628	0.002379	6191.931093	44205.115072	3872.489532	22743.554803
31.537000	0.001363	0.000614	-0.001264	-0.000872	6231.322426	44501.293243	3883.346790	22892.888725
32.035000	0.000215	0.000604	0.003101	0.003004	6192.750433	44130.545364	3884.502023	22714.967467
32.535500	-0.001045	-0.000209	0.003963	-0.001276	6215.878184	44461.081492	3896.749466	22911.485832
33.035500	-0.000020	0.000925	-0.001906	-0.000947	6221.237716	44538.297384	3882.005149	22896.349290
33.536000	0.001908	0.000115	-0.001458	-0.002424	6247.550582	44602.180064	3886.563441	22964.556452
34.038500	-0.002297	-0.000671	-0.003900	0.002510	6177.384701	44056.474734	3869.209465	22737.545177
34.536500	-0.001881	0.000268	-0.002119	0.001586	6187.586163	44233.449840	3875.539915	22779.883627
35.036500	-0.001183	0.000733	-0.001255	0.001660	6192.345383	44270.633975	3877.395388	22776.481932
35.537000	-0.001108	0.000207	-0.002077	0.001790	6191.918840	44208.223474	3875.158768	22770.507556
36.037000	-0.000629	0.000106	-0.003731	0.003221	6184.671163	44062.798748	3867.947989	22705.074099
36.534500	0.000386	0.000783	0.004730	0.002355	6199.017154	44209.252076	3889.910297	22744.631717
37.035000	-0.001610	0.000037	0.001826	0.001502	6190.293894	44219.437245	3885.041555	22783.736775
37.537500	-0.000812	0.000968	0.000183	0.001922	6193.172480	44268.069747	3880.163500	22764.451876
38.035500	-0.001628	0.001096	-0.003154	0.002117	6185.463576	44261.736871	3871.870439	22755.536514
38.538500	-0.000307	-0.000288	0.000866	0.000970	6204.308997	44239.141677	3884.025237	22808.107831
39.036000	0.001091	0.000164	-0.001027	0.000928	6215.362211	44286.196165	3879.654850	22810.064425
39.536500	-0.000994	0.000363	0.000557	0.001569	6194.484324	44244.166054	3881.880349	22780.667890
40.037000	-0.001322	0.000644	0.000288	0.001818	6190.072297	44247.148406	3880.655917	22769.217429
40.537000	-0.000054	-0.000352	-0.003112	0.001117	6205.126559	44219.051933	3874.310973	22801.384478
41.037500	-0.000345	-0.000252	-0.002663	0.000932	6204.313345	44246.170670	3875.797313	22809.853771
41.535000	0.000359	-0.000119	0.003147	0.001216	6207.531614	44231.802482	3888.854456	22796.823895
42.035000	0.000066	0.000691	0.000771	0.001771	6201.032673	44256.093337	3881.907702	22771.372976
42.535500	0.002479	0.000543	-0.001664	0.001735	6219.826067	44245.363371	3876.258401	22773.027623
43.035000	0.000519	-0.000083	0.001905	0.001275	6208.303324	44229.613368	3885.765910	22794.121991
43.536000	-0.002605	0.000404	0.002733	0.000899	6187.300286	44311.886487	3888.625375	22811.401690
44.036000	0.001241	0.000528	0.004605	-0.001520	6235.387309	44555.121712	3898.873989	22922.770822
44.537000	0.001813	0.000421	0.003212	-0.000891	6234.947326	44484.570503	3894.032668	22893.754327
45.037000	0.001405	0.000958	0.004401	-0.001028	6232.849789	44549.143440	3897.204683	22900.070748
45.537000	0.000871	0.000399	0.001580	-0.001278	6230.660550	44519.516946	3891.060728	22911.611089
46.034500	-0.004504	0.000384	-0.001082	0.004227	6147.706971	43993.754819	3871.782459	22659.162337
46.537500	-0.001706	-0.000064	-0.007102	-0.001119	6209.603113	44459.955660	3870.207227	22904.261280
47.035500	0.002648	0.000809	0.002994	-0.001101	6243.039344	44541.852311	3894.013062	22903.452501
47.535500	-0.000560	0.000126	-0.000968	0.001546	6197.973845	44223.689955	3878.339046	22781.707356
48.038500	0.000398	0.000599	0.000564	0.004167	6185.286891	44019.825435	3875.779961	22661.905301
48.535500	0.000606	0.000352	0.003264	-0.001483	6230.195864	44534.716164	3895.573111	22921.074214
49.036000	0.000059	0.001007	-0.001809	-0.001324	6224.750558	44582.297615	3883.125146	22913.732166
49.536500	-0.000353	0.000361	-0.000795	-0.002725	6232.383621	44654.784281	3888.853251	22978.499637
50.037000	-0.002819	0.000104	-0.001170	0.004914	6155.229704	43902.333356	3869.970107	22627.881010
50.537000	0.001679	0.000155	-0.000150	0.001892	6212.474188	44193.503574	3879.449438	22765.831194
51.034500	0.026413	-0.026115	0.034064	0.509744	3974.240184	14966.421861	3200.033809	9049.069658
51.535000	0.004901	-0.025020	-0.004819	-0.008381	6317.714389	42800.421026	3892.739036	23242.058637
52.035500	0.000695	-0.025408	-0.000797	-0.068312	6788.636918	48664.700704	4057.186292	26256.512860
52.535500	0.004565	-0.020889	0.005944	-0.119403	7316.212612	54917.370031	4228.251003	29176.049287
53.036000	0.020628	-0.010592	0.022715	-0.067340	6963.158441	50147.284347	4121.164538	26204.236461
53.539000	0.032248	-0.006712	0.035910	-0.013342	6583.357103	44996.995223	4007.731544	23476.124754
54.036500	0.032431	-0.003600	0.040409	0.020255	6308.967660	42142.866950	3933.105136	21942.151137
54.535500	0.045447	0.009991	0.048661	0.029092	6342.142422	42574.928794	3931.657338	21558.018963
55.037500	0.066236	0.021622	0.072051	0.052430	6321.867663	41519.410670	3931.785288	20580.261632
55.537500	0.082423	0.034189	0.088784	0.062186	6373.242028	41770.261966	3949.202593	20186.860413
56.035000	0.105027	0.046708	0.108284	0.088033	6347.238459	40595.298306	3933.345493	19186.340258
56.535500	0.126756	0.059750	0.128941	0.115763	6299.630994	39341.527208	3915.945539	18177.112394
57.034500	0.141414	0.070058	0.141018	0.157940	6089.553322	36762.682754	3844.985302	16760.484630
57.538500	0.157001	0.077376	0.168651	0.203087	5878.222502	33937.290783	3805.903882	15389.024340
58.036000	0.168910	0.084295	0.175971	0.190930	6049.179650	35331.299907	3849.466356	15744.427080
58.536500	0.187874	0.093752	0.187643	0.211695	6036.055283	34497.553194	3828.885814	15143.351162
59.035500	0.197901	0.102304	0.203326	0.276166	5663.960181	30679.253681	3725.528626	13450.188573
59.537000	0.209306	0.110146	0.217684	0.309218	5528.502315	29112.241038	3688.903456	12674.887132
60.037500	0.218647	0.114763	0.224715	0.333176	5440.778201	27970.183536	3657.072115	12148.654554
60.534500	0.229367	0.120372	0.238935	0.344931	5434.681149	27617.819414	3661.631457	11900.896729
61.035000	0.232417	0.124990	0.244303	0.368314	5317.733270	26572.227527	3628.904828	11427.523301
61.535500	0.240329	0.129880	0.251233	0.385099	5268.395719	25932.482068	3611.567395	11103.103609
62.035500	0.240631	0.136850	0.255875	0.407505	5149.778526	25127.994300	3581.296171	10689.133047
62.538500	0.242298	0.140079	0.247361	0.411944	5135.321810	25066.088021	3559.987590	10609.614246
63.036000	0.245712	0.142054	0.255639	0.411286	5156.591358	25201.003278	3574.620189	10621.364522
63.545500	0.250050	0.144939	0.259305	0.407105	5201.724052	25566.884087	3587.717596	10696.337328
64.040000	0.248900	0.146870	0.256636	0.407691	5192.458337	25637.241257	3582.256218	10685.790819
64.540000	0.251113	0.147474	0.262060	0.404364	5222.166058	25844.018951	3597.033671	10745.885686
65.037500	0.254516	0.151540	0.269529	0.406792	5227.434778	25930.740302	3605.682557	10701.975733
65.535500	0.256798	0.151186	0.258215	0.406610	5240.801988	25921.642806	3586.716839	10705.257287
66.038000	0.253526	0.152052	0.269483	0.414937	5178.534739	25529.360929	3591.680619	10556.467402
66.535500	0.257568	0.152530	0.268199	0.411242	5219.880917	25747.926031	3595.774071	10622.134287
67.041500	0.261153	0.155417	0.272032	0.414034	5224.164581	25752.947807	3597.550204	10572.471319
67.536000	0.261035	0.155497	0.279911	0.416018	5212.834383	25652.908075	3607.679802	10537.351585
68.036000	0.260172	0.156812	0.274574	0.424523	5163.012283	25279.225489	3584.107782	10388.671132
68.537000	0.268118	0.160677	0.283542	0.422501	5216.065646	25584.759355	3602.761466	10423.758742
69.037000	0.264791	0.158358	0.276585	0.421665	5202.693249	25507.390111	3592.313913	10438.313525
69.537000	0.266135	0.160465	0.281583	0.425062	5191.728624	25440.319615	3595.032140	10379.350922
70.037500	0.265789	0.161838	0.276660	0.434213	5141.684236	25040.110753	3571.474545	10222.782185
70.535000	0.270709	0.161931	0.278828	0.430021	5189.680989	25259.697773	3582.024882	10294.091112
71.035000	0.270636	0.163582	0.283723	0.432564	5175.795584	25213.794184	3585.966491	10250.750009
71.538500	0.271541	0.163618	0.286595	0.433636	5174.914829	25160.671299	3588.997784	10232.559744
72.035500	0.271822	0.163450	0.287540	0.439359	5146.310794	24860.627633	3580.979111	10136.172568
72.536500	0.275201	0.164773	0.288584	0.435460	5184.647306	25126.359450	3589.276148	10201.705803
73.036500	0.273832	0.164559	0.288609	0.435194	5178.795023	25128.991317	3589.767893	10206.187695
73.536500	0.281892	0.166797	0.284458	0.437073	5211.774670	25147.426343	3579.653547	10174.526694
74.037000	0.277201	0.165245	0.290793	0.438609	5178.547733	24989.720590	3587.689658	10148.724252
74.537500	0.279222	0.168609	0.290676	0.438561	5189.532319	25163.987894	3587.573499	10149.528396
75.035000	0.280698	0.167737	0.290882	0.437511	5203.019097	25173.164840	3589.693737	10167.160488
75.538000	0.284751	0.169194	0.295920	0.438078	5221.756364	25218.840424	3597.282582	10157.627005
76.035500	0.279570	0.169920	0.294914	0.440108	5183.165447	25151.940621	3592.121722	10123.654695
76.536000	0.282780	0.169428	0.297885	0.436966	5217.126890	25288.165220	3602.553128	10176.323348
77.035500	0.283898	0.169886	0.294901	0.436975	5223.110402	25311.327679	3597.427436	10176.173428
77.536500	0.282695	0.169765	0.294827	0.436035	5221.689711	25353.647392	3598.907028	10191.998785
78.036500	0.284962	0.170921	0.300842	0.436088	5233.666222	25410.779877	3609.172460	10191.104518
78.537000	0.286310	0.171661	0.296721	0.435594	5243.677312	25474.809042	3602.909178	10199.431225
79.037000	0.286542	0.172375	0.301696	0.435986	5242.808811	25491.575745	3610.832590	10192.830393
79.537500	0.287434	0.171891	0.294311	0.433948	5258.814876	25572.592166	3601.597368	10227.269973
80.034500	0.285576	0.172558	0.296303	0.437436	5229.684938	25425.750669	3599.034444	10168.411333
80.535500	0.291792	0.173950	0.303166	0.433918	5282.990136	25681.936103	3617.004053	10227.771628
81.038000	0.292013	0.174674	0.301055	0.433758	5285.102544	25728.373796	3613.594918	10230.491671
81.536000	0.290140	0.176020	0.302311	0.434194	5272.343405	25776.301832	3615.026794	10223.106937
82.036000	0.287791	0.173708	0.302383	0.434303	5258.823424	25649.033847	3614.960676	10221.254421
82.535500	0.295454	0.175997	0.304073	0.432569	5310.901761	25860.812114	3620.966698	10250.662505
83.036500	0.291277	0.175312	0.304801	0.431191	5295.269717	25897.489904	3624.683202	10274.111288
83.537000	0.293075	0.175649	0.308991	0.430520	5309.055021	25950.988781	3633.333896	10285.575045
84.037500	0.291309	0.175085	0.301410	0.434866	5275.083647	25691.769286	3612.282420	10211.733120
84.537000	0.291364	0.176271	0.301711	0.429587	5304.705595	26033.690644	3622.059204	10301.517808
85.034000	0.293388	0.175706	0.310771	0.428882	5320.002649	26041.157977	3639.473807	10313.587870
85.538500	0.293114	0.177126	0.301385	0.430299	5310.509952	26041.297029	3620.230551	10289.341833
86.036000	0.291761	0.176267	0.302968	0.431683	5295.227967	25922.041301	3620.580146	10265.733501
86.536000	0.296137	0.178429	0.305419	0.430087	5328.698043	26122.170919	3627.737648	10292.962216
87.036500	0.297253	0.178508	0.300438	0.430615	5332.015475	26098.189130	3618.011662	10283.941577
87.536500	0.296247	0.179283	0.311717	0.430092	5329.291982	26167.661218	3638.997915	10292.875796
88.037000	0.291749	0.178783	0.303557	0.432789	5289.015447	25996.971362	3619.672395	10246.931575
88.537000	0.295497	0.178850	0.303346	0.431155	5319.076784	26087.640000	3622.178134	10274.735794
89.037500	0.293676	0.178421	0.304087	0.430517	5312.439698	26098.810869	3624.613263	10285.622574
89.535000	0.294804	0.179001	0.303791	0.431354	5314.074228	26085.085002	3622.612782	10271.347389
90.038000	0.292432	0.179130	0.303048	0.431274	5301.248831	26096.237322	3621.441987	10272.710011
90.538000	0.295199	0.179548	0.310590	0.432428	5310.265923	26056.962327	3632.781592	10253.066549
91.035500	0.296449	0.179949	0.308845	0.433620	5310.587523	26014.760992	3627.547040	10232.816933
91.536000	0.293860	0.179245	0.307277	0.432516	5302.285569	26036.054407	3626.724032	10251.563211
92.036000	0.293947	0.179831	0.305571	0.437308	5276.165099	25813.049332	3615.282091	10170.574670
92.537000	0.295121	0.179652	0.307282	0.434479	5298.369307	25953.294791	3623.258092	10218.275325
93.037000	0.293842	0.179815	0.311036	0.435107	5287.762449	25928.625913	3628.798670	10207.655419
93.559000	0.293953	0.179759	0.309892	0.435058	5288.656396	25928.256916	3626.854393	10208.494520
94.034500	0.293193	0.180716	0.306571	0.440048	5256.947385	25715.345236	3612.245307	10124.649191
94.535000	0.294541	0.181526	0.304402	0.437085	5280.679055	25914.513616	3613.630379	10174.322716
95.035000	0.298186	0.181692	0.306406	0.438014	5295.751696	25874.066316	3615.505836	10158.709066
95.535500	0.295905	0.181316	0.305077	0.438952	5277.897162	25804.644602	3611.553038	10142.985198
96.036000	0.290377	0.178367	0.303543	0.441234	5235.128020	25530.368437	3604.945050	10104.878188
