sample name	sample
index	776
start time	 03-31-2021  01:34:22 PM
880	0.071019
Peak Time (s)	92.536
Peak Height 	0.07102
calc peak height	90,93
Baseline Time (s)	8.534
Baseline Value 	-0.001144
subtract baseline	10,4
Abs	0.044075
Peak Time (s)	91.035
Peak Height 	0.04408
calc peak height	90,93
Baseline Time (s)	10.036
Baseline Value 	0.001256
subtract baseline	10,3
PK_550	0.007731
Peak Time (s)	90.535
Peak Height 	0.007731
calc peak height	90,93
Baseline Time (s)	11.539
Baseline Value 	5.3568E-4
subtract baseline	10,2
PK_880	0.034704
Peak Time (s)	92.536
Peak Height 	0.0347
calc peak height	90,93
Baseline Time (s)	11.036
Baseline Value 	8.2934E-4
subtract baseline	10,1


Time (s)	A880-A510	A880-A775	A880-A975	A880	I510	I775	I975	I880	
0.035500	-0.000513	-0.000678	-0.001093	0.000450	6784.567836	40773.345649	4072.468109	22306.020703
0.535500	-0.001152	-0.001534	-0.006196	0.002418	6762.648122	40529.569343	4056.703790	22219.277527
1.035500	-0.002248	-0.000900	-0.002301	0.002491	6752.863964	40577.857971	4065.192571	22216.072884
1.537000	-0.002130	0.000118	0.004976	0.000908	6767.115733	40802.669632	4085.163711	22285.810429
2.039500	-0.000307	-0.000765	-0.000142	0.000211	6788.331080	40786.557096	4075.146812	22316.606224
2.537000	-0.001659	-0.000879	0.001345	-0.000109	6779.632870	40804.432493	4079.229815	22330.774955
3.037000	0.000063	-0.000842	-0.004228	-0.001962	6809.873462	40968.670453	4070.846830	22412.944038
3.537500	0.000838	0.000621	-0.002925	0.000813	6792.915888	40854.511979	4067.547897	22290.002764
4.034500	0.000628	0.000339	-0.001039	0.000680	6792.261621	40841.590041	4072.072760	22295.870023
4.535000	0.000493	-0.000792	0.002490	-0.000024	6797.084825	40804.612615	4081.632255	22327.018845
5.035500	0.000295	0.000560	-0.000044	0.000512	6790.873886	40875.380439	4074.690458	22303.301171
5.536000	0.000827	0.000231	-0.002604	0.000850	6792.509800	40817.496173	4068.182552	22288.353654
6.036000	0.000219	-0.000327	0.001895	-0.000335	6797.394270	40871.897766	4080.987616	22340.766323
6.536500	0.000465	-0.001137	-0.001437	-0.001030	6805.372055	40861.969076	4075.027727	22371.572978
7.036500	0.001116	0.000454	0.000437	0.000187	6800.570493	40894.488969	4076.507836	22317.687323
7.537000	-0.002947	-0.001217	-0.002154	-0.000690	6773.681524	40825.472048	4072.646546	22356.501532
8.037000	-0.004001	-0.001138	0.000169	-0.001120	6768.430245	40869.622756	4078.855054	22375.529424
8.534500	-0.001765	-0.000597	-0.003426	0.000000	6777.816962	40819.431502	4068.244383	22325.937776
9.035000	0.000161	0.000227	0.000400	0.000395	6790.730948	40856.677638	4075.954637	22308.478378
9.535000	-0.000286	0.000543	-0.003244	0.000848	6783.139191	40844.757569	4066.757509	22288.479636
10.035500	-0.000035	-0.000291	0.000000	-0.000610	6797.578169	40898.968914	4077.321600	22352.960528
10.535500	0.000494	0.000519	0.002228	0.000048	6796.482240	40912.200906	4080.874918	22323.825184
11.036000	0.000000	-0.001020	-0.003246	-0.000712	6798.728101	40844.418474	4070.242007	22357.442152
11.539000	0.000931	0.000000	0.006534	-0.000335	6803.427289	40900.305594	4091.562001	22340.754439
12.036500	0.000451	-0.000337	0.001906	-0.000557	6801.241805	40890.370165	4081.515872	22350.596520
12.537000	-0.001832	-0.001749	-0.003050	-0.001479	6789.720050	40847.736936	4072.403867	22391.452933
13.037500	-0.000299	-0.000392	0.001346	-0.000422	6793.747284	40873.823647	4079.939143	22344.615292
13.535000	-0.003059	-0.000404	0.003103	0.000044	6766.564434	40832.326413	4082.868186	22323.974921
14.035000	-0.001963	-0.000054	-0.001134	0.002103	6758.491192	40684.363698	4068.669185	22233.147039
14.535000	-0.001496	-0.000360	-0.004036	0.001886	6764.230428	40676.649941	4062.676383	22242.708140
15.052000	-0.000258	-0.001082	-0.005556	-0.000426	6794.126889	40814.215083	4064.438539	22344.774628
15.536000	-0.000129	-0.000730	0.002120	0.000047	6791.222413	40803.825403	4080.631791	22323.871689
16.041500	-0.000626	-0.000374	-0.000961	-0.000287	6789.840163	40863.665945	4074.424867	22338.631078
16.536000	-0.002109	-0.000871	-0.002433	-0.000225	6776.811648	40815.170827	4070.974401	22335.899967
17.037000	-0.000237	-0.000408	0.002623	-0.001100	6800.009707	40931.387036	4084.378419	22374.661117
17.537000	-0.002482	-0.000842	0.000203	-0.000157	6773.100678	40811.745540	4076.756678	22332.888899
18.035500	-0.001967	-0.000005	-0.005460	0.000469	6772.167995	40830.034593	4062.659324	22305.195739
18.535000	-0.002810	-0.000487	-0.005365	0.000886	6761.597303	40752.198189	4061.944212	22286.806429
19.035000	-0.001754	0.000477	0.000252	0.001705	6763.581003	40764.680157	4072.669613	22250.653515
19.535500	-0.001480	-0.001157	-0.000590	0.000540	6775.668534	40724.128303	4073.396963	22302.063416
20.035000	-0.002023	-0.001001	-0.008694	0.000559	6770.946370	40735.993842	4055.289576	22301.226722
20.539000	-0.000708	-0.000386	-0.000304	0.000932	6778.862593	40756.869920	4073.157296	22284.738540
21.036500	-0.001417	0.000453	0.002117	0.001758	6765.963923	40758.005768	4076.752995	22248.314475
21.536500	-0.003212	-0.001608	-0.001567	-0.000071	6766.247775	40737.945742	4072.572992	22329.065233
22.040500	0.001095	0.000071	0.003173	0.001173	6792.044619	40775.575322	4080.465368	22274.104405
22.540000	-0.002420	-0.000492	-0.005533	0.002324	6752.816927	40627.432943	4058.378724	22223.418666
23.089500	-0.001618	-0.000890	-0.005096	0.000645	6773.622184	40738.149320	4063.076534	22297.415085
23.538000	-0.001027	-0.000403	0.000773	0.001007	6775.554894	40748.986660	4075.417895	22281.463326
24.038000	-0.001976	-0.000522	-0.000082	0.001141	6766.453462	40727.096592	4073.187730	22275.536119
24.566000	-0.003310	-0.000437	-0.001119	0.000728	6758.730625	40770.145803	4071.786357	22293.769613
25.039000	-0.003028	-0.000955	-0.000967	0.000424	6763.636686	40751.602670	4072.809957	22307.192973
25.582000	-0.000497	-0.000425	-0.000250	0.000961	6780.400727	40750.986021	4073.214773	22283.464171
26.036500	-0.004075	-0.000550	-0.000165	0.000598	6753.411261	40771.602948	4074.222897	22299.500937
26.537000	-0.001065	-0.000456	-0.002052	0.000423	6780.153537	40794.992587	4070.377014	22307.256235
27.037000	-0.001402	-0.000167	0.001880	0.001114	6771.494903	40760.090915	4077.672468	22276.726169
27.535000	-0.001036	-0.001287	-0.000492	-0.002133	6801.993456	40944.762548	4079.651604	22420.526763
28.035000	-0.000670	-0.000825	-0.002065	-0.000512	6791.371380	40844.030763	4072.445868	22348.600402
28.535500	-0.005054	-0.000286	0.001418	0.004285	6714.597711	40476.346371	4069.496685	22137.326224
29.035500	-0.000713	-0.000705	-0.001168	-0.000214	6788.495561	40828.630970	4073.794275	22335.426350
29.536000	-0.002602	-0.000566	-0.002114	-0.000243	6772.813368	40843.178823	4071.731136	22336.676050
30.036000	-0.000292	-0.000690	0.000713	-0.000266	6792.487764	40834.481983	4078.154281	22337.724903
30.536500	-0.000323	-0.000056	0.003391	0.000046	6789.588179	40862.334997	4083.518609	22323.903034
31.036500	0.000023	-0.000897	-0.000441	0.001936	6776.568657	40625.912076	4070.594596	22240.468756
31.534500	0.000078	-0.000395	-0.004082	0.000089	6792.611433	40829.196532	4066.579295	22322.008795
32.037000	-0.001277	-0.000387	-0.001445	-0.000158	6783.262959	40851.332091	4073.045355	22332.947075
32.534500	-0.001238	-0.000272	-0.001613	-0.000276	6784.580188	40871.531297	4072.930625	22338.134479
33.035000	-0.000859	-0.000738	0.000299	-0.000207	6787.196415	40825.155145	4077.086959	22335.102201
33.535500	0.000705	-0.000442	0.000771	-0.002508	6819.974081	41051.138489	4083.370071	22437.217089
34.035500	-0.003210	-0.001258	-0.003778	0.000895	6758.162427	40684.716069	4065.458541	22286.381991
34.536000	-0.002187	-0.000722	-0.001219	0.001391	6762.586016	40688.176897	4070.072813	22264.512563
35.039000	-0.004012	0.000157	-0.002677	0.001659	6745.075512	40740.964917	4066.211144	22252.696864
35.536500	-0.001361	-0.000192	-0.000529	0.001553	6768.153607	40719.968684	4071.257654	22257.350848
36.037000	-0.001632	-0.000868	0.003484	0.001249	6768.437014	40687.785159	4080.999786	22270.778447
36.537000	-0.003325	-0.000003	0.001430	0.001313	6753.701388	40757.117041	4076.206561	22267.934773
37.037000	0.000865	-0.000175	0.002054	0.001530	6787.087173	40723.400179	4077.127153	22258.372083
37.535000	-0.003223	-0.000893	0.000032	0.001145	6755.967507	40694.583822	4073.435212	22275.352059
38.035000	-0.002627	-0.001228	-0.004303	0.000888	6763.110437	40687.876547	4064.302998	22286.689414
38.535500	-0.001568	0.000089	0.001168	0.001530	6766.610779	40746.240589	4075.126535	22258.367783
39.035500	-0.001966	-0.000741	-0.002456	0.001192	6766.104787	40703.699720	4067.748127	22273.279381
39.536000	-0.000448	-0.000162	0.004557	0.001731	6774.330800	40707.153388	4082.339930	22249.531898
40.036500	-0.001806	-0.000593	0.001733	0.001304	6766.510084	40706.873455	4076.913323	22268.358700
40.536500	-0.003757	-0.000662	-0.002225	0.002739	6738.194002	40576.934985	4064.808790	22205.141797
41.037000	0.000827	-0.000151	0.001142	0.001745	6784.951641	40706.831651	4074.584214	22248.884594
41.537000	-0.001465	-0.000925	-0.004634	0.001009	6771.850940	40703.616479	4063.295700	22281.361745
42.037500	-0.001756	0.000386	0.002847	0.002022	6760.902274	40729.379311	4077.805599	22236.678925
42.535000	-0.002506	-0.000407	-0.003582	0.003383	6743.254465	40543.530924	4060.355984	22176.875120
43.035000	-0.001908	-0.000903	-0.003459	0.000693	6770.778085	40732.810732	4066.621366	22295.290128
43.535500	-0.002655	-0.000529	-0.000291	0.001437	6758.273251	40700.868651	4072.054048	22262.479143
44.038500	0.003069	0.000140	-0.000438	-0.002752	6842.248498	41123.224279	4081.176279	22448.049543
44.538500	-0.000220	-0.000582	0.002015	0.000333	6788.034630	40791.804772	4079.744472	22311.206663
45.036500	0.000795	-0.000204	0.002995	-0.000081	6800.126063	40860.543955	4082.908604	22329.535750
45.536500	0.001957	0.000246	-0.002285	0.000301	6806.734543	40866.459220	4070.127277	22312.617441
46.037000	-0.000941	-0.000168	-0.000743	-0.000119	6785.759815	40866.914039	4074.535379	22331.189885
46.537500	0.000558	-0.000489	0.007069	-0.000309	6800.044391	40855.651654	4092.730677	22339.627292
47.034000	-0.000815	-0.000615	-0.001229	-0.000662	6791.415156	40875.258930	4074.664087	22355.241751
47.535000	0.000351	-0.000620	-0.003341	0.001850	6780.057783	40657.296707	4064.302774	22244.275940
48.035000	-0.000403	-0.000215	-0.001436	0.000484	6785.217063	40810.546996	4071.621811	22304.530357
48.535500	-0.000986	0.000748	-0.001504	0.000443	6780.646979	40897.714376	4071.560892	22306.351497
49.039000	0.000660	-0.001431	-0.004443	-0.000814	6805.185884	40817.669173	4067.789905	22361.964684
49.536000	0.000053	-0.000403	0.000963	-0.002972	6818.367713	41094.994963	4084.861592	22457.862418
50.036500	-0.001825	-0.000899	-0.000886	0.005827	6728.581291	40291.606769	4060.917532	22069.913040
50.537000	-0.003630	-0.001153	-0.005692	0.007354	6701.003963	40139.555115	4046.948953	22003.352222
51.037000	-0.019966	0.002224	0.013805	0.410106	4484.989731	17898.650196	3489.586112	10586.794392
51.537500	-0.053161	-0.000173	-0.020307	0.012271	6279.188642	39805.820058	4005.140528	21790.731393
52.035000	-0.058573	-0.055535	-0.029712	-0.260570	8967.035113	63629.562715	4763.326505	38119.487516
52.535000	-0.053659	-0.124427	-0.014215	-0.342934	10268.244445	65535.000000	5184.670906	45429.416919
53.035500	-0.033742	-0.102381	-0.005822	-0.320888	10233.286187	65535.000000	5120.035094	43335.004053
53.536000	-0.037479	-0.086726	-0.005115	-0.304120	9905.307348	65375.422383	5046.559185	41811.749005
54.036000	-0.032092	-0.067970	-0.004354	-0.279284	9608.169661	64510.323779	4941.381469	39660.795239
54.536500	-0.032223	-0.051456	-0.012540	-0.256004	9267.739646	63561.778067	4812.421966	37753.349237
55.036500	-0.015773	-0.055245	-0.001124	-0.264468	9630.667800	64215.630585	4892.810511	38435.090419
55.537000	-0.007240	-0.037914	0.001559	-0.236684	9348.430664	62763.530835	4791.915357	36246.228236
56.037000	-0.003526	-0.020018	0.006372	-0.194869	8825.375004	59569.049127	4653.426328	33204.946487
56.537500	-0.002835	-0.010038	0.006051	-0.143506	8197.178800	54441.530175	4478.709355	29848.629808
57.035000	0.005163	-0.002546	0.007928	-0.090909	7701.767021	49382.000474	4326.323357	26799.245778
57.535500	-0.000753	-0.001765	0.007616	-0.071411	7441.408837	47431.972806	4271.472816	25759.422392
58.034500	0.004612	-0.002346	0.011050	-0.080722	7589.897145	48331.008585	4306.471681	26250.130113
58.538500	0.003868	0.000065	0.011649	-0.036890	7153.970325	44221.221218	4191.796525	24029.105724
59.036000	0.007584	0.004472	0.013283	-0.024186	7071.366063	43444.176433	4164.223698	23426.193803
59.536500	0.007318	0.002138	0.021647	-0.005162	6899.748177	41510.571465	4138.329472	22555.651046
60.037000	0.010633	0.003034	0.016497	0.014684	6758.624347	39872.912709	4080.043803	21687.255357
60.537500	0.003313	0.001772	0.019660	0.022727	6632.186340	39094.469519	4069.048903	21346.434865
61.037000	0.006000	0.004011	0.019292	0.017632	6695.673285	39706.615530	4079.695861	21561.591793
61.534500	0.012563	0.006825	0.016007	0.017026	6755.171685	39995.617106	4073.648061	21587.360270
62.035000	0.019530	0.007946	0.011865	0.024875	6747.794805	39429.270166	4047.029944	21256.495142
62.535500	0.021867	0.010028	0.019980	0.026260	6755.754803	39487.469907	4061.878249	21198.715760
63.038500	0.022777	0.009588	0.015175	0.024349	6779.434594	39610.739518	4055.463951	21278.459237
63.536000	0.025394	0.011518	0.019113	0.024105	6803.622057	39793.702875	4064.746132	21288.684331
64.036500	0.024986	0.011524	0.022236	0.024266	6798.801522	39780.693138	4071.375000	21281.947443
64.537000	0.024228	0.010790	0.014844	0.026472	6773.786912	39533.516374	4050.060566	21189.905355
65.037000	0.022685	0.010460	0.023265	0.027108	6755.504352	39452.703202	4067.313479	21163.453623
65.537000	0.024246	0.011654	0.025112	0.029138	6751.580728	39382.939682	4066.904239	21079.285261
66.034500	0.026476	0.013064	0.020329	0.032310	6743.713716	39236.169817	4049.283778	20948.531361
66.535000	0.027903	0.012741	0.025949	0.033726	6743.811990	39092.002045	4058.557007	20890.506972
67.035000	0.025726	0.012241	0.022535	0.033500	6727.568961	39069.319985	4051.516111	20899.734988
67.535500	0.028947	0.013059	0.021206	0.035281	6739.553673	38989.836956	4044.700611	20826.978127
68.038500	0.028662	0.012584	0.023325	0.037076	6722.251130	38802.931676	4045.407081	20753.888700
68.536500	0.029283	0.014378	0.028580	0.041081	6694.306796	38621.851225	4048.144312	20591.967991
69.039000	0.030566	0.013580	0.022384	0.041171	6704.132111	38549.473563	4034.463875	20588.349831
69.536500	0.033069	0.014967	0.024260	0.042342	6715.135374	38567.048738	4035.989359	20541.295098
70.037000	0.030770	0.013705	0.025287	0.040394	6712.238853	38623.078388	4042.449256	20619.658745
70.542500	0.032204	0.014566	0.030641	0.040909	6719.849829	38651.330117	4053.052801	20598.925309
71.034500	0.032656	0.015010	0.029744	0.041817	6716.067168	38613.433714	4049.082497	20562.391185
71.535000	0.032192	0.014722	0.028465	0.041353	6716.067612	38627.737742	4047.296138	20581.020568
72.035500	0.036741	0.015220	0.032776	0.042939	6740.685472	38539.106917	4053.283379	20517.387255
72.536000	0.035521	0.015196	0.026708	0.043615	6724.908909	38482.005323	4038.535826	20490.298866
73.035500	0.037425	0.014919	0.029115	0.043654	6740.420050	38456.315606	4043.687598	20488.743638
73.536500	0.035643	0.014984	0.027786	0.044576	6717.960005	38386.748908	4038.790986	20451.906483
74.036500	0.035687	0.014684	0.034019	0.045088	6714.082529	38320.965653	4051.289285	20431.467416
74.537000	0.036407	0.014727	0.030044	0.045086	6720.059963	38324.590361	4042.589687	20431.539218
75.037500	0.035955	0.014673	0.031890	0.046241	6706.767459	38226.799400	4044.099093	20385.561070
75.537500	0.034501	0.014989	0.030218	0.047449	6684.861234	38154.844238	4037.832059	20337.587431
76.035000	0.036950	0.014365	0.030647	0.048130	6699.395619	38049.832461	4037.286451	20310.584682
76.535500	0.034769	0.013642	0.030822	0.052512	6645.726726	37642.056949	4028.214795	20137.968867
77.041000	0.036511	0.013361	0.032598	0.049029	6688.390430	37897.283434	4039.569204	20275.056694
77.538500	0.035020	0.014188	0.032572	0.050505	6664.094318	37845.373906	4036.311532	20216.808897
78.035500	0.039824	0.013259	0.029195	0.051084	6698.739574	37725.099556	4027.787738	20194.033081
78.539000	0.036598	0.013706	0.036939	0.054851	6641.590646	37461.843764	4036.357063	20046.532962
79.036500	0.038856	0.014621	0.035217	0.053629	6669.906284	37631.060855	4035.274626	20094.218305
79.540000	0.038635	0.013099	0.031362	0.053884	6666.025349	37490.309142	4026.431069	20084.275818
80.034500	0.037219	0.012661	0.035006	0.054021	6653.367694	37444.810127	4033.973403	20078.907449
80.534500	0.038500	0.013489	0.025513	0.058673	6626.058457	37144.258378	4003.922103	19898.173893
81.035000	0.037139	0.012746	0.036448	0.055919	6637.318692	37301.996266	4032.989171	20004.927512
81.535500	0.038158	0.012900	0.033157	0.056799	6638.445402	37244.888904	4024.034792	19970.732245
82.038500	0.038657	0.013140	0.032153	0.057657	6635.542656	37196.462286	4020.066140	19937.479255
82.541000	0.036381	0.011668	0.037430	0.057212	6620.752285	37116.037136	4032.317404	19954.708898
83.036000	0.038836	0.012338	0.041495	0.058095	6633.441364	37099.406902	4039.201431	19920.509148
83.536500	0.037566	0.012373	0.041064	0.058478	6620.103651	37072.235411	4037.436039	19905.703552
84.037500	0.037284	0.010037	0.036787	0.057740	6623.769857	36947.599549	4029.797618	19934.248537
84.537000	0.035960	0.010653	0.036695	0.058739	6605.094302	36917.863520	4027.454910	19895.619503
85.037000	0.034835	0.010798	0.042590	0.059634	6588.919605	36859.566220	4038.238080	19861.064113
85.535000	0.038323	0.010638	0.040117	0.060588	6609.218722	36773.224340	4030.833990	19824.325018
86.035500	0.036049	0.009493	0.041491	0.060359	6592.832063	36702.384335	4034.290395	19833.140985
86.535500	0.034625	0.009123	0.037556	0.060860	6577.472556	36635.152449	4024.756582	19813.857682
87.036000	0.035903	0.009213	0.037098	0.062080	6577.940454	36548.164807	4021.176824	19767.031711
87.536000	0.035987	0.009438	0.039429	0.063529	6567.091544	36454.239413	4023.058444	19711.566969
88.036500	0.036270	0.008687	0.042911	0.063935	6566.113158	36365.515881	4029.642986	19696.023951
88.536500	0.033708	0.008322	0.039974	0.064867	6538.510830	36266.570981	4021.367208	19660.511574
89.037000	0.036739	0.009020	0.040152	0.066314	6550.995259	36209.434615	4018.665749	19605.448953
89.537500	0.033887	0.007910	0.040139	0.066485	6527.207461	36112.122203	4018.276855	19598.978702
90.034500	0.032005	0.007598	0.039985	0.067207	6506.842186	36033.724282	4016.418904	19571.584785
90.534500	0.034509	0.007731	0.040305	0.069232	6510.582406	35890.846645	4012.812241	19495.033586
91.035000	0.033924	0.007568	0.044075	0.069066	6507.306724	35891.001974	4021.157597	19501.290899
91.536000	0.032841	0.006381	0.044034	0.068724	6501.540906	35827.384122	4021.799378	19514.205508
92.035500	0.031880	0.006366	0.039155	0.070055	6483.743438	35726.316685	4008.658609	19464.013152
92.536000	0.034704	0.006325	0.041236	0.071019	6498.183799	35651.005029	4011.009356	19427.781456
93.036500	0.033455	0.007331	0.045222	0.071920	6481.494168	35658.835536	4017.528830	19393.942766
93.539000	0.032546	0.005723	0.045139	0.071277	6479.443075	35586.693349	4018.719008	19418.082831
94.037000	0.032560	0.005854	0.044237	0.072505	6470.071378	35504.892774	4014.205506	19372.045752
94.536500	0.030464	0.005763	0.039546	0.073385	6447.201244	35432.640905	4002.503895	19339.146087
95.037000	0.033149	0.006675	0.043150	0.074699	6457.712200	35402.753062	4007.295933	19290.130156
95.535000	0.032804	0.005407	0.044710	0.074155	6459.244900	35349.097556	4011.721094	19310.409405
96.035500	0.032475	0.004519	0.043858	0.073551	6461.357506	35328.055071	4011.198914	19332.952006
