sample name	sample
index	1209
start time	 04-26-2021  01:11:38 PM


Wavelength (nm)	Absorbance
494.344910	NaN
494.563924	NaN
494.782919	NaN
495.001897	-2.621176
495.220856	-0.668401
495.439797	-0.557735
495.658719	-0.458998
495.877624	-0.301499
496.096510	-0.310019
496.315378	-0.228934
496.534227	-0.257871
496.753059	-0.208182
496.971872	-0.279043
497.190667	0.013372
497.409444	0.019380
497.628203	0.020374
497.846943	0.022791
498.065665	0.022462
498.284369	0.020942
498.503055	0.020523
498.721723	0.020791
498.940372	0.019986
499.159003	0.019030
499.377616	0.018939
499.596210	0.019308
499.814787	0.018401
500.033345	0.018954
500.251885	0.019522
500.470406	0.019234
500.688910	0.018402
500.907395	0.018984
501.125862	0.018005
501.344311	0.017064
501.562742	0.015745
501.781154	0.015686
501.999548	0.014634
502.217924	0.013600
502.436282	0.012805
502.654621	0.012406
502.872942	0.012413
503.091245	0.013287
503.309530	0.014152
503.527797	0.015005
503.746045	0.014345
503.964275	0.014841
504.182487	0.016255
504.400681	0.017678
504.618856	0.018576
504.837013	0.018180
505.055152	0.018279
505.273273	0.019124
505.491376	0.018812
505.709460	0.019322
505.927526	0.020075
506.145574	0.019710
506.363604	0.019215
506.581615	0.018402
506.799608	0.019008
507.017583	0.018704
507.235540	0.016562
507.453478	0.016629
507.671399	0.016920
507.889301	0.016535
508.107185	0.016375
508.325050	0.015725
508.542898	0.015994
508.760727	0.015023
508.978538	0.014315
509.196330	0.015091
509.414105	0.014547
509.631861	0.013568
509.849599	0.013782
510.067319	0.013734
510.285021	0.013944
510.502704	0.013851
510.720369	0.014136
510.938016	0.015453
511.155645	0.015364
511.373255	0.015903
511.590848	0.016059
511.808422	0.016003
512.025977	0.015556
512.243515	0.015198
512.461034	0.015265
512.678536	0.015413
512.896018	0.014504
513.113483	0.014680
513.330930	0.014678
513.548358	0.014471
513.765768	0.014048
513.983160	0.014453
514.200533	0.014683
514.417889	0.014400
514.635226	0.014616
514.852545	0.015573
515.069845	0.016233
515.287128	0.016124
515.504392	0.016842
515.721638	0.016881
515.938866	0.016556
516.156075	0.017269
516.373267	0.017280
516.590440	0.017314
516.807594	0.016545
517.024731	0.016778
517.241850	0.016469
517.458950	0.016352
517.676032	0.016295
517.893095	0.016039
518.110141	0.016046
518.327168	0.016488
518.544177	0.016208
518.761168	0.015386
518.978141	0.014591
519.195095	0.015120
519.412031	0.014765
519.628949	0.015243
519.845849	0.015924
520.062731	0.015977
520.279594	0.015369
520.496439	0.015270
520.713266	0.016092
520.930074	0.015751
521.146865	0.015890
521.363637	0.015804
521.580391	0.015345
521.797127	0.014948
522.013844	0.014468
522.230543	0.015055
522.447224	0.015373
522.663887	0.015431
522.880532	0.015901
523.097158	0.015747
523.313766	0.016083
523.530356	0.015326
523.746928	0.015501
523.963481	0.015343
524.180017	0.014951
524.396534	0.014639
524.613032	0.014580
524.829513	0.014512
525.045975	0.014094
525.262420	0.013617
525.478845	0.014249
525.695253	0.014496
525.911643	0.014431
526.128014	0.014926
526.344367	0.014889
526.560702	0.014560
526.777018	0.014581
526.993316	0.014651
527.209597	0.015170
527.425858	0.015581
527.642102	0.014844
527.858328	0.015461
528.074535	0.015389
528.290724	0.015807
528.506894	0.016478
528.723047	0.016179
528.939181	0.016544
529.155297	0.016991
529.371395	0.016437
529.587475	0.016906
529.803536	0.016872
530.019579	0.016650
530.235604	0.016981
530.451611	0.016795
530.667600	0.017055
530.883570	0.017087
531.099522	0.016612
531.315456	0.017096
531.531372	0.017587
531.747269	0.017400
531.963148	0.017698
532.179009	0.017155
532.394852	0.017804
532.610676	0.017806
532.826482	0.017507
533.042271	0.017656
533.258040	0.018080
533.473792	0.017832
533.689525	0.018080
533.905240	0.018769
534.120937	0.019053
534.336616	0.019161
534.552277	0.019471
534.767919	0.019867
534.983543	0.020210
535.199149	0.020098
535.414736	0.019929
535.630306	0.020168
535.845857	0.020058
536.061390	0.020141
536.276904	0.019638
536.492401	0.019837
536.707879	0.019576
536.923339	0.019405
537.138781	0.018557
537.354204	0.018871
537.569610	0.018104
537.784997	0.017839
538.000366	0.017751
538.215716	0.017709
538.431049	0.017609
538.646363	0.017891
538.861659	0.017984
539.076937	0.018683
539.292196	0.018368
539.507438	0.019214
539.722661	0.019243
539.937866	0.019223
540.153052	0.019119
540.368221	0.018993
540.583371	0.018695
540.798503	0.018445
541.013617	0.018616
541.228712	0.018880
541.443789	0.018771
541.658848	0.018409
541.873889	0.018347
542.088912	0.018794
542.303916	0.018579
542.518902	0.018835
542.733870	0.019078
542.948820	0.019039
543.163752	0.019390
543.378665	0.019373
543.593560	0.019597
543.808437	0.019927
544.023295	0.019453
544.238136	0.019625
544.452958	0.019673
544.667762	0.019261
544.882548	0.019020
545.097315	0.018755
545.312064	0.018854
545.526795	0.018878
545.741508	0.018702
545.956203	0.019024
546.170879	0.019049
546.385537	0.019268
546.600177	0.019706
546.814799	0.019771
547.029402	0.019806
547.243988	0.019637
547.458555	0.019798
547.673103	0.019832
547.887634	0.019776
548.102146	0.019938
548.316640	0.020041
548.531116	0.020193
548.745574	0.020322
548.960013	0.020382
549.174435	0.020405
549.388838	0.020019
549.603222	0.020192
549.817589	0.020748
550.031937	0.020620
550.246267	0.020315
550.460579	0.020011
550.674873	0.020157
550.889148	0.020027
551.103405	0.020071
551.317644	0.020284
551.531865	0.020038
551.746068	0.019653
551.960252	0.019563
552.174418	0.019560
552.388566	0.019243
552.602696	0.019102
552.816807	0.019214
553.030900	0.018906
553.244975	0.019089
553.459032	0.019104
553.673070	0.018995
553.887091	0.019588
554.101093	0.019774
554.315077	0.020329
554.529042	0.020394
554.742990	0.020486
554.956919	0.020560
555.170830	0.020599
555.384722	0.020739
555.598597	0.020781
555.812453	0.020647
556.026291	0.020488
556.240111	0.020460
556.453913	0.020519
556.667696	0.020165
556.881461	0.020566
557.095208	0.020455
557.308937	0.020515
557.522647	0.020381
557.736339	0.019834
557.950013	0.019975
558.163669	0.019970
558.377307	0.019960
558.590926	0.019849
558.804527	0.019699
559.018110	0.019799
559.231675	0.019536
559.445221	0.019618
559.658749	0.020074
559.872259	0.020003
560.085751	0.020097
560.299225	0.020031
560.512680	0.020607
560.726117	0.020681
560.939536	0.020548
561.152937	0.020925
561.366319	0.020939
561.579683	0.020703
561.793029	0.020542
562.006357	0.020422
562.219667	0.020355
562.432958	0.020214
562.646231	0.019972
562.859486	0.019626
563.072723	0.019523
563.285941	0.019772
563.499141	0.019985
563.712323	0.020237
563.925487	0.019969
564.138632	0.020093
564.351760	0.019801
564.564869	0.020051
564.777960	0.020483
564.991032	0.020538
565.204087	0.020701
565.417123	0.020306
565.630141	0.019885
565.843140	0.019988
566.056122	0.019775
566.269085	0.019902
566.482030	0.019752
566.694957	0.019780
566.907866	0.019481
567.120756	0.019166
567.333628	0.019072
567.546482	0.019412
567.759318	0.018891
567.972135	0.018757
568.184935	0.018594
568.397716	0.018664
568.610478	0.018603
568.823223	0.018574
569.035949	0.018243
569.248657	0.018717
569.461347	0.018574
569.674019	0.019223
569.886672	0.019590
570.099308	0.019905
570.311925	0.019771
570.524523	0.019825
570.737104	0.020024
570.949666	0.020352
571.162210	0.020090
571.374736	0.020301
571.587244	0.020269
571.799733	0.020107
572.012205	0.019859
572.224658	0.019852
572.437092	0.019860
572.649509	0.019924
572.861907	0.019785
573.074287	0.019580
573.286649	0.019379
573.498993	0.019033
573.711318	0.018918
573.923625	0.019188
574.135914	0.019255
574.348185	0.019291
574.560438	0.019476
574.772672	0.019667
574.984888	0.020213
575.197086	0.020241
575.409266	0.020772
575.621427	0.020986
575.833570	0.020916
576.045695	0.020587
576.257802	0.020596
576.469890	0.020579
576.681961	0.020633
576.894013	0.020889
577.106046	0.021050
577.318062	0.020883
577.530059	0.021062
577.742039	0.021264
577.954000	0.021745
578.165942	0.022048
578.377867	0.021988
578.589773	0.022086
578.801661	0.021774
579.013531	0.021552
579.225382	0.021654
579.437216	0.021443
579.649031	0.021007
579.860828	0.021062
580.072606	0.020329
580.284367	0.020276
580.496109	0.020016
580.707833	0.020116
580.919539	0.020281
581.131227	0.020458
581.342896	0.020873
581.554547	0.021085
581.766180	0.020733
581.977795	0.021134
582.189391	0.021253
582.400969	0.021719
582.612529	0.021497
582.824071	0.021826
583.035595	0.021687
583.247100	0.021601
583.458587	0.021979
583.670056	0.022753
583.881506	0.022816
584.092939	0.023009
584.304353	0.022901
584.515749	0.023356
584.727127	0.023470
584.938486	0.023669
585.149828	0.023385
585.361151	0.023281
585.572456	0.023063
585.783742	0.023188
585.995011	0.023190
586.206261	0.023128
586.417493	0.022948
586.628706	0.022839
586.839902	0.022884
587.051079	0.023202
587.262238	0.023329
587.473379	0.023097
587.684502	0.023285
587.895606	0.023048
588.106692	0.023029
588.317760	0.023073
588.528810	0.023095
588.739841	0.023135
588.950855	0.022829
589.161850	0.022746
589.372827	0.023230
589.583785	0.022845
589.794726	0.023145
590.005648	0.023322
590.216552	0.023280
590.427437	0.023209
590.638305	0.023155
590.849154	0.023599
591.059985	0.023586
591.270798	0.023472
591.481592	0.023769
591.692369	0.023641
591.903127	0.023423
592.113867	0.023584
592.324588	0.023741
592.535292	0.023751
592.745977	0.023724
592.956644	0.023423
593.167293	0.023250
593.377923	0.023235
593.588536	0.023518
593.799130	0.023603
594.009706	0.023628
594.220263	0.023499
594.430803	0.023711
594.641324	0.023698
594.851827	0.024044
595.062312	0.024110
595.272778	0.024110
595.483227	0.023862
595.693657	0.024012
595.904069	0.024216
596.114462	0.023944
596.324838	0.023856
596.535195	0.023978
596.745534	0.024081
596.955855	0.024190
597.166157	0.024215
597.376441	0.024419
597.586707	0.024360
597.796955	0.024189
598.007185	0.024636
598.217396	0.024488
598.427589	0.024507
598.637764	0.024475
598.847921	0.024147
599.058060	0.024073
599.268180	0.023795
599.478282	0.023875
599.688366	0.023698
599.898431	0.023774
600.108479	0.023770
600.318508	0.023617
600.528519	0.023738
600.738511	0.024159
600.948486	0.024165
601.158442	0.024559
601.368380	0.024775
601.578300	0.025323
601.788202	0.025650
601.998085	0.025804
602.207950	0.026040
602.417797	0.025922
602.627626	0.025648
602.837436	0.025829
603.047228	0.025811
603.257002	0.025511
603.466758	0.025333
603.676496	0.025178
603.886215	0.025167
604.095916	0.024975
604.305599	0.025049
604.515264	0.025522
604.724910	0.025360
604.934538	0.025153
605.144148	0.025360
605.353740	0.025107
605.563314	0.024811
605.772869	0.025166
605.982406	0.025264
606.191925	0.025162
606.401425	0.024923
606.610908	0.025269
606.820372	0.025451
607.029818	0.025353
607.239246	0.025643
607.448655	0.025458
607.658047	0.025240
607.867420	0.025137
608.076775	0.025130
608.286111	0.024782
608.495430	0.024750
608.704730	0.024655
608.914012	0.024329
609.123275	0.024111
609.332521	0.024467
609.541748	0.024174
609.750957	0.024244
609.960148	0.024331
610.169321	0.024518
610.378475	0.024318
610.587611	0.024170
610.796729	0.024550
611.005829	0.024513
611.214910	0.024603
611.423974	0.024866
611.633019	0.024785
611.842045	0.024853
612.051054	0.024743
612.260044	0.024887
612.469017	0.024858
612.677970	0.024965
612.886906	0.025114
613.095824	0.025004
613.304723	0.025106
613.513604	0.025198
613.722467	0.025293
613.931311	0.025496
614.140138	0.025595
614.348946	0.025866
614.557736	0.025890
614.766507	0.025816
614.975261	0.025674
615.183996	0.025550
615.392713	0.025629
615.601412	0.025633
615.810092	0.025744
616.018754	0.025741
616.227399	0.025683
616.436024	0.025665
616.644632	0.025949
616.853222	0.026029
617.061793	0.025961
617.270346	0.025992
617.478880	0.025975
617.687397	0.026319
617.895895	0.026315
618.104375	0.026566
618.312837	0.026534
618.521281	0.026308
618.729706	0.026362
618.938113	0.026681
619.146502	0.026815
619.354873	0.026942
619.563226	0.026677
619.771560	0.026462
619.979876	0.026049
620.188174	0.026146
620.396453	0.026310
620.604715	0.026572
620.812958	0.026275
621.021183	0.026104
621.229390	0.025879
621.437578	0.025930
621.645748	0.026397
621.853900	0.026708
622.062034	0.026891
622.270150	0.026894
622.478247	0.026830
622.686326	0.027316
622.894387	0.027417
623.102430	0.027655
623.310454	0.027693
623.518461	0.027521
623.726449	0.027709
623.934418	0.027686
624.142370	0.027525
624.350303	0.027607
624.558218	0.027323
624.766115	0.027232
624.973994	0.027151
625.181855	0.027206
625.389697	0.027222
625.597521	0.026954
625.805327	0.026784
626.013114	0.026839
626.220883	0.026714
626.428634	0.026684
626.636367	0.026952
626.844082	0.027187
627.051778	0.027065
627.259457	0.027288
627.467117	0.027544
627.674758	0.027695
627.882382	0.027977
628.089987	0.028030
628.297574	0.028258
628.505143	0.028159
628.712694	0.027928
628.920226	0.028134
629.127740	0.028152
629.335236	0.028178
629.542714	0.028160
629.750174	0.028080
629.957615	0.028206
630.165038	0.028137
630.372443	0.028092
630.579829	0.028091
630.787198	0.027833
630.994548	0.027614
631.201880	0.027412
631.409194	0.027420
631.616489	0.027286
631.823766	0.027254
632.031025	0.027266
632.238266	0.027177
632.445489	0.027486
632.652693	0.027773
632.859879	0.027648
633.067047	0.027560
633.274197	0.027473
633.481329	0.027509
633.688442	0.027356
633.895537	0.027365
634.102614	0.027488
634.309672	0.027361
634.516713	0.027110
634.723735	0.027265
634.930739	0.027573
635.137724	0.027491
635.344692	0.027624
635.551641	0.027728
635.758572	0.027761
635.965485	0.027748
636.172379	0.027897
636.379256	0.027812
636.586114	0.027764
636.792954	0.027618
636.999775	0.027735
637.206579	0.027696
637.413364	0.027720
637.620131	0.027717
637.826880	0.027763
638.033610	0.027520
638.240323	0.027903
638.447017	0.027820
638.653692	0.027891
638.860350	0.028040
639.066990	0.027932
639.273611	0.028168
639.480214	0.028137
639.686798	0.028212
639.893365	0.028197
640.099913	0.027995
640.306443	0.028395
640.512955	0.028412
640.719449	0.028372
640.925924	0.028523
641.132381	0.028511
641.338820	0.028606
641.545241	0.028617
641.751644	0.028797
641.958028	0.028928
642.164394	0.028798
642.370742	0.029082
642.577071	0.028967
642.783383	0.029035
642.989676	0.029010
643.195951	0.028991
643.402207	0.028922
643.608446	0.029226
643.814666	0.029305
644.020868	0.029216
644.227052	0.029130
644.433218	0.029405
644.639365	0.029368
644.845494	0.029152
645.051605	0.028999
645.257698	0.028958
645.463772	0.028831
645.669828	0.028847
645.875866	0.029106
646.081886	0.029083
646.287888	0.028868
646.493871	0.029120
646.699836	0.029336
646.905783	0.029442
647.111712	0.029706
647.317622	0.029674
647.523514	0.029825
647.729388	0.029703
647.935244	0.029786
648.141082	0.030056
648.346901	0.029628
648.552702	0.029740
648.758485	0.030011
648.964250	0.030180
649.169996	0.030176
649.375724	0.030063
649.581434	0.030024
649.787126	0.029843
649.992800	0.029721
650.198455	0.029993
650.404092	0.029979
650.609711	0.029848
650.815311	0.029509
651.020894	0.029380
651.226458	0.029476
651.432004	0.029531
651.637532	0.029764
651.843041	0.029681
652.048532	0.029755
652.254006	0.029497
652.459460	0.029473
652.664897	0.029661
652.870315	0.029767
653.075716	0.029874
653.281097	0.029870
653.486461	0.029757
653.691807	0.029923
653.897134	0.029863
654.102443	0.030090
654.307734	0.030064
654.513006	0.030141
654.718261	0.030285
654.923497	0.030255
655.128715	0.030430
655.333915	0.030541
655.539096	0.030502
655.744259	0.030671
655.949404	0.030920
656.154531	0.031205
656.359640	0.031320
656.564730	0.031429
656.769802	0.031401
656.974856	0.031380
657.179892	0.031373
657.384909	0.031605
657.589908	0.031624
657.794889	0.031532
657.999852	0.031606
658.204797	0.031588
658.409723	0.031551
658.614631	0.031707
658.819521	0.031644
659.024393	0.031522
659.229246	0.031545
659.434081	0.031722
659.638898	0.031738
659.843697	0.031607
660.048478	0.031661
660.253240	0.031657
660.457984	0.031731
660.662710	0.031853
660.867417	0.032184
661.072107	0.032331
661.276778	0.032317
661.481431	0.032390
661.686066	0.032668
661.890682	0.032677
662.095281	0.032845
662.299861	0.032769
662.504422	0.032964
662.708966	0.033028
662.913491	0.033134
663.117999	0.033068
663.322488	0.033027
663.526958	0.033033
663.731411	0.033178
663.935845	0.033376
664.140261	0.033449
664.344659	0.033394
664.549038	0.033460
664.753400	0.033362
664.957743	0.033492
665.162068	0.033760
665.366375	0.033816
665.570663	0.033895
665.774933	0.033821
665.979185	0.033894
666.183419	0.033983
666.387635	0.034005
666.591832	0.034109
666.796011	0.034233
667.000172	0.034012
667.204315	0.034008
667.408439	0.033960
667.612545	0.033829
667.816634	0.033913
668.020703	0.034121
668.224755	0.034185
668.428788	0.034194
668.632803	0.034165
668.836800	0.034284
669.040779	0.034272
669.244739	0.034353
669.448681	0.034530
669.652605	0.034544
669.856511	0.034639
670.060399	0.034821
670.264268	0.035000
670.468119	0.035198
670.671952	0.035413
670.875767	0.035719
671.079563	0.035979
671.283341	0.036123
671.487101	0.036347
671.690843	0.036362
671.894567	0.036426
672.098272	0.036589
672.301959	0.036622
672.505628	0.036787
672.709278	0.036777
672.912911	0.036845
673.116525	0.036907
673.320121	0.036920
673.523699	0.036941
673.727258	0.037048
673.930799	0.037040
674.134322	0.037061
674.337827	0.036995
674.541314	0.036920
674.744782	0.036950
674.948232	0.036900
675.151664	0.037032
675.355078	0.036821
675.558474	0.036652
675.761851	0.036479
675.965210	0.036387
676.168551	0.036363
676.371873	0.036371
676.575178	0.036165
676.778464	0.036389
676.981732	0.036276
677.184981	0.036335
677.388213	0.036344
677.591426	0.036520
677.794621	0.036684
677.997798	0.036636
678.200956	0.036714
678.404097	0.036783
678.607219	0.036547
678.810323	0.036631
679.013408	0.036808
679.216476	0.036959
679.419525	0.036874
679.622556	0.036867
679.825569	0.037130
680.028563	0.037365
680.231540	0.037450
680.434498	0.037793
680.637438	0.037908
680.840359	0.038096
681.043263	0.038143
681.246148	0.038370
681.449015	0.038566
681.651864	0.038659
681.854694	0.038601
682.057506	0.038652
682.260301	0.038638
682.463076	0.038474
682.665834	0.038594
682.868573	0.038650
683.071295	0.038620
683.273998	0.038423
683.476682	0.038285
683.679349	0.038309
683.881997	0.038187
684.084627	0.037965
684.287239	0.038113
684.489833	0.037923
684.692408	0.037914
684.894965	0.037820
685.097504	0.037954
685.300025	0.037941
685.502527	0.038103
685.705012	0.038286
685.907478	0.038492
686.109925	0.038627
686.312355	0.038782
686.514766	0.038816
686.717159	0.039045
686.919534	0.039208
687.121891	0.039442
687.324230	0.039256
687.526550	0.039327
687.728852	0.039473
687.931136	0.039506
688.133401	0.039601
688.335649	0.039816
688.537878	0.039897
688.740089	0.039833
688.942281	0.039854
689.144456	0.040019
689.346612	0.040208
689.548750	0.039982
689.750870	0.039991
689.952971	0.039888
690.155055	0.039712
690.357120	0.039775
690.559167	0.039849
690.761195	0.039839
690.963206	0.039946
691.165198	0.040026
691.367172	0.040310
691.569128	0.040519
691.771065	0.040817
691.972984	0.040853
692.174885	0.040855
692.376768	0.040943
692.578633	0.040996
692.780479	0.040936
692.982308	0.040818
693.184118	0.040862
693.385909	0.040662
693.587683	0.040404
693.789438	0.040556
693.991175	0.040551
694.192894	0.040526
694.394595	0.040639
694.596277	0.040792
694.797941	0.040918
694.999587	0.040921
695.201215	0.040922
695.402824	0.041139
695.604416	0.041215
695.805989	0.041266
696.007543	0.041337
696.209080	0.041347
696.410598	0.041325
696.612099	0.041289
696.813580	0.041302
697.015044	0.041311
697.216490	0.041260
697.417917	0.041315
697.619326	0.041375
697.820717	0.041364
698.022089	0.041324
698.223444	0.041446
698.424780	0.041599
698.626098	0.041732
698.827397	0.041830
699.028679	0.041740
699.229942	0.041746
699.431187	0.041771
699.632414	0.041776
699.833622	0.041904
700.034813	0.041713
700.235985	0.041531
700.437139	0.041559
700.638274	0.041665
700.839392	0.041761
701.040491	0.041904
701.241572	0.042010
701.442635	0.042231
701.643679	0.042375
701.844706	0.042646
702.045714	0.042858
702.246704	0.043051
702.447675	0.043044
702.648629	0.043409
702.849564	0.043227
703.050481	0.043406
703.251380	0.043436
703.452260	0.043298
703.653122	0.043363
703.853966	0.043484
704.054792	0.043315
704.255600	0.043451
704.456389	0.043371
704.657160	0.043593
704.857913	0.043542
705.058648	0.043713
705.259365	0.043950
705.460063	0.044037
705.660743	0.044076
705.861405	0.044068
706.062048	0.044154
706.262674	0.044083
706.463281	0.044011
706.663870	0.043857
706.864441	0.043803
707.064993	0.043649
707.265527	0.043568
707.466043	0.043611
707.666541	0.043685
707.867021	0.043658
708.067482	0.043673
708.267925	0.043832
708.468350	0.043835
708.668757	0.043750
708.869145	0.043798
709.069516	0.043851
709.269868	0.043951
709.470201	0.043911
709.670517	0.044065
709.870814	0.044246
710.071093	0.044266
710.271354	0.044536
710.471597	0.044564
710.671821	0.044798
710.872028	0.044886
711.072216	0.045069
711.272385	0.045202
711.472537	0.045295
711.672670	0.045410
711.872785	0.045507
712.072882	0.045592
712.272961	0.045696
712.473021	0.045650
712.673063	0.045637
712.873087	0.045451
713.073093	0.045685
713.273081	0.045556
713.473050	0.045415
713.673001	0.045354
713.872934	0.045068
714.072849	0.045142
714.272745	0.045041
714.472623	0.045023
714.672483	0.045012
714.872325	0.044872
715.072148	0.044902
715.271954	0.044957
715.471741	0.044886
715.671509	0.045051
715.871260	0.045326
716.070992	0.045468
716.270707	0.045681
716.470403	0.045877
716.670080	0.045968
716.869740	0.045841
717.069381	0.045976
717.269004	0.046102
717.468609	0.046375
717.668195	0.046316
717.867764	0.046381
718.067314	0.046454
718.266846	0.046474
718.466360	0.046265
718.665855	0.046472
718.865332	0.046432
719.064791	0.046703
719.264232	0.046718
719.463655	0.046615
719.663059	0.046678
719.862445	0.046712
720.061813	0.046667
720.261163	0.047113
720.460494	0.047246
720.659807	0.047331
720.859102	0.047210
721.058379	0.047253
721.257638	0.047150
721.456878	0.047101
721.656100	0.047092
721.855304	0.047005
722.054490	0.046890
722.253657	0.047080
722.452806	0.047171
722.651937	0.047224
722.851050	0.047101
723.050145	0.047298
723.249221	0.047497
723.448279	0.047404
723.647319	0.047398
723.846340	0.047370
724.045344	0.047192
724.244329	0.047024
724.443296	0.047060
724.642245	0.047078
724.841175	0.047084
725.040088	0.046933
725.238982	0.046834
725.437857	0.046882
725.636715	0.046850
725.835554	0.046927
726.034376	0.047146
726.233179	0.047030
726.431963	0.046883
726.630730	0.046846
726.829478	0.047043
727.028208	0.047062
727.226920	0.047077
727.425614	0.047184
727.624289	0.047138
727.822946	0.047214
728.021585	0.047215
728.220206	0.047484
728.418808	0.047480
728.617392	0.047503
728.815958	0.047697
729.014506	0.047977
729.213036	0.048026
729.411547	0.048021
729.610040	0.048087
729.808515	0.048250
730.006972	0.048136
730.205410	0.048305
730.403831	0.048268
730.602233	0.048278
730.800616	0.048105
730.998982	0.048216
731.197329	0.048291
731.395658	0.048381
731.593969	0.048491
731.792262	0.048784
731.990536	0.049028
732.188793	0.049324
732.387031	0.049483
732.585250	0.049747
732.783452	0.050054
732.981635	0.050420
733.179800	0.050453
733.377947	0.050692
733.576076	0.050882
733.774186	0.050845
733.972278	0.051055
734.170352	0.051352
734.368408	0.051496
734.566446	0.051300
734.764465	0.051262
734.962466	0.051374
735.160449	0.051386
735.358413	0.051424
735.556360	0.051519
735.754288	0.051362
735.952198	0.051313
736.150090	0.051459
736.347963	0.051787
736.545818	0.051909
736.743655	0.051947
736.941474	0.051981
737.139275	0.051965
737.337057	0.052096
737.534821	0.052257
737.732567	0.052333
737.930295	0.052296
738.128005	0.052337
738.325696	0.052415
738.523369	0.052646
738.721024	0.052882
738.918660	0.053110
739.116279	0.053190
739.313879	0.053177
739.511461	0.053205
739.709024	0.053317
739.906570	0.053506
740.104097	0.053561
740.301606	0.053433
740.499097	0.053515
740.696569	0.053544
740.894024	0.053763
741.091460	0.053777
741.288878	0.053875
741.486277	0.054069
741.683659	0.054113
741.881022	0.054443
742.078367	0.054868
742.275694	0.054998
742.473002	0.055223
742.670293	0.055408
742.867565	0.055830
743.064819	0.056072
743.262054	0.056198
743.459272	0.056418
743.656471	0.056493
743.853652	0.056553
744.050815	0.056877
744.247959	0.057068
744.445085	0.057187
744.642194	0.057273
744.839283	0.057664
745.036355	0.057858
745.233408	0.058018
745.430444	0.058017
745.627461	0.058047
745.824459	0.057843
746.021440	0.057847
746.218402	0.057935
746.415346	0.057827
746.612272	0.057678
746.809180	0.057704
747.006069	0.057475
747.202940	0.057603
747.399793	0.057861
747.596628	0.058055
747.793444	0.058122
747.990243	0.058267
748.187023	0.058489
748.383784	0.058632
748.580528	0.058592
748.777253	0.058730
748.973960	0.058897
749.170649	0.058835
749.367320	0.058990
749.563973	0.059004
749.760607	0.059063
749.957223	0.059273
750.153821	0.059335
750.350400	0.059459
750.546962	0.059698
750.743505	0.059611
750.940030	0.059762
751.136536	0.059723
751.333025	0.059896
751.529495	0.059958
751.725947	0.059908
751.922381	0.059940
752.118796	0.060293
752.315194	0.060304
752.511573	0.060604
752.707934	0.060651
752.904276	0.060920
753.100601	0.061046
753.296907	0.060949
753.493195	0.061074
753.689465	0.061265
753.885716	0.061302
754.081949	0.061518
754.278164	0.061701
754.474361	0.061939
754.670540	0.062028
754.866700	0.062392
755.062843	0.062702
755.258967	0.062779
755.455072	0.062916
755.651160	0.063091
755.847229	0.063402
756.043280	0.063375
756.239313	0.063365
756.435328	0.063588
756.631324	0.063526
756.827302	0.063798
757.023262	0.064108
757.219204	0.064335
757.415127	0.064491
757.611033	0.064639
757.806920	0.064909
758.002788	0.065244
758.198639	0.065257
758.394471	0.065407
758.590286	0.065404
758.786081	0.065568
758.981859	0.065689
759.177619	0.065824
759.373360	0.065768
759.569083	0.065808
759.764788	0.065806
759.960474	0.065787
760.156143	0.065776
760.351793	0.066033
760.547425	0.066168
760.743038	0.066308
760.938634	0.066431
761.134211	0.066725
761.329770	0.067123
761.525311	0.067439
761.720833	0.067778
761.916338	0.068175
762.111824	0.068315
762.307292	0.068451
762.502741	0.068786
762.698173	0.069030
762.893586	0.069198
763.088981	0.069147
763.284358	0.069186
763.479716	0.069538
763.675057	0.069817
763.870379	0.069912
764.065683	0.070224
764.260968	0.070223
764.456236	0.070240
764.651485	0.070264
764.846716	0.070543
765.041929	0.070606
765.237123	0.070492
765.432299	0.070602
765.627457	0.070912
765.822597	0.070828
766.017719	0.070829
766.212822	0.070871
766.407907	0.071114
766.602974	0.071259
766.798023	0.071702
766.993054	0.071854
767.188066	0.071942
767.383060	0.071949
767.578036	0.072236
767.772993	0.072519
767.967933	0.072858
768.162854	0.073054
768.357757	0.073062
768.552642	0.072990
768.747508	0.073283
768.942356	0.073468
769.137186	0.073701
769.331998	0.074062
769.526792	0.074222
769.721567	0.074309
769.916324	0.074381
770.111063	0.074692
770.305784	0.075032
770.500486	0.075155
770.695171	0.075244
770.889837	0.075426
771.084484	0.075351
771.279114	0.075459
771.473725	0.075656
771.668318	0.075709
771.862893	0.075903
772.057450	0.075864
772.251988	0.075958
772.446509	0.076054
772.641011	0.076072
772.835494	0.076184
773.029960	0.076415
773.224407	0.076627
773.418836	0.076904
773.613247	0.076842
773.807640	0.076897
774.002014	0.076988
774.196370	0.077129
774.390708	0.077169
774.585028	0.077217
774.779330	0.077147
774.973613	0.077021
775.167878	0.077019
775.362125	0.076998
775.556354	0.077055
775.750564	0.077027
775.944756	0.077135
776.138930	0.077445
776.333086	0.077771
776.527223	0.078032
776.721343	0.078240
776.915444	0.078481
777.109526	0.078956
777.303591	0.079213
777.497637	0.079691
777.691666	0.079845
777.885676	0.079876
778.079667	0.080102
778.273641	0.080283
778.467596	0.080597
778.661533	0.080721
778.855452	0.080900
779.049352	0.081154
779.243235	0.081467
779.437099	0.081667
779.630945	0.082025
779.824773	0.082007
780.018582	0.082146
780.212373	0.082137
780.406146	0.082393
780.599901	0.082340
780.793638	0.082434
780.987356	0.082336
781.181056	0.082582
781.374738	0.082535
781.568402	0.082674
781.762047	0.082821
781.955674	0.083039
782.149283	0.083034
782.342874	0.083405
782.536447	0.083738
782.730001	0.083998
782.923537	0.083939
783.117055	0.084195
783.310555	0.084323
783.504036	0.084522
783.697499	0.084473
783.890944	0.084703
784.084371	0.084741
784.277780	0.084629
784.471170	0.084780
784.664542	0.085131
784.857896	0.084914
785.051231	0.085297
785.244549	0.085308
785.437848	0.085628
785.631129	0.085845
785.824392	0.085840
786.017636	0.086186
786.210863	0.086154
786.404071	0.085983
786.597260	0.086345
786.790432	0.086081
786.983585	0.086323
787.176721	0.086398
787.369838	0.086259
787.562936	0.086402
787.756017	0.086516
787.949079	0.086627
788.142123	0.087006
788.335149	0.087211
788.528156	0.087508
788.721146	0.087594
788.914117	0.087944
789.107070	0.088315
789.300005	0.088445
789.492921	0.088474
789.685819	0.088604
789.878699	0.088724
790.071561	0.088930
790.264405	0.088999
790.457230	0.089218
790.650037	0.089185
790.842826	0.089173
791.035597	0.089656
791.228349	0.089633
791.421084	0.089925
791.613800	0.089838
791.806497	0.089932
791.999177	0.090182
792.191838	0.090211
792.384481	0.090283
792.577106	0.090424
792.769713	0.090408
792.962301	0.090614
793.154871	0.090578
793.347423	0.090801
793.539957	0.090765
793.732473	0.090649
793.924970	0.090688
794.117449	0.090714
794.309910	0.090713
794.502353	0.090438
794.694777	0.090465
794.887183	0.090509
795.079571	0.090583
795.271941	0.090777
795.464293	0.090853
795.656626	0.090886
795.848941	0.090969
796.041238	0.091032
796.233516	0.091261
796.425777	0.091629
796.618019	0.091697
796.810243	0.091762
797.002449	0.091874
797.194636	0.091962
797.386805	0.092096
797.578956	0.092004
797.771089	0.092289
797.963204	0.092494
798.155300	0.092259
798.347378	0.092284
798.539438	0.092479
798.731480	0.092390
798.923503	0.092568
799.115509	0.092708
799.307496	0.093022
799.499465	0.093126
799.691415	0.093115
799.883348	0.093373
800.075262	0.093626
800.267158	0.093602
800.459035	0.093675
800.650895	0.093876
800.842736	0.094118
801.034559	0.094295
801.226364	0.094348
801.418150	0.094409
801.609919	0.094353
801.801669	0.094364
801.993401	0.094420
802.185114	0.094615
802.376810	0.094592
802.568487	0.094532
802.760146	0.094458
802.951787	0.094441
803.143409	0.094337
803.335014	0.094477
803.526600	0.094572
803.718168	0.094531
803.909717	0.094548
804.101249	0.094549
804.292762	0.094662
804.484257	0.094841
804.675734	0.094664
804.867192	0.094789
805.058632	0.094786
805.250054	0.094788
805.441458	0.094998
805.632844	0.095146
805.824211	0.095252
806.015561	0.095138
806.206891	0.095148
806.398204	0.095322
806.589499	0.095413
806.780775	0.095389
806.972033	0.095290
807.163273	0.095391
807.354495	0.095339
807.545698	0.095318
807.736883	0.095397
807.928050	0.095280
808.119199	0.095549
808.310329	0.095766
808.501441	0.095949
808.692535	0.096247
808.883611	0.096423
809.074669	0.096523
809.265708	0.096597
809.456729	0.096699
809.647732	0.097042
809.838717	0.096990
810.029683	0.096972
810.220632	0.096983
810.411562	0.097012
810.602474	0.096931
810.793367	0.096918
810.984242	0.096970
811.175100	0.097144
811.365938	0.097037
811.556759	0.096987
811.747562	0.096901
811.938346	0.096989
812.129112	0.096882
812.319860	0.096820
812.510589	0.097022
812.701300	0.097108
812.891994	0.097039
813.082668	0.096956
813.273325	0.097056
813.463964	0.097273
813.654584	0.097239
813.845186	0.097249
814.035769	0.097340
814.226335	0.097062
814.416882	0.097074
814.607411	0.097170
814.797922	0.097392
814.988415	0.097294
815.178889	0.096911
815.369345	0.096810
815.559783	0.096847
815.750203	0.097087
815.940605	0.097291
816.130988	0.097491
816.321353	0.097554
816.511700	0.097567
816.702028	0.097919
816.892339	0.098300
817.082631	0.098667
817.272905	0.098833
817.463161	0.098515
817.653398	0.098636
817.843617	0.098452
818.033819	0.098449
818.224001	0.098199
818.414166	0.097712
818.604312	0.097690
818.794440	0.097523
818.984550	0.097358
819.174642	0.097409
819.364716	0.097046
819.554771	0.097081
819.744808	0.096812
819.934827	0.097121
820.124827	0.097196
820.314810	0.097086
820.504774	0.097014
820.694720	0.097010
820.884647	0.097155
821.074557	0.097359
821.264448	0.097448
821.454321	0.097425
821.644176	0.097162
821.834012	0.097321
822.023831	0.097317
822.213631	0.097136
822.403413	0.096773
822.593176	0.096410
822.782922	0.096262
822.972649	0.095712
823.162358	0.095430
823.352049	0.095239
823.541721	0.095029
823.731376	0.094907
823.921012	0.094764
824.110629	0.094969
824.300229	0.094795
824.489811	0.094580
824.679374	0.094597
824.868919	0.094768
825.058445	0.094905
825.247954	0.094888
825.437444	0.094865
825.626916	0.094748
825.816370	0.094762
826.005806	0.094789
826.195223	0.094879
826.384622	0.094790
826.574003	0.094702
826.763366	0.094304
826.952711	0.093910
827.142037	0.093796
827.331345	0.093794
827.520635	0.093620
827.709906	0.093522
827.899160	0.093300
828.088395	0.093188
828.277612	0.092874
828.466810	0.092897
828.655991	0.092867
828.845153	0.092616
829.034297	0.092443
829.223423	0.092224
829.412531	0.092242
829.601620	0.092062
829.790691	0.092001
829.979744	0.092157
830.168779	0.092277
830.357795	0.092201
830.546793	0.092155
830.735773	0.092154
830.924735	0.092300
831.113679	0.092051
831.302604	0.091995
831.491511	0.092151
831.680400	0.092050
831.869271	0.091936
832.058123	0.092264
832.246957	0.092422
832.435773	0.092399
832.624571	0.092141
832.813351	0.092034
833.002112	0.091922
833.190855	0.091853
833.379580	0.091642
833.568287	0.091209
833.756975	0.090940
833.945645	0.090507
834.134297	0.090176
834.322931	0.090185
834.511547	0.089997
834.700144	0.089748
834.888723	0.089413
835.077284	0.089329
835.265826	0.089427
835.454351	0.089291
835.642857	0.089382
835.831345	0.089452
836.019815	0.088990
836.208266	0.088953
836.396699	0.088876
836.585114	0.088832
836.773511	0.088580
836.961890	0.088421
837.150250	0.088172
837.338592	0.087951
837.526916	0.087803
837.715222	0.087990
837.903510	0.087901
838.091779	0.087850
838.280030	0.087764
838.468263	0.087777
838.656477	0.087549
838.844674	0.087306
839.032852	0.087140
839.221012	0.086953
839.409153	0.086485
839.597277	0.086396
839.785382	0.086335
839.973469	0.085929
840.161538	0.085745
840.349589	0.085555
840.537621	0.085339
840.725635	0.085154
840.913631	0.084965
841.101609	0.085020
841.289568	0.084839
841.477509	0.084673
841.665432	0.084412
841.853337	0.084253
842.041224	0.084200
842.229092	0.084128
842.416942	0.083749
842.604774	0.083892
842.792588	0.083699
842.980383	0.083540
843.168160	0.083517
843.355919	0.083649
843.543660	0.083396
843.731382	0.083210
843.919087	0.083152
844.106773	0.083199
844.294441	0.083051
844.482090	0.082769
844.669722	0.082596
844.857335	0.082343
845.044930	0.082051
845.232507	0.082046
845.420065	0.082141
845.607605	0.082159
845.795127	0.082186
845.982631	0.081801
846.170117	0.081686
846.357584	0.081640
846.545033	0.081444
846.732464	0.081551
846.919877	0.081335
847.107272	0.081016
847.294648	0.080620
847.482006	0.080443
847.669346	0.080189
847.856667	0.080051
848.043971	0.079792
848.231256	0.079585
848.418523	0.079251
848.605771	0.078934
848.793002	0.078727
848.980214	0.078556
849.167408	0.078111
849.354584	0.077957
849.541742	0.078085
849.728881	0.078035
849.916002	0.078037
850.103105	0.078079
850.290190	0.078073
850.477256	0.077802
850.664304	0.077900
850.851334	0.078122
851.038346	0.078080
851.225340	0.077897
851.412315	0.077452
851.599272	0.077004
851.786211	0.076463
851.973132	0.076277
852.160034	0.076094
852.346918	0.075695
852.533784	0.075227
852.720632	0.075105
852.907462	0.074620
853.094273	0.074599
853.281066	0.074316
853.467841	0.074134
853.654598	0.073690
853.841336	0.073531
854.028056	0.073188
854.214758	0.072987
854.401442	0.072708
854.588107	0.072619
854.774755	0.072445
854.961384	0.072577
855.147995	0.072403
855.334587	0.072161
855.521162	0.072068
855.707718	0.072145
855.894256	0.071879
856.080775	0.071369
856.267277	0.070823
856.453760	0.070372
856.640225	0.070033
856.826672	0.070192
857.013101	0.069959
857.199511	0.069612
857.385903	0.068969
857.572277	0.068643
857.758633	0.068725
857.944970	0.068850
858.131290	0.068885
858.317591	0.068801
858.503873	0.068472
858.690138	0.068442
858.876384	0.068240
859.062612	0.068562
859.248822	0.068665
859.435014	0.068665
859.621188	0.068993
859.807343	0.068786
859.993480	0.068491
860.179599	0.068531
860.365699	0.068506
860.551781	0.068516
860.737846	0.068261
860.923891	0.068081
861.109919	0.068115
861.295929	0.067775
861.481920	0.067702
861.667893	0.067782
861.853848	0.067232
862.039784	0.067048
862.225702	0.067193
862.411603	0.067052
862.597484	0.066880
862.783348	0.066540
862.969193	0.066227
863.155021	0.066273
863.340830	0.065992
863.526620	0.066044
863.712393	0.065847
863.898147	0.065349
864.083883	0.065189
864.269601	0.065139
864.455301	0.064869
864.640982	0.064470
864.826645	0.064073
865.012290	0.063861
865.197917	0.063575
865.383526	0.063284
865.569116	0.062928
865.754688	0.062578
865.940242	0.062297
866.125777	0.061866
866.311295	0.061680
866.496794	0.061194
866.682275	0.060564
866.867737	0.060354
867.053182	0.060070
867.238608	0.060066
867.424016	0.059830
867.609406	0.059474
867.794778	0.059245
867.980131	0.058857
868.165466	0.058848
868.350783	0.058916
868.536082	0.058602
868.721362	0.058451
868.906625	0.058368
869.091869	0.057989
869.277094	0.057820
869.462302	0.057622
869.647491	0.057563
869.832662	0.056956
870.017815	0.056742
870.202950	0.056413
870.388066	0.055930
870.573165	0.055289
870.758245	0.055103
870.943306	0.054706
871.128350	0.054535
871.313375	0.054271
871.498382	0.054183
871.683371	0.053943
871.868342	0.053527
872.053294	0.053392
872.238229	0.053230
872.423144	0.052815
872.608042	0.052564
872.792922	0.051877
872.977783	0.051682
873.162626	0.051297
873.347451	0.050953
873.532258	0.050891
873.717046	0.051003
873.901816	0.050791
874.086568	0.050636
874.271302	0.050554
874.456017	0.050691
874.640715	0.050551
874.825394	0.050736
875.010055	0.050492
875.194697	0.050437
875.379322	0.050228
875.563928	0.049949
875.748516	0.050063
875.933085	0.049978
876.117637	0.049868
876.302170	0.049552
876.486685	0.049222
876.671182	0.048999
876.855661	0.048793
877.040121	0.048469
877.224563	0.048385
877.408987	0.048313
877.593393	0.048011
877.777780	0.047926
877.962150	0.047631
878.146501	0.047676
878.330833	0.047707
878.515148	0.047648
878.699444	0.047360
878.883722	0.047281
879.067982	0.046799
879.252224	0.046745
879.436447	0.046637
879.620653	0.046855
879.804840	0.046590
879.989008	0.046538
880.173159	0.046402
880.357291	0.046381
880.541405	0.046009
880.725501	0.045886
880.909579	0.045509
881.093638	0.045508
881.277680	0.045052
881.461703	0.044876
881.645707	0.044769
881.829694	0.044160
882.013662	0.044074
882.197612	0.043839
882.381544	0.043892
882.565458	0.043912
882.749353	0.043528
882.933230	0.043165
883.117089	0.042657
883.300930	0.042139
883.484753	0.041989
883.668557	0.041742
883.852343	0.041869
884.036111	0.041544
884.219861	0.041417
884.403592	0.041002
884.587305	0.041291
884.771000	0.041135
884.954677	0.040861
885.138335	0.040925
885.321976	0.040494
885.505598	0.040155
885.689201	0.039755
885.872787	0.039248
886.056354	0.039147
886.239904	0.038634
886.423434	0.038503
886.606947	0.038542
886.790442	0.038120
886.973918	0.038367
887.157376	0.038115
887.340816	0.038113
887.524237	0.037901
887.707641	0.037802
887.891026	0.037571
888.074393	0.037538
888.257741	0.037231
888.441072	0.037166
888.624384	0.036852
888.807678	0.036824
888.990954	0.036389
889.174211	0.036263
889.357451	0.036033
889.540672	0.036149
889.723875	0.035958
889.907059	0.035960
890.090226	0.035510
890.273374	0.035146
890.456504	0.034662
890.639616	0.034619
890.822709	0.034399
891.005785	0.033994
891.188842	0.033669
891.371881	0.033397
891.554901	0.032993
891.737904	0.032952
891.920888	0.032537
892.103854	0.032335
892.286802	0.031905
892.469731	0.031957
892.652643	0.031946
892.835536	0.031530
893.018410	0.031594
893.201267	0.031315
893.384106	0.031405
893.566926	0.031278
893.749728	0.031269
893.932511	0.031306
894.115277	0.030922
894.298024	0.030634
894.480753	0.030701
894.663464	0.030406
894.846157	0.030511
895.028831	0.030364
895.211487	0.030567
895.394125	0.030565
895.576745	0.030574
895.759346	0.030450
895.941930	0.030550
896.124495	0.030347
896.307041	0.030066
896.489570	0.029683
896.672080	0.029571
896.854573	0.029172
897.037046	0.028847
897.219502	0.028728
897.401940	0.028549
897.584359	0.028182
897.766760	0.027829
897.949143	0.027789
898.131507	0.027931
898.313854	0.027798
898.496182	0.028015
898.678492	0.028009
898.860783	0.027604
899.043057	0.027389
899.225312	0.027145
899.407549	0.027059
899.589768	0.026675
899.771968	0.026272
899.954151	0.025587
900.136315	0.024924
900.318461	0.024695
900.500588	0.024587
900.682698	0.024402
900.864789	0.024079
901.046862	0.024043
901.228917	0.023999
901.410953	0.023967
901.592971	0.024127
901.774972	0.024162
901.956953	0.024177
902.138917	0.024168
902.320862	0.024330
902.502790	0.024439
902.684699	0.024237
902.866589	0.024544
903.048462	0.024325
903.230316	0.024161
903.412152	0.024388
903.593970	0.023925
903.775770	0.023694
903.957551	0.023395
904.139314	0.023190
904.321059	0.023186
904.502786	0.022756
904.684494	0.022804
904.866185	0.022677
905.047857	0.022331
905.229510	0.022444
905.411146	0.022577
905.592763	0.022439
905.774363	0.022379
905.955943	0.021988
906.137506	0.021943
906.319051	0.021595
906.500577	0.021383
906.682085	0.021574
906.863575	0.020881
907.045046	0.020361
907.226500	0.020166
907.407935	0.020214
907.589352	0.020038
907.770750	0.019516
907.952131	0.019279
908.133493	0.019317
908.314837	0.018804
908.496163	0.019236
908.677470	0.019159
908.858760	0.019095
909.040031	0.018485
909.221284	0.018116
909.402518	0.018391
909.583735	0.018653
909.764933	0.018114
909.946113	0.017728
910.127275	0.017411
910.308418	0.017192
910.489544	0.016979
910.670651	0.017129
910.851740	0.016938
911.032810	0.016333
911.213863	0.015682
911.394897	0.015970
911.575913	0.015881
911.756911	0.015678
911.937890	0.015553
912.118851	0.015624
912.299794	0.015153
912.480719	0.015200
912.661626	0.014812
912.842514	0.014886
913.023384	0.014453
913.204236	0.014309
913.385070	0.014265
913.565886	0.014100
913.746683	0.013902
913.927462	0.014366
914.108223	0.014253
914.288965	0.014427
914.469690	0.013869
914.650396	0.013463
914.831084	0.013370
915.011754	0.012866
915.192405	0.012898
915.373038	0.012422
915.553653	0.011833
915.734250	0.011669
915.914829	0.011449
916.095389	0.011499
916.275931	0.011882
916.456455	0.011724
916.636961	0.011613
916.817448	0.011088
916.997917	0.011142
917.178368	0.011018
917.358801	0.011108
917.539216	0.010697
917.719612	0.010755
917.899990	0.010289
918.080350	0.010224
918.260692	0.010409
918.441015	0.010496
918.621320	0.010171
918.801607	0.009887
918.981876	0.009514
919.162127	0.009575
919.342359	0.009611
919.522573	0.009536
919.702769	0.009006
919.882947	0.008811
920.063106	0.008464
920.243247	0.008500
920.423370	0.008730
920.603475	0.008255
920.783562	0.008509
920.963630	0.008158
921.143680	0.007787
921.323712	0.007668
921.503725	0.007305
921.683721	0.007369
921.863698	0.007262
922.043657	0.006906
922.223598	0.007142
922.403520	0.006653
922.583424	0.006517
922.763311	0.006338
922.943178	0.006498
923.123028	0.006022
923.302859	0.005702
923.482673	0.005115
923.662467	0.004614
923.842244	0.004254
924.022003	0.004010
924.201743	0.003570
924.381465	0.003726
924.561169	0.003391
924.740854	0.003196
924.920522	0.003090
925.100171	0.002785
925.279802	0.002749
925.459414	0.002451
925.639009	0.002215
925.818585	0.001896
925.998143	0.001214
926.177683	0.000979
926.357205	0.000781
926.536708	0.000655
926.716193	0.000805
926.895660	0.000542
927.075109	0.000664
927.254539	0.000539
927.433951	0.000464
927.613345	0.000149
927.792721	-0.000274
927.972079	-0.000518
928.151418	-0.001088
928.330739	-0.001999
928.510042	-0.002067
928.689327	-0.002549
928.868593	-0.002817
929.047841	-0.002717
929.227071	-0.002496
929.406283	-0.002702
929.585476	-0.002775
929.764652	-0.002612
929.943809	-0.002099
930.122948	-0.002523
930.302068	-0.002515
930.481171	-0.002943
930.660255	-0.003298
930.839321	-0.003473
931.018369	-0.003861
931.197398	-0.004148
931.376409	-0.004400
931.555402	-0.004471
931.734377	-0.004267
931.913334	-0.004887
932.092272	-0.004864
932.271192	-0.005450
932.450094	-0.005924
932.628978	-0.005898
932.807844	-0.006215
932.986691	-0.006654
933.165520	-0.007381
933.344331	-0.008597
933.523123	-0.007906
933.701898	-0.008006
933.880654	-0.008001
934.059392	-0.008274
934.238111	-0.008304
934.416813	-0.008170
934.595496	-0.008480
934.774161	-0.008136
934.952808	-0.007451
935.131437	-0.008276
935.310047	-0.008476
935.488639	-0.008766
935.667213	-0.008991
935.845769	-0.009671
936.024306	-0.009933
936.202825	-0.010240
936.381326	-0.011065
936.559809	-0.011942
936.738274	-0.012290
936.916720	-0.013140
937.095148	-0.013736
937.273558	-0.013560
937.451950	-0.014267
937.630323	-0.014476
937.808678	-0.014677
937.987015	-0.015002
938.165334	-0.014972
938.343635	-0.014922
938.521917	-0.015150
938.700181	-0.015192
938.878427	-0.015901
939.056655	-0.015438
939.234864	-0.015367
939.413055	-0.015066
939.591228	-0.015681
939.769383	-0.015709
939.947519	-0.016226
940.125638	-0.015966
940.303738	-0.016312
940.481820	-0.016631
940.659883	-0.016508
940.837929	-0.016704
941.015956	-0.017886
941.193965	-0.017601
941.371955	-0.017935
941.549928	-0.018898
941.727882	-0.019022
941.905818	-0.019429
942.083736	-0.018522
942.261636	-0.019019
942.439517	-0.019686
942.617380	-0.019112
942.795225	-0.019788
942.973052	-0.019684
943.150860	-0.019045
943.328651	-0.019560
943.506423	-0.018901
943.684176	-0.020124
943.861912	-0.019516
944.039629	-0.019266
944.217328	-0.019548
944.395009	-0.019012
944.572672	-0.018976
944.750317	-0.018972
944.927943	-0.018844
945.105551	-0.019050
945.283141	-0.018489
945.460712	-0.019056
945.638265	-0.019051
945.815801	-0.020051
945.993317	-0.019075
946.170816	-0.018972
946.348297	-0.019363
946.525759	-0.019281
946.703203	-0.019101
946.880629	-0.017595
947.058036	-0.017306
947.235425	-0.017600
947.412797	-0.016940
947.590149	-0.018752
947.767484	-0.019137
947.944800	-0.019224
948.122099	-0.018199
948.299379	-0.019684
948.476640	-0.021947
948.653884	-0.022963
948.831109	-0.023717
949.008316	-0.023940
949.185505	-0.022497
949.362676	-0.021951
949.539828	-0.021740
949.716962	-0.023225
949.894078	-0.022047
950.071176	-0.020651
950.248256	-0.019369
950.425317	-0.017742
950.602360	-0.017456
950.779385	-0.018601
950.956391	-0.018860
951.133380	-0.017890
951.310350	-0.015741
951.487302	-0.014644
951.664235	-0.016312
951.841151	-0.015978
952.018048	-0.017565
952.194927	-0.018472
952.371788	-0.016953
952.548631	-0.016954
952.725455	-0.016768
952.902261	-0.018477
953.079049	-0.018466
953.255819	-0.017626
953.432570	-0.020016
953.609303	-0.018864
953.786018	-0.016683
953.962715	-0.016658
954.139394	-0.016964
954.316054	-0.017512
954.492696	-0.017038
954.669320	-0.016633
954.845926	-0.015906
955.022513	-0.013432
955.199083	-0.013321
955.375634	-0.012325
955.552166	-0.012527
955.728681	-0.011697
955.905177	-0.011777
956.081655	-0.010586
956.258115	-0.010976
956.434557	-0.010891
956.610980	-0.011425
956.787385	-0.011243
956.963772	-0.011534
957.140141	-0.011158
957.316492	-0.010329
957.492824	-0.008592
957.669138	-0.007266
957.845434	-0.006832
958.021712	-0.006799
958.197971	-0.006368
958.374212	-0.005281
958.550435	-0.005756
958.726640	-0.004167
958.902826	-0.005782
959.078995	-0.008245
959.255145	-0.011745
959.431277	-0.009864
959.607390	-0.009676
959.783486	-0.008392
959.959563	-0.007345
960.135622	-0.006305
960.311662	-0.006399
960.487685	-0.004637
960.663689	-0.000598
960.839675	0.001723
961.015643	0.000099
961.191593	0.001507
961.367524	0.002471
961.543437	0.003132
961.719332	0.004562
961.895209	0.002790
962.071067	0.002546
962.246907	0.000977
962.422730	0.002392
962.598533	0.004203
962.774319	0.003626
962.950086	0.003416
963.125835	0.002201
963.301566	0.000920
963.477279	0.003136
963.652973	0.003425
963.828650	0.002786
964.004308	0.002164
964.179947	0.001631
964.355569	0.003264
964.531172	0.002228
964.706757	0.001155
964.882324	0.001327
965.057873	0.002287
965.233403	0.003586
965.408916	0.004040
965.584410	0.004954
965.759885	0.005082
965.935343	0.004605
966.110782	0.006565
966.286203	0.010098
966.461606	0.010178
966.636991	0.010447
966.812357	0.010898
966.987705	0.011603
967.163035	0.010118
967.338347	0.009060
967.513641	0.010939
967.688916	0.008807
967.864173	0.007575
968.039412	0.008227
968.214632	0.009264
968.389835	0.007594
968.565019	0.009651
968.740185	0.008970
968.915333	0.009120
969.090462	0.006537
969.265573	0.007073
969.440667	0.005820
969.615741	0.005263
969.790798	0.003492
969.965836	0.005141
970.140856	0.005029
970.315858	0.007363
970.490842	0.006950
970.665808	0.008164
970.840755	0.009611
971.015684	0.012305
971.190595	0.014543
971.365487	0.014097
971.540362	0.013400
971.715218	0.011434
971.890056	0.011921
972.064875	0.014994
972.239677	0.014215
972.414460	0.012484
972.589225	0.011118
972.763972	0.009746
972.938700	0.010947
973.113411	0.012857
973.288103	0.015431
973.462777	0.015081
973.637432	0.014297
973.812070	0.017875
973.986689	0.018374
974.161290	0.018982
974.335873	0.019271
974.510437	0.019371
974.684984	0.019087
974.859512	0.016072
975.034022	0.016888
975.208513	0.016851
975.382987	0.014363
975.557442	0.015648
975.731879	0.014442
975.906298	0.015195
976.080698	0.014202
976.255080	0.013456
976.429445	0.014129
976.603790	0.013660
976.778118	0.013059
976.952427	0.012422
977.126719	0.011540
977.300992	0.012325
977.475246	0.010946
977.649483	0.010044
977.823701	0.009402
977.997901	0.009996
978.172083	0.008322
978.346247	0.008717
978.520392	0.008377
978.694519	0.010827
978.868628	0.009850
979.042719	0.010704
979.216791	0.011839
979.390845	0.012313
979.564882	0.010388
979.738899	0.011232
979.912899	0.011624
980.086880	0.012416
980.260843	0.010540
980.434788	0.011811
980.608715	0.009532
980.782623	0.008638
980.956514	0.007787
981.130386	0.008124
981.304240	0.007626
981.478075	0.005198
981.651892	0.005579
981.825692	0.005666
981.999472	0.007105
982.173235	0.012221
982.346980	0.013410
982.520706	0.014606
982.694414	0.016758
982.868104	0.017579
983.041775	0.019931
983.215428	0.018470
983.389064	0.019740
983.562680	0.017969
983.736279	0.013983
983.909860	0.013582
984.083422	0.013830
984.256966	0.014212
984.430491	0.014242
984.603999	0.012740
984.777488	0.015069
984.950959	0.014684
985.124412	0.014468
985.297847	0.015688
985.471263	0.016092
985.644661	0.013854
985.818041	0.011864
985.991403	0.011429
986.164747	0.013663
986.338072	0.013326
986.511379	0.011253
986.684668	0.012013
986.857938	0.011452
987.031191	0.013051
987.204425	0.013317
987.377641	0.014136
987.550839	0.014918
987.724018	0.011888
987.897179	0.012471
988.070322	0.013663
988.243447	0.012967
988.416554	0.014342
988.589642	0.013111
988.762712	0.015148
988.935764	0.016849
989.108798	0.016033
989.281813	0.016923
989.454811	0.014298
989.627790	0.013913
989.800751	0.014329
989.973693	0.013012
990.146617	0.012680
990.319524	0.013285
990.492412	0.011455
990.665281	0.011389
990.838133	0.012522
991.010966	0.012124
991.183781	0.010766
991.356578	0.008630
991.529356	0.008449
991.702117	0.007711
991.874859	0.005806
992.047583	0.005737
992.220288	0.006492
992.392976	0.008051
992.565645	0.008162
992.738296	0.009307
992.910929	0.011527
993.083543	0.010643
993.256139	0.011415
993.428718	0.011945
993.601277	0.013372
993.773819	0.013795
993.946342	0.011405
994.118848	0.013326
994.291335	0.014052
994.463803	0.015562
994.636254	0.016932
994.808686	0.016876
994.981100	0.017056
995.153496	0.015273
995.325874	0.014212
995.498233	0.014676
995.670574	0.013926
995.842897	0.013679
996.015202	0.012405
996.187488	0.012608
996.359757	0.013023
996.532007	0.013015
996.704239	0.013277
996.876452	0.012876
997.048648	0.012486
997.220825	0.012154
997.392984	0.012405
997.565124	0.012042
997.737247	0.011261
997.909351	0.011205
998.081437	0.011966
998.253505	0.012245
998.425554	0.012676
998.597586	0.012243
998.769599	0.011689
998.941594	0.009738
999.113571	0.009391
999.285529	0.009689
999.457469	0.010485
999.629391	0.010292
999.801295	0.010501
999.973181	0.011000
1000.145048	0.012743
1000.316897	0.013115
1000.488728	0.013437
1000.660541	0.013509
1000.832335	0.014135
1001.004111	0.012381
1001.175869	0.011191
1001.347609	0.009606
1001.519331	0.008076
1001.691034	0.008619
1001.862719	0.007866
1002.034386	0.007844
1002.206035	0.008500
1002.377665	0.008764
1002.549277	0.009630
1002.720871	0.010570
1002.892447	0.010370
1003.064004	0.010753
1003.235544	0.007718
1003.407065	0.008931
1003.578568	0.008008
1003.750052	0.007327
1003.921519	0.005817
1004.092967	0.005981
1004.264397	0.004771
1004.435809	0.006307
1004.607202	0.008349
1004.778577	0.009235
1004.949934	0.009236
1005.121273	0.011075
1005.292594	0.008748
1005.463896	0.008807
1005.635180	0.008225
1005.806446	0.007798
1005.977694	0.008319
1006.148923	0.005965
1006.320135	0.006459
1006.491328	0.005720
1006.662503	0.005000
1006.833659	0.006771
1007.004798	0.007674
1007.175918	0.007927
1007.347020	0.008861
1007.518103	0.007087
1007.689169	0.009804
1007.860216	0.009580
1008.031245	0.009087
1008.202256	0.010329
1008.373248	0.011607
1008.544223	0.010599
1008.715179	0.009275
1008.886117	0.009799
1009.057036	0.010613
1009.227938	0.008182
1009.398821	0.010036
1009.569686	0.010367
1009.740533	0.008275
1009.911361	0.006633
1010.082172	0.006775
1010.252964	0.008856
1010.423738	0.008815
1010.594493	0.009058
1010.765231	0.010389
1010.935950	0.008720
1011.106651	0.008935
1011.277334	0.010494
1011.447998	0.010607
1011.618645	0.011366
1011.789273	0.009126
1011.959882	0.009213
1012.130474	0.008282
1012.301048	0.006912
1012.471603	0.006383
1012.642140	0.007582
1012.812658	0.007228
1012.983159	0.008177
1013.153641	0.007743
1013.324105	0.008841
1013.494551	0.008240
1013.664979	0.009994
1013.835388	0.009862
1014.005779	0.010484
1014.176152	0.008968
1014.346507	0.009342
1014.516843	0.009611
1014.687162	0.008977
1014.857462	0.009213
1015.027744	0.009533
1015.198007	0.008820
1015.368252	0.009556
1015.538480	0.008381
1015.708689	0.010299
1015.878879	0.008699
1016.049052	0.008162
1016.219206	0.009887
1016.389342	0.007675
1016.559460	0.007566
1016.729559	0.006918
1016.899641	0.008245
1017.069704	0.008406
1017.239749	0.007349
1017.409775	0.008032
1017.579784	0.008020
1017.749774	0.006042
1017.919746	0.008431
1018.089700	0.007071
1018.259635	0.006917
1018.429553	0.005249
1018.599452	0.006466
1018.769333	0.005628
1018.939195	0.007901
1019.109040	0.009082
1019.278866	0.009507
1019.448674	0.009397
1019.618464	0.010186
1019.788235	0.011237
1019.957989	0.012053
1020.127724	0.011762
1020.297441	0.010133
1020.467139	0.008480
1020.636820	0.008213
1020.806482	0.008634
1020.976126	0.008425
1021.145752	0.007848
1021.315359	0.007376
1021.484948	0.005586
1021.654519	0.005252
1021.824072	0.007503
1021.993607	0.008014
1022.163123	0.006815
1022.332621	0.005621
1022.502101	0.004929
1022.671563	0.006369
1022.841007	0.005929
1023.010432	0.006797
1023.179839	0.007184
1023.349228	0.005497
1023.518598	0.004340
1023.687951	0.004272
1023.857285	0.005234
1024.026601	0.005935
1024.195899	0.005052
1024.365178	0.005934
1024.534439	0.006395
1024.703682	0.008082
1024.872907	0.009363
1025.042114	0.010248
1025.211302	0.010099
1025.380472	0.010081
1025.549624	0.009242
1025.718758	0.009412
1025.887873	0.008667
1026.056970	0.009565
1026.226049	0.007419
1026.395110	0.008293
1026.564153	0.008246
1026.733177	0.008049
1026.902183	0.008457
1027.071171	0.009046
1027.240141	0.009292
1027.409092	0.009119
1027.578026	0.008139
1027.746940	0.008821
1027.915837	0.007268
1028.084716	0.005642
1028.253576	0.005928
1028.422418	0.004697
1028.591242	0.004076
1028.760048	0.004153
1028.928835	0.004775
1029.097604	0.004456
1029.266355	0.003442
1029.435088	0.004640
1029.603803	0.006625
1029.772499	0.007536
1029.941177	0.009729
1030.109837	0.010585
1030.278478	0.010625
1030.447102	0.008590
1030.615707	0.008099
1030.784294	0.008634
1030.952863	0.009110
1031.121413	0.008186
1031.289945	0.006453
1031.458460	0.005880
1031.626955	0.004759
1031.795433	0.004496
1031.963892	0.006409
1032.132334	0.007431
1032.300756	0.005737
1032.469161	0.004035
1032.637548	0.004032
1032.805916	0.006402
1032.974266	0.004507
1033.142598	0.003982
1033.310911	0.004262
1033.479207	0.004278
1033.647484	0.003980
1033.815743	0.004554
1033.983983	0.005421
1034.152206	0.005337
1034.320410	0.003733
1034.488596	0.004658
1034.656764	0.005487
1034.824914	0.005309
1034.993045	0.005100
1035.161158	0.004670
1035.329253	0.005732
1035.497330	0.005207
1035.665388	0.005192
1035.833428	0.004064
1036.001450	0.004137
1036.169454	0.003987
1036.337440	0.005086
1036.505407	0.005737
1036.673356	0.005157
1036.841287	0.005515
1037.009200	0.006343
1037.177094	0.006408
1037.344970	0.006167
1037.512828	0.006413
1037.680668	0.006152
1037.848489	0.005191
1038.016293	0.006387
1038.184078	0.006438
1038.351845	0.005324
1038.519593	0.003844
1038.687324	0.005218
1038.855036	0.007692
1039.022730	0.007838
1039.190406	0.008928
1039.358063	0.008727
1039.525702	0.007865
1039.693323	0.009313
1039.860926	0.009221
1040.028511	0.010389
1040.196077	0.008961
1040.363625	0.008281
1040.531155	0.007028
1040.698667	0.006434
1040.866161	0.006358
1041.033636	0.005289
1041.201093	0.004387
1041.368532	0.004282
1041.535952	0.004681
1041.703355	0.003016
1041.870739	0.002459
1042.038105	0.003204
1042.205452	0.003854
1042.372782	0.003480
1042.540093	0.004161
1042.707386	0.004376
1042.874661	0.004363
1043.041918	0.004321
1043.209156	0.005900
1043.376376	0.006424
1043.543578	0.006594
1043.710762	0.006143
1043.877927	0.005306
1044.045074	0.005599
1044.212203	0.006543
1044.379314	0.006132
1044.546407	0.005514
1044.713481	0.005759
1044.880537	0.004268
1045.047575	0.004713
1045.214595	0.004563
1045.381596	0.004782
1045.548579	0.003865
1045.715544	0.003625
1045.882491	0.004163
1046.049420	0.002637
1046.216330	0.003295
1046.383222	0.003888
1046.550096	0.004266
1046.716951	0.003763
1046.883789	0.003874
1047.050608	0.003538
1047.217409	0.002302
1047.384192	0.004308
1047.550956	0.005872
1047.717703	0.007429
1047.884431	0.008047
1048.051140	0.006854
1048.217832	0.008306
1048.384505	0.008025
1048.551161	0.007391
1048.717798	0.006347
1048.884416	0.005271
1049.051017	0.006000
1049.217599	0.003036
1049.384163	0.002870
1049.550709	0.004478
1049.717237	0.003141
1049.883746	0.002957
1050.050237	0.002645
1050.216710	0.004354
1050.383165	0.003508
1050.549601	0.001559
1050.716019	0.001221
1050.882420	0.000753
1051.048801	0.000369
1051.215165	-0.000205
1051.381510	0.000602
1051.547837	0.002072
1051.714146	0.002290
1051.880437	0.004842
1052.046709	0.006197
1052.212964	0.007804
1052.379200	0.007601
1052.545417	0.006049
1052.711617	0.007232
1052.877798	0.008061
1053.043961	0.009005
1053.210106	0.007244
1053.376233	0.005830
1053.542341	0.005632
1053.708432	0.004524
1053.874504	0.005575
1054.040557	0.006314
1054.206593	0.004665
1054.372610	0.002931
1054.538609	0.000409
1054.704590	0.001783
1054.870553	-0.000025
1055.036497	-0.000400
1055.202424	0.000541
1055.368331	-0.000088
1055.534221	0.001038
1055.700093	0.001504
1055.865946	0.003801
1056.031781	0.003623
1056.197598	0.002101
1056.363397	0.001968
1056.529177	0.001583
1056.694939	0.001121
1056.860683	0.000484
1057.026409	-0.003054
1057.192116	-0.003016
1057.357806	-0.004677
1057.523477	-0.002147
1057.689130	-0.002182
1057.854764	-0.001365
1058.020381	-0.000103
1058.185979	-0.000746
1058.351559	0.001045
1058.517120	0.005170
1058.682664	0.006008
1058.848189	0.005472
1059.013696	0.005713
1059.179185	0.007804
1059.344656	0.006334
1059.510108	0.005880
1059.675542	0.006060
1059.840958	0.005300
1060.006356	0.003723
1060.171735	0.003404
1060.337096	0.003776
1060.502439	0.001521
1060.667764	0.001594
1060.833071	0.004111
1060.998359	0.003938
1061.163629	0.004619
1061.328881	0.003060
1061.494115	0.001997
1061.659330	0.003539
1061.824527	0.001847
1061.989706	0.002343
1062.154867	0.002021
1062.320010	0.000721
1062.485134	-0.000942
1062.650240	-0.001649
1062.815328	-0.000424
1062.980398	0.000069
1063.145449	-0.003001
1063.310482	0.000292
1063.475497	0.000430
1063.640494	-0.001688
1063.805473	-0.000988
1063.970433	0.000403
1064.135375	0.000321
1064.300299	-0.000823
1064.465204	-0.000784
1064.630092	-0.000912
1064.794961	-0.002573
1064.959812	-0.003042
1065.124645	-0.001004
1065.289459	-0.002746
1065.454256	-0.002948
1065.619034	-0.002283
1065.783793	0.000814
1065.948535	0.000701
1066.113258	0.002855
1066.277964	0.004889
1066.442651	0.004637
1066.607319	0.004264
1066.771970	0.006379
1066.936602	0.008351
1067.101216	0.008178
1067.265812	0.005037
1067.430389	0.004644
1067.594949	0.003131
1067.759490	0.001548
1067.924013	0.001813
1068.088518	0.001666
1068.253004	0.001390
1068.417472	0.000097
1068.581922	0.000701
1068.746354	0.000824
1068.910768	0.002109
1069.075163	0.003649
1069.239540	0.003238
1069.403899	0.001325
1069.568240	0.002146
1069.732562	0.001789
1069.896866	0.000752
1070.061152	-0.002451
1070.225420	-0.001576
1070.389670	-0.002022
1070.553901	-0.003299
1070.718114	-0.002102
1070.882309	0.000988
1071.046486	-0.000262
1071.210644	-0.000192
1071.374784	0.000242
1071.538906	0.002062
1071.703010	0.002178
1071.867096	0.001939
1072.031163	0.001853
1072.195212	0.001493
1072.359243	0.001163
1072.523256	0.001298
1072.687250	0.000957
1072.851226	0.001104
1073.015184	0.002271
1073.179124	0.001831
1073.343045	0.001604
1073.506949	0.004267
1073.670834	0.004811
1073.834701	0.003878
1073.998549	0.003939
1074.162380	0.003091
1074.326192	0.001346
1074.489986	0.001943
1074.653761	0.003436
1074.817519	0.004509
1074.981258	0.001357
1075.144979	-0.000617
1075.308682	0.001354
1075.472367	0.002316
1075.636033	0.004128
1075.799681	0.007225
1075.963311	0.006331
1076.126923	0.003403
1076.290516	0.001029
1076.454092	0.001614
1076.617649	0.001127
1076.781187	-0.000040
1076.944708	-0.002550
1077.108210	-0.004999
1077.271695	-0.006757
1077.435160	-0.007457
1077.598608	-0.003613
1077.762038	-0.003455
1077.925449	-0.002002
1078.088842	0.001089
1078.252217	0.000320
1078.415573	0.002096
1078.578912	0.004322
1078.742232	0.005215
1078.905534	0.007497
1079.068817	0.005277
1079.232083	0.007041
1079.395330	0.005577
1079.558559	0.003775
1079.721770	0.002430
1079.884962	0.002167
1080.048136	0.002289
1080.211293	0.001239
1080.374430	0.000149
1080.537550	-0.001111
1080.700651	-0.002094
1080.863735	-0.001206
1081.026800	-0.002127
1081.189846	-0.000080
1081.352875	0.000143
1081.515885	0.000339
1081.678877	0.001091
1081.841851	-0.000427
1082.004807	0.002161
1082.167744	0.002250
1082.330663	0.001370
1082.493564	0.002850
1082.656447	0.002291
1082.819312	0.002564
1082.982158	0.001135
1083.144986	0.001251
1083.307796	0.000130
1083.470587	-0.000404
1083.633361	0.001247
1083.796116	-0.000018
1083.958853	-0.001298
1084.121571	-0.000291
1084.284272	-0.000733
1084.446954	-0.000286
1084.609618	0.000162
1084.772264	0.003261
1084.934892	0.002862
1085.097501	0.002814
1085.260092	0.003824
1085.422665	0.005163
1085.585220	0.004099
1085.747756	0.003606
1085.910274	0.004484
1086.072774	0.001673
1086.235256	0.002558
1086.397720	0.001739
1086.560165	0.000986
1086.722592	0.004511
1086.885001	0.002788
1087.047392	0.002873
1087.209764	0.003974
1087.372119	0.003497
1087.534455	0.005542
1087.696772	0.001497
1087.859072	0.003279
1088.021353	0.003012
1088.183616	0.002231
1088.345861	0.002312
1088.508088	0.002802
1088.670296	0.003804
1088.832486	0.003331
1088.994658	0.003585
1089.156812	0.007268
1089.318948	0.005368
1089.481065	0.005733
1089.643164	0.005006
1089.805245	0.006498
1089.967308	0.007075
1090.129352	0.003702
1090.291378	0.001692
1090.453386	-0.001233
1090.615376	-0.002178
1090.777347	-0.002056
1090.939301	-0.000449
1091.101236	-0.002915
1091.263153	-0.004260
1091.425051	-0.005033
1091.586932	-0.001585
1091.748794	-0.002280
1091.910638	0.002900
1092.072463	0.002195
1092.234271	0.002899
1092.396060	0.000203
1092.557831	-0.001101
1092.719584	0.001119
1092.881319	0.003246
1093.043035	0.000677
1093.204733	0.005134
1093.366413	0.006298
1093.528075	0.004129
1093.689718	0.003108
1093.851343	0.003078
1094.012950	0.006906
1094.174539	0.004289
1094.336110	0.001326
1094.497662	0.000357
1094.659196	-0.002158
1094.820712	-0.004400
1094.982210	-0.001789
1095.143689	-0.002943
1095.305151	-0.003109
1095.466594	-0.003819
1095.628018	-0.001128
1095.789425	0.000318
1095.950813	0.001201
1096.112183	0.001996
1096.273535	0.000118
1096.434869	0.000953
1096.596184	0.000228
1096.757482	0.002001
1096.918761	0.002521
1097.080021	0.000978
1097.241264	0.002681
1097.402488	0.000233
1097.563694	0.000622
1097.724882	-0.001631
1097.886052	-0.004387
1098.047203	-0.003426
1098.208336	-0.007427
1098.369451	-0.006530
1098.530548	-0.008116
1098.691627	-0.011200
1098.852687	-0.009763
1099.013729	-0.010009
1099.174753	-0.005261
1099.335758	-0.000536
1099.496746	0.000771
1099.657715	0.005425
1099.818666	0.005412
1099.979599	0.006160
1100.140513	0.006558
1100.301409	0.006748
1100.462287	0.008362
1100.623147	0.008086
1100.783989	0.006006
1100.944812	0.003751
1101.105617	0.002074
1101.266404	0.000905
1101.427173	0.003973
1101.587923	0.003922
1101.748656	0.007550
1101.909370	0.007310
1102.070066	0.002908
1102.230743	0.000721
1102.391403	0.002063
1102.552044	0.001463
1102.712667	0.000435
1102.873271	-0.001117
1103.033858	0.000052
1103.194426	-0.003091
1103.354976	-0.003853
1103.515508	-0.001278
1103.676021	0.001500
1103.836517	0.001867
1103.996994	0.000298
1104.157453	-0.002936
1104.317893	-0.003758
1104.478316	0.000055
1104.638720	-0.000878
1104.799106	0.000037
1104.959474	0.001607
1105.119823	-0.000120
1105.280155	-0.002519
1105.440468	-0.002518
1105.600763	0.000105
1105.761039	-0.000519
1105.921298	-0.007000
1106.081538	-0.004979
1106.241760	-0.005407
1106.401964	-0.005428
1106.562149	-0.004429
1106.722316	-0.003865
1106.882465	0.000315
1107.042596	0.001726
1107.202709	0.000844
1107.362803	0.001393
1107.522879	0.000919
1107.682937	-0.001219
1107.842977	-0.005534
1108.002999	-0.007705
1108.163002	-0.006206
1108.322987	-0.009898
1108.482954	-0.010224
1108.642902	-0.009785
1108.802833	-0.007941
1108.962745	-0.006103
1109.122639	-0.004093
1109.282515	-0.000588
1109.442372	-0.002666
1109.602211	0.000755
1109.762032	0.002469
1109.921835	-0.001334
1110.081620	-0.001113
1110.241386	0.000544
1110.401134	-0.000116
1110.560864	-0.000751
1110.720576	-0.001977
1110.880269	0.001985
1111.039945	0.000270
1111.199602	0.003310
1111.359240	0.004617
1111.518861	0.008360
1111.678463	0.001544
1111.838047	-0.000934
1111.997613	0.001170
1112.157161	0.000706
1112.316690	0.000702
1112.476202	0.001821
1112.635695	-0.004989
1112.795169	-0.004158
1112.954626	-0.006154
1113.114064	-0.001880
1113.273484	0.003130
1113.432886	0.000353
1113.592270	0.002395
1113.751635	0.000512
1113.910983	-0.002480
1114.070312	-0.001291
1114.229622	-0.001909
1114.388915	-0.002523
1114.548189	-0.004062
1114.707445	-0.009548
1114.866683	-0.012295
1115.025903	-0.017348
1115.185104	-0.016972
1115.344287	-0.017758
1115.503452	-0.012208
1115.662599	-0.010195
1115.821727	-0.012813
1115.980838	-0.012828
1116.139930	-0.008813
1116.299004	-0.004285
1116.458059	-0.001514
1116.617097	0.001439
1116.776116	0.003182
1116.935117	0.000476
1117.094099	-0.001980
1117.253064	0.001059
1117.412010	0.002214
1117.570938	0.001637
1117.729848	0.003645
1117.888740	0.006398
1118.047613	0.001171
1118.206468	0.003553
1118.365305	0.003030
1118.524124	0.001350
1118.682924	0.001376
1118.841707	0.001163
1119.000471	-0.000765
1119.159216	-0.004625
1119.317944	-0.004453
1119.476653	-0.001171
1119.635344	-0.005363
1119.794017	-0.005938
1119.952672	-0.002678
1120.111308	-0.004517
1120.269927	-0.006002
1120.428527	-0.006785
1120.587108	-0.008935
1120.745672	-0.012222
1120.904217	-0.010459
1121.062744	-0.007883
1121.221253	-0.006613
1121.379744	-0.007911
1121.538216	-0.006641
1121.696671	-0.008605
1121.855107	-0.007121
1122.013524	-0.004387
1122.171924	0.001068
1122.330305	0.001631
1122.488668	-0.003474
1122.647013	-0.004835
1122.805340	-0.004586
1122.963648	-0.006345
1123.121938	-0.004478
1123.280210	-0.001695
1123.438464	0.003853
1123.596700	-0.002124
1123.754917	-0.006883
1123.913116	-0.002825
1124.071297	-0.001341
1124.229459	0.004645
1124.387604	0.005380
1124.545730	0.007357
1124.703838	0.004711
1124.861928	-0.001234
1125.019999	-0.000370
1125.178052	0.000163
1125.336088	-0.001221
1125.494104	-0.000130
1125.652103	0.001426
1125.810083	0.004082
1125.968045	0.002549
1126.125989	0.002930
1126.283915	-0.002822
1126.441823	-0.003998
1126.599712	-0.004966
1126.757583	0.002434
1126.915436	-0.000677
1127.073270	-0.007197
1127.231087	-0.008917
1127.388885	-0.004611
1127.546665	-0.005449
1127.704426	0.000985
1127.862170	0.002465
1128.019895	0.003648
1128.177602	0.006371
1128.335291	0.004625
1128.492961	0.007118
1128.650614	0.006343
1128.808248	0.002496
1128.965864	0.001441
1129.123461	0.001754
1129.281041	-0.000439
1129.438602	0.002852
1129.596145	-0.008501
1129.753670	-0.015311
1129.911176	-0.013032
1130.068665	-0.006887
1130.226135	-0.006851
1130.383587	-0.006960
1130.541020	-0.011019
1130.698436	-0.009278
1130.855833	-0.007565
1131.013212	0.001566
1131.170573	0.014603
1131.327915	0.009071
1131.485239	0.004300
1131.642545	0.008028
1131.799833	0.016527
1131.957103	0.021007
1132.114354	0.022448
1132.271588	0.016960
1132.428803	0.005293
1132.585999	0.003874
1132.743178	0.008883
1132.900338	0.010017
1133.057480	0.010529
1133.214604	0.004099
1133.371710	0.000511
1133.528797	0.002373
1133.685866	0.010477
1133.842917	0.020074
1133.999950	0.018135
1134.156964	0.010807
1134.313960	0.007819
1134.470938	0.004103
1134.627898	0.004561
1134.784840	0.008037
1134.941763	0.003943
1135.098668	0.001589
1135.255555	-0.004905
1135.412424	-0.002026
1135.569274	0.002228
1135.726107	0.010167
1135.882921	0.006733
1136.039716	0.009531
1136.196494	0.011094
1136.353253	0.022555
1136.509995	0.017408
1136.666717	0.021529
1136.823422	0.021558
1136.980109	0.022769
1137.136777	0.018523
1137.293427	0.023810
1137.450059	0.022055
1137.606672	0.024238
1137.763267	0.015002
1137.919844	0.016733
1138.076403	0.012984
1138.232944	0.010029
1138.389466	0.008401
1138.545971	0.012834
1138.702457	0.008828
1138.858924	0.006285
1139.015374	0.007806
1139.171805	0.004264
1139.328218	-0.000315
1139.484613	0.007635
1139.640990	0.005621
1139.797348	0.006915
1139.953688	0.002229
1140.110010	0.003259
1140.266314	0.002657
1140.422600	-0.003222
1140.578867	0.001703
1140.735116	-0.000756
1140.891347	-0.003726
1141.047559	-0.002549
1141.203754	-0.010996
1141.359930	-0.009457
1141.516088	-0.008282
1141.672228	-0.002806
1141.828349	-0.002697
1141.984452	-0.005203
1142.140537	0.006140
1142.296604	0.008513
1142.452653	0.007844
1142.608683	0.006405
1142.764695	0.006117
1142.920689	0.009463
1143.076665	0.001041
1143.232622	-0.001535
1143.388562	0.000105
1143.544483	-0.004577
1143.700385	-0.005212
1143.856270	-0.003903
1144.012136	0.007744
1144.167985	0.003517
1144.323814	0.005893
1144.479626	0.007370
1144.635420	0.012155
1144.791195	0.011153
1144.946952	0.013609
1145.102691	0.011496
1145.258411	0.009034
1145.414113	0.005585
1145.569798	0.005531
1145.725463	-0.002223
1145.881111	0.003903
1146.036741	-0.000461
1146.192352	0.000283
1146.347945	-0.000215
1146.503519	0.002820
1146.659076	0.010571
1146.814614	0.009891
1146.970134	0.007036
1147.125636	0.005617
1147.281120	-0.000196
1147.436585	0.001536
1147.592032	0.002830
1147.747461	-0.003868
1147.902872	-0.004676
1148.058265	-0.011828
1148.213639	-0.012319
1148.368995	-0.005009
1148.524333	-0.001834
1148.679653	0.008414
1148.834954	0.007765
1148.990237	0.011217
1149.145502	0.013517
1149.300749	0.005173
1149.455977	0.007750
1149.611188	0.014713
1149.766380	0.005974
1149.921553	0.012211
1150.076709	0.001665
1150.231846	0.000384
1150.386966	-0.005218
1150.542066	-0.000293
1150.697149	0.006873
1150.852214	0.017225
1151.007260	0.018828
1151.162288	0.028282
1151.317298	0.022954
1151.472289	0.024812
1151.627263	0.025589
1151.782218	0.025702
1151.937155	0.018033
1152.092073	0.008361
1152.246974	-0.005233
1152.401856	-0.012515
1152.556720	-0.018399
1152.711566	-0.020435
1152.866393	-0.026036
1153.021203	-0.022489
1153.175994	-0.024766
1153.330767	-0.018012
1153.485521	-0.007507
1153.640258	-0.003159
1153.794976	-0.007025
1153.949676	-0.007354
1154.104358	-0.010767
1154.259021	-0.007393
1154.413667	-0.014433
1154.568294	-0.003609
1154.722903	-0.009522
1154.877493	-0.015060
1155.032066	-0.012529
1155.186620	-0.010287
1155.341156	-0.008201
1155.495674	-0.002327
1155.650173	-0.001337
1155.804654	0.003212
1155.959118	-0.013308
1156.113562	-0.011460
1156.267989	-0.012981
1156.422397	-0.020863
1156.576788	-0.025094
1156.731160	-0.027288
1156.885513	-0.026167
1157.039849	-0.018409
1157.194166	-0.025308
1157.348465	-0.018021
1157.502746	-0.014058
1157.657009	-0.006752
1157.811253	-0.004334
1157.965479	0.005592
1158.119687	0.006521
1158.273877	0.013191
1158.428048	0.006675
1158.582201	0.007172
1158.736337	0.021647
1158.890453	0.028794
1159.044552	0.030095
1159.198632	0.027937
1159.352694	0.015729
1159.506738	0.018673
1159.660764	0.010058
1159.814771	0.013932
1159.968761	0.033805
1160.122732	0.026104
1160.276685	0.010428
1160.430619	0.009718
1160.584535	0.003767
1160.738434	0.007314
1160.892313	0.009992
1161.046175	0.020963
1161.200019	0.022021
1161.353844	0.009821
1161.507651	0.004494
1161.661440	0.014313
1161.815210	0.002448
1161.968962	0.022042
1162.122697	0.036048
1162.276412	0.039380
1162.430110	0.035877
1162.583789	0.031229
1162.737451	0.035351
1162.891094	0.036167
1163.044718	0.027300
1163.198325	0.029058
1163.351913	0.012771
1163.505483	0.014037
1163.659035	0.013642
1163.812569	-0.000213
1163.966084	0.010504
1164.119581	0.004131
1164.273060	-0.003783
1164.426521	0.003266
1164.579964	0.001532
1164.733388	0.000337
1164.886794	-0.001447
1165.040182	-0.005124
1165.193551	0.001791
1165.346903	-0.000080
1165.500236	-0.005373
1165.653551	-0.014056
1165.806848	-0.002119
1165.960126	0.006578
1166.113386	0.019595
1166.266628	0.013464
1166.419852	0.004647
1166.573058	0.008307
1166.726245	0.016020
1166.879414	0.031261
1167.032565	0.055970
1167.185698	0.037803
1167.338812	0.029654
1167.491909	0.023470
1167.644987	0.016307
1167.798046	0.015384
1167.951088	0.007874
1168.104111	-0.012079
1168.257117	-0.020214
1168.410103	-0.011878
1168.563072	-0.016554
1168.716023	-0.011319
1168.868955	-0.007703
1169.021869	-0.004949
1169.174765	0.000262
1169.327642	-0.000444
1169.480501	0.016448
1169.633343	0.011240
1169.786165	0.000113
1169.938970	0.014916
1170.091757	0.012179
1170.244525	0.005141
1170.397275	0.012266
1170.550007	0.019630
1170.702720	0.048590
1170.855415	0.029587
1171.008092	0.051440
1171.160751	0.059107
1171.313392	0.059431
1171.466014	-0.019829
1171.618619	0.122276
1171.771205	0.122276
1171.923772	0.122276
