sample name	sample
index	768
start time	 03-31-2021  01:05:31 PM
880	0.032988
Peak Time (s)	90.036
Peak Height 	0.03299
calc peak height	90,93
Baseline Time (s)	11.037
Baseline Value 	-0.007174
subtract baseline	10,4
Abs	0.040380
Peak Time (s)	91.037
Peak Height 	0.04038
calc peak height	90,93
Baseline Time (s)	8.536
Baseline Value 	-0.002508
subtract baseline	10,3
PK_550	0.026246
Peak Time (s)	92.537
Peak Height 	0.02625
calc peak height	90,93
Baseline Time (s)	8.536
Baseline Value 	9.5675E-4
subtract baseline	10,2
PK_880	0.035444
Peak Time (s)	92.537
Peak Height 	0.03544
calc peak height	90,93
Baseline Time (s)	11.537
Baseline Value 	0.001408
subtract baseline	10,1


Time (s)	A880-A510	A880-A775	A880-A975	A880	I510	I775	I975	I880	
0.036000	-0.003588	-0.001625	-0.003704	0.007590	6700.593429	40336.172324	4025.974802	22112.902979
0.539500	-0.002499	-0.000684	0.006156	0.008336	6703.468111	40352.851869	4047.105530	22080.190475
1.036500	-0.001128	-0.000676	-0.000727	0.008645	6712.395576	40327.093743	4030.395590	22066.658858
1.537000	0.000567	-0.000982	0.005546	0.006386	6745.821876	40494.903201	4050.251037	22165.832670
2.037000	-0.002978	-0.001864	-0.001111	0.006241	6717.061315	40431.573247	4035.062828	22172.239124
2.535000	-0.000844	-0.000815	0.000887	0.004678	6748.346944	40656.822296	4043.341240	22241.178116
3.035500	0.000810	-0.000349	0.002305	0.003138	6775.582464	40830.752793	4050.268612	22309.348068
3.538000	-0.002010	-0.000646	0.007766	0.004165	6742.795411	40715.879141	4060.742915	22263.851992
4.035500	0.000881	-0.000863	0.002975	0.004589	6763.781700	40660.321778	4048.432522	22245.080266
4.536500	-0.002185	-0.000920	0.005259	0.004602	6737.611229	40654.269018	4053.775349	22244.517847
5.036000	-0.002864	-0.000830	-0.000470	0.004776	6730.387763	40647.011672	4039.949077	22236.819793
5.536500	-0.000964	-0.000474	0.004977	0.004941	6745.090779	40663.555535	4052.312213	22229.539892
6.037000	-0.001693	-0.000617	0.002472	0.003952	6747.295681	40736.799109	4048.748222	22273.273095
6.537000	0.000162	-0.000135	-0.000022	0.003759	6764.729997	40795.392383	4043.362051	22281.803116
7.037500	0.001800	-0.000247	-0.002569	0.002647	6788.279448	40882.318282	4040.018655	22331.108186
7.534500	-0.000280	-0.000213	-0.000359	0.001528	6780.039700	40982.821019	4047.794046	22380.871590
8.035000	0.001539	0.000263	0.000444	0.001642	6794.681301	41014.445684	4049.412243	22375.800538
8.535500	-0.000410	0.000000	0.000000	0.000796	6785.196904	41065.315843	4050.354112	22413.451711
9.036000	0.002285	0.000237	0.001047	0.000635	6809.792037	41100.150993	4053.197276	22420.641610
9.536000	-0.000555	-0.001089	-0.001614	-0.001058	6799.895869	41132.284714	4050.918810	22496.300375
10.039000	-0.001334	-0.000995	-0.000969	-0.000971	6792.442209	41132.893233	4052.233477	22492.416845
10.536500	0.002918	0.000009	0.002793	0.000123	6819.694182	41124.996679	4058.533201	22443.486012
11.037000	0.001806	-0.000009	0.001470	0.000000	6811.139899	41134.193639	4055.694461	22448.987367
11.537500	0.000000	0.000139	-0.002140	-0.000424	6799.209882	41184.305260	4048.193302	22467.916024
12.034500	0.000664	-0.000062	0.001927	-0.000584	6806.316646	41180.712705	4058.157527	22475.069797
12.535000	0.000141	-0.000008	0.003875	-0.000155	6798.116424	41147.941626	4061.761419	22455.924469
13.035500	0.001750	0.000838	0.001343	0.000055	6810.178411	41203.647708	4055.264478	22446.535375
13.537000	0.003585	-0.000136	0.005953	-0.000315	6829.270874	41150.684914	4067.092903	22463.043139
14.035500	-0.000237	-0.000292	0.003092	0.001896	6777.251037	40943.817039	4055.047412	22364.479963
14.536000	0.000118	-0.000473	0.007008	0.001904	6780.220732	40927.298958	4064.316597	22364.128655
15.036500	0.001480	-0.000098	0.002156	0.000242	6806.232207	41105.297978	4056.744518	22438.200091
15.537000	-0.002153	-0.000651	-0.001957	-0.000487	6781.252628	41120.727124	4048.771668	22470.768749
16.037500	0.000512	-0.000465	0.002640	-0.000753	6806.463093	41160.200881	4060.246298	22482.629303
16.538000	0.000235	-0.000216	0.005771	-0.000028	6797.828076	41118.577285	4065.973577	22450.237549
17.035500	0.001734	-0.000452	0.009940	-0.003591	6841.670073	41411.043717	4084.590888	22610.041182
17.535500	0.001324	0.000289	0.000505	0.001234	6796.339350	41052.343350	4050.513391	22393.947849
18.036000	0.002446	-0.000259	0.002400	0.000863	6809.216428	41036.918599	4055.855168	22410.498002
18.536000	0.001482	-0.000450	-0.006797	0.000553	6803.569289	41047.224801	4035.064928	22424.295835
19.036000	0.000431	-0.000700	0.002181	0.000308	6796.618360	41046.726091	4056.646313	22435.214922
19.539500	-0.000908	-0.000031	0.005655	0.001181	6777.628567	41028.965741	4062.816727	22396.295642
20.036500	-0.000009	-0.000517	0.006443	0.000292	6792.975030	41064.218374	4066.815279	22435.962364
20.536500	-0.000359	-0.000708	0.003811	-0.000012	6792.581739	41074.082355	4061.269897	22449.541814
21.034500	-0.000717	-0.000763	0.002414	0.000514	6784.984399	41023.304079	4056.712947	22426.064665
21.537500	0.001707	-0.000034	0.001464	0.000822	6803.181778	41060.051065	4053.739063	22412.284368
22.035000	-0.001492	0.000377	0.006831	0.001613	6768.935496	41026.866989	4064.586698	22377.053094
22.535500	0.002515	-0.000166	0.002798	0.001416	6805.035683	40996.691065	4055.488670	22385.859979
23.035500	-0.000751	0.000374	0.001236	0.000922	6781.198081	41087.096413	4052.968195	22407.870428
23.536000	0.000502	0.000062	0.006369	0.001189	6789.656511	41036.428917	4064.499700	22395.965475
24.036500	0.000635	0.000394	0.002256	0.001282	6789.994860	41057.234919	4054.522169	22391.790677
24.536500	0.000068	0.000171	0.003291	0.001092	6786.763251	41054.454022	4057.419728	22400.286801
25.037000	0.000176	-0.000139	0.002040	0.000852	6789.752413	41048.272447	4055.028184	22410.966686
25.537500	0.001679	0.000398	0.005934	0.001351	6798.390147	41051.693778	4063.077136	22388.755902
26.034500	-0.001768	0.000632	0.002764	0.001544	6767.170478	41055.167132	4055.105199	22380.143249
26.534500	-0.001158	0.000055	0.003227	0.000891	6777.971116	41061.819529	4057.743398	22409.229529
27.035000	0.000804	-0.000112	0.007115	-0.001609	6816.381691	41266.375698	4072.977808	22520.973768
27.536000	0.001247	-0.000159	-0.002729	-0.001089	6815.718877	41216.563182	4048.374598	22497.700658
28.035500	0.001689	-0.000488	0.007232	-0.000187	6811.745844	41108.667033	4069.848311	22457.357723
28.536500	0.000148	0.000712	0.004240	0.000199	6795.127756	41179.985826	4061.789065	22440.117854
29.039000	0.002142	0.000016	0.004664	0.000102	6813.159371	41127.485668	4063.025754	22444.433552
29.536500	0.000475	-0.000527	0.003770	-0.000777	6806.347922	41156.901315	4062.991188	22483.713977
30.039500	0.001368	0.000192	0.001119	0.000667	6801.598287	41093.429894	4053.291195	22419.216871
30.537500	-0.000170	-0.000246	0.000140	0.001948	6777.373916	40943.235364	4047.977820	22362.151181
31.035000	-0.003244	-0.000253	0.005016	0.000741	6761.421409	41048.033236	4062.343692	22415.909807
31.534500	0.002127	0.000234	0.001125	0.000299	6811.326169	41129.352534	4054.173934	22435.649679
32.035500	0.001155	-0.000686	0.006751	-0.000374	6808.743095	41107.655002	4069.143493	22465.700523
32.535500	0.000582	0.000254	0.006174	0.000902	6792.806053	41078.319134	4064.717127	22408.735092
33.036000	-0.000194	0.000688	0.003461	0.000133	6792.752791	41183.649335	4060.095574	22443.052278
33.539000	0.002067	0.000843	0.002887	0.000404	6809.902958	41173.446918	4058.090135	22430.945578
34.036500	-0.000938	0.000139	0.000151	0.000602	6782.326916	41094.473383	4051.165019	22422.100642
34.536500	0.001314	0.000538	0.003549	0.001500	6793.961766	41050.799192	4057.062094	22382.090456
35.037000	-0.000922	-0.000552	-0.002217	0.000770	6781.025250	41019.299497	4045.218350	22414.609539
35.537500	0.001864	-0.000437	0.006704	0.001291	6800.499097	40983.959833	4065.053277	22391.404411
36.038000	0.000118	-0.000175	0.002833	0.000972	6788.217935	41034.585672	4056.617910	22405.602860
36.535500	0.001721	0.000204	0.001045	0.001664	6796.054115	41007.323874	4050.771322	22374.810196
37.035500	0.000542	-0.000560	-0.001208	0.000820	6793.169848	41014.256571	4047.464058	22412.391577
37.567500	-0.000293	0.000251	0.001097	0.001020	6784.281810	41067.748911	4052.408542	22403.493576
38.036000	0.001807	-0.000693	0.001230	0.000926	6803.157124	40993.447492	4052.944234	22407.686032
38.536500	0.000666	-0.000065	0.002950	0.001957	6784.467240	40958.242943	4054.568146	22361.755078
39.037000	-0.000746	-0.000462	0.007121	0.001107	6779.645371	40997.782326	4066.486874	22399.602225
39.537000	0.001163	0.000186	0.003608	0.001410	6793.435961	41027.926555	4057.415597	22386.115427
40.037000	0.000937	-0.000464	0.003625	0.001478	6790.909263	40965.258569	4057.295307	22383.081645
40.534500	-0.000244	-0.001045	-0.002256	0.000890	6785.822761	40965.892411	4044.846894	22409.292371
41.034500	0.000391	0.000174	0.001243	0.001048	6789.913188	41058.546825	4052.688024	22402.253293
41.535000	-0.000306	-0.000439	0.000815	0.001430	6780.658689	40971.650790	4050.781616	22385.231746
42.038500	0.000451	0.000173	-0.001955	0.001417	6787.258769	41026.214396	4044.317811	22385.812725
42.535500	-0.000345	0.000136	0.002501	0.001710	6777.917310	40997.325383	4054.090378	22372.751748
43.039000	-0.000024	0.000100	0.005021	0.001561	6781.943951	41007.201613	4060.407677	22379.384283
43.536500	0.000370	0.000396	0.000080	0.001476	6786.055030	41040.447323	4048.943719	22383.154707
44.037000	0.003355	-0.000653	0.005960	-0.002785	6848.781086	41322.341701	4073.028899	22573.801519
44.540500	0.001899	-0.000105	0.006207	-0.000609	6817.213384	41179.247612	4068.406365	22476.228624
45.037000	0.000156	-0.000981	0.002183	-0.000872	6804.420547	41125.471530	4059.445375	22487.964701
45.535000	0.002129	-0.000225	0.004814	-0.000350	6816.954780	41145.968339	4064.459195	22464.613351
46.035000	-0.000557	-0.000471	0.000499	-0.000233	6792.780361	41114.208083	4053.954837	22459.418456
46.535500	-0.000227	-0.000735	0.001869	0.000538	6788.987965	41023.629441	4055.367709	22424.972468
47.035500	0.001671	0.000851	0.000629	0.000238	6807.916393	41188.756622	4053.148888	22438.344511
47.536000	0.000232	0.000246	0.005304	0.001331	6786.122275	41040.067432	4061.626394	22389.641416
48.036000	-0.001139	0.000249	0.001539	0.001923	6769.308283	40988.667728	4051.324676	22363.303692
48.536500	-0.000321	0.000368	0.002035	0.001308	6781.568792	41052.820197	4053.941393	22390.668280
49.034000	0.001979	0.000632	0.001124	-0.000064	6813.187385	41196.067509	4055.029837	22451.857872
49.537000	-0.000706	-0.001151	0.001276	0.001232	6778.924551	40926.853221	4052.330701	22394.050545
50.037500	0.000966	-0.000427	0.005551	-0.002988	6829.752112	41360.099748	4072.535277	22582.924671
50.535500	0.000180	-0.000756	0.005665	0.004180	6761.297344	40705.010105	4055.732176	22263.192353
51.035500	0.001429	-0.001395	0.007964	0.008436	6735.746900	40283.439181	4051.117457	22075.842172
51.535500	-0.040740	-0.007810	0.018690	0.209996	5156.240015	26128.871529	3687.870527	15011.716620
52.035500	-0.050060	-0.010374	-0.001250	0.035741	6125.527319	37301.942048	3968.731202	20916.518532
52.539000	-0.045795	-0.030411	-0.006450	-0.193219	8306.208184	58440.301602	4601.739248	33318.569560
53.036000	-0.034491	-0.108939	-0.012667	-0.324121	10339.427943	65535.000000	5124.568667	43965.791239
53.537000	-0.019650	-0.102646	-0.001490	-0.317827	10484.164717	65535.000000	5148.260374	43377.163316
54.036500	-0.015806	-0.061934	-0.004002	-0.270273	9773.117506	64558.867310	4917.567080	39194.667724
54.537000	-0.016858	-0.029972	-0.008382	-0.214474	8949.186952	61275.619993	4673.268537	34836.743567
55.037500	-0.015585	-0.018512	-0.004707	-0.180677	8524.128609	58358.530653	4563.129899	32456.980063
55.535000	-0.006825	-0.013022	-0.004637	-0.169689	8496.147021	57663.153562	4525.054434	31722.296435
56.035000	-0.002110	-0.008967	0.000122	-0.159052	8422.510838	56842.294382	4504.952332	31028.604972
56.535500	0.004605	-0.001822	-0.002899	-0.125731	8103.730865	53697.893973	4386.515967	28962.296109
57.036500	0.004313	-0.002532	0.000969	-0.121360	8049.840919	53109.268449	4384.944040	28702.796969
57.536500	0.003903	-0.003427	0.002716	-0.125378	8091.485129	53470.268583	4403.055956	28941.254922
58.036000	0.001665	0.001558	0.001683	-0.079444	7563.023295	48936.678640	4262.269302	26342.711487
58.536500	0.001696	0.002107	0.007242	-0.061395	7379.938596	47125.845417	4227.322441	25394.543810
59.039500	0.005055	0.004053	0.010137	-0.049068	7291.612984	46085.670965	4201.589679	24769.281382
59.534500	0.005314	0.005301	0.011644	-0.042037	7226.113879	45516.884676	4186.777592	24420.500744
60.035000	0.005249	0.005453	0.017203	-0.044487	7249.056101	45771.796053	4208.315168	24541.362604
60.535500	0.007640	0.007628	0.016527	-0.038916	7218.490451	45439.314746	4191.482701	24267.468467
61.035500	0.007039	0.007904	0.014880	-0.036532	7189.985529	45234.172470	4180.746851	24151.304873
61.535500	0.009309	0.010500	0.018302	-0.025106	7103.792435	44385.975264	4159.726704	23603.435899
62.039000	0.014154	0.013693	0.022829	-0.021180	7112.352895	44316.287403	4161.288716	23418.451711
62.536500	0.014066	0.014329	0.016281	-0.015659	7060.326091	43855.130862	4130.273083	23161.158447
63.036500	0.015930	0.015167	0.017049	-0.014225	7064.306436	43799.314604	4128.587184	23094.902403
63.537500	0.015591	0.015471	0.018271	-0.010661	7028.455465	43494.756825	4122.673652	22931.045371
64.040000	0.019394	0.015429	0.023102	-0.013700	7091.500008	43774.580942	4142.663348	23070.655762
64.534500	0.019165	0.017267	0.016605	-0.010118	7056.268422	43611.518199	4117.130594	22906.233065
65.035000	0.020053	0.017469	0.021732	-0.007060	7036.335916	43345.926001	4122.323833	22766.925857
65.535000	0.020314	0.018972	0.022754	-0.002682	6998.795077	43080.248147	4113.912135	22569.152073
66.036000	0.021365	0.019019	0.020505	0.001988	6966.096366	42656.733397	4096.773194	22360.391524
66.538500	0.019349	0.019017	0.019392	0.005545	6916.260729	42333.746049	4085.358003	22202.869534
67.036500	0.021168	0.019161	0.026347	0.010054	6892.437999	41941.279491	4091.322402	22005.060921
67.537000	0.021336	0.019549	0.022348	0.013590	6862.829292	41660.717581	4073.060607	21851.395148
68.037000	0.021792	0.019926	0.021387	0.017133	6835.870905	41380.497276	4062.293583	21698.619878
68.537000	0.024571	0.020709	0.024871	0.021401	6822.944270	41074.446609	4060.430743	21516.265426
69.037000	0.021146	0.019160	0.022695	0.022319	6785.474283	40859.255525	4053.111328	21477.248147
69.535000	0.023545	0.021282	0.028884	0.026535	6769.919119	40677.516567	4057.772559	21299.247895
70.037500	0.023066	0.020761	0.024217	0.028645	6747.864866	40450.535858	4041.855416	21210.829953
70.535500	0.025057	0.020831	0.026208	0.031245	6742.690023	40233.488291	4040.436605	21102.422649
71.036000	0.025166	0.021016	0.022967	0.033618	6723.525324	40046.746783	4027.450624	21004.034208
71.536000	0.025492	0.022101	0.030490	0.036329	6703.452696	39908.707119	4038.569342	20892.330189
72.036000	0.025957	0.022114	0.025411	0.038616	6688.193883	39716.396307	4021.601247	20798.640014
72.536500	0.025586	0.022466	0.027489	0.040690	6667.816059	39571.470492	4021.611093	20714.075908
73.036500	0.026947	0.022320	0.025668	0.042788	6661.691832	39383.371814	4012.697511	20628.942226
73.537000	0.025763	0.023713	0.030443	0.045489	6629.599313	39274.289555	4017.406372	20519.975664
74.034500	0.026961	0.023635	0.030453	0.047019	6626.868113	39140.504213	4013.953204	20458.538537
74.535000	0.029465	0.023977	0.037830	0.048995	6631.213438	39005.071953	4026.270964	20379.494919
75.035000	0.028187	0.023006	0.031436	0.049494	6616.621640	38883.725402	4010.577118	20359.615026
75.536000	0.029601	0.024498	0.036640	0.051479	6611.944982	38843.159797	4017.876393	20280.677800
76.038500	0.030325	0.024254	0.032344	0.052025	6613.398183	38778.113456	4006.917643	20259.008471
76.536000	0.027819	0.024610	0.033301	0.053325	6582.377185	38700.634201	4006.146105	20207.589336
77.036500	0.031062	0.024077	0.030988	0.052393	6616.420844	38733.332641	4003.046507	20244.451282
77.536500	0.031584	0.024507	0.035899	0.053270	6613.520765	38696.704198	4012.131918	20209.781252
78.036500	0.031246	0.024241	0.032593	0.052437	6617.570974	38743.216672	4006.550164	20242.691083
78.534500	0.032811	0.025672	0.036923	0.053774	6619.446716	38750.969596	4013.307739	20189.878431
79.035000	0.031577	0.024792	0.032721	0.052673	6618.348712	38769.027734	4006.307260	20233.357155
79.535500	0.028869	0.025546	0.032221	0.057598	6556.320304	38428.036374	3994.182897	20039.604401
80.035000	0.031525	0.025755	0.037435	0.052233	6621.528393	38884.541967	4017.968143	20250.776455
80.535500	0.031005	0.025512	0.032962	0.051021	6627.212440	38964.482452	4010.574795	20298.834590
81.036000	0.030608	0.025493	0.038916	0.051064	6623.595692	38959.368060	4024.016838	20297.135965
81.536000	0.028293	0.025169	0.033141	0.055887	6565.474998	38536.767160	4000.045562	20106.684501
82.037000	0.033011	0.025809	0.037759	0.050255	6650.069680	39052.424173	4023.221407	20329.292489
82.537000	0.033629	0.026606	0.038059	0.049802	6658.932222	39156.108042	4024.945245	20347.315146
83.037000	0.031286	0.026234	0.038134	0.049371	6643.116626	39160.954805	4026.106280	20364.488988
83.537500	0.031327	0.026087	0.034893	0.048667	6649.273314	39207.301457	4020.301607	20392.575211
84.034500	0.033370	0.027165	0.038004	0.048040	6671.428163	39349.446540	4028.866869	20417.662122
84.535500	0.031939	0.026741	0.036440	0.047486	6664.131177	39360.271319	4026.545644	20439.813103
85.035500	0.032743	0.026479	0.034602	0.046090	6682.448026	39455.114993	4025.531357	20495.809487
85.538000	0.032613	0.026015	0.036612	0.045008	6690.397303	39506.841872	4032.646789	20539.300630
86.036500	0.035224	0.027118	0.039775	0.044635	6715.442645	39630.877566	4040.847584	20554.346031
86.539000	0.031305	0.026354	0.036207	0.041850	6705.904689	39801.344067	4039.026075	20666.958516
87.037000	0.031956	0.025880	0.040996	0.040691	6721.142700	39859.270173	4052.945284	20714.028952
87.537000	0.032557	0.025950	0.036421	0.039126	6739.451941	39998.017288	4045.876742	20777.790799
88.037000	0.033281	0.026603	0.035059	0.038248	6753.060214	40128.318768	4044.744489	20813.662098
88.534500	0.032215	0.026436	0.041219	0.037289	6752.150605	40195.944845	4061.522492	20852.921979
89.035500	0.032775	0.026359	0.037866	0.035699	6770.482030	40325.503479	4057.344366	20918.232195
89.535000	0.033691	0.025623	0.038854	0.033683	6795.627770	40435.378920	4064.476186	21001.348282
90.036000	0.032202	0.025852	0.039764	0.032988	6788.804364	40514.928985	4068.308246	21030.122236
90.536500	0.033107	0.025889	0.029445	0.031960	6805.443203	40606.829767	4046.321821	21072.704280
91.036500	0.032746	0.025611	0.040380	0.030868	6811.765460	40677.249835	4074.874680	21118.111652
91.536500	0.034138	0.024957	0.035946	0.029547	6835.285118	40734.994226	4067.406503	21173.137178
92.036500	0.034368	0.026017	0.032806	0.029236	6839.986727	40853.992303	4060.666882	21186.097208
92.537000	0.035444	0.026246	0.037663	0.028659	6854.414835	40924.208152	4073.651900	21210.220188
93.037500	0.033103	0.025106	0.037627	0.027442	6844.598908	40930.898013	4076.492206	21261.169165
93.535000	0.035192	0.025804	0.036948	0.027707	6860.529971	40968.608086	4074.220350	21250.060505
94.035000	0.035026	0.025301	0.039315	0.026139	6872.830304	41061.689798	4083.728978	21315.889553
94.536000	0.035941	0.025158	0.037100	0.026110	6881.127762	41051.656846	4078.434608	21317.108779
95.038000	0.035120	0.025911	0.041939	0.026109	6873.925986	41117.673653	4090.190304	21317.170537
95.536000	0.037483	0.025805	0.039649	0.025820	6897.295245	41133.652283	4085.315175	21329.316915
96.036500	0.037450	0.026344	0.040220	0.026609	6890.031115	41111.843991	4084.786316	21296.149291
96.536000	0.034662	0.025443	0.039268	0.025440	6875.779791	41135.337251	4085.315399	21345.343692
