sample name	sample
index	989
start time	 04-14-2021  04:05:36 PM
880	0.043741
Peak Time (s)	102.538
Peak Height 	0.04374
calc peak height	100,103
Baseline Time (s)	11.037
Baseline Value 	-0.003012
subtract baseline	10,4
Abs	0.049796
Peak Time (s)	102.538
Peak Height 	0.0498
calc peak height	100,103
Baseline Time (s)	10.537
Baseline Value 	0.003684
subtract baseline	10,3
PK_550	0.030087
Peak Time (s)	100.539
Peak Height 	0.03009
calc peak height	100,103
Baseline Time (s)	10.537
Baseline Value 	9.6722E-4
subtract baseline	10,2
PK_880	0.045587
Peak Time (s)	100.539
Peak Height 	0.04559
calc peak height	100,103
Baseline Time (s)	10.537
Baseline Value 	6.4356E-4
subtract baseline	10,1


Time (s)	A880-A510	A880-A775	A880-A975	A880	I510	I775	I975	I880	
0.036000	-0.002648	-0.001140	-0.011001	0.005761	6275.052315	41773.999853	3931.284832	22011.990720
0.536500	0.000919	-0.000600	-0.004251	0.003854	6316.647413	41992.876254	3950.633574	22095.668494
1.037000	-0.001955	-0.001429	-0.002094	0.002819	6302.610472	42011.354933	3957.864184	22141.230391
1.537500	-0.001790	-0.000582	0.004677	0.001485	6314.048578	42207.662490	3976.472182	22200.168057
2.037500	-0.003231	-0.000919	-0.002699	0.003466	6287.998812	41999.078301	3955.022138	22112.727039
2.535000	-0.001407	-0.000730	-0.003536	0.000476	6324.702325	42285.379893	3959.915600	22244.814897
3.035500	-0.002527	-0.001009	-0.001125	0.003430	6293.615564	41994.279859	3958.679445	22114.312832
3.535500	-0.000387	-0.001002	-0.000495	0.000655	6331.159565	42244.717480	3966.460706	22236.908626
4.038500	0.001536	-0.000823	-0.007517	0.000482	6347.293994	42276.482900	3950.872570	22244.547060
4.536000	0.000114	-0.001495	0.001794	-0.000094	6340.775883	42267.800068	3973.454867	22270.124497
5.036500	-0.001703	0.000188	-0.004163	0.004293	6293.327958	42024.286465	3949.842050	22076.382481
5.537000	0.000634	-0.000882	-0.003699	-0.000013	6344.159373	42315.932267	3960.660922	22266.534764
6.037000	0.000241	-0.000825	-0.002257	0.000296	6338.744652	42293.061333	3963.246826	22252.795375
6.537500	-0.000174	-0.000248	-0.005602	0.000624	6333.027550	42315.628292	3954.882621	22238.251635
7.035000	-0.001150	0.000083	0.005322	0.000702	6324.938596	42338.509224	3979.783509	22234.796485
7.535000	-0.001139	-0.001005	0.000597	0.000433	6327.088111	42264.416877	3969.480053	22246.731813
8.035500	-0.000805	-0.000918	0.000732	-0.000088	6333.651283	42319.373283	3970.989545	22269.822276
8.535500	0.000792	-0.000662	-0.002825	0.000327	6342.756915	42305.072772	3961.879571	22251.452969
9.036000	-0.001685	-0.000635	0.003520	-0.000312	6328.612856	42365.274163	3977.955459	22279.787507
9.536500	0.000839	0.000525	-0.001418	0.000724	6340.055705	42376.572712	3964.187937	22233.844370
10.036500	-0.000172	-0.000069	0.001944	0.000024	6337.659790	42386.147329	3973.527216	22264.865742
10.537000	0.000000	0.000000	0.000000	-0.000277	6341.304998	42419.724389	3969.739860	22278.248371
11.037000	0.000462	0.000089	-0.000415	0.000000	6342.724997	42402.650981	3968.147276	22265.937394
11.537500	-0.000610	0.000151	0.003681	-0.000116	6335.366349	42418.751194	3977.873642	22271.081752
12.035000	0.001934	0.000098	-0.005698	-0.000220	6355.792989	42423.422065	3956.581517	22275.692422
12.535500	0.001437	-0.000007	0.001392	-0.000377	6353.163570	42428.122838	3973.178982	22282.684239
13.036000	-0.002699	-0.000247	-0.005016	0.003219	6293.916264	42081.718183	3950.339133	22123.625130
13.539000	0.002115	-0.000218	0.001152	-0.000012	6355.582706	42375.901278	3971.782343	22266.471593
14.036000	-0.000971	-0.000206	-0.001553	0.001012	6323.935358	42284.333933	3963.217976	22221.067322
14.536500	-0.000525	-0.001070	-0.002325	0.000850	6328.598429	42220.921270	3961.824194	22228.237493
15.042500	-0.000283	-0.001084	-0.004515	0.003694	6308.692900	41963.859981	3950.398709	22102.708687
15.537000	0.002053	0.000304	-0.000501	0.000492	6351.208626	42377.543471	3966.820955	22244.134201
16.034500	0.003072	0.000263	0.000538	0.000347	6360.210994	42386.900557	3969.541437	22250.534307
16.535000	0.002528	0.000112	0.001498	0.000060	6358.223736	42399.273650	3972.415259	22263.270563
17.035000	-0.001111	-0.001843	-0.000418	-0.000684	6335.888547	42289.716594	3969.714091	22296.334650
17.535000	-0.000797	-0.000476	-0.001376	0.000577	6328.608360	42299.307325	3964.620554	22240.366755
18.036000	-0.000520	-0.000575	0.001428	0.000488	6331.420343	42298.327264	3971.267151	22244.301090
18.536000	-0.001036	-0.001032	-0.001157	-0.000322	6333.674159	42330.268503	3967.182428	22280.234896
19.036000	-0.002044	-0.001213	-0.005271	0.001786	6309.813730	42123.712057	3953.002051	22186.862882
19.537000	-0.000836	-0.000604	-0.000061	0.000159	6331.517035	42325.472992	3968.595368	22258.891457
20.037000	0.000875	-0.000675	-0.004372	0.000443	6342.503350	42293.416963	3958.088376	22246.308520
20.536500	0.000986	-0.000393	-0.001943	0.000036	6346.492638	42355.659866	3964.559393	22264.333102
21.034000	0.000870	-0.001030	-0.003200	0.001245	6336.283913	42188.922170	3958.930766	22210.787841
21.535000	-0.000223	0.000579	-0.001787	0.001174	6328.430934	42340.683892	3962.315114	22213.904674
22.035000	0.000871	-0.000298	-0.002098	0.000716	6340.359270	42302.783204	3962.649147	22234.176973
22.535500	0.000156	-0.000956	-0.004174	0.000296	6338.087421	42281.210259	3958.873960	22252.795015
23.038500	-0.002639	-0.000956	-0.001551	0.002121	6302.722975	42116.708095	3960.692096	22172.050909
23.536000	0.001135	-0.000126	-0.000610	0.000380	6344.985038	42348.714754	3966.826826	22249.085532
24.036500	0.000667	-0.001240	-0.004094	-0.000062	6344.785724	42287.928264	3959.871722	22268.690432
24.536500	-0.000234	-0.000537	0.002499	0.000264	6335.332059	42321.968346	3974.255100	22254.207633
25.037000	0.000767	-0.000318	-0.002917	0.000985	6337.486564	42276.621969	3960.167232	22222.262062
25.534500	-0.001673	-0.001031	-0.004620	0.000819	6320.033720	42227.205788	3956.670099	22229.611785
26.035000	0.000583	-0.000917	-0.002404	0.000788	6337.592150	42240.371807	3961.788579	22231.012130
26.535500	0.000044	-0.000171	-0.004234	0.001230	6330.049159	42267.824842	3956.612846	22211.441973
27.035500	-0.000756	-0.000921	0.001141	-0.001324	6343.544139	42431.105391	3974.787419	22324.776573
27.539000	0.000063	-0.000344	-0.001823	0.001297	6329.681511	42246.051340	3961.950715	22208.458516
28.036000	-0.000029	-0.001218	-0.000003	-0.000757	6344.780339	42352.766999	3970.835895	22299.549818
28.536000	0.000653	0.000306	0.001559	-0.000159	6345.427491	42436.681579	3973.060723	22272.977160
29.036500	-0.001238	-0.001213	-0.004222	-0.001239	6339.178310	42396.896796	3962.264471	22320.995861
29.537000	-0.001845	-0.000545	0.002771	0.002394	6306.693587	42129.084538	3969.969165	22159.993449
30.037000	0.000405	-0.000499	-0.003464	-0.000296	6344.573910	42376.209520	3961.842750	22279.089847
30.535000	-0.000341	-0.000149	-0.003344	0.001185	6327.442518	42273.852754	3958.739556	22213.419746
31.035000	0.000430	-0.001352	-0.001360	0.000996	6334.811146	42182.284091	3963.696570	22221.776232
31.535000	-0.001511	-0.000603	-0.002036	0.002300	6309.954050	42132.273746	3959.176975	22164.122199
32.035000	0.001814	-0.000231	-0.004883	-0.000425	6356.457631	42412.145966	3958.902140	22284.817559
32.535500	-0.001081	-0.001012	0.001631	-0.000737	6336.518455	42369.653399	3974.563141	22298.660935
33.036000	0.001113	-0.000302	0.000778	-0.000348	6350.435087	42398.759175	3971.695861	22281.381961
33.536000	-0.002043	-0.000655	-0.003244	0.001798	6309.730526	42172.864730	3957.572892	22186.330906
34.036500	0.001249	-0.000313	0.002064	0.000758	6342.952374	42297.606849	3972.110971	22232.343499
34.536500	-0.000877	-0.000506	-0.002079	0.000890	6325.595235	42268.290941	3962.296247	22226.487971
35.037000	-0.001461	-0.000945	-0.003211	0.001865	6313.657214	42140.655825	3957.493330	22183.340139
35.537500	-0.001076	-0.000814	0.001405	0.002463	6312.033949	42098.631408	3966.670541	22156.951426
36.035000	-0.000639	-0.000958	0.000591	0.000579	6329.803105	42255.508072	3969.129339	22240.258973
36.535000	-0.001882	-0.000656	-0.002769	0.000720	6319.191454	42269.960911	3961.108393	22233.991226
37.038500	-0.002320	-0.000755	-0.002037	0.000258	6319.378959	42302.895394	3963.837137	22254.488103
37.536000	0.000825	-0.000478	-0.002786	0.000546	6341.317646	42301.889057	3961.466940	22241.722908
38.036000	-0.000587	-0.000726	-0.005217	0.000493	6330.858964	42284.189022	3956.054242	22244.060925
38.536500	-0.000417	-0.000580	-0.001742	0.000300	6333.655186	42314.873800	3964.416794	22252.631769
39.037000	-0.003243	-0.001374	-0.000496	0.001995	6299.078410	42090.395833	3963.388151	22177.603552
39.537000	-0.000210	-0.000739	-0.002789	0.002371	6319.359987	42113.679893	3957.305425	22161.020465
40.034500	0.001607	-0.000369	0.003918	0.000809	6345.321707	42287.944908	3976.278269	22230.067179
40.535000	-0.001643	0.000426	0.004137	0.001074	6318.315443	42335.892756	3976.171578	22218.344934
41.038000	-0.001960	-0.000585	0.002835	0.001790	6310.419132	42179.860398	3971.508781	22186.664082
41.535500	-0.003446	-0.000947	-0.003632	0.001777	6299.198473	42148.430539	3956.738248	22187.230619
42.038000	0.002551	-0.000366	-0.001537	0.000627	6354.016508	42304.662814	3964.136847	22238.119580
42.536000	0.000396	-0.000892	-0.003642	0.000018	6342.075029	42312.117549	3960.719294	22265.124132
43.036500	-0.003157	-0.000366	0.000626	0.002203	6298.148938	42162.348395	3965.481190	22168.403787
43.537500	-0.002073	-0.000700	-0.000363	0.002847	6301.498387	42074.301790	3961.745303	22139.993774
44.037000	0.000929	-0.000008	0.002210	-0.000567	6350.706191	42445.256286	3975.509743	22291.114879
44.537000	0.000163	-0.000454	-0.002899	-0.000742	6346.137836	42420.634924	3964.151651	22298.872162
45.034500	-0.001251	-0.000396	-0.002250	0.002701	6308.876402	42114.860785	3957.779062	22146.437919
45.535000	-0.002585	-0.001189	-0.003428	0.004440	6285.514999	41887.608860	3951.167614	22069.895985
46.035000	-0.000799	-0.000723	0.001196	-0.000875	6339.751299	42408.334708	3973.876966	22304.804181
46.538500	-0.000890	-0.000484	0.001542	-0.000733	6337.964196	42417.132110	3974.348193	22298.502921
47.036000	-0.002693	-0.000803	0.004813	0.002719	6297.760785	42076.625910	3973.928125	22145.642467
47.536500	-0.002059	-0.000758	0.002711	0.003391	6297.470956	42020.335936	3967.540353	22116.063133
48.036500	0.001164	0.000351	0.000908	0.000100	6347.376012	42417.420319	3970.964069	22261.520055
48.537000	0.001653	0.000131	0.001421	-0.000344	6354.582383	42437.665302	3973.168533	22281.203913
49.074000	-0.002189	-0.000698	-0.004429	0.003795	6293.417980	41989.437820	3950.364368	22098.277479
49.534500	-0.001308	-0.001213	-0.001887	0.002911	6306.846358	42022.523898	3958.126470	22137.186769
50.034500	0.002455	-0.000274	0.001366	-0.002588	6378.224722	42604.865306	3978.238040	22381.121050
50.536500	0.006040	-0.001891	0.003353	0.003852	6356.053124	41877.442039	3967.952761	22095.737592
51.035500	0.002973	-0.014873	-0.005909	0.085772	5758.771196	34251.679272	3779.006197	18811.966091
51.535500	0.008032	-0.006801	-0.009225	0.271268	4819.319383	23780.191716	3493.847416	13313.181331
52.036000	0.003741	-0.016005	-0.012723	-0.031572	6622.411964	43831.286696	4013.411193	23719.203811
52.536000	-0.004406	-0.059834	-0.023479	-0.247058	8841.753511	63610.900728	4641.667103	37033.991657
53.036500	0.020095	-0.059155	0.007416	-0.251605	9246.168114	64344.272934	4783.790285	37392.250045
53.536000	0.014387	-0.016594	0.005499	-0.120073	7552.555472	52986.031010	4304.004620	28403.814478
54.037000	0.012079	-0.011230	-0.000743	-0.068579	7021.585171	47951.780025	4137.971167	25562.718914
54.537500	0.004119	-0.008981	-0.007416	-0.082293	7075.278768	49633.689263	4157.055591	26286.754873
55.035000	0.008540	-0.007773	-0.002474	-0.103941	7327.670679	52152.132850	4231.992518	27477.275612
55.538000	0.004417	-0.007317	-0.006043	-0.084882	7102.488596	50092.326896	4167.931785	26426.012146
56.038500	0.009037	-0.003114	-0.001095	-0.045329	6785.072198	46413.274801	4076.202946	24386.230575
56.536000	0.005367	-0.004023	-0.004347	-0.035804	6671.664434	45383.390913	4044.138771	23922.149899
57.036000	0.006832	-0.001551	-0.000333	-0.032807	6658.720704	45332.168566	4046.657059	23778.215447
57.536500	0.008770	-0.000956	0.003390	-0.024443	6604.913269	44582.066992	4035.213173	23381.723927
58.036500	0.009262	0.000102	-0.001046	-0.006660	6464.031047	43012.305221	3982.097814	22563.771826
58.536500	0.008207	-0.000501	0.004401	-0.012176	6499.844961	43467.232579	4007.966341	22813.929273
59.037500	0.008583	-0.000379	0.007625	0.023026	6229.797977	40329.162263	3934.299824	21270.718948
59.537500	0.004619	-0.000067	0.001965	0.038737	6086.541728	39029.860473	3888.008313	20621.371415
60.035500	0.010728	0.001143	0.001307	0.026727	6218.226913	40142.519797	3912.313399	21115.623831
60.540500	0.010898	0.001711	0.006155	0.027681	6212.418357	40109.560137	3920.799856	21075.892678
61.035500	0.010849	0.002684	0.008109	0.051979	6037.035398	38170.606474	3873.130934	20091.977514
61.539000	0.013713	0.002874	0.010650	0.056916	6022.555559	37788.599359	3868.162489	19898.714049
62.036000	0.010898	0.002978	0.005596	0.062210	5966.547769	37375.582122	3847.019523	19693.857216
62.536500	0.016289	0.005543	0.009742	0.053376	6065.480140	38289.093683	3873.621251	20037.068936
63.036500	0.018227	0.006724	0.018828	0.042852	6154.853212	39252.275999	3915.347033	20455.108957
63.540000	0.019113	0.007345	0.013842	0.039653	6184.707577	39572.329409	3911.466430	20584.214076
64.037500	0.022563	0.009573	0.017984	0.034118	6251.375735	40231.399006	3932.674259	20809.827961
64.540500	0.028835	0.009594	0.022004	0.008256	6501.417435	42516.030922	4001.226340	21903.003880
65.035000	0.028215	0.010884	0.021090	0.027896	6341.619828	40882.283510	3953.569451	21066.905247
65.538000	0.024244	0.011339	0.020640	0.049922	6147.203548	39048.130209	3903.974292	20173.163290
66.036000	0.031306	0.011944	0.030454	0.038478	6284.402074	40061.419642	3950.816143	20631.870547
66.538500	0.031414	0.013375	0.029369	0.036017	6303.918956	40394.829062	3953.926551	20732.096221
67.036500	0.030666	0.013786	0.024230	0.036595	6293.829306	40380.424308	3941.063407	20708.505035
67.539000	0.031274	0.014728	0.022366	0.041080	6264.517840	40076.957919	3926.973575	20526.494704
68.040500	0.030394	0.015534	0.032377	0.031076	6333.922140	41010.709298	3972.099919	20935.077076
68.537000	0.033445	0.017419	0.027153	0.030741	6360.050663	41205.337985	3960.883307	20948.906437
69.037500	0.031605	0.017087	0.024795	0.031602	6339.190168	41100.587208	3953.567128	20913.335640
69.545500	0.030464	0.017049	0.021690	0.035041	6304.113230	40797.084253	3938.862024	20772.017123
70.038500	0.033065	0.018158	0.028381	0.031118	6354.194329	41237.173279	3962.827740	20933.340493
70.544000	0.032810	0.017856	0.028885	0.030831	6354.440828	41235.836581	3964.634376	20945.182213
71.036000	0.035391	0.017986	0.032458	0.031278	6370.985742	41207.948868	3971.818319	20926.710814
71.538500	0.033770	0.017823	0.029078	0.034308	6335.030124	40928.389396	3957.146370	20802.059641
72.039500	0.034063	0.017846	0.032654	0.031335	6360.243307	41190.725771	3972.141026	20924.392770
72.537000	0.039014	0.018973	0.034592	0.031817	6395.044002	41247.405231	3975.506438	20904.499732
73.037000	0.033231	0.018389	0.028420	0.036887	6311.142324	40753.045789	3949.816282	20696.605924
73.534500	0.037624	0.018924	0.033220	0.032041	6382.431309	41223.356993	3971.815995	20895.233092
74.035000	0.039194	0.020388	0.032733	0.033009	6387.128570	41266.998847	3968.468021	20855.393646
74.538000	0.040150	0.018904	0.026140	0.031768	6404.331901	41245.658392	3956.240942	20906.508757
75.035500	0.035307	0.019763	0.031446	0.038151	6317.343727	40762.668509	3953.799203	20645.166153
75.538000	0.038280	0.020581	0.036967	0.032984	6380.186781	41286.202134	3978.304451	20856.401859
76.036500	0.039358	0.021211	0.037657	0.032961	6388.784445	41343.786655	3979.961121	20857.347291
76.536500	0.037110	0.020539	0.037799	0.032311	6376.326104	41341.901131	3981.805628	20884.129007
77.037000	0.037986	0.021080	0.034419	0.032647	6380.527947	41359.942697	3973.185592	20870.275855
77.537000	0.037114	0.020843	0.039367	0.032104	6377.963994	41386.914418	3985.946779	20892.645195
78.037000	0.041488	0.021239	0.033204	0.031770	6414.827689	41451.484828	3972.404431	20906.407895
78.540000	0.039737	0.022112	0.037896	0.031987	6399.375492	41509.552659	3982.786107	20897.469918
79.035000	0.037974	0.021251	0.038441	0.036656	6349.326509	41022.612356	3973.215716	20706.006299
79.540500	0.038891	0.021331	0.036450	0.035462	6365.672555	41134.318627	3971.375048	20754.773733
80.035500	0.043479	0.023223	0.038394	0.031992	6428.792198	41607.679017	3983.935556	20897.269850
80.535500	0.042641	0.023139	0.036863	0.032280	6419.893489	41574.605812	3979.698301	20885.381533
81.036000	0.039948	0.023024	0.038022	0.031865	6401.984901	41601.367564	3983.366056	20902.523823
81.536000	0.040408	0.023193	0.039006	0.035580	6376.551950	41287.674917	3977.013813	20749.971182
82.037000	0.043164	0.024758	0.039347	0.032711	6420.618706	41680.232938	3984.479822	20867.633814
82.542000	0.042533	0.024142	0.044962	0.032044	6420.910759	41684.843603	3999.260648	20895.130847
83.037000	0.042771	0.024375	0.039993	0.032499	6419.202413	41665.032914	3986.488789	20876.387427
83.535000	0.042137	0.025724	0.038441	0.038003	6371.142614	41297.106473	3970.109061	20651.153010
84.035500	0.044001	0.024972	0.042417	0.032687	6427.420273	41701.406655	3991.734169	20868.638300
84.535500	0.044194	0.026890	0.042448	0.033943	6419.026963	41760.374712	3988.855390	20817.004807
85.035000	0.044393	0.025872	0.041396	0.033394	6424.937993	41718.633232	3987.678811	20839.574422
85.538500	0.043270	0.026520	0.046179	0.035581	6398.891487	41581.680600	3993.775894	20749.899289
86.036000	0.044071	0.027048	0.044703	0.034144	6416.475758	41756.597878	3993.685970	20808.769302
86.542000	0.045320	0.027239	0.044144	0.034262	6425.394181	41763.032855	3992.090684	20803.915074
87.037000	0.043265	0.026849	0.044549	0.034114	6410.374110	41741.562760	3993.393473	20810.003780
87.537000	0.041836	0.025722	0.040707	0.036184	6382.970997	41457.578585	3979.559231	20725.279138
88.034500	0.042401	0.026688	0.042696	0.034054	6404.054473	41732.525287	3989.176134	20812.442452
88.534500	0.042901	0.026964	0.041941	0.034009	6408.340804	41761.205632	3987.513525	20814.319271
89.038000	0.043616	0.026282	0.046730	0.033972	6414.250796	41703.665882	3998.878606	20815.808471
89.535500	0.041392	0.026814	0.037816	0.037270	6371.058570	41458.125818	3970.359401	20681.017120
90.036000	0.040338	0.026810	0.040761	0.034417	6385.064631	41711.037083	3983.800997	20797.573442
90.536500	0.043840	0.026774	0.048101	0.034074	6415.209172	41738.398840	4001.889914	20811.645374
91.036000	0.042179	0.026878	0.039737	0.039258	6361.736381	41288.205194	3970.203203	20600.213602
91.542000	0.042111	0.027499	0.045443	0.034859	6395.469952	41733.057450	3993.744341	20779.448424
92.037000	0.041820	0.027475	0.045331	0.034665	6394.714348	41748.194669	3993.936757	20787.399604
92.537000	0.043300	0.027905	0.043046	0.035178	6402.295582	41740.853441	3987.363403	20766.420954
93.035000	0.043950	0.028054	0.045587	0.035588	6404.172263	41717.495296	3992.364830	20749.620050
93.538000	0.042911	0.026822	0.040447	0.035116	6399.725749	41649.897435	3981.439061	20768.937561
94.035500	0.042751	0.027311	0.043444	0.035463	6395.756373	41662.564360	3987.628547	20754.739837
94.535500	0.041862	0.028314	0.043914	0.036254	6382.620592	41681.360271	3986.874894	20722.405655
95.035500	0.039312	0.027193	0.033382	0.041395	6323.166809	41128.036856	3950.840036	20513.790755
95.536500	0.043937	0.028224	0.037139	0.037090	6392.305687	41599.119635	3969.215735	20688.338410
96.036500	0.042349	0.028022	0.036177	0.036619	6383.575707	41622.963617	3968.085892	20707.519986
96.536500	0.044490	0.028307	0.036995	0.037845	6390.724023	41539.450774	3967.150565	20657.613277
97.037000	0.041258	0.028306	0.039524	0.043336	6323.205644	41055.467994	3960.372333	20435.664356
97.537000	0.042863	0.029776	0.042111	0.040642	6356.316422	41421.862563	3972.488210	20544.214544
98.035000	0.043229	0.029430	0.045374	0.039303	6369.534715	41509.697148	3983.161987	20598.380700
98.537500	0.044580	0.029117	0.042294	0.039716	6376.824586	41445.423847	3975.049103	20581.653827
99.035500	0.041012	0.028509	0.034681	0.044941	6309.051012	40932.951922	3945.779412	20371.312479
99.538000	0.045241	0.028995	0.042776	0.040652	6374.684953	41351.993281	3973.998977	20543.773953
100.036500	0.044259	0.029116	0.038820	0.040867	6365.386282	41343.700192	3964.405295	20535.097739
100.539000	0.045587	0.030087	0.044327	0.042090	6366.202411	41321.525539	3974.260592	20485.794924
101.036500	0.044607	0.029773	0.043421	0.042379	6356.368844	41268.294804	3971.502016	20474.134108
101.536500	0.042072	0.028419	0.046194	0.043402	6328.946412	41059.648523	3975.543551	20433.012899
102.037500	0.045247	0.029715	0.041016	0.042929	6357.069061	41214.854173	3964.713112	20452.028067
102.537500	0.044870	0.029713	0.049796	0.043741	6347.872320	41143.359067	3983.126010	20419.403792
103.038000	0.040741	0.029435	0.044947	0.049360	6273.466600	40629.305283	3959.004097	20195.406923
103.538500	0.046476	0.030762	0.046112	0.046577	6338.385403	40986.841915	3968.030894	20305.965473
104.036000	0.045837	0.030010	0.042367	0.044948	6346.021726	41063.625566	3963.184013	20371.052135
104.538500	0.046600	0.030698	0.045060	0.046297	6341.496604	41005.672013	3966.259494	20317.130682
105.036000	0.045601	0.031025	0.044118	0.046527	6332.043680	41014.156155	3963.575833	20307.972001
105.536500	0.049218	0.031724	0.049558	0.047668	6351.121321	40975.558728	3973.456743	20262.537049
106.036500	0.047099	0.031303	0.048330	0.047486	6336.195423	40954.736978	3971.045662	20269.801759
106.537000	0.044535	0.031265	0.049085	0.047935	6313.089313	40912.185342	3971.750187	20251.918946
107.034500	0.048489	0.031176	0.049744	0.048081	6342.313721	40891.720229	3972.934271	20246.148310
107.537500	0.048775	0.031639	0.043390	0.048606	6340.472663	40886.280200	3957.176717	20225.300149
108.035000	0.047798	0.032390	0.047938	0.050204	6320.696436	40812.498805	3963.904461	20161.998805
108.538000	0.047426	0.031517	0.046624	0.049611	6322.388478	40788.229960	3962.257258	20185.471593
109.035500	0.047116	0.031991	0.042929	0.050227	6315.302762	40775.791424	3952.455910	20161.081258
109.572000	0.045827	0.032566	0.048109	0.051940	6292.433566	40677.068944	3960.328834	20093.500045
110.036000	0.048925	0.032437	0.044929	0.051043	6322.900695	40743.726295	3955.139123	20128.870409
110.536500	0.046536	0.032272	0.054277	0.051260	6302.999712	40710.557545	3976.064595	20120.310547
111.037000	0.047170	0.032697	0.052369	0.051712	6304.386261	40708.193142	3970.613803	20102.497971
111.538000	0.047466	0.032370	0.041263	0.052686	6299.220015	40595.459092	3943.170802	20064.146044
112.034500	0.048405	0.032951	0.050311	0.053060	6303.517611	40613.403392	3962.797839	20049.462727
112.539000	0.047789	0.032469	0.043119	0.052573	6302.541053	40613.863320	3947.593485	20068.612806
