sample name	sample
index	436
start time	 03-11-2021  10:25:37 AM
880	-0.013202
Peak Time (s)	91.038
Peak Height 	-0.0132
calc peak height	90,93
Baseline Time (s)	10.035
Baseline Value 	-0.001376
subtract baseline	10,4
Abs	-0.007489
Peak Time (s)	90.538
Peak Height 	-0.007489
calc peak height	90,93
Baseline Time (s)	10.035
Baseline Value 	0.005335
subtract baseline	10,3
PK_550	-0.004579
Peak Time (s)	90.538
Peak Height 	-0.004579
calc peak height	90,93
Baseline Time (s)	10.535
Baseline Value 	4.4792E-4
subtract baseline	10,2
PK_880	-0.008184
Peak Time (s)	90.037
Peak Height 	-0.008184
calc peak height	90,93
Baseline Time (s)	11.038
Baseline Value 	1.9844E-4
subtract baseline	10,1


Time (s)	A880-A510	A880-A775	A880-A975	A880	I510	I775	I975	I880	
0.037000	-0.003626	-0.000892	-0.006739	0.006392	7011.490431	45689.526102	3823.006382	24067.543589
0.535000	-0.002952	-0.000370	-0.004450	0.004976	7032.278741	45881.605668	3832.939364	24137.331276
1.035000	-0.003950	-0.000662	-0.001021	0.003465	7037.396962	46002.876833	3846.319421	24212.087173
1.539000	-0.003216	-0.000725	-0.009261	0.003691	7042.469234	45974.052895	3823.480243	24200.878680
2.036000	-0.000217	-0.000389	-0.008333	0.000602	7103.759480	46316.427389	3834.262070	24354.417637
2.536000	0.000751	-0.001174	0.000016	-0.001427	7134.259021	46441.534678	3862.579995	24455.903780
3.036500	0.000934	0.000025	-0.001744	-0.001616	7138.052207	46581.387099	3858.247926	24465.344612
3.537000	-0.003157	-0.000526	-0.000287	0.004035	7039.626370	45959.756504	3846.767065	24183.877831
4.037000	0.000401	-0.000476	0.000308	0.000283	7113.279945	46339.773284	3858.668665	24370.349929
4.534500	-0.001068	-0.000382	-0.002818	0.000353	7097.665886	46342.147319	3849.906633	24366.867168
5.037500	-0.000633	-0.000021	-0.001926	0.000539	7100.186162	46359.759756	3851.835436	24357.569214
5.535000	-0.000506	0.000141	0.000396	0.000724	7099.608923	46357.500603	3857.699909	24348.369863
6.035500	0.000787	-0.000111	0.001650	0.000285	7117.183954	46376.188133	3862.362258	24370.256139
6.535500	0.000628	-0.000094	-0.003258	0.000196	7116.474053	46386.934451	3849.133442	24374.712345
7.036000	-0.001081	-0.000677	-0.005861	-0.000267	7103.818523	46374.870204	3843.305703	24397.832916
7.536000	0.000793	-0.000258	-0.001615	-0.000068	7120.834695	46396.874934	3854.351332	24387.872917
8.036500	-0.001400	-0.000120	-0.005006	-0.000116	7099.054461	46415.586048	3845.217757	24390.280153
8.537000	0.000724	0.000054	-0.004243	0.000154	7117.876216	46406.017290	3846.562858	24376.805836
9.037000	0.001857	-0.000347	0.000829	-0.000045	7131.435180	46385.598449	3861.008963	24386.716228
9.537500	0.000797	0.000257	0.002631	0.000453	7115.578575	46396.391659	3864.612476	24361.892160
10.035000	-0.000702	-0.000257	0.000000	0.000000	7104.951903	46390.191737	3858.600895	24384.487041
10.535000	-0.000909	0.000000	0.002064	-0.000082	7103.679290	46424.267452	3864.522018	24388.572563
11.038000	0.000000	0.000331	-0.001206	0.000574	7106.256633	46391.669317	3853.713751	24355.857713
11.536000	-0.000905	-0.000365	-0.001563	-0.000115	7104.068727	46390.984113	3854.624428	24390.256026
12.036000	0.000807	-0.000138	0.001660	-0.000186	7122.172379	46420.878219	3863.692177	24393.782589
12.536500	-0.002191	-0.000066	-0.002411	0.002357	7066.119479	46173.005979	3845.548640	24267.051009
13.036500	0.001942	0.000529	-0.002040	-0.001105	7143.131988	46580.651211	3856.029484	24439.738175
13.537000	-0.000069	-0.000174	0.000871	-0.002036	7132.109852	46603.744474	3866.629035	24486.444974
14.037000	-0.000420	0.000178	-0.003206	-0.001527	7123.335306	46587.876275	3853.986933	24460.882783
14.535000	-0.002693	-0.000807	-0.004595	0.002423	7060.417249	46092.283170	3839.440729	24263.765635
15.035000	-0.001061	0.000207	0.003833	-0.000306	7104.415921	46467.665390	3870.046743	24399.795016
15.537500	0.004452	0.000054	0.003622	-0.001591	7173.895865	46581.901208	3873.034606	24464.128784
16.035500	0.000895	-0.000321	0.002795	-0.001866	7140.215309	46571.734332	3871.496952	24477.902972
16.536000	0.002232	0.000419	-0.002952	-0.001740	7152.603984	46633.767028	3855.268085	24471.567754
17.036500	-0.000187	-0.000763	-0.001562	-0.002353	7134.128731	46576.241505	3860.777937	24502.329951
17.536500	0.001616	0.000646	0.002854	-0.001412	7142.935689	46623.553002	3870.399264	24455.123367
18.037000	0.001413	-0.000253	-0.000548	-0.001211	7138.814431	46512.441059	3860.427448	24445.054058
18.537000	-0.000385	-0.000106	-0.002725	0.001476	7093.212258	46257.195237	3847.095090	24310.881615
19.037000	-0.001454	0.000215	-0.000600	0.001470	7082.474467	46289.983400	3852.917338	24311.178536
19.535000	-0.001688	0.000031	-0.003681	0.001116	7083.684529	46307.074551	3845.470283	24328.801966
20.035000	0.000905	0.000403	-0.001016	0.001301	7108.054260	46325.819906	3852.239873	24319.580419
20.535500	0.001054	0.001130	-0.002041	0.002688	7095.507972	46259.566854	3845.657362	24250.629390
21.035500	-0.000672	-0.000279	0.000369	0.001005	7095.082121	46287.124243	3856.853008	24334.352112
21.536000	0.000743	0.000034	-0.000650	0.001281	7106.615387	46290.746644	3853.298485	24320.584631
22.036500	-0.002492	-0.000623	-0.002431	0.000355	7083.247956	46317.775622	3850.957361	24366.751833
22.537000	-0.001561	-0.000410	-0.002851	0.001380	7082.307417	46236.335310	3847.011466	24315.646413
23.037000	-0.000437	-0.000517	0.001492	0.000994	7097.568502	46264.339313	3859.974175	24334.910438
23.537500	-0.002171	-0.000536	-0.003587	0.000422	7085.817937	46319.821237	3847.619370	24363.416616
24.034500	0.001041	0.000054	-0.003996	0.001404	7108.394684	46280.478748	3843.833890	24314.487196
24.535000	-0.000018	-0.000263	-0.004903	0.001833	7093.317498	46205.727564	3840.206949	24293.116567
25.038000	0.000686	0.001209	0.002079	0.001679	7102.003504	46368.824768	3859.704366	24300.797291
25.536000	-0.000676	0.000051	-0.004403	0.000725	7097.863470	46348.272021	3844.569434	24348.287475
26.035500	0.000423	0.000447	0.001145	0.001444	7101.711697	46315.805357	3857.777818	24312.457686
26.536500	0.000112	0.000155	0.000644	0.001631	7096.675592	46267.864284	3855.887488	24303.182745
27.036500	-0.000032	-0.000295	-0.001085	0.000957	7102.044463	46290.255295	3852.995558	24336.738559
27.536500	-0.002071	-0.000034	0.005430	0.001766	7073.276886	46235.368085	3868.727566	24296.444054
28.037000	0.002812	0.000161	0.002629	-0.001138	7152.387180	46546.881742	3869.013969	24441.403621
28.537500	-0.002739	-0.000329	-0.000708	0.003020	7053.974091	46080.563768	3848.387449	24234.172249
29.037000	0.000262	-0.000206	-0.004131	-0.001885	7133.932036	46585.166752	3852.435662	24478.828559
29.535000	-0.000594	-0.000369	-0.004601	0.002421	7081.560905	46136.329049	3839.433672	24263.909391
30.035500	0.000332	0.000550	-0.000149	-0.001533	7131.064962	46626.096282	3862.415070	24461.194147
30.535500	-0.001753	-0.000108	-0.002913	0.003348	7060.572886	46069.843012	3841.492611	24217.892430
31.035500	0.001135	0.000297	0.003795	-0.001273	7136.600092	46574.237365	3872.628826	24448.146856
31.566000	0.000358	0.000055	-0.000019	0.001094	7104.613406	46311.638927	3855.541801	24329.912906
32.037000	-0.000647	0.001050	-0.000732	0.003574	7069.416604	46162.962517	3846.809445	24206.694348
32.539500	-0.003047	0.000228	-0.003565	0.003706	7044.020314	46067.579776	3838.757481	24200.154068
33.053500	0.000920	-0.000189	-0.000373	-0.001831	7140.108932	46581.500698	3862.621084	24476.146086
33.537500	-0.002876	0.000274	-0.003586	0.004821	7034.584880	45961.081849	3835.685994	24144.993867
34.035000	0.000461	0.000119	0.000837	-0.001694	7134.025072	46598.822618	3865.588308	24469.291732
34.541000	0.003409	0.001161	0.000439	-0.000852	7155.569430	46618.972110	3862.157896	24427.070291
35.035000	-0.000289	-0.000166	0.000627	0.001068	7098.317386	46292.103923	3857.387203	24331.207783
35.535500	-0.000776	0.000255	-0.000039	0.001941	7084.573585	46246.782833	3853.166025	24287.763900
36.035000	-0.000303	0.000626	0.002986	0.002183	7086.898055	46259.753037	3860.812348	24275.710770
36.536500	-0.000956	0.000153	-0.001459	0.002686	7075.238402	46162.015068	3847.247467	24250.710578
37.036500	-0.002343	-0.000347	0.003109	0.001787	7070.326954	46201.940092	3862.245876	24295.413944
37.537000	-0.000162	0.000200	0.000055	0.002307	7087.069404	46204.650603	3852.418242	24269.548813
38.037500	-0.001938	-0.000643	-0.000285	0.001056	7081.773757	46245.522784	3854.917372	24331.802930
38.534500	-0.000304	0.001373	-0.003354	0.002457	7084.121597	46307.113296	3842.714720	24262.099525
39.035000	-0.002104	-0.000227	0.004437	0.001845	7072.149533	46208.152942	3865.756900	24292.519464
39.535500	-0.001017	-0.000045	-0.002637	0.001805	7083.505276	46230.326679	3846.437008	24294.499101
40.036000	-0.000174	0.000771	-0.001550	0.002177	7088.257924	46274.827157	3848.387517	24276.013442
40.536500	-0.001445	0.000237	0.001279	0.003364	7063.493568	46102.658476	3852.876852	24217.082512
41.036000	-0.001053	0.000161	-0.000120	0.001913	7082.052469	46240.106705	3853.018848	24289.117045
41.536500	-0.000038	-0.000369	-0.000702	0.001484	7096.650888	46230.108562	3852.601035	24310.505783
42.037000	0.001696	0.001011	-0.002256	0.002828	7100.600056	46233.702051	3844.691532	24243.689372
42.537000	-0.001485	0.000171	-0.002089	0.002716	7069.617894	46160.838771	3845.449919	24249.244481
43.034500	-0.001714	-0.000282	0.001164	0.001372	7080.852091	46250.069729	3858.029810	24316.079963
43.535000	-0.001925	0.000132	0.000005	0.002557	7066.790742	46172.829134	3851.598471	24257.130596
44.038000	-0.000782	-0.000008	0.000211	0.001533	7088.626956	46261.334879	3854.967257	24308.040499
44.535500	-0.000974	0.000458	0.000472	0.002648	7075.439247	46196.318732	3852.627699	24252.611975
45.035500	0.000709	0.000233	0.002913	-0.001857	7138.223456	46626.773448	3871.801463	24477.469123
45.536000	0.000477	0.000174	0.002213	0.001596	7100.722293	46273.209629	3860.300772	24304.898997
46.036500	0.001928	0.000562	0.005063	-0.000778	7139.655758	46551.104368	3874.784299	24423.405145
46.537000	-0.001004	0.000572	0.002270	0.003388	7067.691606	46133.725619	3855.527221	24215.894990
47.034000	0.000603	0.001222	0.005506	0.000068	7117.514200	46532.275754	3873.659414	24381.072591
47.537000	0.000713	-0.000082	-0.000747	0.000928	7109.893391	46314.532655	3853.999551	24338.165466
48.034500	0.001433	0.000045	0.002231	-0.001200	7138.906923	46541.497652	3868.081654	24444.527795
48.540500	-0.000693	0.000047	0.000754	0.002971	7075.011320	46122.922611	3852.514261	24236.576354
49.035000	-0.001287	0.000164	0.000162	0.003067	7068.080303	46125.047803	3850.632933	24231.845513
49.535500	0.000216	0.000753	-0.000763	0.002898	7084.913416	46200.811916	3848.567763	24240.196347
50.036000	0.002590	0.001758	0.009385	0.000117	7137.269379	46581.482223	3884.382336	24378.666379
50.536500	-0.002295	-0.000525	-0.000243	0.002912	7059.495980	46071.714968	3849.948703	24239.493814
51.037000	-0.000275	-0.000171	-0.001713	-0.000738	7116.786068	46473.119170	3855.921451	24421.406024
51.537000	-0.000733	0.000089	0.004199	-0.000048	7105.121078	46429.821539	3870.347347	24386.882905
52.034500	0.000665	0.000499	0.001751	-0.000153	7120.398122	46481.711145	3863.853797	24392.142353
52.537500	-0.007825	-0.002507	-0.000193	0.003318	7000.327530	45834.031064	3848.974989	24219.357060
53.035000	-0.044009	-0.009867	-0.009098	0.287582	4756.530628	24755.560924	3267.010590	13878.533317
53.537500	-0.025318	-0.006240	-0.018629	0.044583	6456.248672	41591.880618	3696.703721	22267.926654
54.035500	-0.029664	-0.090784	-0.027072	-0.248153	9996.317865	65492.656739	4651.890016	41104.924251
54.536000	-0.038871	-0.185421	-0.018766	-0.343083	11588.309575	65535.000000	5185.488870	50490.143691
55.036000	-0.042430	-0.150244	-0.011699	-0.307906	10829.906783	65535.000000	5027.410071	46771.065530
55.536500	-0.045120	-0.150194	-0.009085	-0.307856	10778.781585	65535.000000	5041.408550	46765.994630
56.036000	-0.039841	-0.130695	-0.010466	-0.288356	10518.558780	65535.000000	4929.780851	44830.811010
56.537000	-0.027703	-0.129995	-0.016530	-0.287656	10727.201681	65535.000000	4894.758473	44762.956065
57.037500	-0.016245	-0.123793	-0.009461	-0.281454	10824.924929	65535.000000	4899.219610	44166.400364
57.537500	-0.011945	-0.096233	-0.008784	-0.253895	10401.258471	65535.000000	4765.015330	41616.164195
58.037500	-0.007548	-0.076601	-0.008806	-0.233954	10130.534394	65490.390317	4670.597804	39869.272011
58.535000	-0.010478	-0.038628	-0.009644	-0.179015	9203.645174	63085.974100	4428.679461	35451.392680
59.036000	-0.007881	-0.028768	-0.006038	-0.161452	8983.378243	62025.015965	4372.851298	34152.972127
59.536000	-0.009748	-0.021431	-0.006353	-0.137053	8614.659369	59740.751618	4278.286818	32434.097434
60.036000	-0.012806	-0.017768	-0.009417	-0.120336	8351.418301	58052.784365	4206.383284	31310.966020
60.536500	-0.019767	-0.015949	-0.012740	-0.092437	7915.576810	54828.495802	4099.349045	29530.186716
61.037000	-0.013163	-0.010786	-0.007720	-0.072645	7759.593833	53102.916493	4051.325726	28334.466872
61.537000	-0.015974	-0.011411	-0.010941	-0.060245	7585.469110	51614.617520	4002.289618	27612.588896
62.037500	-0.016299	-0.011363	-0.010851	-0.047289	7438.366264	50183.231047	3963.207458	26880.119082
62.537500	-0.020527	-0.008909	-0.015199	-0.028567	7194.499683	48438.731149	3895.961247	25859.460455
63.038000	-0.016639	-0.008954	-0.013033	-0.023186	7179.083999	47871.252847	3886.872463	25574.150517
63.535500	-0.012615	-0.006611	-0.007432	-0.019450	7182.054979	47726.719283	3892.137070	25378.151343
64.040500	-0.011401	-0.007115	-0.009786	-0.022673	7228.076827	48009.269604	3894.597366	25547.153481
64.536500	-0.013469	-0.006318	-0.009400	-0.018774	7166.290570	47687.070732	3884.680393	25342.871968
65.036000	-0.010549	-0.004901	-0.012018	-0.020620	7215.566657	48026.043449	3882.510115	25439.359555
65.536500	-0.011045	-0.005245	-0.008256	-0.019925	7203.202488	47917.834975	3891.149000	25402.971348
66.038000	-0.009851	-0.004379	-0.006776	-0.019590	7212.117354	47973.109218	3894.390078	25385.447184
66.537000	-0.012293	-0.004359	-0.011282	-0.013593	7125.302454	47354.717801	3864.977546	25074.226274
67.037500	-0.009765	-0.004410	-0.015052	-0.018580	7202.528359	47864.775792	3868.349655	25332.745774
67.538000	-0.010398	-0.004641	-0.008167	-0.017666	7186.517600	47745.935736	3885.030813	25285.131210
68.035500	-0.009323	-0.004157	-0.006868	-0.017279	7193.642644	47756.031310	3887.601466	25265.043398
68.535500	-0.011996	-0.004046	-0.017662	-0.011940	7111.516607	47217.355303	3842.957847	24989.222721
69.035500	-0.008751	-0.004549	-0.008344	-0.016928	7195.921708	47679.160299	3882.461796	25246.802594
69.536500	-0.009664	-0.004379	-0.010351	-0.016396	7180.989436	47641.603303	3875.353352	25219.180578
70.036500	-0.007045	-0.003813	-0.006203	-0.015252	7196.235649	47581.941986	3883.765429	25159.904382
70.536500	-0.008723	-0.003801	-0.006688	-0.013350	7159.325954	47387.148740	3877.074954	25061.691377
71.037500	-0.008087	-0.003527	-0.006379	-0.011503	7146.909462	47225.734910	3872.785179	24966.770000
71.537000	-0.009836	-0.003480	-0.007561	-0.011128	7125.222956	47192.145307	3868.458962	24947.559668
72.038000	-0.006249	-0.003956	-0.009444	-0.011854	7169.382650	47217.717854	3865.251486	24984.796385
72.535000	-0.009751	-0.004124	-0.012712	-0.006666	7080.849769	46672.476040	3842.078636	24720.047518
73.035500	-0.008938	-0.004255	-0.006000	-0.012470	7148.094722	47250.171096	3876.540448	25016.411997
73.535500	-0.006172	-0.002929	-0.007371	-0.010988	7161.271857	47234.180308	3868.596156	24940.381256
74.036000	-0.005596	-0.003895	-0.010504	-0.011800	7175.549219	47218.453174	3862.172700	24982.013385
74.536500	-0.012524	-0.004514	-0.014178	-0.007192	7058.253555	46686.248655	3839.528795	24746.735528
75.037000	-0.007495	-0.003424	-0.006342	-0.011492	7152.867331	47235.070463	3872.857907	24966.192182
75.537000	-0.007922	-0.003946	-0.009289	-0.011660	7150.210935	47198.914746	3865.145777	24974.836630
76.034000	-0.006557	-0.003620	-0.009507	-0.011878	7166.451098	47254.571244	3865.142317	24985.990285
76.537500	-0.011328	-0.003944	-0.011760	-0.006428	7062.585193	46666.556857	3844.014807	24707.954649
77.037500	-0.007656	-0.003861	-0.004254	-0.011239	7148.619143	47164.469559	3877.980139	24953.231281
77.535000	-0.008139	-0.003318	-0.007320	-0.010969	7140.914043	47192.382339	3868.684962	24939.380383
78.035500	-0.006627	-0.003809	-0.009420	-0.012055	7167.565407	47253.429701	3865.875227	24995.125381
78.535500	-0.007514	-0.003926	-0.008974	-0.007596	7112.915508	46786.722662	3854.813986	24767.268476
79.036500	-0.006872	-0.003587	-0.006425	-0.012629	7170.943413	47335.023018	3875.798363	25024.610834
79.539500	-0.007710	-0.003167	-0.006154	-0.012050	7156.379284	47318.757679	3874.938552	24994.839070
80.036500	-0.007501	-0.004104	-0.010350	-0.013224	7170.595281	47343.075524	3866.538801	25055.246294
80.537000	-0.012539	-0.003910	-0.010405	-0.007789	7064.095116	46807.956860	3851.423183	24777.079932
81.037500	-0.007430	-0.003792	-0.005125	-0.013416	7173.300246	47394.912285	3881.638272	25065.126670
81.537500	-0.010525	-0.004353	-0.010357	-0.013701	7144.463694	47366.487246	3867.840024	25079.814019
82.035000	-0.008832	-0.004463	-0.012221	-0.014172	7166.652338	47403.577814	3863.981661	25104.087972
82.535500	-0.012352	-0.004996	-0.013578	-0.008417	7072.287828	46761.465315	3844.479424	24809.015995
83.035500	-0.009719	-0.003643	-0.010810	-0.013244	7148.033356	47392.526403	3865.319997	25056.272951
83.535500	-0.007539	-0.003794	-0.009305	-0.013514	7173.187446	47404.732320	3870.240364	25070.139247
84.036000	-0.007732	-0.004341	-0.009109	-0.013954	7175.736478	47393.765744	3872.008080	25092.848196
84.537000	-0.011908	-0.005203	-0.009935	-0.009737	7090.080948	46874.451832	3858.055958	24876.368208
85.039500	-0.009323	-0.004162	-0.007628	-0.012939	7148.958776	47307.877218	3873.305999	25040.547883
85.537500	-0.007651	-0.004130	-0.008425	-0.013269	7169.514768	47344.945337	3872.004844	25057.521146
86.037500	-0.008529	-0.005336	-0.008908	-0.015103	7179.361230	47409.580768	3875.772146	25152.203472
86.537500	-0.012089	-0.004405	-0.014159	-0.008520	7075.974587	46831.862622	3843.181058	24814.263109
87.035000	-0.010185	-0.004723	-0.009971	-0.014283	7153.899375	47388.305078	3870.525785	25109.815264
87.536000	-0.009643	-0.004621	-0.009150	-0.014601	7162.724021	47431.443681	3873.696682	25126.248492
88.036000	-0.008081	-0.004557	-0.009335	-0.014639	7179.205495	47442.044832	3873.289542	25128.230808
88.536000	-0.014263	-0.005849	-0.013063	-0.009588	7064.845433	46793.715931	3849.075965	24868.759943
89.036500	-0.009744	-0.005850	-0.011339	-0.014987	7165.662045	47344.823296	3868.684669	25146.210146
89.536500	-0.010551	-0.005654	-0.010184	-0.014814	7155.595962	47347.229502	3871.411985	25137.268259
90.037000	-0.008184	-0.005050	-0.011147	-0.014084	7172.419046	47334.198543	3866.711455	25099.561231
90.537500	-0.010119	-0.004579	-0.007489	-0.014077	7152.467913	47381.903500	3876.869387	25099.188561
91.037500	-0.010772	-0.005512	-0.008065	-0.013202	7136.823814	47196.387305	3872.821844	25054.074657
91.535000	-0.010669	-0.005532	-0.007897	-0.013972	7145.751328	47273.213639	3875.437356	25093.768630
92.035500	-0.011830	-0.006265	-0.010912	-0.015059	7144.996614	47309.566011	3870.067107	25149.898183
92.535500	-0.011905	-0.006704	-0.010279	-0.015316	7146.859560	47290.895400	3872.543101	25163.199325
93.038500	-0.012224	-0.006182	-0.006952	-0.011994	7109.742152	47004.622335	3872.558800	24991.976691
93.536000	-0.011910	-0.006618	-0.009626	-0.014746	7140.972444	47241.213860	3872.772406	25133.713720
94.039500	-0.010863	-0.006611	-0.007670	-0.014727	7151.493875	47240.015024	3878.181196	25132.734629
94.536500	-0.011795	-0.005736	-0.010517	-0.014376	7138.371583	47293.780101	3869.266495	25114.605785
95.037000	-0.012600	-0.005644	-0.011449	-0.011402	7099.923803	46999.055138	3858.472118	24961.591288
95.618000	-0.012329	-0.006372	-0.007915	-0.014310	7132.251654	47221.845722	3876.331731	25111.225988
96.037500	-0.010919	-0.006212	-0.008032	-0.013920	7142.664535	47198.247377	3874.915262	25091.070582
96.535500	-0.014910	-0.006423	-0.013515	-0.008005	7042.498928	46575.454860	3843.533578	24788.069803
97.035500	-0.013335	-0.006824	-0.011912	-0.011085	7089.292586	46846.816130	3856.327833	24945.365407
97.536000	-0.013169	-0.006673	-0.012060	-0.014065	7121.187323	47165.866407	3864.131403	25098.564329
98.036000	-0.012631	-0.006755	-0.008321	-0.014131	7127.343172	47164.245528	3874.696922	25101.970300
98.538000	-0.015791	-0.007379	-0.010595	-0.008311	7036.751737	46509.852423	3852.333034	24803.646364
99.039500	-0.013446	-0.006216	-0.011067	-0.009695	7074.140892	46767.390431	3854.831647	24874.233596
