sample name	sample
index	1219
start time	 04-29-2021  10:11:10 AM
880	-0.063449
Peak Time (s)	92.037
Peak Height 	-0.06345
calc peak height	90,93
Baseline Time (s)	10.537
Baseline Value 	-0.001834
subtract baseline	10,4
Abs	-0.012848
Peak Time (s)	91.037
Peak Height 	-0.01285
calc peak height	90,93
Baseline Time (s)	11.534
Baseline Value 	0.001337
subtract baseline	10,3
PK_550	-0.008662
Peak Time (s)	90.536
Peak Height 	-0.008662
calc peak height	90,93
Baseline Time (s)	10.537
Baseline Value 	5.4879E-4
subtract baseline	10,2
PK_880	-0.009686
Peak Time (s)	91.037
Peak Height 	-0.009686
calc peak height	90,93
Baseline Time (s)	10.037
Baseline Value 	-5.7036E-4
subtract baseline	10,1


Time (s)	A880-A510	A880-A775	A880-A975	A880	I510	I775	I975	I880	
0.036500	-0.001267	-0.000252	-0.003798	0.005417	6129.400794	43963.490051	3803.705804	22579.371698
0.537000	-0.000854	-0.000694	-0.004070	0.005998	6128.106588	43866.678601	3801.645144	22552.906730
1.037000	-0.000804	-0.000229	-0.000981	0.004132	6142.891821	44087.748548	3813.671992	22638.082015
1.537000	0.000446	0.000216	0.001256	0.000479	6181.030946	44479.119378	3828.148841	22805.898349
2.037500	-0.000752	-0.000406	0.000225	0.003602	6147.400144	44121.314787	3817.919007	22662.350163
2.535000	-0.001280	-0.000067	-0.000026	0.000320	6168.791583	44467.171294	3825.372088	22813.221448
3.035000	0.001812	-0.000010	0.001404	-0.000775	6201.589457	44577.938007	3831.624697	22863.855473
3.536000	-0.000993	-0.000218	-0.003846	0.000422	6170.235100	44442.933339	3815.737162	22808.521227
4.036000	-0.000469	-0.000093	0.002685	0.004013	6146.411185	44111.972587	3822.952968	22643.525828
4.539000	0.001074	0.000587	-0.006393	0.001312	6179.427790	44434.769376	3807.362732	22767.509541
5.036500	0.002262	0.000653	0.003808	0.001536	6186.975475	44419.679894	3831.854449	22757.189115
5.536500	0.000040	-0.000081	0.002203	0.001086	6173.116750	44392.494781	3828.989716	22777.912836
6.037000	0.001808	0.000580	0.002381	0.001005	6187.570303	44463.516446	3829.630447	22781.633210
6.534500	-0.001933	-0.000501	-0.000183	0.000384	6163.212924	44419.492265	3824.829183	22810.298121
7.035000	-0.000699	0.000311	0.002517	0.000647	6170.779137	44472.106425	3830.856687	22798.151621
7.535000	0.001238	-0.000410	-0.003239	-0.000317	6193.481580	44495.465888	3819.034357	22842.676098
8.035500	0.002637	0.000966	-0.000361	0.000518	6197.900869	44547.393232	3824.058247	22804.082471
8.536000	0.001612	0.000357	-0.002005	-0.000045	6194.275425	44543.003613	3821.397497	22830.086874
9.036500	-0.000250	-0.000044	0.004047	-0.000105	6180.160764	44510.275967	3836.534236	22832.879376
9.536500	-0.000538	-0.000233	-0.004731	0.000253	6175.110973	44457.813768	3813.987779	22816.351755
10.037000	0.000000	0.000205	-0.001006	0.000150	6180.112640	44509.602555	3823.375222	22821.070054
10.537000	-0.001902	0.000000	0.002716	0.000000	6166.441272	44504.377567	3832.958231	22828.013716
11.037000	0.000968	-0.000756	0.001329	-0.000848	6195.528226	44513.243744	3831.618311	22867.220293
11.534500	0.001862	0.000545	0.000000	0.000325	6193.335232	44525.533249	3825.425881	22813.016928
12.035000	0.001824	0.000578	-0.000107	-0.000152	6196.782953	44574.539875	3826.338589	22835.019524
12.535000	0.001276	0.000099	0.003307	-0.000442	6194.748116	44556.278123	3835.527902	22848.416412
13.036000	0.002192	0.000234	-0.004048	-0.001581	6210.931706	44679.044630	3820.149930	22901.161288
13.536000	0.002804	-0.000085	0.002381	-0.001666	6216.432448	44656.420926	3836.269764	22905.097518
14.039000	-0.000270	0.000241	0.003249	0.001728	6165.694908	44361.835545	3829.992591	22748.371735
14.540000	0.000825	0.000772	0.000406	0.001545	6175.662075	44430.204469	3823.417585	22756.777583
15.036500	0.000650	0.001189	0.002427	-0.001112	6195.096247	44725.877632	3835.004087	22879.416094
15.537000	-0.000244	-0.000329	0.001938	-0.002106	6195.888265	44675.370336	3836.262930	22925.512884
16.037000	0.001137	0.000945	0.002345	0.000962	6182.655446	44502.708402	3829.648780	22783.628396
16.537000	0.003702	0.001590	0.002125	-0.000698	6215.889943	44724.702489	3833.225543	22860.298085
17.035000	0.004510	0.001453	0.003900	-0.002295	6234.942386	44865.903583	3841.642044	22934.315316
17.535000	-0.001255	-0.000206	-0.004267	-0.000072	6172.045624	44491.511660	3815.915910	22831.336872
18.039000	-0.000981	0.000554	0.001594	0.001214	6164.160628	44441.040381	3827.167002	22772.011107
18.539000	0.001504	-0.000103	0.000391	0.000291	6190.786546	44466.491198	3826.474354	22814.563433
19.036500	0.001710	0.000609	-0.002964	0.000998	6186.867468	44467.010819	3816.487287	22781.980760
19.539500	-0.000281	0.000449	-0.002609	0.000756	6173.187651	44474.840154	3817.948460	22793.115405
20.037000	0.003424	0.000420	0.000327	0.001179	6198.892200	44431.544060	3824.125639	22773.628933
20.537500	-0.000342	0.000439	0.000106	0.000460	6175.025645	44502.399519	3825.354805	22806.793487
21.035000	-0.000694	-0.000811	0.001650	-0.000305	6178.246385	44455.787765	3831.066833	22842.102397
21.534500	-0.001401	0.000799	0.000793	0.001101	6161.770247	44475.372921	3825.468398	22777.232261
22.035000	-0.000247	0.000222	-0.002349	0.000682	6174.033672	44460.281645	3818.767405	22796.562161
22.535500	0.002823	0.000714	0.002519	0.000805	6197.107468	44495.600013	3830.469154	22790.854032
23.036000	0.000166	0.000373	-0.003525	0.000980	6174.923320	44446.085376	3815.156766	22782.782529
23.536000	0.000403	0.000707	0.000068	0.000598	6179.768165	44514.845946	3824.921138	22800.420845
24.036000	0.000817	0.001217	0.002508	0.001745	6174.039946	44453.753155	3828.113897	22747.582027
24.536500	0.000737	0.000496	-0.000978	0.000889	6180.100634	44466.680458	3821.625528	22786.993125
25.037000	0.001210	0.001097	0.004616	0.000952	6183.309713	44518.243255	3835.315432	22784.083607
25.537000	-0.000983	0.000194	0.001957	0.000424	6170.307039	44482.352659	3830.023696	22808.459804
26.034500	0.002282	0.001243	0.002329	0.001572	6186.846321	44472.813399	3828.099919	22755.549696
26.535500	0.001569	0.001471	0.004201	0.001367	6182.867755	44514.322499	3833.250107	22764.965950
27.036000	0.001874	-0.000311	0.000230	-0.002122	6212.693364	44678.616526	3832.053475	22926.242339
27.535500	0.003597	0.000339	0.003759	-0.002085	6226.037649	44737.847341	3840.763074	22924.567476
28.039000	0.000835	0.000958	0.007307	-0.000852	6194.507843	44678.530319	3846.572549	22867.386640
28.536500	0.002093	0.000630	0.004395	-0.001256	6207.586111	44685.934334	3840.277491	22886.110296
29.036500	0.003393	0.000110	0.002592	-0.002088	6224.435431	44715.990196	3837.849730	22924.670866
29.536500	0.002986	0.000061	0.003605	-0.001665	6217.870975	44670.461902	3839.326533	22905.067081
30.037000	-0.002271	-0.000299	0.000343	0.003601	6135.658572	44131.543920	3818.208044	22662.363246
30.537000	-0.000503	0.000626	-0.000473	0.001801	6163.311148	44391.701983	3820.625511	22744.998284
31.035500	0.001146	0.000776	0.000556	0.000938	6182.921215	44488.874428	3825.285090	22784.760270
31.535000	0.002087	0.000471	0.004991	-0.001948	6212.999993	44737.378112	3843.507741	22918.196491
32.041500	-0.001805	0.000186	-0.002550	0.003790	6137.804232	44159.702923	3810.681185	22653.727490
32.535500	0.002151	0.000645	0.000938	-0.001651	6211.162888	44725.458281	3832.643718	22904.428827
33.036000	0.000506	-0.000145	0.000370	-0.002502	6204.905407	44731.386675	3833.347262	22943.928873
33.536500	-0.000193	0.000233	0.001174	0.001223	6170.232086	44409.463140	3826.108992	22771.623337
34.036500	0.001267	0.001160	-0.000760	0.002885	6168.653832	44339.021685	3817.260478	22695.187528
34.537000	-0.001042	0.000382	-0.000130	0.000672	6167.907172	44476.542424	3824.249905	22797.003265
35.037000	0.001675	0.000283	0.000424	0.000675	6189.119159	44466.813869	3825.609879	22796.875785
35.535000	0.000192	0.000829	0.002589	0.001526	6170.867825	44437.483825	3828.858238	22757.657445
36.035000	-0.002128	-0.000805	-0.002906	0.000496	6160.821555	44379.669762	3817.856504	22805.121846
36.535500	0.000637	0.000313	0.001826	0.001317	6175.975918	44408.091652	3827.484889	22767.276234
37.036000	0.000820	0.000934	0.002553	0.001967	6172.326807	44405.289422	3827.677304	22737.371819
37.538500	0.002704	0.000632	-0.000202	0.001060	6194.169691	44463.224958	3823.114725	22779.098914
38.036500	-0.000747	0.000139	0.001461	0.001162	6166.387220	44406.288892	3826.966479	22774.423003
38.536500	-0.000129	0.000266	0.006409	0.001528	6168.350712	44383.364252	3838.352664	22757.575265
39.037000	0.000366	0.000582	0.005199	0.001597	6171.671453	44406.969189	3835.160508	22754.374983
39.537000	0.001312	-0.000136	0.004124	0.000930	6184.280688	44402.136854	3834.147048	22785.108631
40.034500	0.002579	0.000825	0.001577	0.002556	6181.470385	44338.455886	3823.812710	22710.316279
40.535000	0.000645	0.000500	-0.000811	0.001834	6172.000316	44376.462646	3819.712803	22743.470606
41.034500	-0.002099	0.000186	0.000938	0.001278	6154.971298	44399.684377	3825.388613	22769.081525
41.535000	0.001354	0.000821	-0.001066	0.002357	6173.452282	44357.133052	3817.804364	22719.441959
42.036000	-0.000952	0.000484	0.002193	0.002446	6154.809139	44316.409371	3825.602219	22715.348951
42.536000	0.002199	0.000266	0.003833	0.001668	6185.445048	44370.021225	3831.589460	22751.141798
43.036500	0.002377	0.000761	0.000964	0.001755	6186.155640	44409.017751	3824.276276	22747.110754
43.537000	0.004060	0.000983	0.003352	-0.002442	6232.532735	44834.520655	3840.635951	22941.102979
44.037000	0.000861	-0.000202	0.002267	0.001080	6179.576509	44381.462066	3829.164402	22778.184132
44.537500	0.002235	0.000587	0.006534	-0.000648	6203.918917	44623.187667	3844.118038	22857.979766
45.037500	0.001085	0.000562	0.007235	-0.001272	6199.773548	44680.896773	3847.449264	22886.848534
45.535000	0.003192	0.001157	0.002483	-0.000703	6211.901297	44683.395595	3834.128181	22860.521371
46.035500	-0.000017	0.000852	0.001803	0.004513	6146.036965	44154.243997	3819.553369	22620.647462
46.538500	0.001879	0.000452	0.005805	-0.000361	6198.858009	44582.467868	3841.566389	22844.684818
47.038500	-0.000365	0.000433	0.005928	0.002553	6158.532708	44301.206069	3834.595140	22710.425084
47.536500	0.001351	0.000492	0.004045	0.002145	6175.078710	44345.943854	3830.931671	22729.173493
48.036500	0.000930	-0.000149	0.004084	0.003636	6160.183050	44142.451865	3827.335301	22660.781035
48.537000	0.001976	0.000990	0.001029	-0.000593	6201.449384	44656.657500	3830.243154	22855.433563
49.040000	0.002074	0.000385	-0.001568	-0.001636	6210.437325	44698.879343	3826.394947	22903.707102
49.537500	0.003600	0.000770	-0.001269	-0.002292	6227.695104	44799.393651	3828.757107	22934.133449
50.038000	-0.002901	-0.000504	0.003094	0.004801	6121.570987	43998.016245	3822.018690	22607.494589
50.538000	0.042194	-0.031102	0.095577	0.628640	3664.329276	11928.764028	3067.820680	7486.349247
51.035500	0.003863	-0.025749	-0.007687	0.026596	6008.028931	39768.858763	3744.799613	21636.486359
51.538500	0.005388	-0.075439	-0.025069	-0.242875	8801.295499	64122.421743	4524.846768	37858.756120
52.036000	-0.005722	-0.108321	-0.025690	-0.285647	9256.381434	65535.000000	4705.395233	41490.512326
52.536000	0.000083	-0.089623	-0.014839	-0.265077	9040.036348	65265.259976	4662.202046	39699.314627
53.036500	-0.005291	-0.054736	-0.013734	-0.216864	8313.816691	63377.590458	4465.987070	35818.869143
53.536500	-0.008311	-0.040264	-0.018941	-0.194814	8003.645943	62329.852212	4361.814105	34182.828440
54.037000	-0.017676	-0.044899	-0.024914	-0.206760	8034.763534	63340.394842	4384.084677	35058.901339
54.536500	-0.023251	-0.057854	-0.031301	-0.226786	8212.423531	64334.163737	4436.109561	36582.683698
55.034500	-0.013958	-0.070250	-0.025739	-0.243934	8553.183545	65011.092708	4526.439506	37944.461998
55.538000	-0.011063	-0.033086	-0.022924	-0.180735	7805.218981	61391.252440	4296.292558	33180.770174
56.035500	-0.007263	-0.028314	-0.016529	-0.169765	7722.990174	60560.911294	4280.124250	32422.184928
56.536000	-0.008864	-0.027020	-0.021358	-0.169100	7697.298026	60644.814704	4260.934047	32376.860730
57.035500	-0.008851	-0.015892	-0.018573	-0.129467	7268.884503	56969.873283	4138.305131	29794.513941
57.537000	-0.009464	-0.012119	-0.020395	-0.113200	7097.911792	55433.706534	4081.808214	28800.992621
58.036500	-0.009302	-0.008765	-0.018317	-0.088791	6863.654562	52942.788548	4015.230379	27378.283302
58.537000	-0.010858	-0.007204	-0.016094	-0.079138	6759.714841	52017.190730	3993.830066	26837.360999
59.037500	-0.009944	-0.006879	-0.015872	-0.070933	6693.517842	51132.180143	3971.236201	26386.877218
59.538000	-0.007971	-0.004014	-0.015759	-0.060598	6618.958067	50307.956979	3942.907087	25831.493234
60.035000	-0.009826	-0.005867	-0.018816	-0.055198	6555.428136	49521.098147	3919.969344	25546.513547
60.535500	-0.014335	-0.007356	-0.020475	-0.053400	6501.051021	49168.917864	3910.720368	25452.434304
61.038500	-0.012531	-0.003888	-0.017532	-0.020213	6241.920193	46101.876061	3832.871301	23783.654297
61.536500	-0.015823	0.001517	-0.019378	-0.027599	6274.667571	47396.190737	3846.728902	24144.085584
62.036500	-0.016967	0.001638	-0.021172	-0.054777	6490.322618	50289.540923	3912.534217	25524.459273
62.536500	-0.019795	0.000636	-0.022017	-0.053682	6456.996519	50060.694320	3907.365697	25467.133507
63.068500	-0.013748	0.002397	-0.018573	-0.058050	6546.155207	50732.477259	3928.314613	25696.617295
63.534000	-0.013986	0.003252	-0.019795	-0.059171	6553.799979	50950.983235	3928.038126	25755.838257
64.037500	-0.019863	0.001646	-0.025229	-0.060722	6516.441557	50944.972737	3917.583653	25838.089612
64.535000	-0.020698	0.001162	-0.027699	-0.064989	6546.052882	51366.228516	3922.413251	26065.880734
65.035500	-0.020877	0.002581	-0.025605	-0.065506	6548.975738	51583.147158	3929.459484	26093.596242
65.538000	-0.018544	0.002409	-0.023825	-0.066480	6577.761003	51673.287332	3936.941260	26145.973442
66.035500	-0.019968	0.002935	-0.026552	-0.065522	6557.013258	51624.769638	3926.942985	26094.479917
66.536000	-0.017076	0.002147	-0.028131	-0.065965	6586.092701	51585.875852	3923.875630	26118.256521
67.036500	-0.018963	0.001798	-0.021890	-0.063582	6548.889421	51279.976889	3934.319430	25990.491761
67.536500	-0.017618	0.001221	-0.024663	-0.062937	6554.963894	51143.749727	3925.062278	25956.037173
68.037000	-0.023024	0.000614	-0.028340	-0.058457	6470.092723	50580.816117	3903.261882	25718.090109
68.537000	-0.017435	0.001267	-0.025313	-0.063593	6562.262856	51222.033425	3925.080077	25991.107392
69.037500	-0.021388	0.000135	-0.023238	-0.065758	6546.732791	51337.327307	3936.573711	26107.144676
69.535000	-0.020205	-0.000189	-0.026778	-0.066285	6561.578006	51359.955424	3928.393573	26135.469498
70.035000	-0.022328	-0.000338	-0.025377	-0.061108	6498.613604	50768.156770	3918.223334	25858.613266
70.538500	-0.019602	-0.000136	-0.029558	-0.064327	6549.811482	51147.462876	3915.645382	26030.359421
71.036000	-0.018517	-0.000759	-0.030207	-0.064413	6559.989475	51087.757943	3914.140176	26035.003720
71.536500	-0.020870	0.000028	-0.026625	-0.063504	6531.728087	51074.236275	3921.305872	25986.357870
72.036000	-0.023521	-0.000898	-0.028219	-0.059417	6474.028502	50520.125410	3906.128560	25768.889160
72.536500	-0.017916	-0.000098	-0.023073	-0.062407	6547.785883	50938.411582	3927.925875	25927.743329
73.037000	-0.020853	-0.000570	-0.023706	-0.062424	6522.559558	50887.990694	3926.258532	25928.646051
73.537000	-0.020240	-0.000939	-0.026089	-0.062662	6529.901160	50873.554701	3920.483175	25941.391151
74.034500	-0.022441	-0.000821	-0.026520	-0.057778	6469.284994	50348.872593	3906.287770	25682.248978
74.535000	-0.017504	-0.000854	-0.023438	-0.062298	6550.416784	50842.593065	3926.645618	25921.959488
75.035500	-0.018501	-0.000665	-0.023857	-0.063059	6548.369002	50947.856541	3927.570341	25962.569510
75.535500	-0.017491	-0.001760	-0.025382	-0.064008	6565.382605	50931.618375	3926.011050	26013.286710
76.036000	-0.021495	-0.002205	-0.026434	-0.060303	6498.855853	50473.891790	3913.238880	25815.846674
76.536500	-0.017531	-0.001544	-0.022444	-0.064700	6571.063342	51032.370777	3935.853040	26050.350313
77.036500	-0.018378	-0.001928	-0.022595	-0.065534	6570.947825	51082.353271	3937.714898	26095.099878
77.537000	-0.017950	-0.001921	-0.022757	-0.065558	6574.895708	51085.871338	3937.339087	26096.421593
78.034500	-0.016640	-0.001397	-0.023486	-0.064957	6581.091627	51077.355610	3933.719875	26064.161985
78.537000	-0.016990	-0.001015	-0.022494	-0.065171	6579.902415	51143.557684	3937.000768	26075.628178
79.035000	-0.017297	-0.001587	-0.021147	-0.065693	6581.779837	51137.918710	3942.104599	26103.627104
79.535000	-0.013689	-0.001381	-0.021069	-0.065333	6610.290095	51120.846602	3941.334334	26084.315581
80.038500	-0.019753	-0.001432	-0.024138	-0.060926	6519.141926	50627.422470	3921.060937	25848.945712
80.536000	-0.017781	-0.003069	-0.017999	-0.066544	6584.994796	51067.813403	3953.100927	26149.433679
81.036000	-0.014524	-0.002337	-0.019767	-0.066100	6609.693142	51099.903635	3947.007820	26125.549841
81.536500	-0.013472	-0.001599	-0.015104	-0.064681	6606.461681	51024.172043	3955.953782	26049.332384
82.037000	-0.013858	-0.003231	-0.020397	-0.065067	6606.457284	50886.038501	3942.443676	26070.038057
82.537000	-0.015034	-0.003313	-0.014861	-0.065469	6599.651763	50921.360550	3958.811750	26091.601415
83.037500	-0.011746	-0.004769	-0.014479	-0.066094	6634.191681	50829.510598	3961.612172	26125.221300
83.537500	-0.011339	-0.004401	-0.015220	-0.065679	6634.118210	50824.317433	3958.400031	26102.903819
84.035500	-0.014659	-0.005502	-0.017404	-0.066050	6608.063355	50743.681490	3953.382148	26122.863938
84.538500	-0.011022	-0.005298	-0.012973	-0.066168	6641.271912	50779.076929	3966.014335	26129.170614
85.036000	-0.014240	-0.005862	-0.015463	-0.066497	6615.694095	50753.153714	3959.995988	26146.864219
85.536500	-0.010926	-0.005837	-0.016528	-0.066167	6642.121194	50719.533825	3956.126368	26129.145226
86.036500	-0.011508	-0.006649	-0.015052	-0.065973	6635.231333	50608.758597	3959.682612	26118.724632
86.537000	-0.011325	-0.007305	-0.015080	-0.066593	6642.351437	50604.630583	3961.326062	26152.037699
87.037000	-0.010453	-0.006501	-0.015171	-0.065482	6640.228208	50570.931574	3957.988605	26092.316038
87.537000	-0.009772	-0.006472	-0.014034	-0.064691	6639.259506	50487.189334	3958.948944	26049.888518
88.034500	-0.009301	-0.007807	-0.012827	-0.065920	6654.380814	50475.488133	3965.729430	26115.854280
88.535000	-0.010189	-0.007668	-0.013905	-0.066383	6650.587431	50541.620920	3964.015662	26140.750966
89.035500	-0.009492	-0.008509	-0.012658	-0.066252	6655.637469	50434.920129	3967.131113	26133.711163
89.535500	-0.009070	-0.008455	-0.013948	-0.066663	6663.066178	50485.962555	3964.674123	26155.813477
90.036000	-0.009971	-0.009204	-0.017040	-0.066970	6657.759314	50437.504919	3956.932006	26172.361071
90.536000	-0.011574	-0.008662	-0.014075	-0.067020	6643.939721	50502.507791	3965.317333	26175.086919
91.036500	-0.009686	-0.009076	-0.012848	-0.067014	6660.699364	50456.381874	3968.728499	26174.737230
91.537000	-0.009715	-0.010156	-0.013554	-0.068329	6672.199577	50482.145346	3970.433334	26245.706275
92.037000	-0.012125	-0.010354	-0.020656	-0.063449	6607.475740	49927.839728	3937.317002	25983.396073
92.537500	-0.009725	-0.009608	-0.017724	-0.067529	6664.951110	50454.479156	3956.588195	26202.508538
93.037000	-0.010038	-0.009541	-0.010815	-0.067629	6663.050466	50472.832755	3976.162110	26207.917968
93.536000	-0.011584	-0.010877	-0.016012	-0.067040	6644.024160	50262.017721	3959.981271	26176.150932
94.037500	-0.014035	-0.011046	-0.014510	-0.063442	6590.636055	49852.014422	3954.170591	25983.031552
94.535500	-0.011441	-0.011023	-0.015531	-0.068312	6656.618424	50385.118160	3964.860376	26244.785146
95.036000	-0.010688	-0.011208	-0.012306	-0.069230	6671.553660	50465.483178	3976.470014	26294.455752
95.536000	-0.010157	-0.011472	-0.016368	-0.066579	6652.618415	50146.632890	3957.712410	26151.294283
96.039000	-0.012269	-0.012262	-0.013057	-0.064497	6615.435936	49834.543306	3961.124334	26039.471774
