sample name	sample
index	1297
start time	 04-29-2021  03:33:19 PM
880	0.085855
Peak Time (s)	101.038
Peak Height 	0.08585
calc peak height	100,103
Baseline Time (s)	11.539
Baseline Value 	-0.005052
subtract baseline	10,4
Abs	0.036354
Peak Time (s)	101.038
Peak Height 	0.03635
calc peak height	100,103
Baseline Time (s)	11.539
Baseline Value 	0.001726
subtract baseline	10,3
PK_550	0.032838
Peak Time (s)	102.035
Peak Height 	0.03284
calc peak height	100,103
Baseline Time (s)	11.539
Baseline Value 	9.2138E-4
subtract baseline	10,2
PK_880	0.037598
Peak Time (s)	102.537
Peak Height 	0.0376
calc peak height	100,103
Baseline Time (s)	11.036
Baseline Value 	0.001614
subtract baseline	10,1


Time (s)	A880-A510	A880-A775	A880-A975	A880	I510	I775	I975	I880	
0.034500	0.000447	0.000048	-0.000438	0.003062	6331.618372	41146.298609	3875.831344	20954.349044
0.535000	-0.002135	-0.000677	-0.005091	0.004093	6304.001369	40992.608186	3864.056575	20911.790700
1.035500	-0.001236	-0.001370	-0.003472	0.002708	6321.430695	41053.063088	3870.260573	20968.995364
1.535500	-0.002016	-0.001719	-0.003898	0.003451	6309.800440	40957.643432	3867.841608	20938.291885
2.038500	0.000823	-0.000936	-0.005958	0.000323	6355.615612	41300.595463	3870.051253	21067.973385
2.536500	-0.002276	-0.000825	-0.001935	0.000399	6331.160652	41303.725179	3878.266473	21064.844728
3.036500	-0.000012	-0.000955	0.000893	-0.001465	6362.992294	41456.764730	3888.127777	21142.535469
3.536500	-0.000097	-0.000260	-0.003012	0.000798	6344.849906	41318.407029	3875.185811	21048.250927
4.037000	-0.002337	-0.001037	0.000588	-0.000139	6334.818706	41332.399537	3884.688276	21087.215987
4.537000	0.003651	-0.000707	-0.001991	0.000030	6379.843689	41346.667986	3878.920132	21080.195682
5.034500	0.001044	-0.000786	-0.006551	-0.000278	6361.974925	41366.843552	3870.067331	21093.001157
5.535000	0.000900	0.000419	-0.000607	0.000404	6355.591501	41413.086951	3881.037890	21064.637558
6.035500	-0.000098	-0.000184	0.006611	-0.000298	6353.301024	41421.822115	3897.796734	21093.846963
6.535500	0.000865	-0.000516	-0.006126	-0.000128	6359.435528	41377.432233	3870.637520	21086.773203
7.036000	-0.000048	-0.000293	-0.001787	-0.000295	6353.662644	41411.832432	3880.026908	21093.712052
7.536000	-0.000133	-0.000427	0.000089	0.000508	6346.805344	41329.144539	3882.278555	21060.282366
8.036500	-0.002133	-0.000738	-0.004022	0.004625	6299.969294	40940.800025	3865.162749	20889.862012
8.537000	-0.001098	-0.000330	-0.003706	0.000438	6339.913606	41343.907194	3874.488584	21063.201874
9.037500	-0.000240	-0.000829	-0.006521	-0.000213	6351.545690	41357.324527	3869.994826	21090.293150
9.534500	0.001858	0.000743	0.002697	0.001171	6357.062292	41373.886572	3886.370492	21032.720299
10.035000	0.003698	0.000864	0.000120	0.000685	6375.105863	41427.581116	3881.973062	21052.942212
10.535500	-0.000877	0.000015	-0.005406	-0.000492	6348.785586	41456.547987	3872.887583	21101.950835
11.035500	0.000000	-0.000991	0.001946	-0.000502	6355.633745	41368.538426	3888.318161	21102.349977
11.538500	0.000527	0.000000	0.000000	0.000000	6355.830045	41411.725589	3883.159109	21081.439516
12.036500	-0.003180	-0.000719	-0.000991	0.003738	6298.747620	41019.910012	3873.273533	20926.441534
12.536500	0.001316	-0.000376	-0.002025	0.000190	6360.466633	41361.765470	3878.515763	21073.543442
13.036500	0.002056	-0.000100	-0.000249	0.000087	6366.998677	41395.250776	3882.454738	21077.835073
13.539000	-0.000448	-0.000368	0.002418	-0.000182	6349.707152	41395.329511	3888.640627	21089.029550
14.037500	-0.001943	0.000759	-0.000909	0.002927	6314.346610	41220.614584	3875.129763	20959.934055
14.537500	-0.001130	0.000266	-0.002694	0.002303	6325.348242	41232.179993	3872.714929	20985.780443
15.035500	0.000190	-0.000288	-0.000232	0.000098	6352.462414	41377.565462	3882.464585	21077.338955
15.535000	0.001702	0.000259	0.003302	0.000298	6362.618223	41408.267599	3889.496013	21069.034298
16.035500	-0.004935	-0.001093	-0.005811	0.004206	6281.894842	40946.353050	3862.343478	20907.118279
16.536000	0.002047	0.000392	-0.007400	0.000838	6361.100543	41372.262451	3866.004468	21046.554380
17.036000	0.001733	0.000251	-0.001297	-0.002729	6386.393669	41675.948166	3886.175529	21195.456828
17.535500	0.000827	-0.000456	0.001116	0.000013	6358.051498	41370.329851	3885.479421	21080.894456
18.037000	-0.001604	-0.001032	-0.001301	0.002495	6320.249438	41101.332343	3875.215642	20977.837291
18.537500	-0.002434	-0.000397	0.003510	0.001050	6324.957915	41284.124861	3888.345807	21037.782933
19.038000	-0.000208	-0.000626	-0.001938	0.001179	6341.064922	41252.585633	3876.630838	21032.410409
19.535000	0.001027	-0.001112	-0.000214	0.000744	6353.939480	41247.999943	3881.145855	21050.462785
20.035500	-0.000648	-0.000295	-0.001829	0.003217	6322.040148	41102.675486	3872.613798	20947.969666
20.535500	0.000775	0.000481	-0.003067	0.002010	6342.229479	41276.872514	3872.549556	20997.935483
21.038500	-0.001210	-0.000640	-0.004013	0.000869	6335.737653	41278.702611	3872.955130	21045.303419
21.536000	0.000901	-0.000568	-0.005145	0.000791	6352.605106	41291.838546	3870.767570	21048.541630
22.036000	0.000988	0.000020	-0.005140	0.002663	6338.841443	41178.887405	3866.904852	20970.883372
22.536500	-0.000585	-0.000749	0.000150	0.000902	6340.289012	41266.098529	3881.579143	21043.919588
23.037000	-0.001712	-0.001106	-0.001233	0.000198	6337.030327	41296.629004	3880.154101	21073.176369
23.537500	-0.001069	-0.000645	0.002661	0.000782	6337.491505	41285.870382	3887.118448	21048.915469
24.037500	-0.000813	-0.000035	-0.004225	0.002992	6322.497028	41145.246990	3868.113809	20957.275044
24.535000	-0.000185	-0.001003	-0.004186	0.000273	6348.215165	41299.148114	3873.834031	21070.057489
25.035000	-0.001732	-0.000370	-0.003440	0.000923	6331.311546	41297.666359	3874.032678	21043.031338
25.541000	0.001945	0.000188	0.004638	0.001295	6356.784122	41314.110941	3890.213828	21027.606713
26.036000	-0.001564	-0.000749	-0.000665	0.002253	6322.399150	41147.365187	3877.044296	20987.836997
26.536000	0.001181	-0.000464	0.000311	0.000559	6356.562624	41321.398902	3882.637910	21058.167216
27.036500	-0.001488	-0.001130	-0.000797	0.000972	6332.813710	41226.476986	3879.448233	21041.008596
27.536500	0.001501	-0.000548	0.002059	-0.003081	6387.329169	41636.178690	3894.027642	21210.202743
28.036500	-0.000305	-0.000155	-0.001726	-0.000766	6355.315802	41465.733685	3881.141879	21113.352895
28.537500	0.000700	-0.000413	0.003105	-0.000779	6363.194128	41444.068912	3891.358853	21113.890859
29.035000	0.001611	-0.000850	0.001103	0.000545	6359.992608	41288.640860	3884.332140	21058.739442
29.535000	0.003408	0.001409	0.006434	0.000805	6371.918672	41465.143147	3895.068077	21047.952257
30.034500	0.001847	-0.000183	0.000448	-0.000559	6370.389629	41444.953372	3885.279122	21104.742435
30.536000	0.001713	-0.000612	0.003571	0.000943	6357.713841	41274.635664	3888.701564	21042.228906
31.036000	0.000072	-0.001053	-0.001020	0.001824	6338.249233	41158.323305	3877.200114	21005.625264
31.536000	0.000704	-0.000812	0.000289	-0.000991	6364.879154	41427.569178	3885.855319	21122.776343
32.036500	0.001436	0.000006	0.003235	-0.000402	6365.977405	41447.810882	3890.835176	21098.183328
32.537000	0.001734	-0.000457	-0.003069	-0.000895	6372.122976	41450.421875	3878.601711	21118.758085
33.037500	-0.003294	-0.001719	-0.000459	0.001163	6317.508158	41157.979192	3879.756273	21033.081207
33.537500	0.004548	0.000124	0.001932	-0.001512	6398.887979	41556.611267	3890.427055	21144.534177
34.034500	0.000366	0.000233	0.001290	0.001669	6341.709406	41285.068173	3882.363298	21012.083997
34.535000	0.000410	-0.001261	0.002301	0.001069	6346.665815	41206.340916	3885.750883	21036.964828
35.038000	-0.001559	-0.000621	-0.008159	0.002244	6322.511110	41159.406106	3861.551128	20988.212342
35.535500	0.000295	-0.000777	0.001496	0.001218	6344.627963	41235.836398	3883.743568	21030.769059
36.036000	-0.002033	-0.000585	-0.002842	0.003795	6307.046511	41026.629682	3869.314659	20924.088204
36.536500	0.000920	-0.000215	-0.001198	0.001778	6345.142107	41236.052903	3876.924832	21007.561946
37.036500	-0.000552	-0.000842	-0.002201	0.002608	6327.436194	41108.127491	3873.106215	20973.159363
37.537000	-0.000096	-0.000304	-0.000634	0.002055	6335.184723	41203.906988	3877.525214	20996.068318
38.037500	-0.000271	-0.001122	0.001012	0.000803	6343.471262	41241.956779	3883.597354	21048.021293
38.535000	0.000328	-0.000348	-0.003161	0.001461	6343.016013	41252.183347	3873.494128	21020.696894
39.037500	-0.000077	-0.000131	0.003087	0.001875	6336.714607	41234.822151	3885.709105	21003.509663
39.535500	0.001406	0.000409	0.001997	0.002238	6345.336135	41250.474796	3882.651440	20988.465499
40.035500	-0.001134	-0.000741	-0.001714	0.003659	6314.938128	41024.867481	3871.934681	20929.687681
40.536000	0.000304	-0.000147	0.000664	0.002068	6338.160594	41216.537474	3880.214211	20995.532492
41.036000	-0.000707	-0.000721	-0.004043	0.001272	6336.507042	41235.990244	3872.055108	21028.537831
41.536500	0.001916	0.000650	0.001178	0.002356	6348.356523	41261.231716	3880.685146	20983.581699
42.036500	-0.000123	-0.000074	-0.003237	0.003106	6326.904954	41131.787066	3869.922701	20952.541469
42.589500	0.001581	-0.000302	0.003519	0.001274	6354.129060	41272.741735	3887.889452	21028.458568
43.038000	0.001704	0.000169	-0.001805	0.001585	6352.675365	41286.780477	3876.060288	21015.556988
43.538000	0.001147	-0.000203	0.002698	0.001241	6351.030607	41284.412888	3886.226619	21029.842004
44.037500	-0.003767	0.000337	0.000947	0.003663	6294.864956	41119.037304	3877.469321	20929.550424
44.541500	0.002120	-0.000207	0.002543	-0.000649	6373.203539	41450.741873	3889.892412	21108.467622
45.037000	0.000879	-0.000135	0.004767	-0.000619	6363.347294	41454.592022	3894.551612	21107.254590
45.536500	0.001140	0.000713	0.001311	0.000340	6357.936229	41444.657216	3885.201591	21067.284234
46.036500	0.001481	-0.000407	-0.001551	0.003352	6337.334386	41081.032576	3872.911700	20942.388566
46.578000	0.003534	0.000073	0.004531	-0.000456	6382.716000	41458.570695	3893.702543	21100.458533
47.037000	0.001159	0.000251	0.004060	-0.000155	6361.916969	41447.620524	3892.061795	21087.896622
47.537500	-0.001839	-0.000663	-0.001399	0.000857	6330.999827	41277.660148	3878.429883	21045.802546
48.034500	-0.003615	-0.000518	-0.008027	0.004105	6292.663958	41005.474257	3858.011030	20911.304778
48.535000	0.000852	-0.000824	0.005402	-0.000687	6363.664348	41399.658119	3896.047574	21110.077810
49.035000	-0.001062	-0.000004	0.000664	0.005017	6305.134700	40970.616585	3874.055813	20873.714224
49.535500	0.000810	-0.000086	-0.001602	-0.000285	6360.221320	41429.315742	3880.395886	21093.315499
50.036000	-0.000348	-0.000861	-0.002537	0.003636	6321.131971	41016.468318	3870.276650	20930.664732
50.536000	0.002679	-0.000494	0.005597	0.004537	6337.437205	40969.807161	3885.389789	20893.483632
51.036000	-0.016100	-0.018046	0.008176	0.120349	5447.402639	30940.208498	3675.361487	16703.965145
51.536500	-0.014405	-0.024847	-0.001278	0.144262	5325.223393	29035.068944	3623.218345	15969.540601
52.037000	-0.041245	-0.037817	-0.023409	-0.122204	7039.113264	49641.836068	4116.345835	26958.877534
52.534500	-0.042058	-0.039961	-0.017411	-0.176168	7565.286647	55547.967951	4286.026972	30129.446428
53.037500	-0.028437	-0.055657	-0.016007	-0.251841	8607.964771	63324.398157	4541.545209	35294.333027
53.535000	-0.011585	-0.038800	-0.008771	-0.229866	8542.172822	62618.085582	4489.114837	33700.657009
54.038000	-0.016943	-0.029385	-0.004096	-0.179282	7872.036106	57229.509530	4336.750322	30324.663240
54.535500	-0.016332	-0.020036	-0.003116	-0.120838	7264.285465	51437.040652	4167.394956	26883.594808
55.036000	-0.015273	-0.014607	-0.012097	-0.128627	7352.105926	52932.623375	4164.113994	27315.887148
55.536000	-0.002271	-0.009171	-0.001927	-0.135522	7556.250236	54369.654884	4211.958720	27705.098377
56.036500	-0.003327	-0.003951	-0.003209	-0.098047	7169.219453	50695.374295	4105.949286	25662.302790
56.537000	0.000150	-0.005596	-0.002374	-0.088983	7115.896024	49534.541224	4084.632976	25194.108829
57.040000	-0.003651	-0.003564	-0.000550	-0.065184	6862.311937	47261.609173	4029.648925	24010.341484
57.534500	0.000985	-0.002299	0.006071	-0.048763	6758.850786	45744.952086	4006.013645	23230.604297
58.035000	-0.001098	-0.003473	-0.000619	-0.039526	6662.083246	44733.374152	3968.716863	22804.760968
58.538000	0.001004	-0.000810	0.003438	-0.026289	6569.321496	43730.404929	3947.833462	22210.089005
59.038500	0.000772	-0.000043	0.004012	-0.009012	6428.182102	42212.513025	3910.951772	21460.684759
59.536000	0.005741	0.000764	0.010794	-0.003598	6424.665901	41799.097329	3913.916431	21231.888799
60.036500	0.006999	0.001089	0.013272	-0.000174	6407.611289	41523.472436	3911.863431	21088.672162
60.536500	0.009778	0.005144	0.015329	0.051322	6045.762265	37540.871774	3810.551738	19065.552582
61.036500	0.005114	0.003494	0.013010	0.040282	6090.846143	38295.001056	3827.594506	19479.309091
61.537000	0.003795	-0.000015	0.016743	0.014983	6266.451242	40109.134761	3886.865474	20468.101050
62.034500	0.000729	-0.008598	0.015824	-0.044867	6723.058661	44753.998165	4020.075384	23049.863882
62.535000	0.001093	-0.002833	0.020753	0.051237	5985.994046	36919.582435	3821.277586	19068.697782
63.035000	-0.003294	-0.006585	0.020026	0.061396	5887.562627	35851.560956	3800.213045	18697.096747
63.535500	-0.006122	-0.009457	0.026663	0.086558	5707.172714	33800.274430	3765.554015	17813.181321
64.035500	-0.008104	-0.003081	0.024809	0.143669	5362.466447	30408.536288	3664.587251	15987.257731
64.535500	0.002343	0.002518	0.018910	0.169091	5282.312845	29187.318628	3616.276772	15248.583632
65.036500	0.002059	0.005893	0.011772	0.172684	5262.002759	29174.155503	3600.509751	15147.616053
65.551500	0.005551	0.009634	0.017020	0.173172	5277.724034	29370.666033	3607.455610	15133.977465
66.040000	0.006220	0.013702	0.004096	0.182780	5231.267738	29036.933155	3575.240040	14868.372984
66.537500	0.013214	0.017800	0.017819	0.180703	5278.413332	29409.182142	3597.654864	14925.276505
67.037500	0.013387	0.020507	0.021723	0.186755	5247.744666	29206.884852	3594.558727	14760.186683
67.535500	0.016416	0.021971	0.020483	0.180432	5296.728600	29680.315792	3601.909092	14932.736142
68.038500	0.015198	0.023941	0.011201	0.183330	5275.038191	29623.429165	3584.439492	14853.327072
68.535500	0.019438	0.025888	0.020014	0.171584	5360.434277	30475.039684	3614.213788	15178.428002
69.035500	0.018527	0.026293	0.017432	0.170942	5358.972133	30541.251170	3611.344545	15196.466210
69.536500	0.018988	0.027533	0.023388	0.159087	5426.897835	31383.149357	3638.181449	15534.097525
70.036500	0.019888	0.029076	0.017457	0.159236	5431.098591	31474.259081	3628.894913	15529.797469
70.537000	0.022236	0.029466	0.024957	0.145613	5522.260348	32406.796902	3661.721537	15929.222634
71.037000	0.018453	0.029898	0.012094	0.143157	5514.558360	32602.725647	3645.350071	16002.584503
71.537500	0.021026	0.030836	0.010803	0.131348	5599.303441	33483.367087	3661.898632	16361.113127
72.035500	0.017562	0.029645	0.020204	0.129911	5587.197431	33500.655078	3679.376341	16405.433717
72.535000	0.021270	0.030583	0.018980	0.118337	5679.945100	34391.047558	3696.478927	16767.631338
73.036500	0.016596	0.029183	0.011585	0.117485	5656.440758	34351.482778	3685.619258	16794.670693
73.536000	0.022733	0.030634	0.018017	0.106574	5762.889341	35255.630332	3714.763565	17145.758064
74.036000	0.016794	0.030348	0.005424	0.106637	5724.936090	35229.792244	3693.382255	17143.707199
74.536500	0.025802	0.031858	0.014091	0.096987	5844.660378	36067.661147	3724.532001	17461.595030
75.036500	0.022607	0.030972	0.013988	0.096794	5825.047940	36015.097818	3724.688198	17468.044589
75.537000	0.026985	0.030893	0.012859	0.088079	5911.594008	36677.366693	3737.982462	17761.403354
76.037500	0.023791	0.031194	0.013803	0.090702	5872.815933	36497.956048	3735.019300	17672.470729
76.534500	0.024674	0.032236	0.012674	0.082741	5931.970598	37198.876256	3747.144353	17944.012437
77.035000	0.023632	0.030769	0.014426	0.084898	5910.432959	36914.961369	3746.420600	17869.935464
77.538000	0.026711	0.031404	0.017562	0.077042	5984.715405	37583.886780	3766.315930	18141.481473
78.035500	0.028761	0.032333	0.016346	0.076047	6005.728375	37737.245670	3765.911338	18176.213138
78.536000	0.026318	0.032745	0.016730	0.074867	5996.988958	37864.669846	3768.781407	18217.512603
79.036000	0.026277	0.033399	0.016998	0.073721	6004.632248	38009.275242	3771.385127	18257.738254
79.536500	0.026943	0.032594	0.013210	0.072756	6015.950391	38022.157171	3766.194814	18291.686894
80.037000	0.028247	0.033300	0.016169	0.073038	6023.063577	38056.339527	3771.115852	18281.764404
80.537000	0.027742	0.033764	0.018811	0.073274	6017.903951	38074.794714	3775.565577	18273.465849
81.034500	0.028157	0.032428	0.020304	0.072510	6026.113956	38028.637851	3779.762639	18300.367498
81.538000	0.029843	0.033081	0.015804	0.073164	6033.319339	38028.567190	3770.211028	18277.335363
82.035500	0.028379	0.032461	0.019515	0.072628	6026.837889	38021.759097	3778.072969	18296.194204
82.535500	0.030058	0.033921	0.020144	0.074073	6028.473556	38023.035809	3776.556798	18245.382185
83.035500	0.029375	0.033558	0.018408	0.074898	6017.964724	37927.412117	3771.816384	18216.439477
83.536500	0.030101	0.034191	0.022570	0.076470	6012.088329	37852.054942	3776.610969	18161.437231
84.036000	0.026764	0.033572	0.017002	0.076357	5989.789159	37811.504937	3766.544409	18165.379326
84.537000	0.029097	0.033443	0.020320	0.077684	5996.730058	37695.139880	3770.203660	18119.103952
85.036500	0.028583	0.034139	0.015407	0.083056	5956.357424	37324.013117	3751.482808	17933.174416
85.537000	0.029958	0.033946	0.019632	0.079650	5989.110089	37578.636614	3765.331320	18050.795117
86.037500	0.029880	0.033065	0.022553	0.079877	5987.009044	37490.599385	3770.276767	18042.909361
86.535500	0.031008	0.033345	0.021271	0.080527	5990.299844	37461.240098	3766.726823	18020.420362
87.038000	0.031528	0.033993	0.021149	0.084019	5969.885902	37236.543043	3760.126203	17900.069994
87.535500	0.030372	0.033638	0.020969	0.082275	5973.912593	37346.097938	3762.974256	17960.042704
88.035500	0.029828	0.034770	0.022036	0.090168	5916.655213	36816.112581	3750.614649	17690.538327
88.535500	0.028463	0.033307	0.028748	0.083049	5955.580278	37258.896024	3775.865045	17933.394731
89.036500	0.031965	0.034870	0.024475	0.088473	5942.521575	36956.035974	3758.076663	17747.985951
89.537000	0.030762	0.033579	0.023550	0.083632	5967.293836	37234.443467	3765.212372	17913.373122
90.036500	0.028784	0.034118	0.017417	0.090304	5908.730641	36754.885957	3742.116555	17685.927328
90.537500	0.033638	0.034700	0.031833	0.085591	5973.576615	37168.513197	3776.873634	17846.240651
91.034500	0.028630	0.033275	0.023739	0.087079	5929.389352	36940.306314	3759.271195	17795.420061
91.538000	0.034273	0.033416	0.025729	0.084509	5985.368387	37152.628591	3767.601368	17883.289124
92.035500	0.029368	0.033376	0.024365	0.091060	5907.579177	36638.769413	3753.200639	17660.375790
92.534500	0.033096	0.032829	0.031216	0.084621	5976.505153	37097.722869	3777.527585	17879.420395
93.035500	0.030692	0.032670	0.030667	0.086676	5946.077551	36924.627997	3772.703392	17809.181738
93.536000	0.030334	0.033351	0.036301	0.085813	5949.508918	37045.248969	3784.797494	17838.642040
94.036000	0.026440	0.031382	0.027129	0.090887	5889.175022	36498.223017	3758.513566	17666.226292
94.536500	0.029120	0.032339	0.028494	0.085685	5942.135646	36976.127110	3770.523354	17843.021633
95.037500	0.026760	0.031656	0.026113	0.087769	5912.160180	36760.566552	3762.338258	17771.945227
95.537500	0.030109	0.032042	0.029096	0.085798	5948.078395	36944.065570	3771.423514	17839.145321
96.035000	0.030634	0.030662	0.029328	0.085196	5955.752763	36883.442447	3772.964336	17859.752057
96.535000	0.029752	0.030380	0.028874	0.084597	5953.824549	36908.141612	3773.231958	17880.261512
97.038500	0.032374	0.031951	0.029758	0.087896	5949.213456	36773.602474	3768.778773	17767.607663
97.536000	0.033504	0.031435	0.025440	0.085407	5973.917780	36927.208649	3765.424102	17852.528766
98.036000	0.030633	0.030575	0.026229	0.084949	5957.431168	36895.902077	3767.710314	17868.214790
98.536500	0.032042	0.030292	0.034703	0.085367	5964.190047	36841.260998	3782.640884	17853.897644
99.037000	0.031347	0.031170	0.026032	0.087679	5943.723040	36729.883934	3762.355094	17775.014867
99.537000	0.031759	0.031043	0.027670	0.085214	5963.297582	36911.700933	3769.870746	17859.113505
100.037500	0.032934	0.030341	0.026918	0.084739	5974.588500	36893.977643	3769.362406	17875.396089
100.535000	0.032718	0.032174	0.032729	0.085449	5968.249198	36981.713588	3778.803866	17851.093831
101.037500	0.036159	0.032030	0.036354	0.085855	5989.082964	36938.668991	3784.819579	17837.204790
101.535500	0.036270	0.032557	0.029866	0.085641	5991.319289	36996.543205	3773.134666	17844.502623
102.035500	0.035559	0.032838	0.029459	0.085407	5988.039013	37036.955715	3772.817674	17852.537939
102.536500	0.037598	0.032574	0.035821	0.085329	6002.643360	37022.316346	3784.804707	17855.186028
103.036500	0.038687	0.032892	0.037275	0.085140	6011.502839	37062.086169	3787.892805	17861.669515
103.536500	0.038033	0.032232	0.036234	0.084659	6010.303499	37048.046584	3786.840114	17878.148737
104.036500	0.037689	0.032826	0.031667	0.084344	6010.098058	37119.214716	3778.882757	17888.920250
104.537000	0.037965	0.034051	0.036473	0.085352	6005.029047	37136.308064	3785.985864	17854.395328
105.037500	0.035899	0.032570	0.035080	0.083968	6000.311973	37128.709993	3785.970389	17901.842527
105.577000	0.037386	0.033177	0.039267	0.083660	6012.745907	37200.556041	3794.454660	17912.405548
106.035000	0.036904	0.033525	0.030956	0.083424	6011.038400	37246.566565	3779.271409	17920.506143
106.535500	0.034859	0.032940	0.034521	0.082691	6001.946750	37258.236619	3787.319019	17945.732569
107.035500	0.038145	0.033679	0.037467	0.084800	6010.096872	37150.407653	3788.894543	17873.287194
107.536000	0.035968	0.032930	0.032492	0.082580	6010.403501	37266.156171	3783.718587	17949.554762
108.036000	0.038430	0.034105	0.037280	0.082644	6027.080484	37353.902901	3792.614731	17947.357552
108.536000	0.036669	0.032626	0.033214	0.080753	6027.987327	37386.438908	3788.508215	18012.605926
