sample name	sample
index	316
start time	 02-25-2021  03:05:43 PM
880	-0.007499
Peak Time (s)	92.535
Peak Height 	-0.007499
calc peak height	90,93
Baseline Time (s)	11.536
Baseline Value 	-0.003032
subtract baseline	10,4
Abs	-0.005330
Peak Time (s)	90.037
Peak Height 	-0.00533
calc peak height	90,93
Baseline Time (s)	9.537
Baseline Value 	6.0823E-4
subtract baseline	10,3
PK_550	-0.002062
Peak Time (s)	91.535
Peak Height 	-0.002062
calc peak height	90,93
Baseline Time (s)	11.035
Baseline Value 	5.6572E-4
subtract baseline	10,2
PK_880	-0.005650
Peak Time (s)	91.535
Peak Height 	-0.00565
calc peak height	90,93
Baseline Time (s)	9.537
Baseline Value 	6.6746E-4
subtract baseline	10,1


Time (s)	A880-A510	A880-A775	A880-A975	A880	I510	I775	I975	I880	
0.037000	-0.002092	-0.000316	-0.000294	0.001944	6826.350835	44975.193870	4006.210260	23849.489271
0.537500	-0.001614	-0.000911	-0.000102	0.003702	6815.040795	44748.410222	4002.407808	23765.146466
1.036000	-0.000687	-0.000052	-0.006487	0.003497	6825.047242	44850.801760	3987.536436	23774.969117
1.537500	0.001322	-0.000025	0.001101	0.001534	6860.349186	45042.997159	4010.612734	23869.227876
2.036500	0.000859	-0.000260	-0.000767	0.000745	6863.258800	45096.568766	4007.978442	23907.214807
2.536000	0.000865	-0.000578	0.001296	0.000811	6862.727560	45059.396056	4012.857392	23904.041753
3.036000	0.001915	-0.000889	-0.000726	-0.001606	6893.811505	45263.762435	4013.823601	24020.820466
3.536500	0.001283	-0.000284	-0.000562	0.000230	6871.660263	45144.212418	4009.733833	23932.055090
4.036500	0.001535	-0.000254	0.001889	0.000228	6873.932211	45147.308370	4015.737308	23932.145421
4.537000	0.000182	-0.000542	0.003807	0.000774	6856.950082	45066.429664	4019.110828	23905.804114
5.037500	-0.000276	-0.000158	0.001405	-0.000398	6863.321450	45217.345799	4016.086816	23962.357441
5.535000	0.000609	-0.000630	0.001348	-0.000621	6873.231402	45193.142195	4016.494179	23973.127809
6.035000	0.000078	-0.000559	0.001603	-0.000328	6865.870728	45171.613818	4016.402000	23958.993194
6.535500	0.001239	0.000023	0.001376	-0.000346	6876.420767	45229.911960	4015.887722	23959.852145
7.036000	0.000846	0.000162	-0.001869	-0.000400	6873.385013	45248.744859	4008.083394	23962.484142
7.535500	0.000033	0.000068	0.003513	0.000138	6861.298470	45187.328756	4019.953442	23936.497543
8.036500	0.002272	-0.000702	0.002282	-0.000547	6887.503429	45179.011167	4018.610595	23969.581785
8.536500	0.000207	0.000466	-0.001650	0.000438	6860.174379	45196.817533	4006.574883	23922.004426
9.037000	-0.001861	-0.000724	0.000351	-0.000400	6849.209803	45162.666690	4013.507746	23962.487090
9.537000	0.000000	-0.000044	0.000000	0.000082	6861.504948	45181.845056	4011.468568	23939.183567
10.037500	0.001054	-0.000396	-0.002212	-0.000107	6872.622739	45165.973250	4006.534086	23948.306085
10.534500	-0.002432	0.000047	-0.000236	0.004452	6801.239434	44768.526663	4000.268188	23729.306511
11.035000	0.000874	0.000000	0.003366	-0.000166	6871.532295	45210.162300	4020.338565	23951.143381
11.535500	-0.000002	0.000330	0.004368	0.000000	6862.221519	45226.138770	4022.402909	23943.142443
12.035500	-0.000602	0.000127	0.003531	-0.000295	6859.491060	45235.070993	4021.064349	23957.377591
12.536000	-0.001108	-0.000061	0.000693	0.003897	6817.788004	44811.429626	4003.863421	23755.843341
13.036500	-0.001942	-0.000995	-0.004457	-0.001788	6860.866344	45271.157733	4005.162992	24029.655809
13.537000	0.002375	-0.000237	0.003676	0.000033	6883.213639	45167.880270	4020.614829	23941.561017
14.037000	-0.000249	-0.000352	-0.001107	0.002119	6841.146690	44954.845909	4003.810007	23841.093077
14.537500	-0.003622	-0.000198	0.002196	0.004996	6786.024002	44692.706612	4004.845105	23703.315375
15.034500	0.001016	-0.000155	0.002702	-0.000161	6872.761083	45194.644623	4018.692344	23950.914741
15.535000	0.001649	-0.000801	-0.001667	-0.000750	6883.723781	45189.161801	4009.430372	23979.403651
16.035500	0.000177	-0.001171	0.003451	-0.001443	6876.733819	45220.480075	4023.701207	24012.913501
16.536000	-0.002825	-0.000194	-0.002082	0.005267	6790.634947	44667.056116	3993.851858	23690.390813
17.036000	0.000070	-0.000557	-0.000817	-0.003320	6892.635830	45463.312703	4017.807504	24104.063576
17.536500	0.000476	-0.000290	-0.003182	0.000126	6865.364588	45153.718462	4003.609776	23937.049766
18.037000	-0.002168	-0.000643	0.003502	0.000589	6837.692594	45074.574052	4018.815405	23914.718086
18.537000	-0.000316	0.000080	-0.002309	0.002492	6837.241347	44960.501913	3999.994093	23823.174315
19.037000	-0.000823	-0.000968	0.000859	-0.000219	6856.841729	45121.370635	4014.307601	23953.696023
19.534500	0.000351	-0.000833	-0.002834	0.000236	6863.259838	45090.379299	4004.188676	23931.742131
20.035000	0.000838	-0.000312	0.000068	0.000849	6862.134461	45081.417613	4009.760584	23902.171007
20.535500	-0.000888	-0.000094	-0.000690	0.001882	6837.582067	45002.641321	4005.398907	23852.491288
21.035500	0.001046	0.000233	-0.002215	0.001031	6862.377304	45116.630256	4003.763874	23893.438451
21.535500	0.000086	0.000327	0.000919	0.001417	6850.360032	45088.346044	4010.451045	23874.821701
22.036500	-0.000783	-0.000655	0.002883	0.000558	6850.278113	45076.480139	4017.369862	23916.224464
22.536500	0.000217	-0.000139	0.005868	0.001695	6849.056538	45016.345216	4021.921457	23861.470081
23.037000	-0.002004	-0.000470	0.000494	0.000478	6840.136979	45102.104121	4011.709061	23920.084141
23.537000	0.000386	-0.000078	0.002441	0.000580	6860.501314	45130.258272	4016.228520	23915.154829
24.037000	0.000631	-0.000522	0.001625	0.000821	6860.545535	45063.892646	4013.638243	23903.547584
24.535000	-0.001595	-0.001022	0.000766	0.000226	6846.006159	45073.016564	4012.988734	23932.210814
25.035000	-0.001472	-0.000013	-0.002475	0.001041	6839.853967	45091.810443	4003.106394	23892.935292
25.535500	-0.001904	-0.000685	-0.002745	0.000014	6845.141165	45126.219321	4004.943981	23942.455437
26.035500	0.000331	0.000173	-0.002762	0.000708	6858.871626	45142.150673	4003.218112	23908.979215
26.536000	-0.001967	-0.001172	0.003735	0.000343	6841.661081	45047.171591	4019.995512	23926.584384
27.036000	0.000669	-0.000177	0.000018	0.000366	6864.951237	45141.379244	4010.818146	23925.491524
27.536500	0.001897	-0.000126	0.001991	-0.001012	6888.307601	45280.147929	4019.035397	23992.045879
28.037000	0.000059	-0.000276	-0.000675	-0.000826	6870.145251	45247.463624	4012.038602	23983.049062
28.537000	-0.003592	-0.001130	-0.002028	0.004635	6789.449243	44637.974163	3995.503279	23720.552326
29.037500	0.000396	-0.001010	0.001448	-0.000782	6872.773633	45171.887068	4017.133792	23980.911923
29.535000	0.000059	-0.000066	0.000312	-0.000504	6867.271261	45236.570107	4013.664614	23967.481223
30.034500	0.000415	-0.000169	0.002726	-0.000433	6869.815104	45219.655234	4019.419712	23964.040332
30.535500	-0.002874	-0.000150	-0.000479	0.004834	6794.000008	44712.774310	3998.756440	23711.034491
31.035500	-0.000180	0.000179	-0.002889	0.002390	6839.350050	44979.915077	3998.838481	23828.054746
31.535000	0.000154	-0.000094	0.002349	-0.001182	6874.190667	45299.856096	4020.337515	24000.289053
32.036500	0.001014	-0.000343	0.000042	-0.000825	6878.695532	45240.858450	4013.790086	23983.011584
32.542000	-0.001299	-0.000369	-0.004207	0.004780	6808.317343	44696.999440	3989.920096	23713.613751
33.037000	-0.000750	-0.000157	0.002329	-0.000718	6861.943992	45248.580997	4019.144033	23977.819606
33.537500	0.001862	0.000724	0.003354	-0.000409	6882.570340	45304.190948	4020.910028	23962.880993
34.037500	0.001054	0.000236	0.006104	0.001699	6856.480949	45052.309091	4022.495244	23861.287191
34.535500	-0.002661	-0.000017	-0.000810	0.003068	6811.405568	44895.545605	4002.229525	23795.543905
35.035000	-0.001678	-0.000081	0.000135	0.001404	6834.806004	45050.057574	4008.568977	23875.452462
35.535500	-0.001155	-0.000477	0.002751	0.001013	6842.920354	45049.555312	4015.926866	23894.279263
36.035500	-0.001016	-0.000519	0.001471	0.000940	6844.807658	45052.627733	4012.969867	23897.825079
36.536500	-0.000044	-0.000300	-0.001611	0.002315	6841.224854	44940.821229	4002.110956	23831.650284
37.036500	0.000565	-0.000890	0.001128	0.000663	6861.361812	45043.528278	4012.808488	23911.171582
37.536500	-0.000086	-0.000179	-0.001105	0.001406	6848.938600	45040.488926	4005.548426	23875.385472
38.037000	-0.002488	-0.000266	0.005617	0.001083	6830.469770	45063.239413	4022.813286	23890.916040
38.534500	-0.003767	-0.000919	0.004973	0.002299	6808.436022	44882.763690	4018.226367	23832.435990
39.034500	-0.002369	-0.000663	-0.002427	0.000877	6833.360412	45044.869590	4003.621723	23900.863612
39.535500	0.000105	-0.000412	-0.003810	0.000874	6855.372766	45069.377244	4000.276519	23900.971875
40.035500	0.001323	-0.000250	0.004197	0.001328	6862.193307	45041.167867	4018.707595	23879.139926
40.535500	-0.002168	-0.000703	0.005602	0.001439	6830.155285	44986.541126	4021.896670	23873.767616
41.036500	0.000193	0.000580	0.004598	0.001776	6848.130228	45078.084832	4018.592194	23857.591577
41.535500	0.000141	-0.000354	0.001210	0.001307	6851.834430	45033.087658	4011.431076	23880.120254
42.037000	-0.000235	-0.000208	0.004395	0.001208	6849.367317	45056.772392	4019.489565	23884.899732
42.537000	0.000347	-0.000751	0.001291	0.000931	6857.032791	45031.049973	4012.551986	23898.264526
43.037000	0.000749	-0.000832	0.002147	0.000677	6862.880776	45047.712433	4015.269523	23910.460687
43.537500	0.001226	-0.000332	0.003457	-0.001650	6888.011002	45322.203419	4024.230668	24022.954925
44.035000	0.002604	-0.000380	0.003313	-0.002343	6906.669560	45385.111000	4025.587560	24056.553961
44.535000	-0.001209	-0.001174	-0.004274	0.003218	6822.895405	44769.678698	3993.508650	23788.345941
45.036000	0.000235	0.000193	0.003317	-0.000262	6866.681126	45238.347763	4020.456755	23955.813068
45.536000	0.000489	-0.000044	0.001018	-0.000626	6872.212204	45250.612658	4015.696356	23973.399318
46.036500	-0.000680	-0.000859	0.001269	-0.001077	6865.787277	45215.245528	4017.420039	23995.199801
46.536500	-0.001376	-0.000536	0.001975	0.005061	6805.171062	44654.090142	4004.149755	23700.220530
47.036500	-0.000534	-0.000573	-0.001302	0.001908	6840.483579	44953.809397	4003.848325	23851.211925
47.537000	-0.000478	-0.000123	0.001436	0.002447	6836.192504	44945.191018	4009.198812	23825.314341
48.040500	0.002836	0.000326	0.002974	0.000075	6886.979946	45218.427869	4018.781150	23939.526848
48.535000	-0.000960	-0.000080	0.000664	0.004489	6813.869074	44752.624406	4002.356562	23727.499363
49.035500	0.001887	-0.000649	0.003937	-0.000382	6882.558829	45168.126824	4022.281053	23961.581182
49.535500	0.003240	0.000254	0.008144	-0.002366	6912.632567	45449.279088	4037.680663	24057.685774
50.035500	0.003116	0.000811	0.010310	0.000776	6883.188342	45197.448665	4035.237669	23905.693780
50.535000	-0.006264	-0.002542	-0.001125	0.008604	6731.683845	44125.408579	3988.144943	23531.794644
51.036000	-0.026719	-0.017011	0.001002	0.214781	5207.643531	27751.410883	3598.865182	15762.209213
51.536500	-0.039423	-0.031656	0.001080	-0.062430	7073.272439	48290.970181	4178.883788	27184.753115
52.036500	-0.015951	-0.016109	0.003008	-0.087779	7559.905029	52761.218121	4258.556619	28639.934079
52.537000	-0.023671	-0.016343	-0.005671	-0.074794	7346.826830	51270.025769	4194.872075	27883.925932
53.037500	-0.018898	-0.013796	-0.006638	-0.068807	7334.639050	50889.282439	4175.094021	27542.876349
53.537500	-0.014805	-0.011916	-0.012862	-0.121337	7940.639494	57278.508575	4312.961323	30701.718430
54.035000	-0.007929	-0.013624	-0.004066	-0.130345	8125.301558	58198.249814	4370.004158	31282.806972
54.535500	-0.010637	-0.008309	-0.008966	-0.099007	7737.581527	54989.052180	4256.311513	29312.094310
55.035500	-0.006744	-0.006322	-0.004994	-0.089188	7673.147669	54060.163220	4238.837712	28723.306875
55.536000	-0.004505	-0.008092	-0.009626	-0.092536	7733.880192	54246.013969	4235.034347	28922.588839
56.039500	-0.002975	-0.008608	-0.002939	-0.083866	7656.412335	53173.804728	4229.177379	28409.700175
56.537000	-0.007785	-0.008238	-0.003809	-0.068808	7447.438397	51505.999216	4183.106084	27542.959072
57.037000	-0.004905	-0.008470	-0.004720	-0.059007	7376.862524	50398.725612	4153.057177	26994.719054
57.537500	-0.004926	-0.007244	-0.006978	-0.042192	7209.797182	48728.248481	4101.358392	26082.491017
58.037500	-0.005517	-0.007213	-0.002301	-0.041053	7192.985314	48611.633904	4110.774306	26021.926918
58.535000	-0.009945	-0.003758	-0.005528	-0.013344	6892.715230	46135.285945	4030.950975	24597.395618
59.035000	-0.010515	-0.007735	-0.003506	-0.026123	7004.182032	47018.081068	4068.433562	25243.106859
59.536000	-0.002090	-0.005651	-0.004736	-0.040546	7221.383909	48722.618735	4102.937152	25995.037305
60.036000	-0.010219	-0.005241	-0.007655	-0.031856	7060.391606	47859.529014	4072.523175	25539.016791
60.536000	-0.016289	-0.007216	-0.008752	-0.020865	6903.328412	46540.634029	4041.703418	24975.127449
61.036500	-0.010248	-0.006136	-0.007528	-0.016723	6920.511931	46234.878878	4034.393023	24766.320364
61.536500	-0.009453	-0.004186	-0.013658	-0.027238	7024.380899	47493.107729	4045.396632	25300.329540
62.037500	-0.003507	-0.000881	-0.008936	-0.030704	7112.932307	48191.990234	4066.250133	25479.253023
62.537000	-0.006886	-0.002311	-0.008263	-0.032680	7099.609615	48248.808928	4073.080213	25581.876363
63.035000	-0.006487	-0.002570	-0.011270	-0.034132	7117.187660	48373.185640	4069.066031	25657.566625
63.538000	-0.005996	-0.000503	-0.012037	-0.031858	7100.247033	48351.644720	4061.255025	25539.121174
64.041000	-0.005691	-0.000859	-0.006549	-0.030701	7092.180906	48193.916042	4072.394330	25479.066313
64.536000	-0.009348	-0.001151	-0.012781	-0.025511	7009.327774	47627.361330	4043.257236	25211.760077
65.036500	-0.005645	-0.000541	-0.007424	-0.029797	7084.070558	48133.062662	4067.807033	25432.289552
65.536500	-0.006167	-0.000157	-0.010924	-0.029242	7073.914799	48115.326866	4057.416957	25403.630415
66.037000	-0.006773	-0.000538	-0.010136	-0.029465	7070.313762	48098.896401	4059.998729	25415.133277
66.537000	-0.007606	-0.000275	-0.009028	-0.025517	7025.559586	47717.949695	4052.761286	25212.063833
67.037000	-0.006413	-0.000796	-0.008000	-0.028835	7067.767745	48006.767962	4063.853925	25382.600447
67.535000	-0.005075	-0.000942	-0.009392	-0.028035	7072.830283	47908.896086	4058.243630	25341.346549
68.035000	-0.005382	-0.000977	-0.008272	-0.027938	7069.029044	47895.281730	4060.859745	25336.380209
68.535500	-0.008475	-0.000207	-0.007934	-0.023145	6995.504030	47481.465196	4049.518040	25090.908840
69.035500	-0.006320	-0.000811	-0.004822	-0.026597	7047.644275	47774.009412	4066.269224	25267.441095
69.536000	-0.006675	-0.002366	-0.009035	-0.027097	7049.005676	47665.516426	4056.764348	25293.128269
70.036000	-0.008164	-0.001809	-0.008589	-0.025647	7021.581909	47573.755886	4054.206984	25218.711407
70.536500	-0.009909	-0.002292	-0.013767	-0.021100	6963.497235	47060.728506	4029.752225	24987.054840
71.036500	-0.007393	-0.002289	-0.005993	-0.024578	7018.809848	47415.114493	4058.098553	25164.033255
71.537000	-0.007466	-0.002667	-0.009340	-0.023808	7010.982710	47297.955467	4047.642427	25124.740762
72.037500	-0.009330	-0.002702	-0.013460	-0.022992	6986.195823	47211.159702	4035.233159	25083.117806
72.535000	-0.011486	-0.002538	-0.012212	-0.016431	6906.653848	46564.968536	4022.034466	24751.631333
73.035000	-0.007736	-0.002678	-0.008701	-0.020986	6982.404070	47009.921885	4042.135140	24981.251172
73.535500	-0.009119	-0.002803	-0.006491	-0.020301	6963.409288	46928.059548	4045.979371	24946.592216
74.035500	-0.006754	-0.002805	-0.014262	-0.019446	6977.271422	46841.445809	4024.420294	24903.351824
74.536000	-0.011660	-0.002951	-0.006805	-0.015168	6893.694653	46397.242282	4032.315459	24688.400141
75.036500	-0.010084	-0.002434	-0.010025	-0.017864	6932.350591	46719.337717	4031.008004	24823.603292
75.536500	-0.007796	-0.003006	-0.006912	-0.017506	6949.942668	46625.968895	4037.890224	24805.632859
76.037000	-0.007563	-0.002405	-0.012423	-0.016482	6942.722957	46583.484147	4021.640391	24754.215710
76.539000	-0.007306	-0.002744	-0.006017	-0.016404	6944.353535	46541.706412	4037.371573	24750.291029
77.035000	-0.009572	-0.003000	-0.005860	-0.015996	6920.043143	46475.262765	4036.743994	24729.873171
77.538000	-0.007290	-0.002402	-0.006959	-0.015123	6932.833213	46447.662658	4031.818532	24686.152876
78.035500	-0.007245	-0.002304	-0.005677	-0.014759	6929.937384	46421.128306	4034.109770	24667.967933
78.535500	-0.011440	-0.003392	-0.007636	-0.015719	6900.639061	46408.296237	4031.616872	24715.961545
79.036000	-0.006834	-0.002885	-0.009453	-0.015062	6936.430593	46393.279979	4025.472383	24683.103062
79.536500	-0.007090	-0.002500	-0.007677	-0.014733	6931.104115	46398.944534	4029.061919	24666.675218
80.036500	-0.007722	-0.002423	-0.007784	-0.014903	6926.912252	46423.635093	4029.219993	24675.176002
80.536500	-0.007214	-0.003128	-0.007963	-0.014821	6930.781033	46345.039856	4028.569794	24671.084286
81.037000	-0.007841	-0.002311	-0.009400	-0.014551	6922.639014	46399.616628	4024.338477	24657.609517
81.537500	-0.007286	-0.002932	-0.005524	-0.014597	6928.091929	46342.280822	4034.085809	24659.892726
82.035000	-0.007926	-0.002731	-0.007592	-0.014613	6922.431696	46363.931862	4028.975660	24660.699764
82.535500	-0.009215	-0.002876	-0.007759	-0.014568	6910.341497	46344.904449	4028.449436	24658.426385
83.035500	-0.007020	-0.002660	-0.009140	-0.014571	6930.268618	46366.703495	4025.030299	24658.575379
83.535500	-0.008394	-0.002567	-0.006341	-0.014034	6912.936824	46322.429117	4030.646687	24631.778771
84.035500	-0.006843	-0.002971	-0.006605	-0.014753	6933.541187	46353.973069	4031.780214	24667.693506
84.539000	-0.008293	-0.003348	-0.006938	-0.013479	6908.836763	46189.464147	4027.783607	24604.140388
85.037000	-0.007533	-0.002696	-0.007369	-0.014033	6920.736048	46309.511794	4028.088050	24631.744570
85.536500	-0.007795	-0.002585	-0.007826	-0.014180	6919.695110	46335.328166	4027.320264	24639.096997
86.037000	-0.009057	-0.002614	-0.005546	-0.014590	6911.974793	46373.235335	4034.014355	24659.547765
86.537500	-0.011316	-0.002711	-0.007551	-0.008954	6841.200298	45804.700471	4015.104529	24379.956268
87.035000	-0.006875	-0.002292	-0.005863	-0.013727	6923.919385	46319.269426	4031.071712	24616.467641
87.535000	-0.007357	-0.002160	-0.007853	-0.013600	6918.403771	46319.704085	4025.813560	24610.146889
88.036000	-0.007161	-0.002034	-0.009967	-0.013254	6917.035947	46297.827731	4019.735257	24592.907982
88.536000	-0.010869	-0.003235	-0.013728	-0.008880	6844.516396	45745.856487	3999.880947	24376.304662
89.036500	-0.007212	-0.002249	-0.009188	-0.013192	6916.024062	46270.251209	4021.505452	24589.860300
89.536500	-0.005843	-0.002432	-0.004142	-0.013287	6929.306685	46261.563671	4034.266347	24594.597762
90.036500	-0.009038	-0.002157	-0.005330	-0.012938	6897.228297	46254.180677	4030.434957	24577.218018
90.537000	-0.012682	-0.003252	-0.012471	-0.008157	6822.027299	45673.059272	4001.171945	24340.692988
91.034000	-0.009153	-0.003069	-0.010331	-0.012882	6895.685419	46157.899248	4017.924489	24574.417420
91.535000	-0.005650	-0.002062	-0.010242	-0.012292	6922.016517	46199.245035	4016.692465	24545.089288
92.035500	-0.007126	-0.002508	-0.005381	-0.012147	6907.341910	46140.578409	4028.342521	24537.904444
92.535000	-0.009348	-0.002703	-0.005767	-0.007499	6845.756202	45662.381491	4015.913112	24308.347709
93.035500	-0.010149	-0.002658	-0.009562	-0.012682	6884.929149	46178.842856	4019.324881	24564.490874
93.535500	-0.008061	-0.002108	-0.006215	-0.012060	6898.128123	46171.667890	4026.058787	24533.597286
94.121500	-0.009209	-0.001651	-0.011274	-0.010964	6877.945808	46108.284542	4010.911238	24479.245713
94.536500	-0.010531	-0.002275	-0.008597	-0.007238	6832.935400	45678.757995	4008.350948	24295.513661
95.036500	-0.007564	-0.001568	-0.010613	-0.011019	6893.227447	46121.981351	4012.662653	24481.984370
95.534000	-0.007618	-0.002382	-0.009276	-0.011225	6894.595123	46061.647611	4016.445499	24492.177255
96.034500	-0.008861	-0.002779	-0.009116	-0.011656	6887.280844	46065.002731	4017.898565	24513.530531
96.534500	-0.008414	-0.002424	-0.007972	-0.005684	6837.929952	45511.778963	4006.088405	24219.362231
