sample name	sample
index	1010
start time	 04-19-2021  11:29:37 AM
880	0.089249
Peak Time (s)	101.037
Peak Height 	0.08925
calc peak height	100,103
Baseline Time (s)	8.535
Baseline Value 	-0.005187
subtract baseline	10,4
Abs	0.039434
Peak Time (s)	102.538
Peak Height 	0.03943
calc peak height	100,103
Baseline Time (s)	11.54
Baseline Value 	0.002825
subtract baseline	10,3
PK_550	0.031267
Peak Time (s)	102.538
Peak Height 	0.03127
calc peak height	100,103
Baseline Time (s)	11.034
Baseline Value 	4.6275E-4
subtract baseline	10,2
PK_880	0.040404
Peak Time (s)	101.537
Peak Height 	0.0404
calc peak height	100,103
Baseline Time (s)	10.036
Baseline Value 	4.3877E-4
subtract baseline	10,1


Time (s)	A880-A510	A880-A775	A880-A975	A880	I510	I775	I975	I880	
0.036000	-0.003758	-0.000247	-0.005599	0.007383	6476.463449	45513.274488	3917.031728	24039.015093
0.536500	-0.001078	-0.000393	-0.001307	0.005770	6513.167505	45657.772602	3932.899277	24118.142725
1.036500	0.001058	-0.000001	-0.001854	0.005206	6536.425151	45752.205623	3932.943379	24145.849328
1.537000	-0.003804	-0.000526	-0.004506	0.007365	6476.225992	45487.659203	3920.001568	24039.882706
2.037500	-0.001656	-0.000718	-0.000707	0.002017	6540.539442	45997.372826	3944.731386	24303.350383
2.535000	-0.000048	-0.000494	-0.001550	0.001483	6559.110350	46072.656229	3943.887343	24329.791827
3.035000	0.001781	0.000316	-0.001722	0.000517	6583.504044	46250.016353	3946.057620	24377.817837
3.535000	-0.001235	-0.000209	-0.002438	0.004580	6522.049762	45793.548645	3933.057661	24176.701795
4.035500	0.002506	-0.000231	-0.002904	0.001659	6579.852957	46081.443706	3939.718460	24321.090044
4.536000	-0.001458	-0.000246	-0.002336	0.001846	6543.733106	46061.248859	3940.753937	24311.811764
5.036000	-0.001360	-0.000805	0.001366	0.001460	6547.925709	46044.037206	3951.937947	24330.954741
5.536000	0.000163	0.000618	0.000372	0.002236	6554.403553	46108.451627	3947.082580	24292.460746
6.037000	0.001296	-0.000086	-0.000677	0.001306	6572.367576	46131.000349	3946.757033	24338.589691
6.537000	0.001826	0.000314	0.000838	0.000955	6580.058545	46205.965566	3951.873705	24356.009046
7.034500	0.000226	-0.000042	-0.002810	0.001498	6561.373603	46116.335692	3940.411332	24329.085384
7.534500	0.002355	0.000336	0.001531	0.001850	6576.865969	46118.914056	3951.321935	24311.624390
8.035500	0.002084	0.000358	0.000237	0.001222	6579.982555	46183.672663	3949.493058	24342.765781
8.535000	0.000338	0.000136	0.004675	0.000000	6575.403034	46283.695751	3965.120028	24403.531416
9.035500	-0.000674	0.000546	0.002234	0.000126	6565.475196	46312.157906	3958.006559	24397.247576
9.539000	0.000905	-0.000200	-0.000339	-0.000320	6583.154825	46282.097980	3952.145838	24419.465730
10.036000	0.000000	-0.000105	-0.001085	-0.000207	6574.261254	46280.291631	3949.786605	24413.850879
10.536500	-0.000056	-0.000196	0.001621	0.000122	6570.900738	46238.333792	3956.326064	24397.472909
11.033500	0.000847	0.000000	-0.000881	-0.000082	6580.570960	46278.343265	3950.002758	24407.638055
11.539500	-0.000929	0.000235	0.000000	0.000107	6563.418816	46282.878802	3951.902487	24398.187563
12.035000	-0.000535	0.000345	0.000793	-0.000425	6571.493492	46347.149942	3955.550773	24424.698043
12.535000	0.000313	0.000860	0.002237	0.000297	6572.584776	46326.460158	3957.541184	24388.723146
13.035500	0.003587	0.000084	0.000874	-0.001219	6614.620845	46400.683921	3957.964333	24464.300632
13.537500	0.000152	0.000161	0.001875	-0.000405	6577.317710	46326.767758	3958.481469	24423.689020
14.044500	0.000917	0.000018	0.002595	-0.000218	6582.374863	46293.752104	3959.958428	24414.412093
14.541500	-0.002847	0.000045	0.000295	0.002172	6528.902961	46057.740331	3947.046070	24295.640178
15.040500	-0.001566	0.000002	-0.000230	0.001580	6545.100583	46112.553714	3947.231652	24325.023562
15.555500	0.001729	0.000383	0.000488	0.000115	6586.564107	46296.901998	3953.223609	24397.806383
16.037000	0.000532	0.000793	-0.001619	0.000376	6573.815293	46311.836627	3946.726152	24384.826832
16.540000	0.000507	0.000065	0.007701	-0.000137	6578.075339	46290.331212	3973.943979	24410.360023
17.035000	0.000507	-0.000635	0.004880	-0.000062	6577.423642	46212.891727	3965.863250	24406.642207
17.538000	-0.000533	-0.000530	0.003856	-0.000234	6569.851056	46240.513001	3963.496495	24415.209171
18.038000	0.001520	0.000481	0.003562	-0.001678	6600.458258	46486.652977	3966.690303	24487.223395
18.538500	-0.000465	-0.000573	0.001069	0.001160	6558.301336	46097.082362	3951.949670	24345.870737
19.036000	-0.000748	-0.000159	-0.000533	0.000649	6560.279255	46189.286919	3948.952253	24371.240225
19.539000	0.000700	0.000052	0.001505	0.000788	6571.677884	46196.471772	3954.168180	24364.311334
20.036500	-0.002023	0.000387	-0.000185	0.000957	6546.537035	46213.140349	3949.063971	24355.951747
20.537000	-0.000207	0.000780	0.003022	0.001098	6561.086392	46238.371786	3957.500164	24348.949307
21.034500	-0.000545	-0.000185	0.001824	0.000319	6564.915102	46219.692148	3956.340334	24387.633386
21.534500	-0.000255	0.000015	0.001906	0.000519	6565.704797	46219.661477	3956.016974	24377.705548
22.035000	-0.000330	-0.000263	-0.000103	0.000165	6568.141128	46227.307761	3951.461608	24395.338359
22.538000	-0.000516	-0.000592	0.000204	0.000316	6565.202017	46179.361451	3951.890317	24387.797565
23.035500	0.000404	0.000433	-0.001914	0.000997	6567.281618	46213.714664	3944.219878	24353.949191
23.538000	0.001156	0.000781	-0.002353	0.001424	6570.113513	46205.745216	3941.856514	24332.731368
24.036000	0.000234	0.000962	0.001813	0.001386	6562.408315	46227.676776	3953.370718	24334.626326
24.539000	0.000597	-0.000303	0.000822	0.000886	6569.929022	46151.253735	3952.019696	24359.439174
25.036000	-0.000806	-0.000253	-0.002485	0.000308	6562.739549	46213.956767	3944.541604	24388.184945
25.537000	-0.001253	0.000034	-0.002755	0.001216	6550.963094	46151.975011	3941.329153	24343.056271
26.037000	0.000491	0.000779	-0.002389	0.001480	6563.836318	46200.025106	3941.606622	24329.963766
26.540000	-0.000513	-0.000294	0.002937	0.000787	6561.124881	46162.146886	3958.125041	24364.398388
27.035000	-0.000795	0.000730	0.001433	0.001355	6553.742764	46207.656557	3952.413908	24336.180561
27.538000	0.000748	-0.000205	-0.003437	0.001046	6569.853378	46145.057914	3939.933116	24351.493823
28.036000	-0.000838	-0.000761	-0.001549	-0.001441	6577.717474	46338.207519	3951.901506	24475.398163
28.538500	0.002740	0.001015	0.000876	-0.000198	6598.183987	46391.693212	3955.154891	24413.412121
29.036500	0.000550	-0.000432	0.002270	-0.001272	6588.382239	46354.206658	3961.974384	24466.948300
29.550000	-0.000193	0.000143	-0.001010	0.001169	6560.582327	46167.547565	3946.219825	24345.393806
30.037000	-0.000041	-0.000721	0.000955	-0.001191	6582.504165	46317.106093	3958.111666	24462.922130
30.539500	0.002078	-0.000098	-0.002394	-0.000624	6596.111154	46322.776855	3947.342319	24434.648954
31.034500	-0.000552	-0.000531	0.000952	-0.001128	6577.481400	46329.826851	3957.928786	24459.772386
31.550500	0.000830	0.000860	0.000198	0.001116	6569.958173	46244.477739	3949.676833	24348.049204
32.035000	0.000987	-0.000187	0.002568	0.002032	6563.339713	46048.547931	3953.670427	24302.571566
32.538000	0.000163	-0.000072	-0.001330	0.001436	6561.362239	46119.442758	3944.616656	24332.150901
33.048500	0.000547	0.000247	0.000799	-0.000367	6580.431431	46331.561586	3955.406814	24421.794147
33.536500	-0.000906	0.000535	0.004255	0.000256	6562.326593	46298.024040	3963.242540	24390.768115
34.036000	0.003053	0.001015	0.001008	-0.000006	6599.242415	46372.453670	3954.988486	24403.846635
34.536500	0.001834	0.001141	0.000089	-0.000135	6589.681978	46397.972164	3952.814748	24410.272908
35.040000	0.000622	0.000210	0.002411	-0.000730	6584.272049	46364.261070	3960.864371	24439.920073
35.537000	-0.001257	0.000339	0.000498	0.002015	6544.003617	46102.731151	3948.032780	24303.428861
36.035000	0.000378	-0.000130	-0.000858	0.001344	6564.035631	46122.866489	3946.157167	24336.710338
36.535000	0.000292	-0.000235	0.001025	0.000744	6568.512531	46172.320537	3952.971772	24366.538116
37.035000	-0.001027	0.000120	-0.002579	0.001320	6552.021324	46150.163535	3941.523668	24337.893445
37.535500	-0.003131	-0.000475	-0.000352	0.001830	6529.401394	46040.057160	3946.212923	24312.596508
38.036000	-0.002152	0.000367	0.003655	0.001954	6536.788896	46111.583174	3956.884978	24306.462917
38.536000	-0.000197	0.000504	-0.002747	0.001560	6557.154714	46164.518283	3940.415463	24325.991952
39.036500	-0.000164	-0.000919	-0.000362	0.000501	6566.657540	46128.270629	3949.827023	24378.607813
39.536000	-0.000114	0.000656	0.000662	0.001842	6555.416722	46151.555165	3948.956385	24311.992097
40.037000	-0.000166	-0.000112	0.003306	0.001400	6558.812318	46119.053272	3957.448092	24333.929598
40.534500	-0.001742	-0.000183	0.005410	0.001166	6547.161509	46135.297078	3963.923465	24345.533803
41.035000	-0.000743	0.000840	0.001181	0.001673	6551.431436	46186.843303	3950.845217	24320.386878
41.543500	-0.000563	-0.000135	0.001589	0.001268	6556.507364	46129.891417	3953.080718	24340.485008
42.035500	-0.002272	0.000444	-0.001394	0.001843	6536.714190	46130.284365	3943.330529	24311.950342
42.535500	-0.000202	-0.000187	0.003681	0.001073	6561.336794	46144.152341	3959.389065	24350.154487
43.036000	-0.000147	-0.000710	0.002292	0.000895	6563.376819	46109.889546	3956.045669	24359.036908
43.536000	-0.001302	0.000118	-0.003137	0.001562	6547.543634	46125.826245	3939.347160	24325.906854
44.036500	-0.001310	-0.000343	0.001070	0.001550	6547.583012	46081.099795	3950.878956	24326.501818
44.534000	-0.000212	-0.000086	-0.003402	0.001425	6558.193576	46119.102674	3938.999889	24332.685405
45.034500	0.000378	0.000507	0.001552	0.001888	6559.292717	46132.108529	3951.273616	24309.715173
45.535000	-0.000006	0.000093	0.002443	-0.001538	6585.837951	46433.498579	3963.193257	24480.224323
46.038000	0.000982	-0.000151	-0.001750	-0.000154	6582.379804	46270.420253	3947.819932	24411.221654
46.535500	-0.000353	0.000235	0.000663	-0.000286	6571.863709	46322.220246	3954.810117	24417.771436
47.035500	0.001635	-0.000312	0.002616	-0.000451	6590.695296	46283.915021	3960.658959	24425.981524
47.535500	0.000748	-0.000020	-0.003688	0.000077	6578.317046	46260.459811	3941.891440	24399.719389
48.036500	0.003204	0.000255	0.000802	0.001294	6589.164573	46166.301872	3950.846422	24339.215245
48.536500	-0.000233	-0.000157	0.003872	-0.000503	6574.815765	46304.712015	3964.287037	24428.607624
49.042000	0.000380	0.000492	0.001362	-0.000122	6576.836423	46331.544557	3956.285044	24409.600935
49.537000	-0.001825	-0.000062	-0.000938	0.002175	6537.709178	46046.783881	3943.668624	24295.493895
50.034500	0.001026	0.000186	0.001493	0.000791	6574.507852	46209.604887	3954.129415	24364.204576
50.546500	0.000882	0.000141	0.005024	-0.000137	6581.361792	46298.013090	3966.474597	24410.378552
51.038000	0.000451	-0.000175	0.003371	-0.000369	6579.612140	46289.541765	3962.524725	24421.915463
51.536000	-0.000242	0.000056	0.000404	0.000402	6566.832940	46235.412158	3952.201060	24383.510562
52.036000	0.000580	-0.000583	0.003577	-0.001738	6592.739669	46385.860804	3966.901275	24490.260363
52.536000	-0.002785	0.001246	0.004456	0.010392	6459.191044	45364.570868	3935.990457	23892.246836
53.036500	-0.003355	-0.004937	0.004120	0.031262	6282.082891	42794.867764	3879.855752	22901.585879
53.536500	0.008778	-0.003091	0.007209	0.184044	5313.953572	31057.705667	3552.815438	16933.665782
54.037000	-0.013779	-0.025551	-0.031532	-0.127924	7711.721490	57821.397284	4248.932521	31810.687850
54.537000	-0.019815	-0.036885	-0.024839	-0.156410	7973.230792	60037.319880	4374.720301	33778.800883
55.034500	-0.002225	-0.053041	-0.021768	-0.201718	8782.145968	64010.179006	4565.211284	37187.595618
55.537500	-0.005093	-0.015161	-0.009216	-0.102614	7526.603189	55963.888273	4238.693443	30167.120485
56.035000	-0.000233	-0.066062	-0.010837	-0.222970	9111.997733	65181.111770	4704.212560	38913.282704
56.535500	0.002759	-0.023026	-0.014255	-0.146087	8121.728833	60505.216839	4375.688988	33050.625978
57.035500	-0.006550	-0.019579	-0.011414	-0.136878	7898.856941	59744.815527	4352.143116	32415.471144
57.536000	0.003315	-0.013199	-0.010427	-0.118849	7803.576644	58237.983803	4290.804207	31210.321956
58.039000	0.002349	-0.007014	-0.005939	-0.083712	7403.050635	54663.706270	4186.370142	29000.630140
58.537000	-0.000320	-0.005260	-0.009211	-0.068954	7221.313255	53134.230280	4128.290332	28124.520360
59.037000	0.000472	-0.002976	-0.005843	-0.043499	6976.270456	50520.061891	4060.351405	26681.686590
59.537500	0.005210	-0.000550	-0.004888	-0.022098	6818.409908	48480.550925	4000.466146	25532.353210
60.035000	0.005268	-0.000158	-0.002298	-0.007760	6687.870950	47037.432196	3967.308949	24793.405263
60.537500	0.006397	0.001753	0.000605	-0.001697	6643.750240	46616.710814	3958.544127	24488.191541
61.035500	0.007698	0.002487	0.000758	-0.004508	6680.476135	46975.690475	3966.762807	24629.158689
61.535500	0.009726	0.002361	0.006416	0.009105	6577.874297	45600.531920	3944.827628	23954.888059
62.036000	0.008092	0.004305	0.000811	0.005421	6595.833676	46158.596573	3939.589082	24135.292142
62.536500	0.012877	0.006298	0.002931	0.024704	6470.637105	44466.852377	3893.810060	23207.773100
63.036500	0.014494	0.006763	0.007592	0.037346	6378.186184	43315.191399	3873.130866	22621.662893
63.536500	0.013585	0.008753	0.007864	0.028818	6441.824468	44308.114194	3895.955463	23015.189851
64.037000	0.016426	0.011015	0.017581	0.053581	6261.696618	42213.003348	3857.207647	21893.566746
64.534500	0.020981	0.012963	0.014099	0.064449	6211.487254	41412.054100	3821.487284	21421.175120
65.038000	0.020087	0.013069	0.024576	0.067529	6180.256172	41148.704375	3839.752316	21289.416192
65.535500	0.020935	0.014072	0.021547	0.065445	6203.268504	41422.111424	3837.402912	21378.465139
66.036000	0.022201	0.015013	0.020903	0.055179	6295.321638	42431.329550	3861.581184	21823.364123
66.536000	0.024409	0.016760	0.019322	0.046475	6384.700738	43396.286098	3879.826678	22208.904011
67.036500	0.024102	0.018855	0.018075	0.047738	6371.700583	43474.155829	3873.364749	22152.502322
67.536500	0.023089	0.020157	0.019814	0.043186	6401.073068	44025.880410	3889.638010	22356.648802
68.036000	0.024670	0.019157	0.016663	0.026113	6559.881863	45579.644654	3926.496857	23141.594486
68.540000	0.022218	0.020971	0.018210	0.017938	6609.982774	46574.577229	3952.945779	23528.534024
69.037500	0.021921	0.022086	0.016670	0.020346	6586.219335	46444.511720	3942.133070	23413.804976
69.537500	0.025160	0.023105	0.019620	0.021271	6606.548838	46454.066488	3947.668915	23369.918661
70.062500	0.025395	0.022942	0.022273	0.021596	6605.746642	46404.986564	3954.060439	23354.486489
70.538000	0.025286	0.023150	0.020493	0.023761	6585.788542	46208.980511	3943.247817	23252.193675
71.038000	0.025177	0.023230	0.021174	0.029357	6536.152713	45661.355855	3929.911104	22990.082633
71.536500	0.024310	0.023600	0.020117	0.031083	6513.808580	45527.759351	3922.425198	22909.906934
72.036500	0.025775	0.023859	0.018589	0.034681	6495.525131	45200.617823	3908.762715	22743.815665
72.536500	0.027101	0.023325	0.027034	0.036984	6487.184194	44924.669160	3925.152358	22638.226793
73.036500	0.027894	0.023830	0.023146	0.042381	6448.109223	44452.930090	3900.464094	22392.929440
73.534000	0.029267	0.024871	0.024926	0.042779	6456.356630	44514.677873	3904.106907	22374.982043
74.035000	0.029478	0.025146	0.025002	0.045376	6436.221401	44292.261047	3897.474648	22258.144917
74.537500	0.029061	0.025108	0.026450	0.046703	6421.585036	44162.153496	3897.793429	22198.738743
75.035500	0.027793	0.025996	0.027143	0.051811	6368.548472	43762.344355	3886.264714	21971.648053
75.535500	0.029415	0.026665	0.024324	0.051288	6386.305623	43874.874827	3880.317218	21994.784777
76.036000	0.030455	0.026182	0.025267	0.052966	6381.018474	43671.096989	3878.420347	21920.686266
76.536000	0.030075	0.026126	0.027773	0.053630	6372.365226	43603.346784	3883.178267	21891.408909
77.036500	0.030533	0.027062	0.024308	0.059036	6331.698611	43185.666695	3860.432629	21654.977975
77.537000	0.031612	0.027796	0.033879	0.057955	6349.402203	43354.842240	3887.804486	21702.044470
78.037000	0.030906	0.026138	0.033959	0.058413	6339.858071	43157.802750	3886.822044	21682.099000
78.537500	0.030795	0.026681	0.028495	0.059908	6326.723032	43069.446659	3868.879409	21617.126856
79.035500	0.028007	0.027041	0.025548	0.063518	6274.888081	42769.288551	3852.233642	21461.172161
79.538000	0.032496	0.027099	0.027039	0.062767	6317.289229	42843.823487	3857.898779	21493.533557
80.035500	0.031964	0.027302	0.030515	0.063935	6303.470031	42754.915530	3863.756866	21443.240613
80.535500	0.031920	0.027551	0.030456	0.065222	6292.702546	42659.614839	3860.336232	21388.031593
81.036000	0.031115	0.027423	0.026779	0.069942	6248.327135	42217.303355	3839.229689	21186.870611
81.536000	0.033698	0.027961	0.031568	0.067545	6288.298820	42484.493543	3857.268721	21288.764977
82.036500	0.032071	0.028294	0.032399	0.068592	6266.785688	42419.346035	3856.720393	21244.191023
82.536500	0.034842	0.027905	0.028681	0.068852	6286.982183	42360.160741	3846.703804	21233.135100
83.035000	0.029832	0.027744	0.028838	0.074288	6203.696876	41853.855871	3833.552071	21003.574186
83.537500	0.035845	0.028021	0.027831	0.071264	6275.634050	42151.692385	3838.560710	21130.944195
84.037500	0.034560	0.029289	0.031300	0.072190	6257.891623	42182.672771	3844.903554	21091.824550
84.535500	0.037052	0.027899	0.030643	0.072581	6274.743512	42021.593037	3842.284135	21075.349031
85.038500	0.032141	0.027157	0.029536	0.077255	6198.521983	41535.717556	3827.948834	20879.507659
85.536000	0.035249	0.027713	0.028213	0.073685	6251.451726	41905.287728	3833.498949	21028.916002
86.036500	0.034968	0.028481	0.029959	0.074724	6240.921648	41880.949944	3835.250967	20985.303153
86.536500	0.036100	0.029775	0.037701	0.076283	6237.523335	41857.043924	3850.695367	20920.052854
87.036500	0.035310	0.028711	0.031529	0.076276	6231.304738	41762.124609	3835.295068	20920.344726
87.537000	0.034682	0.028515	0.032017	0.076791	6222.237891	41698.468176	3835.228503	20898.836658
88.037500	0.037854	0.029077	0.037044	0.077471	6242.030522	41687.910202	3846.063297	20870.516921
88.537500	0.035299	0.029171	0.035757	0.077724	6219.735847	41673.678483	3842.212078	20859.958170
89.035000	0.034595	0.029172	0.033990	0.078152	6210.789508	41635.494365	3836.747532	20842.154498
89.535500	0.037344	0.028835	0.035100	0.078589	6229.084767	41566.347403	3838.418782	20823.983273
90.036000	0.035810	0.029200	0.033725	0.079612	6208.853587	41507.626906	3832.470014	20781.517428
90.535500	0.036358	0.028846	0.034649	0.078878	6218.981084	41541.538997	3836.581109	20811.979658
91.036500	0.032848	0.028377	0.033029	0.084402	6148.242311	41010.870414	3818.986347	20584.076911
91.536500	0.036196	0.029340	0.033967	0.080435	6205.411299	41446.837944	3831.034075	20747.440133
92.037000	0.037284	0.029324	0.034043	0.081259	6207.491544	41372.257434	3829.190549	20713.403216
92.537000	0.035323	0.028698	0.036412	0.080805	6195.624128	41356.902191	3836.172695	20732.128467
93.035000	0.031561	0.029228	0.033707	0.086753	6120.167589	40879.140061	3814.908302	20487.945841
93.535000	0.038232	0.029942	0.037061	0.082132	6208.084099	41349.606795	3834.491754	20677.378415
94.035500	0.036111	0.029561	0.033241	0.082199	6190.872319	41309.878574	3824.901756	20674.621795
94.535500	0.035744	0.028887	0.031571	0.081529	6193.240120	41309.512653	3822.445902	20702.226367
95.036000	0.037037	0.030788	0.037912	0.083044	6191.504797	41343.719930	3834.341563	20639.831382
95.536500	0.037192	0.030535	0.036822	0.082966	6193.333601	41328.203242	3831.835961	20643.026668
96.036500	0.035191	0.029181	0.035869	0.082550	6180.907326	41245.114034	3830.509950	20660.149193
96.536500	0.038078	0.029642	0.035482	0.083080	6199.395573	41239.011378	3828.247562	20638.337789
97.037000	0.034257	0.028898	0.033872	0.088805	6125.113820	40670.930801	3810.325738	20404.463224
97.537000	0.038077	0.030088	0.032619	0.083533	6195.827542	41238.333553	3820.105828	20619.706779
98.040500	0.038273	0.029787	0.037185	0.084289	6191.429251	41144.989047	3829.465161	20588.684749
98.535000	0.039105	0.030314	0.040904	0.084311	6197.794394	41189.589319	3838.624418	20587.792620
99.035500	0.034033	0.029794	0.038928	0.089231	6120.117143	40711.938793	3821.602462	20387.174322
99.536000	0.038447	0.030436	0.033939	0.084416	6191.804607	41191.139061	3821.177213	20583.492534
100.035500	0.038364	0.029512	0.032904	0.084458	6190.821033	41105.870004	3818.543971	20581.766177
100.536000	0.036864	0.029727	0.035924	0.084239	6180.774022	41144.105447	3826.480603	20590.723286
101.037000	0.034695	0.028574	0.028373	0.089249	6125.069352	40604.051854	3796.025606	20386.445920
101.536500	0.040404	0.029978	0.035363	0.084749	6204.576445	41121.284830	3823.851096	20569.845765
102.037000	0.036198	0.029776	0.033481	0.084712	6171.878673	41106.684829	3819.331053	20571.349165
102.537500	0.038872	0.031267	0.039434	0.085539	6186.323085	41165.243789	3831.930482	20537.494651
103.037500	0.032098	0.030505	0.030333	0.091083	6091.143286	40612.516570	3796.326589	20312.247181
103.535500	0.037177	0.029680	0.036130	0.084864	6178.335715	41084.842826	3825.451426	20565.122837
104.035500	0.037034	0.031247	0.037672	0.085968	6168.599532	41125.618785	3826.526271	20519.952981
104.536000	0.036442	0.030433	0.036656	0.084923	6172.137029	41146.125536	3826.601099	20562.724178
105.036500	0.037529	0.030841	0.031811	0.091771	6127.470899	40581.828330	3798.214663	20284.480897
105.536500	0.038101	0.030331	0.035616	0.085825	6178.046280	41057.520896	3821.831990	20525.795875
106.037000	0.038574	0.030750	0.034060	0.086233	6178.554792	41058.520604	3817.033497	20509.133404
106.537000	0.037137	0.030359	0.036006	0.085958	6169.483005	41048.316557	3822.460775	20520.372577
107.037000	0.036157	0.030218	0.036144	0.090183	6129.131814	40665.865390	3812.491729	20348.601033
107.537500	0.039855	0.030328	0.036607	0.085872	6191.419271	41053.105184	3824.146829	20523.872911
108.035000	0.040203	0.031084	0.036466	0.086139	6192.063508	41096.264936	3823.147036	20512.997137
108.535000	0.038329	0.031245	0.036639	0.086284	6176.243563	41097.637926	3823.215633	20507.071166
109.035500	0.035857	0.029485	0.033184	0.091103	6119.746135	40522.007912	3803.114288	20311.421949
109.536000	0.038956	0.030500	0.039199	0.086323	6180.837660	41028.580795	3829.415499	20505.463957
110.111500	0.038048	0.031016	0.043665	0.086541	6172.047056	41054.829629	3839.947055	20496.597239
110.536500	0.038190	0.030844	0.038878	0.086579	6172.858838	41036.382298	3827.995259	20495.045020
111.044500	0.035318	0.030205	0.035922	0.091837	6109.979418	40520.896508	3807.949067	20281.842974
111.536500	0.039808	0.030700	0.036414	0.086806	6183.730278	41003.632935	3821.383364	20485.758859
112.034500	0.037093	0.030723	0.036652	0.086910	6161.723655	40996.611101	3821.712681	20481.533943
112.534000	0.038244	0.030271	0.037568	0.086275	6175.651156	41012.663652	3825.517544	20507.445097
113.034500	0.033779	0.030056	0.033557	0.092032	6096.724415	40491.011577	3801.780307	20273.990817
113.535500	0.037954	0.030415	0.039247	0.086999	6167.734983	40961.662132	3827.868601	20477.902401
