sample name	sample
index	806
start time	 03-31-2021  03:06:37 PM
880	0.022726
Peak Time (s)	92.035
Peak Height 	0.02273
calc peak height	90,93
Baseline Time (s)	10.035
Baseline Value 	-0.002035
subtract baseline	10,4
Abs	-0.009818
Peak Time (s)	90.537
Peak Height 	-0.009818
calc peak height	90,93
Baseline Time (s)	10.536
Baseline Value 	0.003195
subtract baseline	10,3
PK_550	-0.005049
Peak Time (s)	90.537
Peak Height 	-0.005049
calc peak height	90,93
Baseline Time (s)	11.536
Baseline Value 	2.3497E-4
subtract baseline	10,2
PK_880	-0.017485
Peak Time (s)	90.537
Peak Height 	-0.01748
calc peak height	90,93
Baseline Time (s)	9.037
Baseline Value 	-1.6053E-4
subtract baseline	10,1


Time (s)	A880-A510	A880-A775	A880-A975	A880	I510	I775	I975	I880	
0.034500	0.002860	0.000189	-0.001529	0.002150	6710.985904	40011.526174	4064.309763	21928.243238
0.538000	-0.000795	0.000396	0.000777	0.003528	6669.867696	39912.308683	4066.346978	21868.725738
1.035000	-0.002073	-0.000929	-0.004004	0.002567	6667.297517	39881.611234	4057.995546	21910.241637
1.535000	0.000851	-0.000331	-0.002148	0.001373	6700.880096	40033.327674	4064.659202	21961.922804
2.035500	-0.000770	-0.000329	-0.003982	0.001259	6688.555850	40043.207127	4060.895136	21966.862015
2.536000	-0.003988	-0.000127	-0.005790	0.007304	6613.710691	39550.448881	4043.899999	21706.569859
3.036500	0.001144	-0.000460	0.000337	-0.002086	6731.765715	40317.084504	4077.779899	22112.460042
3.537000	0.001449	-0.000058	-0.001280	0.000526	6712.736395	40128.465161	4068.422976	21998.642225
4.037000	0.002159	0.000045	0.000443	0.000178	6721.452442	40166.919069	4072.993283	22013.768028
4.537500	0.001522	-0.000771	-0.001481	-0.000611	6722.709146	40164.635087	4070.488215	22048.118331
5.035000	-0.001124	-0.000402	-0.001214	-0.000627	6701.084153	40197.366944	4071.111440	22048.782271
5.535000	0.002518	0.000556	-0.005041	-0.000617	6730.974241	40278.354910	4062.679843	22048.363186
6.035500	0.000904	-0.000552	-0.004747	-0.000952	6720.420546	40212.408214	4064.058218	22062.977016
6.536000	-0.000114	-0.000497	-0.003842	0.000139	6703.081292	40124.106158	4063.649271	22015.467371
7.035500	0.000463	-0.000588	-0.007107	-0.000559	6713.549609	40175.717112	4058.043331	22045.824773
7.536000	0.001986	-0.000169	0.000362	-0.000196	6723.106192	40180.539248	4073.640780	22030.023299
8.036500	0.000592	0.000173	0.000321	0.000474	6706.123568	40152.551266	4072.068181	22000.899054
8.539000	-0.003531	-0.001207	-0.005128	0.004603	6639.045962	39686.459996	4051.140678	21822.411618
9.037000	0.000000	-0.000355	-0.004973	-0.000768	6711.464474	40213.402759	4063.158885	22054.929128
9.537000	-0.000320	0.000369	0.001730	-0.000303	6705.015040	40235.468280	4076.910174	22034.683240
10.035000	0.002853	0.000425	0.005033	0.000000	6728.642508	40214.446706	4083.595692	22021.519957
10.535500	-0.002722	-0.000177	0.000000	0.004870	6643.410557	39750.691750	4061.704837	21810.933212
11.035000	0.003611	0.000920	-0.001227	0.000389	6731.693233	40223.537371	4068.842665	22004.609499
11.536000	0.000987	0.000000	0.000439	-0.000655	6718.658740	40234.078719	4074.828702	22050.016268
12.036000	0.001247	-0.000068	-0.003536	-0.000850	6722.405877	40244.950849	4066.490111	22058.505595
12.536500	0.000807	0.000088	0.000530	-0.000442	6715.425796	40223.447979	4074.559495	22040.749208
13.039000	0.000458	-0.000253	0.000505	0.000270	6706.705205	40133.749916	4072.927768	22009.802470
13.537000	0.000703	-0.000177	0.000317	0.000956	6703.082775	40081.803767	4070.997312	21979.992747
14.037500	-0.000590	0.000116	-0.007552	0.002252	6681.921629	39996.694873	4050.983121	21923.855404
14.537500	-0.000257	0.000059	-0.001784	0.002835	6679.887433	39942.500263	4062.254886	21898.663155
15.037500	0.000895	-0.000022	0.003872	0.000585	6707.701872	40126.580095	4079.699992	21996.092141
15.535500	-0.000510	0.000457	-0.001545	0.001019	6692.644251	40130.450826	4066.759833	21977.283205
16.036000	0.002423	0.001189	-0.003697	0.001860	6709.782165	40121.143234	4060.205794	21940.822174
16.535500	-0.001795	0.000068	-0.009855	0.006097	6640.991074	39668.063661	4037.791572	21758.231138
17.036000	0.001747	0.000008	0.003055	-0.002958	6743.972518	40431.845069	4085.789707	22150.581251
17.536500	0.000030	-0.000765	-0.002135	0.000537	6701.002432	40067.483259	4066.521440	21998.186747
18.037000	-0.000044	-0.000139	-0.001424	0.001075	6695.995725	40074.926751	4066.901003	21974.836237
18.537000	-0.000144	-0.001060	-0.003424	0.000765	6697.706493	40023.032989	4063.194948	21988.274697
19.037000	-0.001162	-0.000408	-0.000680	0.001500	6683.394742	40016.088170	4067.604100	21956.428605
19.534500	0.000609	0.000162	-0.001516	0.001597	6697.065714	40056.161401	4065.552907	21952.192683
20.034500	0.001234	-0.000388	0.006518	0.001886	6699.812232	39984.998487	4082.700782	21939.690872
20.535500	-0.000072	-0.000166	-0.003053	0.001382	6693.255186	40046.647996	4062.657224	21961.541022
21.035000	0.000361	-0.000188	-0.000528	0.001686	6694.304820	40018.874268	4067.527688	21948.355055
21.535500	-0.001613	-0.000825	-0.000888	0.001276	6681.539504	39999.639267	4067.638286	21966.125969
22.036000	0.000532	-0.000568	-0.002172	0.001077	6700.691702	40038.285839	4065.253956	21974.727828
22.536500	0.000554	-0.000499	0.000103	0.001339	6698.728803	40021.967308	4069.679409	21963.377682
23.036500	-0.000706	-0.001002	0.001841	0.000552	6694.850882	40046.074067	4075.261611	21997.525000
23.537000	0.000614	0.000238	0.000144	0.001593	6697.135331	40062.967114	4069.210661	21952.372174
24.037500	0.000752	0.000339	-0.003793	0.001881	6695.911286	40047.087105	4059.949515	21939.890032
24.535000	0.000331	0.000262	-0.000182	0.001669	6694.193848	40058.530766	4068.324995	21949.065080
25.035500	0.002022	0.000948	-0.002645	0.002316	6702.751985	40061.873838	4061.506036	21921.072739
25.536000	-0.001068	0.000412	-0.001888	0.001907	6680.837904	40051.097290	4064.056118	21938.773836
26.036000	-0.000341	-0.000061	-0.003205	0.001378	6691.086353	40055.805697	4062.332796	21961.701741
26.536000	-0.000431	0.000038	-0.000554	0.001512	6689.253645	40052.837738	4067.851737	21955.870645
27.038500	0.002391	0.000268	-0.002130	-0.000894	6732.220174	40277.417806	4069.680769	22060.443598
27.539500	0.001439	0.000555	0.006247	0.000356	6714.052143	40195.184275	4085.515114	22006.030419
28.036500	-0.002276	-0.000095	-0.003732	0.000515	6682.331620	40126.313510	4063.067669	21999.136303
28.537500	-0.001543	-0.000343	-0.001565	0.005518	6647.697135	39682.241582	4056.881178	21783.107249
29.035000	0.000615	-0.001312	-0.001018	0.000124	6709.186547	40056.062816	4069.886628	22016.116844
29.535000	-0.002336	-0.000097	-0.003987	0.000645	6680.782072	40115.083260	4062.224384	21993.481354
30.035500	0.002684	0.000816	0.007988	0.001750	6712.829728	40098.702802	4086.294002	21945.564898
30.535500	-0.000323	-0.000749	-0.000802	0.002783	6679.766827	39878.536230	4064.518325	21900.899828
31.036000	-0.000361	-0.000682	-0.005263	0.002258	6683.739711	39928.563933	4055.930375	21923.602338
31.539000	0.001250	-0.000473	-0.000002	0.000363	6712.443848	40107.083892	4071.602807	22005.747032
32.036000	0.002283	-0.000259	0.006628	0.000662	6718.486749	40099.869796	4085.684152	21992.764173
32.536500	0.001891	-0.000402	-0.000254	0.000830	6713.880201	40073.436043	4070.015560	21985.461467
33.037000	-0.000998	-0.000836	-0.003326	0.000720	6691.089317	40045.870799	4063.508324	21990.235323
33.534500	0.000346	0.000379	-0.003240	-0.001766	6722.526779	40361.420021	4069.154837	22098.453840
34.035000	0.001928	0.000156	0.002115	0.001972	6704.797693	40023.844940	4072.724456	21935.965510
34.535500	0.000140	0.000432	-0.002311	0.002402	6686.646608	40010.715268	4062.048493	21917.355556
35.035500	-0.000832	0.000802	-0.000618	0.002055	6681.552745	40071.604426	4066.517464	21932.353033
35.535500	0.000417	-0.000038	-0.004464	0.001677	6694.836207	40032.376709	4058.931165	21948.733232
36.039000	0.001552	0.000180	0.003714	0.001938	6701.995542	40028.796293	4076.342842	21937.452335
36.539000	-0.001001	0.000202	-0.006500	0.002174	6679.206041	40010.597292	4053.428681	21927.225431
37.036500	-0.001407	0.000160	0.000382	0.001824	6678.749310	40036.707733	4069.225757	21942.364921
37.536500	-0.000297	-0.000650	-0.005304	0.001324	6691.882372	40010.423762	4057.869919	21964.026826
38.037000	0.000166	0.000053	0.001177	0.001632	6693.159186	40043.977347	4071.404900	21950.703932
38.537500	0.001614	-0.000044	-0.004072	0.001821	6703.459514	40019.692444	4059.472194	21942.502933
39.035000	0.000797	0.000056	-0.002086	0.001700	6697.759656	40038.450782	4064.078651	21947.756662
39.535000	0.001662	-0.000838	0.001902	0.001515	6706.366510	39978.259718	4073.264366	21955.753300
40.035500	0.001189	-0.000015	-0.003631	0.001767	6700.426379	40026.732423	4060.551928	21944.857554
40.536000	0.000773	-0.000563	0.000730	0.001580	6698.541990	39996.032631	4070.529459	21952.922588
41.036000	-0.000761	0.000267	-0.004380	0.002391	6679.394831	39997.772493	4057.560227	21917.856761
41.536500	-0.001495	0.000025	0.003800	0.002266	6674.435655	39987.762869	4075.803466	21923.222992
42.036500	-0.000331	-0.000898	-0.002891	0.001476	6690.367411	39976.520973	4062.805675	21957.452643
42.537000	0.000318	-0.000291	-0.008418	0.001880	6692.373839	39993.766684	4049.916917	21939.960274
43.034500	-0.000983	0.000239	0.003257	0.002161	6679.462471	40014.866426	4074.834107	21927.799881
43.534500	-0.000014	0.000030	0.003131	0.000929	6697.433116	40101.764036	4077.286811	21981.172180
44.035000	0.001765	-0.000043	0.000202	0.000758	6713.432511	40109.996205	4071.179658	21988.577277
44.535500	0.000620	-0.000575	-0.002100	0.000286	6707.908350	40104.945516	4067.149845	22009.099213
45.036000	-0.001293	-0.000176	-0.001122	0.000803	6687.998918	40094.902915	4068.162635	21986.614337
45.536000	0.000656	-0.000213	-0.000897	0.000610	6705.542476	40108.222084	4069.083314	21995.031649
46.036000	0.000883	0.000497	-0.002332	0.001385	6701.042304	40102.646409	4064.228015	21961.371062
46.536500	0.000470	0.000125	-0.004480	0.000936	6701.344338	40109.253964	4060.512715	21980.874320
47.039500	-0.001577	-0.000975	0.002538	0.001453	6680.387299	39971.979980	4074.809835	21958.457786
47.537000	-0.001769	-0.000130	-0.007251	0.002503	6670.284258	39954.541713	4051.090638	21912.992629
48.034500	0.000031	-0.000439	0.000951	0.000872	6698.269403	40066.736862	4072.583131	21983.651723
48.534500	0.000560	-0.000563	-0.004520	0.000766	6703.471866	40065.226414	4060.796192	21988.255084
49.035500	0.001792	0.000490	-0.001000	0.001048	6711.266593	40130.760734	4067.892310	21976.001679
49.535500	0.001625	-0.000034	0.000497	-0.002165	6736.395089	40360.302410	4078.309515	22115.905630
50.038500	0.003683	0.000460	-0.001213	-0.000914	6743.076891	40295.439981	4071.747058	22061.296745
50.536000	0.003315	0.000078	-0.002763	-0.001030	6740.986320	40272.708959	4068.585026	22066.347793
51.036500	-0.029923	0.003183	-0.009342	0.149859	5497.338675	29571.973870	3777.839241	16510.490369
51.536000	-0.044945	-0.003293	-0.018697	0.021430	6200.157847	38130.484207	3987.697299	21112.269811
52.037000	-0.051886	-0.041412	-0.035785	-0.245142	8702.217718	62328.316716	4666.940273	36345.576131
52.537000	-0.044827	-0.108595	-0.016160	-0.335251	10096.390288	65535.000000	5113.759797	44002.751397
53.034500	-0.043433	-0.116231	-0.014130	-0.342888	10242.510745	65535.000000	5158.800641	44727.681112
53.535000	-0.046676	-0.100272	-0.018273	-0.326929	9935.413351	65535.000000	5066.245128	43227.091485
54.035000	-0.040944	-0.086730	-0.015926	-0.312306	9797.733636	65379.982016	5011.796545	41899.673929
54.538500	-0.036865	-0.068537	-0.017274	-0.288772	9506.176634	64619.777342	4906.046850	39855.123886
55.036000	-0.027881	-0.063622	-0.015239	-0.282765	9549.939577	64465.387982	4889.716405	39350.687192
55.536000	-0.026356	-0.038703	-0.018350	-0.240824	8980.518383	62109.423798	4714.601002	36016.984015
56.036500	-0.024591	-0.025899	-0.017697	-0.209888	8601.230399	59699.453238	4606.697623	33756.299275
56.537000	-0.018058	-0.020453	-0.010809	-0.188173	8413.693406	57621.244576	4556.550606	32262.980681
57.037000	-0.020088	-0.015288	-0.011614	-0.158382	8041.247158	54619.656216	4458.324378	30332.010368
57.540000	-0.013737	-0.007554	-0.014441	-0.110044	7589.776835	50027.772856	4308.763367	27467.513970
58.035000	-0.017308	-0.007445	-0.017694	-0.081596	7273.646193	47067.907153	4224.556360	25924.807943
58.535000	-0.021609	-0.008216	-0.017521	-0.074770	7169.129481	46306.754260	4207.651749	25569.423434
59.035000	-0.024686	-0.007570	-0.016967	-0.046199	6886.109468	43620.549044	4139.239254	24141.173989
59.536000	-0.023440	-0.009096	-0.020767	-0.051992	6947.283802	44019.843947	4143.959838	24423.198164
60.036000	-0.022917	-0.007813	-0.017677	-0.045486	6895.229379	43531.648392	4135.880830	24106.726466
60.536500	-0.025028	-0.008331	-0.018634	-0.026124	6714.162867	41725.865492	4089.105010	23192.350369
61.036500	-0.026816	-0.008503	-0.018038	-0.024239	6684.085719	41543.738219	4086.213235	23105.509371
61.536500	-0.021645	-0.004368	-0.021140	-0.019321	6686.142049	41474.519900	4068.396071	22880.621756
62.037000	-0.020136	-0.005009	-0.026095	-0.022141	6721.651311	41667.226112	4063.709226	23009.264118
62.535000	-0.017155	-0.003463	-0.029876	-0.020551	6733.131464	41663.251651	4052.017169	22936.614740
63.035000	-0.015296	-0.003630	-0.027120	-0.021960	6760.258384	41773.570028	4061.071319	23000.979731
63.538000	-0.016350	-0.003318	-0.025243	-0.020941	6743.024221	41710.716665	4062.947913	22954.422925
64.038000	-0.015606	-0.003935	-0.024813	-0.019162	6734.452892	41498.688805	4060.000003	22873.404148
64.536000	-0.016992	-0.004028	-0.017543	-0.018929	6721.082224	41469.962354	4075.476335	22862.809118
65.036500	-0.016864	-0.003727	-0.024860	-0.019045	6723.100164	41506.757588	4059.642903	22868.099820
65.537000	-0.015362	-0.004064	-0.021707	-0.019355	6738.069641	41504.309414	4067.223176	22882.164168
66.036500	-0.016255	-0.003649	-0.022568	-0.018195	6721.116415	41438.686268	4062.792008	22829.527555
66.537000	-0.014621	-0.004054	-0.023706	-0.017640	6730.021745	41354.213231	4059.096383	22804.382676
67.037500	-0.015354	-0.004693	-0.020133	-0.016432	6714.015926	41192.140491	4064.264835	22749.743293
67.535000	-0.014632	-0.003724	-0.018253	-0.013964	6699.681941	41061.126781	4062.976005	22638.594981
68.035500	-0.012326	-0.002616	-0.023341	-0.011808	6700.910631	40969.802107	4047.253912	22541.997511
68.538000	-0.015079	-0.003160	-0.018858	-0.012059	6680.470008	40944.380258	4057.499445	22553.248117
69.036000	-0.014272	-0.003651	-0.018484	-0.011049	6678.820112	40813.989898	4056.117076	22508.146304
69.536000	-0.013406	-0.002664	-0.020927	-0.009592	6674.010693	40773.314246	4047.681950	22443.269279
70.036000	-0.014599	-0.002915	-0.020900	-0.008127	6652.458924	40625.005093	4044.590236	22378.249820
70.536500	-0.012960	-0.002901	-0.021865	-0.006202	6650.137814	40460.551836	4038.408032	22293.118611
71.037000	-0.015263	-0.003752	-0.020578	-0.005826	6628.571519	40355.387000	4040.352912	22276.566442
71.534500	-0.014479	-0.002278	-0.016247	-0.003800	6618.614431	40308.225870	4045.291009	22187.501044
72.035000	-0.013394	-0.002799	-0.018491	-0.004167	6630.262671	40295.037458	4041.268254	22203.603502
72.535500	-0.014564	-0.003056	-0.026597	-0.003347	6614.310905	40203.116735	4022.375712	22167.643407
73.038000	-0.012316	-0.002233	-0.019154	-0.003010	6629.622634	40244.495444	4037.384053	22152.857395
73.535500	-0.013501	-0.003481	-0.020928	-0.003602	6624.861734	40188.530467	4034.869741	22178.793571
74.036000	-0.013953	-0.003138	-0.023101	-0.003033	6616.684882	40169.301581	4029.064242	22153.871650
74.536000	-0.014005	-0.002742	-0.014329	-0.001576	6604.636385	40079.058355	4044.632617	22090.184133
75.036500	-0.014551	-0.004499	-0.020857	-0.002829	6610.272407	40036.148012	4033.378736	22144.921010
75.537000	-0.015422	-0.003734	-0.021091	-0.002294	6599.066224	40055.734030	4031.750916	22121.530074
76.036500	-0.015759	-0.003624	-0.020568	-0.001435	6589.555887	39992.217234	4031.039781	22084.017546
76.537500	-0.013975	-0.004648	-0.024525	-0.001275	6602.472788	39891.919907	4022.375643	22077.045878
77.037500	-0.015486	-0.003645	-0.016394	-0.000072	6580.912570	39875.003514	4037.003354	22024.639678
77.538000	-0.013874	-0.003492	-0.022290	0.000833	6586.521270	39811.556079	4022.641458	21985.353685
78.036000	-0.015064	-0.003835	-0.020830	0.001578	6571.201339	39719.878321	4024.139675	21953.021014
78.536000	-0.015908	-0.003595	-0.017443	0.002789	6555.013401	39638.202295	4028.717884	21900.628982
79.036000	-0.015355	-0.004942	-0.018356	0.002441	6562.104008	39554.467288	4027.526881	21915.663821
79.536000	-0.014598	-0.003811	-0.019125	0.004458	6552.199046	39480.332057	4021.677883	21828.666915
80.036500	-0.013125	-0.004911	-0.017136	0.005047	6559.143750	39339.389327	4024.612865	21803.319264
80.539500	-0.014340	-0.005049	-0.018646	0.005829	6543.465707	39262.829853	4019.811961	21769.737612
81.037000	-0.016535	-0.004632	-0.022951	0.006868	6518.232514	39211.197256	4008.717894	21725.230587
81.537500	-0.014414	-0.005132	-0.014964	0.006906	6534.469219	39166.607311	4025.271481	21723.615587
82.035000	-0.016445	-0.005614	-0.014563	0.007806	6511.645725	39052.240334	4024.222250	21685.110038
82.535000	-0.015700	-0.006338	-0.018617	0.008652	6510.864578	38922.820331	4013.994224	21649.038762
83.035000	-0.015148	-0.005262	-0.023235	0.010538	6500.525760	38856.138498	4000.593132	21568.785901
83.535500	-0.015623	-0.005932	-0.013367	0.010593	6496.438397	38796.611545	4020.889595	21566.477036
84.036000	-0.018882	-0.006283	-0.018397	0.011008	6468.183284	38733.883133	4009.571473	21548.881162
84.536500	-0.017410	-0.005886	-0.016959	0.012823	6465.548183	38617.925507	4008.792946	21472.065525
85.037000	-0.018431	-0.006326	-0.019809	0.013218	6454.733266	38549.855871	4002.122834	21455.424232
85.537000	-0.017628	-0.006140	-0.016487	0.014430	6451.613863	38466.372728	4006.453164	21404.365013
86.034500	-0.016719	-0.006156	-0.019675	0.014891	6455.032088	38427.614716	3998.974780	21384.969445
86.534500	-0.018039	-0.006139	-0.019722	0.015727	6438.624727	38361.232684	3997.174822	21349.880873
87.037500	-0.018073	-0.005213	-0.012404	0.017512	6424.847229	38291.706269	4008.516837	21275.194073
87.535500	-0.019786	-0.006425	-0.015525	0.017562	6411.551069	38189.777003	4002.000065	21273.106686
88.036000	-0.017607	-0.006069	-0.019210	0.018048	6424.322462	38179.335595	3993.498890	21252.827200
88.536000	-0.020187	-0.006436	-0.018161	0.019117	6396.855810	38063.751140	3993.457181	21208.282422
89.036500	-0.020899	-0.006567	-0.024416	0.019707	6387.109844	38005.852866	3979.680434	21183.725380
89.537000	-0.018202	-0.007019	-0.015413	0.020051	6404.739669	37942.095743	3997.143182	21169.443069
90.036500	-0.020748	-0.007300	-0.013212	0.020373	6383.264631	37893.794994	4000.979461	21156.066483
90.536500	-0.017485	-0.005049	-0.009818	0.022618	6390.875855	37894.329776	4003.333668	21063.198079
91.037500	-0.018758	-0.007030	-0.016245	0.021531	6389.486094	37822.899343	3992.447336	21108.114114
91.538000	-0.020154	-0.005827	-0.016320	0.022400	6372.588256	37849.622533	3990.537605	21072.189450
92.035500	-0.018619	-0.006544	-0.019083	0.022726	6381.593835	37766.406798	3984.315275	21058.738687
92.541000	-0.019385	-0.006752	-0.016309	0.022299	6379.066791	37783.847756	3990.764207	21076.361843
93.036000	-0.018607	-0.006995	-0.017622	0.022817	6381.000489	37723.245526	3987.069564	21054.962847
93.536000	-0.020260	-0.006884	-0.012940	0.023598	6362.905484	37670.012008	3994.959014	21022.786291
94.036500	-0.020208	-0.007136	-0.010540	0.023835	6361.529853	37631.205491	3999.365085	21013.023533
94.537000	-0.019119	-0.007755	-0.014578	0.023950	6368.762855	37572.951661	3990.925673	21008.280991
95.036500	-0.017974	-0.007533	-0.014456	0.024579	6372.601003	37540.758632	3989.901539	20982.436948
95.537000	-0.020806	-0.007349	-0.017075	0.024709	6350.634400	37544.985377	3984.364955	20977.064851
96.038000	-0.021456	-0.008137	-0.014211	0.024686	6346.010263	37484.565302	3990.179008	20978.025956
