sample name	sample
index	754
start time	 03-31-2021  12:02:11 PM
880	-0.027182
Peak Time (s)	90.04
Peak Height 	-0.02718
calc peak height	90,93
Baseline Time (s)	11.539
Baseline Value 	-0.004515
subtract baseline	10,4
Abs	-0.008804
Peak Time (s)	92.536
Peak Height 	-0.008804
calc peak height	90,93
Baseline Time (s)	11.539
Baseline Value 	0.001743
subtract baseline	10,3
PK_550	-0.000815
Peak Time (s)	91.538
Peak Height 	-8.1505E-4
calc peak height	90,93
Baseline Time (s)	9.034
Baseline Value 	3.9088E-4
subtract baseline	10,2
PK_880	-0.010955
Peak Time (s)	91.538
Peak Height 	-0.01096
calc peak height	90,93
Baseline Time (s)	11.036
Baseline Value 	0.002623
subtract baseline	10,1


Time (s)	A880-A510	A880-A775	A880-A975	A880	I510	I775	I975	I880	
0.038000	-0.004451	-0.001168	-0.000120	0.006241	6668.693850	40434.758060	3965.283525	22098.172980
0.535500	-0.003172	-0.000453	-0.004626	0.005630	6684.742505	40549.153987	3956.300450	22125.099261
1.036000	-0.005307	-0.000398	-0.002576	0.005420	6668.403328	40572.101698	3961.505929	22134.391739
1.535500	-0.002630	-0.000861	-0.002961	0.002157	6719.087655	40815.139296	3968.169069	22278.904818
2.039000	-0.003379	-0.000723	-0.002886	0.005509	6684.020796	40536.392414	3960.585336	22130.473496
2.536000	-0.002251	-0.000103	-0.002269	0.002427	6720.025575	40857.597237	3969.150219	22266.906045
3.036500	-0.000105	-0.000397	-0.001949	-0.000344	6762.517140	41074.018835	3976.362049	22390.376920
3.537000	-0.000633	-0.000191	-0.007740	0.001796	6739.402236	40904.931567	3957.957344	22294.951422
4.034500	-0.005623	-0.001257	-0.006927	0.005018	6669.127854	40532.646251	3952.432998	22152.142467
4.537500	-0.001255	0.000629	0.003071	0.001667	6735.147328	40987.868613	3983.437132	22300.695708
5.035000	-0.000159	0.000633	-0.005359	0.001547	6745.658927	40998.709890	3964.023546	22306.047473
5.535000	-0.001247	-0.001118	-0.001590	0.000231	6747.628299	40960.656217	3975.859183	22364.720549
6.036000	-0.002989	-0.000491	-0.000195	0.000526	6730.033850	40989.730462	3978.436600	22351.555043
6.536500	-0.001682	-0.001314	0.002280	0.000345	6742.878022	40933.560148	3984.690638	22359.622124
7.035500	-0.003578	-0.001517	-0.000123	0.000366	6726.342347	40914.018552	3978.981847	22358.684872
7.536500	-0.001405	0.000532	-0.006099	0.001496	6735.326236	40994.285828	3962.428639	22308.289774
8.037000	-0.003096	-0.000784	-0.000137	0.000192	6731.990029	40993.243383	3979.356453	22366.451450
8.536500	0.002138	0.000361	0.000800	0.000764	6772.393099	41043.428595	3980.214318	22340.911223
9.034500	0.001266	0.000000	-0.003080	0.000153	6770.127277	41065.337047	3972.558684	22368.195794
9.535000	0.000789	0.000358	0.000316	0.000387	6763.941833	41076.178781	3979.962326	22357.740792
10.034500	-0.001178	-0.000801	-0.001964	-0.000363	6753.369264	41040.342824	3976.373616	22391.234007
10.535000	-0.001960	-0.000595	-0.003572	-0.000486	6747.665009	41069.170992	3972.902494	22396.756749
11.035500	0.000000	-0.000460	0.000655	-0.000330	6763.308812	41067.320075	3982.447856	22389.757348
11.539000	-0.001645	0.000437	0.000000	0.000000	6746.176827	41117.052610	3980.130091	22375.023706
12.036000	-0.000719	-0.000119	0.002114	-0.000562	6759.080931	41117.613576	3986.440556	22400.148522
12.537000	-0.000837	-0.000038	0.000282	-0.000539	6757.850364	41122.679445	3982.061752	22399.110018
13.037500	0.001076	-0.000079	0.006433	-0.002238	6789.340495	41268.452825	4000.717398	22475.246402
13.537500	-0.002170	-0.000724	0.001960	-0.000330	6744.497680	41044.247119	3985.529724	22389.791970
14.035000	-0.001303	0.000001	0.004959	0.000011	6749.046272	41077.919706	3991.830187	22374.544430
14.535500	-0.004531	-0.000691	-0.003470	0.001669	6706.962030	40872.379978	3968.118874	22300.594364
15.035500	-0.002067	-0.000608	0.003580	0.000016	6742.395400	41024.078071	3988.545163	22374.326406
15.572500	-0.000393	-0.000314	0.003296	-0.000276	6759.426049	41075.372214	3988.561774	22387.341542
16.036000	-0.002740	-0.000300	0.001891	-0.000600	6741.897116	41104.983932	3986.001106	22401.829939
16.536500	-0.000149	-0.000548	-0.000556	-0.000850	6766.538346	41105.223545	3980.822894	22413.049529
17.036000	-0.003032	-0.000422	-0.001918	-0.000539	6738.848911	41089.044304	3976.894057	22399.132610
17.537000	-0.000658	0.000169	0.002683	-0.003661	6786.623672	41415.971194	3995.153461	22539.289833
18.037500	-0.003615	-0.000803	-0.001183	0.003014	6703.293156	40745.601071	3970.311099	22240.827709
18.537500	-0.001565	0.000227	-0.000550	0.000711	6740.724456	41036.355949	3977.168600	22343.278867
19.034500	-0.003460	-0.001420	0.002417	-0.000014	6730.629568	40955.682139	3985.862862	22375.669147
19.535000	-0.003672	-0.001118	-0.003860	0.000039	6728.344970	40977.478054	3971.004573	22373.276896
20.035500	-0.002172	-0.000949	-0.001671	0.000807	6734.652947	40925.147673	3974.322871	22339.016954
20.535500	-0.002586	-0.000893	-0.002130	0.000626	6732.636984	40945.757221	3973.669970	22347.059159
21.039000	-0.002222	-0.000397	0.001050	0.000617	6735.866419	40989.938910	3981.149869	22347.490005
21.536000	-0.003324	-0.000011	0.001838	0.001190	6721.431097	40973.641198	3981.653854	22321.938827
22.039500	-0.003059	-0.000754	-0.002177	0.000628	6728.555006	40957.832216	3973.556600	22346.996171
22.537000	-0.003223	-0.001760	-0.000429	0.000180	6730.993066	40909.047240	3978.699644	22366.968716
23.037500	-0.002253	-0.000127	0.002191	0.001001	6732.276549	40979.945125	3982.931563	22330.335563
23.537500	-0.001646	-0.000280	0.002385	0.000759	6739.609702	40987.801358	3983.960878	22341.154964
24.035000	-0.001745	0.000459	0.005042	0.001081	6735.980256	41024.309537	3989.485000	22326.810865
24.535500	-0.002692	-0.000496	-0.001102	0.000574	6732.179906	40985.081856	3976.197726	22349.395342
25.035500	-0.002333	-0.001155	-0.000795	-0.000247	6742.370449	40999.263678	3978.843069	22386.079538
25.536500	0.000077	0.000824	0.001006	0.001672	6746.615821	41004.454005	3978.564705	22300.462615
26.036000	-0.003601	-0.000561	-0.001966	0.000665	6723.567667	40971.442195	3973.963206	22345.338186
26.536000	0.001077	0.000451	0.000434	0.001254	6758.904098	41008.324095	3978.202562	22319.060111
27.037000	-0.003329	-0.000712	0.001361	0.000433	6727.899849	40978.513047	3982.314570	22355.682824
27.538500	-0.001073	-0.000403	-0.002277	-0.000012	6751.240452	41044.510573	3974.818972	22375.575930
28.037500	-0.000755	-0.000552	-0.001181	-0.003064	6780.555672	41299.555307	3984.566820	22512.385961
28.538000	0.000582	-0.000720	-0.001842	-0.001108	6775.158144	41112.804862	3978.407905	22424.606297
29.059500	-0.001246	0.000073	0.009340	-0.000227	6751.605086	41105.080521	4002.871375	22385.182926
29.535500	-0.001747	-0.000251	0.001609	-0.000429	6749.017565	41094.362603	3984.932716	22394.212165
30.035500	-0.000703	0.000635	0.002467	-0.000053	6754.802110	41139.119926	3986.073008	22377.407473
30.539000	-0.001839	-0.000085	0.003988	-0.000360	6747.617231	41102.780516	3990.402443	22391.094613
31.059500	0.000819	-0.000206	0.000166	-0.000617	6772.937333	41114.756835	3981.971896	22402.588692
31.536500	-0.003345	-0.000361	-0.005322	0.001484	6718.730925	40917.417216	3964.255105	22308.857243
32.037000	-0.003345	-0.000599	-0.001236	0.001278	6720.497673	40914.552309	3974.235718	22317.998029
32.580500	-0.000772	-0.000069	-0.004399	-0.000161	6755.142089	41086.828583	3970.214994	22382.217851
33.037500	0.002158	-0.000527	0.000516	-0.000321	6782.045930	41060.686409	3982.099175	22389.378422
33.538000	-0.003759	-0.000865	-0.001490	-0.001438	6740.328002	41128.998350	3980.007254	22439.355885
34.036500	-0.001307	-0.000507	0.001031	-0.000334	6752.002083	41063.574040	3983.344040	22389.951848
34.536000	-0.002437	0.000412	0.004447	-0.001552	6752.760453	41251.246464	3994.329024	22444.467211
35.039000	-0.002209	0.000015	-0.003326	0.000990	6732.762679	40993.426380	3970.034904	22330.859749
35.536500	-0.001204	0.000631	-0.001990	0.001776	6734.647957	40978.496238	3971.315092	22295.857505
36.036500	-0.004725	-0.000708	-0.002084	0.001385	6707.740757	40895.713972	3972.007292	22313.254098
36.536500	-0.006094	-0.000731	0.000960	0.000916	6700.036299	40934.634747	3980.233701	22334.148796
37.037000	-0.003122	-0.000036	0.001051	0.001222	6722.898726	40968.646411	3979.729114	22320.511261
37.537500	-0.002799	-0.000885	-0.005609	0.001034	6727.286987	40910.821289	3964.632053	22328.867480
38.035000	-0.004430	-0.001168	-0.001196	0.002231	6703.018000	40781.970107	3972.104584	22275.603352
38.535000	-0.001910	-0.000593	0.001091	0.000987	6735.361811	40940.476714	3980.374200	22330.963224
39.035500	-0.001797	-0.000005	0.004154	0.001421	6732.588316	40953.910563	3986.574445	22311.623578
39.536000	-0.002496	-0.000551	-0.001928	0.000868	6731.329537	40954.482021	3973.576430	22336.268185
40.036000	-0.001058	-0.001097	-0.000470	0.001172	6741.123923	40880.310974	3976.278045	22322.729528
40.536500	-0.003639	0.000173	-0.001439	0.001008	6720.285167	41005.610891	3974.393499	22330.032051
41.037000	-0.002216	0.000576	0.000370	0.001864	6725.166129	40965.927385	3976.622527	22291.906237
41.537000	-0.003493	-0.000962	0.001643	0.000378	6726.961731	40961.388900	3983.106920	22358.123841
42.037500	-0.002466	0.000416	-0.000550	0.001940	6722.361903	40945.339133	3974.293350	22288.531794
42.537500	-0.002549	0.000356	-0.000560	0.001634	6724.277716	40966.811754	3974.984414	22302.142947
43.035000	-0.002346	-0.000285	-0.003351	0.001100	6730.625615	40957.437053	3969.719720	22325.923486
43.535500	-0.002480	-0.001295	0.000756	0.000586	6733.904014	40914.223120	3980.529503	22348.873112
44.035500	-0.003256	-0.000931	0.000400	0.000983	6723.798503	40911.325491	3978.761029	22331.155385
44.539000	-0.003272	-0.000431	-0.001609	0.000871	6724.626688	40964.807174	3974.316261	22336.146273
45.036500	-0.000784	-0.000791	0.000841	-0.001560	6767.194144	41146.239447	3985.790513	22444.845083
45.536500	-0.002756	-0.000496	-0.000005	-0.000809	6743.561933	41106.122197	3982.022005	22411.183961
46.066000	-0.003531	-0.000962	0.000600	0.002333	6709.841456	40790.940471	3976.063011	22271.055463
46.537500	-0.002593	-0.000799	-0.007239	-0.000878	6745.575526	41085.644249	3965.284575	22414.295982
47.037000	-0.002489	0.000530	0.005926	0.000292	6736.368211	41099.632746	3993.461846	22362.002224
47.535000	0.000130	-0.000690	-0.003076	-0.000735	6767.961408	41082.631446	3974.639932	22407.866609
48.035500	-0.003189	-0.001001	0.003069	0.001146	6722.969775	40891.023563	3984.660067	22323.887873
48.535500	-0.003242	-0.000496	0.002861	0.000323	6729.600488	41006.998512	3986.115009	22360.600978
49.035000	-0.002918	-0.001205	0.000931	0.001012	6726.456184	40884.861397	3979.939862	22329.865253
49.536000	-0.001174	-0.000155	0.007915	0.000385	6746.930849	41031.444146	3997.988809	22357.852270
50.036000	-0.003884	-0.000079	-0.001684	0.003888	6693.532368	40732.531403	3967.115552	22202.099561
50.536500	-0.001966	0.000566	0.002193	0.000252	6741.223629	41106.214428	3984.702964	22363.761247
51.037000	-0.000736	-0.000383	-0.000963	-0.001934	6770.863463	41214.915679	3982.414875	22461.618857
51.537000	-0.001134	0.000052	0.000839	0.001203	6740.194105	40977.988867	3979.275015	22321.341938
52.037500	-0.002529	-0.001793	0.000240	-0.006887	6798.492077	41527.863484	3997.023203	22685.142918
52.535000	-0.050664	-0.004354	0.007644	0.257689	4842.542047	23831.277008	3533.233484	13691.850894
53.035500	-0.040331	-0.008332	-0.002344	-0.023150	6614.104427	42400.082451	4030.232248	23437.341622
53.535500	-0.048725	-0.021192	-0.012517	-0.153234	7786.863148	54606.028585	4370.819127	30584.158250
54.038500	-0.034930	-0.022635	-0.006107	-0.174934	8195.577868	57069.735091	4465.213742	31998.875024
54.535500	-0.015039	-0.012340	0.000186	-0.129684	7900.195415	52889.006826	4335.999527	29126.782398
55.036500	-0.017693	-0.010221	-0.006783	-0.121098	7774.682236	52151.741349	4287.558619	28614.784059
55.536500	-0.019826	-0.018108	-0.007055	-0.169132	8308.328548	56911.178129	4441.985670	31613.643521
56.037000	-0.017899	-0.019338	-0.014542	-0.190746	8604.696204	59501.569883	4491.014411	33075.155975
56.537000	-0.011470	-0.016847	-0.005225	-0.184700	8609.649698	59040.965023	4502.596627	32658.966879
57.034500	-0.007550	-0.010759	-0.012166	-0.153056	8261.977837	55838.936588	4371.383515	30572.857051
57.535000	-0.009521	-0.007561	-0.007923	-0.125951	7920.421358	53009.228937	4298.962621	28902.906869
58.035000	-0.010202	-0.006133	-0.008801	-0.109338	7727.854239	51291.156108	4246.075895	27929.733134
58.536000	-0.010078	-0.004897	-0.008110	-0.108022	7714.863423	51282.339901	4244.223728	27854.213160
59.038500	-0.011955	-0.005613	-0.011073	-0.094152	7546.538758	49687.911705	4195.370654	27072.149566
59.535500	-0.015615	-0.005924	-0.009395	-0.084923	7413.226058	48673.690624	4174.062830	26565.410738
60.036000	-0.015003	-0.006349	-0.010399	-0.082490	7394.717800	48374.170169	4164.487482	26433.622878
60.536500	-0.016744	-0.007325	-0.010172	-0.080528	7357.286847	48068.323611	4159.677937	26327.841132
61.033500	-0.016357	-0.005672	-0.011063	-0.080472	7360.627055	48234.338640	4157.064456	26324.840948
61.537500	-0.015488	-0.006593	-0.014795	-0.091085	7477.777114	49254.949287	4176.195014	26902.516514
62.034500	-0.015532	-0.005698	-0.009457	-0.088340	7449.045061	49058.447271	4183.484908	26751.785738
62.535500	-0.018155	-0.007240	-0.014894	-0.095525	7496.142581	49660.579978	4188.418787	27148.411902
63.035500	-0.017758	-0.008043	-0.012346	-0.101443	7562.180387	50213.266932	4212.617492	27480.110472
63.538000	-0.010996	-0.000428	-0.017201	-0.078545	7395.342076	48581.028521	4135.024996	26221.457320
64.040000	-0.011302	-0.001900	-0.014240	-0.077527	7381.925656	48320.459455	4140.296816	26167.014331
64.539500	-0.014165	-0.002275	-0.014783	-0.077544	7353.220877	48283.131435	4138.867574	26167.931848
65.056500	-0.010735	-0.000931	-0.016332	-0.075988	7372.091545	48261.055220	4130.461144	26084.953834
65.540000	-0.007265	-0.001094	-0.016250	-0.074000	7387.085677	48037.454590	4125.332060	25979.408915
66.037500	-0.009607	-0.000086	-0.016895	-0.070226	7325.566225	47751.616422	4113.527235	25780.368620
66.535000	-0.007199	0.000597	-0.015530	-0.069187	7339.257505	47714.861086	4114.392537	25725.826122
67.035000	-0.009646	0.000587	-0.022387	-0.067306	7296.108313	47520.758831	4091.382805	25627.518960
67.535500	-0.008597	0.000452	-0.017671	-0.064957	7283.231334	47266.849671	4097.570880	25505.318550
68.037500	-0.008120	0.000834	-0.017685	-0.061677	7255.599015	46972.541441	4088.970227	25335.769963
68.535500	-0.006324	0.001928	-0.016915	-0.059044	7247.385650	46816.968900	4084.133484	25200.618093
69.036500	-0.006445	0.001513	-0.016428	-0.056543	7221.745826	46523.899900	4078.928832	25072.983914
69.536000	-0.007410	0.001087	-0.014378	-0.054055	7188.211865	46232.846942	4077.799058	24946.717589
70.036500	-0.008984	0.001229	-0.021601	-0.047146	7106.957887	45564.568429	4041.985466	24599.912317
70.537000	-0.007406	0.002337	-0.016122	-0.047259	7123.027788	45684.327957	4056.016100	24605.523434
71.035000	-0.006827	0.002387	-0.012218	-0.044636	7103.616541	45432.260594	4059.258141	24475.276061
71.537500	-0.006819	0.002746	-0.016245	-0.042146	7080.154048	45224.543507	4042.872182	24352.322307
72.035000	-0.008747	0.001854	-0.015873	-0.038001	7023.326572	44737.778585	4033.497511	24149.251480
72.535500	-0.006578	0.001789	-0.013997	-0.038417	7047.416255	44771.547266	4039.182341	24169.542637
73.035500	-0.007120	0.001361	-0.011589	-0.036964	7028.817382	44590.998593	4041.559993	24098.743064
73.536000	-0.009374	0.000549	-0.013812	-0.036195	7000.779271	44439.950474	4034.129979	24061.365210
74.036500	-0.008859	0.001410	-0.012999	-0.031759	6964.711497	44100.210522	4025.199424	23847.045099
74.536500	-0.007129	0.001164	-0.008510	-0.033150	6993.388805	44208.661722	4039.729911	23913.999675
75.040000	-0.007796	0.001030	-0.011349	-0.031680	6973.731652	44056.854406	4029.062658	23843.249165
75.537000	-0.006578	0.000951	-0.017788	-0.031563	6983.853863	44038.352143	4013.032972	23837.659702
76.037500	-0.010913	0.000407	-0.013714	-0.028625	6917.489764	43710.642068	4015.791617	23696.946979
76.535000	-0.007140	0.000427	-0.012950	-0.029459	6959.405820	43790.900298	4019.687919	23736.819512
77.035000	-0.008367	0.001087	-0.010621	-0.028611	6940.466819	43773.190374	4023.309697	23696.293778
77.538500	-0.008116	0.000458	-0.011050	-0.028904	6945.426538	43741.607933	4022.977006	23710.287585
78.035500	-0.006599	0.000903	-0.011155	-0.027707	6948.341340	43671.165710	4019.791908	23653.199876
78.536000	-0.008909	-0.000154	-0.012626	-0.028094	6930.841163	43608.479505	4017.149646	23671.637440
79.039000	-0.007583	0.000335	-0.011744	-0.027375	6936.347685	43586.920732	4017.545218	23637.375420
79.537000	-0.007789	0.001469	-0.010190	-0.026236	6924.137819	43586.516615	4018.556647	23583.250051
80.037000	-0.009463	-0.000252	-0.013823	-0.024418	6892.627431	43257.197910	4005.346164	23497.196720
80.534500	-0.008874	0.000625	-0.011112	-0.026107	6913.149528	43495.710299	4015.995308	23577.130597
81.035000	-0.009846	0.000757	-0.013648	-0.026251	6905.680057	43521.456852	4010.193716	23583.994490
81.535000	-0.008087	0.001315	-0.011578	-0.025090	6911.075905	43465.179696	4012.394807	23528.945165
82.035500	-0.009926	0.000999	-0.010415	-0.025427	6897.532900	43467.177885	4016.038204	23544.917799
82.536000	-0.009019	0.001166	-0.013487	-0.025106	6902.806116	43452.767949	4007.812845	23529.695860
83.036500	-0.009906	0.000197	-0.012918	-0.025375	6897.239414	43387.679896	4009.838872	23542.437890
83.536500	-0.008035	0.000514	-0.009675	-0.025242	6912.921656	43404.820358	4017.389692	23536.155464
84.037000	-0.011042	0.000232	-0.010884	-0.024185	6876.361823	43280.472888	4011.882249	23486.167652
84.540000	-0.010765	-0.001070	-0.010148	-0.025828	6893.589710	43312.084535	4017.664527	23563.916996
85.037500	-0.009394	-0.000079	-0.010866	-0.025138	6899.714777	43340.000190	4014.238332	23531.216314
85.534500	-0.009175	0.000022	-0.004651	-0.025176	6902.037567	43352.932674	4029.540805	23533.030298
86.035000	-0.011004	0.001054	-0.010172	-0.023781	6873.092119	43319.258659	4012.631548	23467.104206
86.535000	-0.009227	-0.000486	-0.008000	-0.025601	6905.396551	43345.208864	4022.356931	23553.144880
87.037500	-0.009915	0.000273	-0.006225	-0.025353	6896.966580	43392.758821	4026.102062	23541.421467
87.538500	-0.009882	-0.000305	-0.008457	-0.025757	6900.906805	43376.533838	4021.620474	23560.560235
88.036000	-0.011443	-0.000164	-0.014506	-0.025106	6881.020644	43329.144539	4005.356302	23529.708341
88.536500	-0.011432	-0.001036	-0.013044	-0.026364	6892.412801	43365.018930	4011.928606	23589.360904
89.036500	-0.010886	-0.000757	-0.012609	-0.026606	6899.510967	43413.506925	4013.571454	23600.848063
89.537000	-0.011133	-0.000967	-0.008087	-0.026724	6898.338999	43404.915573	4024.897236	23606.438550
90.040000	-0.012011	-0.001624	-0.011154	-0.027182	6894.556535	43386.365501	4018.512322	23628.201761
90.535000	-0.011078	-0.001138	-0.013141	-0.027560	6906.372862	43466.840383	4014.597618	23646.210343
91.035000	-0.011974	-0.001633	-0.015702	-0.028191	6903.989646	43479.526314	4009.917986	23676.269642
91.538500	-0.010955	-0.000815	-0.010994	-0.027810	6909.745187	43520.268928	4020.439851	23658.127355
92.036000	-0.013628	-0.000954	-0.010850	-0.027761	6885.232369	43502.655484	4020.669758	23655.757421
92.536000	-0.011112	-0.000915	-0.008804	-0.028758	6916.888858	43599.376772	4028.133580	23703.299763
93.036000	-0.011283	-0.001296	-0.015389	-0.029229	6919.600444	43607.759254	4013.189859	23725.787953
93.536500	-0.010150	-0.002374	-0.004921	-0.029919	6936.141208	43571.525974	4040.620311	23758.786068
94.037000	-0.013959	-0.002941	-0.016458	-0.030298	6905.084685	43553.949133	4013.188654	23776.929530
94.534500	-0.010877	-0.001178	-0.012607	-0.029960	6929.919004	43687.287914	4021.750990	23760.775334
95.034500	-0.012512	-0.002057	-0.015546	-0.030612	6920.998505	43665.986516	4016.169459	23791.994301
95.540500	-0.012318	-0.002186	-0.012987	-0.031036	6926.598805	43693.635109	4023.454395	23812.311631
96.065500	-0.012333	-0.002406	-0.011446	-0.031254	6928.438825	43693.392200	4027.774518	23822.784833
96.538000	-0.014061	-0.001877	-0.009275	-0.030503	6906.018455	43672.684324	4031.274645	23786.783282
97.035000	-0.012805	-0.002709	-0.009674	-0.031644	6927.702738	43701.607524	4033.109082	23841.536976
97.538500	-0.012567	-0.001753	-0.011043	-0.030547	6919.914583	43688.394758	4027.027251	23788.896386
98.036500	-0.012727	-0.002527	-0.010789	-0.031322	6925.488251	43688.457307	4029.560567	23826.061996
98.537000	-0.010937	-0.002078	-0.013085	-0.030820	6937.177797	43683.524667	4022.685715	23801.960104
