sample name	sample
index	709
start time	 03-25-2021  10:58:24 AM
880	0.095472
Peak Time (s)	180.542
Peak Height 	0.09547
calc peak height	180,183
Baseline Time (s)	9.046
Baseline Value 	-0.003877
subtract baseline	10,4
Abs	0.058960
Peak Time (s)	181.037
Peak Height 	0.05896
calc peak height	180,183
Baseline Time (s)	8.537
Baseline Value 	0.005468
subtract baseline	10,3
PK_550	0.028600
Peak Time (s)	181.037
Peak Height 	0.0286
calc peak height	180,183
Baseline Time (s)	11.036
Baseline Value 	0.001197
subtract baseline	10,2
PK_880	0.054284
Peak Time (s)	181.037
Peak Height 	0.05428
calc peak height	180,183
Baseline Time (s)	11.542
Baseline Value 	0.003973
subtract baseline	10,1


Time (s)	A880-A510	A880-A775	A880-A975	A880	I510	I775	I975	I880	
0.037500	-0.003386	-0.001373	-0.000768	0.000200	7155.177868	44133.927347	3893.750620	23461.346538
0.538000	-0.002911	-0.001374	-0.004837	0.002496	7136.710817	43915.770757	3876.561415	23352.079047
1.035000	-0.003725	-0.001223	-0.005994	0.002386	7129.595505	43940.509344	3873.756569	23357.307930
1.535500	-0.005600	-0.000841	-0.002346	0.005622	7078.247129	43670.812899	3874.858612	23204.171874
2.036500	-0.001965	-0.000415	-0.003772	-0.000526	7177.061662	44294.635154	3887.571652	23496.060302
2.536000	-0.000878	-0.001301	-0.007071	-0.001208	7195.161114	44275.160375	3880.509255	23528.691917
3.036500	0.000816	-0.000182	-0.003394	-0.002419	7225.056736	44498.368057	3893.734543	23586.766149
3.536500	-0.002069	-0.000738	-0.003786	0.002098	7149.276967	44013.729554	3880.449902	23370.943662
4.037500	-0.001486	0.000232	-0.002720	0.000444	7172.041565	44263.720229	3887.791781	23449.724736
4.537500	-0.002564	-0.001499	-0.001282	-0.000682	7172.535601	44205.960000	3894.752582	23503.504022
5.035500	-0.001316	-0.000028	-0.001306	0.000298	7175.264924	44252.810342	3892.021222	23456.673538
5.535000	-0.000083	-0.000350	-0.001910	-0.000216	7193.139172	44271.125544	3891.776735	23481.214792
6.036000	-0.000026	-0.000336	-0.000360	-0.000253	7194.103180	44276.039470	3896.096633	23482.975259
6.536000	-0.000534	0.000070	0.000542	-0.000307	7189.452560	44320.008481	3898.707187	23485.573261
7.099000	-0.001081	0.000071	0.000708	-0.000041	7181.133412	44294.738353	3898.433042	23472.889674
7.536000	-0.000760	0.000163	0.004633	-0.000077	7184.784203	44306.938594	3909.301712	23474.573948
8.039500	-0.002426	-0.000185	-0.001009	-0.000250	7169.534729	44290.195511	3894.321860	23482.859687
8.537000	0.000168	0.000822	0.000000	0.000778	7185.530172	44288.202668	3894.269409	23433.798151
9.045500	-0.000747	-0.000230	-0.006253	0.000000	7184.129047	44262.019991	3879.458458	23470.910428
9.565500	-0.001148	-0.000264	-0.001646	-0.000183	7181.894154	44276.285346	3892.405898	23479.647589
10.035000	0.000074	0.000822	0.001798	0.000772	7184.629060	44288.761840	3899.189397	23434.056035
10.538000	-0.000847	0.000351	0.000474	0.000210	7180.954109	44297.511707	3897.107547	23460.883111
11.035500	0.000442	0.000000	0.004806	-0.000386	7200.271924	44320.935368	3910.632388	23489.362397
11.541500	0.000000	-0.000365	-0.001858	-0.000175	7193.574312	44265.919287	3891.807995	23479.286022
12.089000	0.000755	0.001569	0.005064	0.001297	7186.228362	44310.000927	3906.706409	23409.081322
12.537000	0.000323	0.000323	0.001774	0.000399	7190.999786	44276.697300	3900.145381	23451.865121
13.036500	0.000366	0.000180	-0.001678	-0.000551	7201.178421	44353.876535	3893.318090	23497.235612
13.536500	-0.001084	-0.000002	0.001406	-0.000314	7183.895147	44313.828920	3901.088455	23485.899876
14.034500	-0.002344	-0.000212	-0.002568	0.002831	7139.060337	43994.119586	3881.756754	23336.155142
14.548500	-0.001618	0.000215	-0.000861	0.002629	7148.462666	44053.913015	3886.910402	23345.743646
15.037000	0.000694	0.000212	0.000674	-0.000424	7203.245819	44344.842430	3899.387063	23491.150481
15.541000	0.001007	-0.000045	0.001455	0.000086	7201.220073	44271.440872	3900.127806	23466.782257
16.035500	0.000418	0.000003	-0.002076	-0.000302	7199.154799	44313.155582	3891.559687	23485.317966
16.536000	0.000557	0.000416	-0.000495	0.000616	7191.171283	44264.832365	3893.362639	23441.504872
17.044500	0.001070	0.000521	0.000199	-0.002207	7225.487281	44545.540155	3902.967286	23576.563792
17.536500	-0.000727	-0.000816	-0.002479	-0.000307	7187.471430	44235.367846	3890.478300	23485.554372
18.037000	-0.000411	0.000142	-0.001184	0.001969	7167.447419	44109.754322	3887.820029	23377.092712
18.540000	-0.000240	0.000150	-0.003358	0.002136	7167.491689	44094.666652	3881.501370	23369.166499
19.037500	-0.000507	0.000482	0.003920	0.002696	7159.072736	44072.924278	3899.731252	23342.567071
19.534500	0.000080	0.000882	0.001268	0.002715	7164.854563	44109.130404	3892.449397	23341.650961
20.034500	0.000670	0.000900	0.000558	0.002676	7171.270547	44114.657189	3890.628111	23343.533713
20.535500	-0.000355	-0.000243	-0.001246	0.002574	7161.853444	44015.548793	3886.017300	23348.342702
21.036000	0.000466	0.000833	0.002575	0.003020	7165.679288	44075.422880	3895.175215	23327.176708
21.539000	0.000459	0.000427	0.003017	0.002471	7171.209230	44089.095885	3897.879377	23353.248247
22.036500	-0.000216	0.000581	0.003756	0.002924	7159.708030	44060.649898	3898.659936	23331.743126
22.537000	-0.001062	0.000703	0.001517	0.003391	7146.375950	44027.830204	3891.290256	23309.606556
23.037000	0.000874	0.000741	0.001295	0.003274	7167.253837	44042.658741	3891.005351	23315.163889
23.540000	0.000607	0.000921	0.003076	0.003611	7161.105054	44027.692270	3894.932312	23299.206234
24.034500	-0.000777	0.000428	-0.000792	0.003186	7151.348416	44021.154497	3885.587765	23319.306320
24.538000	0.000635	0.000834	0.000861	0.003332	7164.224111	44045.876696	3889.669425	23312.399089
25.035000	0.001146	0.000534	-0.000384	0.003347	7169.275730	44016.051513	3886.256898	23311.696825
25.535500	-0.000011	0.000306	0.000755	0.003063	7160.383938	44021.330682	3890.112025	23325.166239
26.052000	0.001571	0.000952	0.001105	0.003434	7172.724538	44047.454729	3890.054772	23307.566546
26.536500	-0.001448	0.000874	-0.000691	0.003639	7139.946971	44020.528144	3884.639372	23297.849538
27.036500	-0.000402	0.000915	0.004187	0.003486	7152.116125	44038.996953	3898.301098	23305.112628
27.536500	0.002812	0.001093	-0.000863	0.000395	7216.616141	44350.729094	3892.963383	23452.054749
28.034000	0.001065	0.000611	0.003317	0.001920	7183.026201	44159.140071	3900.205181	23379.447875
28.537500	0.001004	0.001436	-0.000764	0.002014	7181.431296	44228.780323	3888.836950	23374.945102
29.037500	0.001865	0.000977	0.005316	0.002862	7181.574976	44104.266373	3903.101243	23334.696957
29.535500	0.001069	0.000832	-0.000949	0.002180	7180.396287	44155.360234	3887.884426	23367.048096
30.035500	0.001339	0.000332	0.006090	0.001695	7188.127673	44153.903382	3908.434534	23390.107787
30.535500	0.003261	0.000332	0.002874	0.002355	7201.074417	44091.155104	3897.806202	23358.767322
31.035500	0.001380	0.001103	0.001411	0.006010	7144.588796	43817.670509	3883.913743	23185.913388
31.541500	0.003680	0.001615	0.005177	0.002654	7202.304440	44184.832223	3903.289820	23344.573928
32.084500	0.002706	0.000589	0.001017	0.002041	7198.592729	44145.427955	3893.599312	23373.668516
32.545000	0.001677	0.002174	0.010175	0.003365	7174.508925	44170.290230	3915.105403	23310.835766
33.080000	0.000644	0.001416	-0.001286	0.006690	7130.245622	43782.952347	3874.835098	23153.867473
33.535000	0.000962	0.000765	0.003217	0.001622	7185.019782	44202.162584	3900.746968	23393.607396
34.035500	0.001006	0.000743	0.000206	0.004347	7157.673242	43940.998861	3885.150725	23264.375308
34.535500	0.001182	0.000924	0.001388	0.004934	7153.495164	43902.480134	3886.759765	23236.650530
35.035500	0.001220	0.001212	0.004836	0.005397	7149.176273	43885.912357	3894.860099	23214.791810
35.538000	0.001086	0.001212	0.006346	0.004839	7153.477229	43938.810369	3900.505183	23241.116933
36.036500	0.002468	0.001466	0.000590	0.005424	7161.591233	43907.413818	3883.280293	23213.516997
36.536500	0.001287	0.001459	0.002830	0.005387	7149.953418	43910.204585	3889.435455	23215.230508
37.039000	-0.000304	0.000530	0.002248	0.005346	7134.254426	43826.217953	3887.970598	23217.190323
37.542500	0.001035	0.001117	-0.000746	0.005516	7146.083452	43865.655053	3879.433808	23209.147753
38.037500	0.001314	0.001037	0.002320	0.005381	7150.289099	43870.796343	3888.069698	23215.524152
38.537500	-0.000185	0.000294	-0.000816	0.005148	7137.461825	43822.590369	3880.234420	23226.526084
39.038000	0.000934	0.001505	0.002311	0.005412	7146.129155	43912.312492	3887.962714	23214.090904
39.535500	0.000821	0.000955	0.003115	0.005326	7145.857111	43868.304168	3890.374983	23218.149503
40.041500	0.001229	0.001398	0.002040	0.006047	7142.677480	43842.050409	3885.513005	23184.158635
40.536500	0.001359	0.001211	0.003015	0.005569	7148.832933	43869.492201	3889.443805	23206.653378
41.036000	0.001941	0.000365	0.000407	0.005902	7151.367093	43758.127077	3881.499357	23190.976558
41.536500	0.001286	0.001197	0.001157	0.005638	7147.405918	43861.678266	3884.231096	23203.420223
42.039500	0.001352	0.000288	0.002189	0.005182	7152.696032	43818.877587	3888.253919	23224.922731
42.537000	0.001083	0.001617	0.005149	0.006335	7138.283092	43835.498940	3893.159930	23170.595338
43.036500	0.001266	0.000905	0.002911	0.006067	7142.850755	43793.537548	3887.814848	23183.225384
43.535000	0.001911	0.001421	0.000431	0.006067	7149.392830	43842.304817	3881.119639	23183.211247
44.036500	0.005957	0.001766	0.004312	0.001642	7236.216573	44295.885554	3903.691641	23392.641388
44.536000	0.003181	0.000792	0.004468	0.005361	7169.494510	43849.641027	3893.957082	23216.495849
45.038500	0.002052	0.001149	0.002092	0.007681	7134.466882	43664.362194	3881.246452	23107.357799
45.536000	0.001818	0.001006	0.000318	0.003793	7171.582017	44018.525432	3886.950820	23290.580826
46.042000	0.003913	0.001663	0.004260	0.004067	7190.200209	44054.845248	3896.915957	23277.616947
46.537000	0.003621	0.002090	0.004982	0.006541	7161.951272	43860.670190	3892.143767	23160.880438
47.042500	0.000797	0.000987	0.006247	0.008079	7117.768159	43611.608763	3891.403402	23088.662114
47.537500	0.000066	0.001143	0.005303	0.006990	7121.376014	43728.881884	3891.795670	23139.778486
48.037500	-0.000477	0.000860	0.003991	0.005639	7129.540069	43829.759512	3891.904616	23203.391674
48.538000	0.001497	0.001812	0.006749	0.005595	7149.984397	43924.053207	3899.540421	23205.469584
49.038000	-0.000583	0.001246	0.006363	0.008653	7098.123458	43581.956103	3890.158761	23061.769675
49.535500	0.004213	0.001484	0.002690	0.004537	7188.464194	43993.279840	3891.363811	23255.394072
50.036000	0.004564	0.000975	0.004614	0.001903	7219.130291	44195.418597	3903.804185	23380.234032
50.536000	0.002477	0.001778	0.008759	0.005579	7160.100778	43922.262075	3905.092928	23206.186704
51.036000	-0.001770	0.000231	0.003054	0.007869	7094.088121	43560.327877	3883.331384	23098.521732
51.536500	-0.053374	-0.013322	-0.000620	0.077191	6036.157163	36474.675631	3702.118140	20093.825004
52.037000	-0.039806	-0.013575	0.000688	-0.023979	7032.496583	45290.453197	3965.602462	24648.170726
52.534500	-0.016615	-0.013447	0.008406	-0.109070	8247.650918	54507.963696	4264.260831	29391.704349
53.035000	-0.029934	-0.012419	-0.002904	-0.056833	7476.157109	48753.884932	4052.977215	26370.453376
53.535000	-0.018430	-0.016240	-0.021561	-0.126445	8448.523301	56274.646194	4219.904286	30479.944158
54.035500	0.012532	-0.021676	-0.008470	-0.171868	9546.043326	61434.607274	4437.386134	33539.325965
54.535500	0.019762	-0.013300	0.004158	-0.140517	9178.395973	58411.941876	4364.583112	31393.743095
55.035500	0.017031	-0.007058	-0.000235	-0.102040	8595.685042	54431.772505	4209.254024	28963.655540
55.536500	0.008743	-0.007746	0.002247	-0.082552	8232.969887	52086.700922	4151.759345	27812.583589
56.039500	0.005949	-0.006218	0.010116	-0.059648	7917.443412	49718.377945	4102.771022	26524.177538
56.537000	0.009678	-0.002590	0.009345	-0.048701	7832.108148	48933.805292	4065.746441	25931.921923
57.034500	0.015684	-0.002180	0.012811	-0.059334	8030.937245	50122.561452	4110.413213	26506.940135
57.535000	0.015044	0.001351	0.018958	-0.010726	7463.853516	45454.548169	3980.169390	23989.479910
58.038000	0.018886	0.004444	0.027177	0.012261	7260.183230	43543.509171	3937.769965	22893.576249
58.535500	0.020677	0.008103	0.032080	0.035188	7045.527518	41774.262867	3887.944450	21856.862692
59.035500	0.018571	0.010075	0.034104	0.059514	6791.366390	39817.583478	3829.084013	20815.063582
59.536000	0.027765	0.013322	0.038365	0.065142	6824.759289	39615.128826	3825.572163	20582.254023
60.036000	0.027770	0.015583	0.039694	0.073735	6744.804556	39081.850569	3807.104509	20232.541877
60.539500	0.030568	0.017343	0.048178	0.082002	6694.699395	38541.869870	3807.650340	19902.550562
61.039500	0.031230	0.020903	0.048067	0.094261	6590.524639	37832.581847	3776.884599	19424.653311
61.536500	0.034909	0.021897	0.050469	0.089865	6662.769183	38270.369751	3793.683569	19594.461524
62.039500	0.045153	0.025051	0.053387	0.085316	6798.655618	38905.617558	3812.441328	19772.038721
62.535500	0.048502	0.026548	0.049474	0.081644	6864.781816	39338.218139	3811.830721	19916.720584
63.035000	0.047257	0.027435	0.054800	0.084597	6825.103469	39164.679783	3817.856952	19800.250377
63.535500	0.050308	0.026864	0.050799	0.078603	6911.063207	39622.005804	3822.942829	20037.479566
64.044000	0.050157	0.028291	0.052999	0.079923	6896.949336	39631.036210	3825.196129	19984.929702
64.536000	0.049833	0.027651	0.053862	0.079321	6899.619863	39627.841143	3828.956442	20008.873701
65.038500	0.045817	0.027476	0.052425	0.085885	6799.534546	39060.336034	3808.568608	19749.708997
65.536000	0.052100	0.029435	0.053987	0.081099	6904.302204	39628.297060	3824.714522	19938.295825
66.037000	0.051358	0.028921	0.055582	0.080918	6898.926070	39600.002063	3829.272143	19945.443014
66.537500	0.053731	0.030075	0.059399	0.081835	6912.890134	39620.175981	3836.760683	19909.168844
67.034500	0.047613	0.029353	0.054351	0.087625	6800.061437	39071.802053	3809.038940	19681.668785
67.535000	0.052577	0.029930	0.056788	0.082414	6896.270415	39558.790695	3828.525702	19886.252306
68.035500	0.052028	0.030301	0.061268	0.082097	6894.065365	39617.119142	3840.930461	19898.811421
68.535500	0.055290	0.030520	0.056492	0.082956	6917.102303	39562.910946	3826.376683	19864.885014
69.036000	0.052207	0.031112	0.057983	0.083345	6883.845573	39580.065085	3829.207453	19849.538842
69.536000	0.053218	0.030262	0.061635	0.082590	6900.730615	39572.056892	3840.601764	19879.332893
70.039000	0.055145	0.030597	0.049355	0.083453	6910.931533	39527.271518	3806.958605	19845.270491
70.536500	0.053780	0.030535	0.054211	0.083278	6899.515414	39536.840037	3819.715437	19852.155495
71.037000	0.052313	0.031188	0.060696	0.083648	6881.967854	39560.826733	3835.424447	19837.601461
71.537000	0.051778	0.030035	0.054923	0.083079	6882.298891	39511.399803	3822.043496	19860.026907
72.035000	0.053883	0.030656	0.056328	0.083543	6897.964878	39524.612844	3824.449309	19841.722902
72.535000	0.053549	0.030785	0.058688	0.084305	6887.495079	39471.124569	3828.551316	19811.741088
73.035000	0.049059	0.031637	0.053391	0.090396	6787.695638	39031.130722	3799.653752	19573.858912
73.535500	0.054032	0.032422	0.054761	0.085201	6883.554211	39533.815900	3816.220714	19776.526029
74.036000	0.053081	0.031979	0.053995	0.084435	6881.789687	39561.208858	3816.220267	19806.638661
74.536000	0.052772	0.030908	0.060607	0.084107	6881.973437	39498.268392	3834.007599	19819.539010
75.036500	0.050765	0.031362	0.051732	0.090464	6802.979006	39002.453782	3795.336108	19571.210701
75.537000	0.055020	0.032125	0.057427	0.085261	6892.418236	39503.627762	3822.865883	19774.193366
76.037500	0.053261	0.031554	0.052951	0.084851	6879.532758	39489.945438	3812.513367	19790.267793
76.534500	0.055156	0.032564	0.056451	0.085703	6889.494540	39503.358101	3819.245329	19756.856667
77.035000	0.051229	0.030947	0.054319	0.090011	6811.568518	39005.681589	3802.948467	19588.795600
77.541000	0.054181	0.032149	0.058870	0.085246	6884.547667	39506.984861	3826.603285	19774.788994
78.035500	0.052624	0.032028	0.057122	0.085076	6871.334414	39511.046535	3822.557998	19781.435910
78.536000	0.053361	0.033007	0.055608	0.086200	6867.656844	39498.797808	3815.835057	19737.376122
79.038500	0.049481	0.030690	0.054030	0.088920	6805.413657	39075.323947	3804.964579	19631.202154
79.536500	0.053843	0.032959	0.060678	0.086413	6870.212051	39476.787293	3828.249730	19729.052211
80.036500	0.052834	0.031093	0.057234	0.085400	6870.249355	39404.752443	3822.017640	19768.741945
80.537000	0.053236	0.032262	0.057258	0.085546	6872.677484	39491.077623	3821.705021	19762.984301
81.037500	0.049535	0.032386	0.055303	0.091798	6779.078557	38976.641109	3800.932356	19519.589970
81.535000	0.055669	0.033256	0.058759	0.086946	6882.520438	39456.789413	3821.964071	19708.193853
82.035000	0.053468	0.031803	0.054314	0.085651	6873.893228	39443.478283	3813.942540	19758.884404
82.535500	0.053262	0.032706	0.056458	0.086569	6863.208996	39442.123182	3817.057389	19722.919253
83.035500	0.050277	0.032104	0.058320	0.090933	6794.043883	39025.260501	3810.708607	19553.034871
83.538500	0.054847	0.032069	0.057735	0.086403	6879.867303	39402.461777	3820.734302	19729.436911
84.036000	0.053654	0.032369	0.060408	0.086947	6863.342152	39381.859956	3826.183441	19708.153634
84.536000	0.053346	0.032277	0.054175	0.086847	6861.364875	39382.501544	3810.559622	19712.042968
85.037000	0.050611	0.032249	0.057379	0.092372	6783.745432	38917.480406	3804.707095	19497.422804
85.537000	0.052986	0.032877	0.058869	0.086982	6856.677545	39421.804372	3822.152511	19706.799405
86.034500	0.052789	0.032361	0.059420	0.086992	6854.722403	39377.391473	3823.536067	19706.405257
86.534000	0.054619	0.032243	0.060251	0.087198	6870.125191	39350.078899	3825.137378	19698.339528
87.034500	0.054490	0.033101	0.056252	0.087054	6870.263684	39434.547853	3815.300346	19703.969388
87.535000	0.055365	0.032336	0.055702	0.087013	6878.985362	39373.508181	3814.007454	19705.554578
88.036000	0.053143	0.032556	0.054661	0.087777	6850.636324	39327.675894	3809.439023	19675.740043
88.536000	0.052277	0.031790	0.056491	0.086995	6849.841046	39329.005432	3816.058578	19706.269896
89.036500	0.049974	0.032534	0.052885	0.092591	6775.786917	38922.920600	3792.912564	19488.964280
89.536500	0.053520	0.031998	0.055130	0.087013	6861.441162	39344.971136	3812.557021	19705.555479
90.037000	0.055084	0.032513	0.057191	0.088366	6863.449615	39274.533929	3814.354122	19652.770445
90.537500	0.053699	0.032098	0.054145	0.088270	6851.225915	39247.762930	3806.891126	19656.512174
91.034000	0.052812	0.033418	0.055111	0.088105	6844.396283	39372.680942	3809.744808	19662.935621
91.543000	0.053727	0.032690	0.056688	0.087796	6855.986568	39337.391577	3814.523316	19675.006105
92.035500	0.053729	0.032336	0.055943	0.088328	6850.958961	39262.833186	3811.285940	19654.245295
92.535500	0.053360	0.033301	0.059810	0.089257	6838.700774	39265.882628	3818.748625	19618.091059
93.036000	0.053740	0.033150	0.052665	0.088402	6850.375250	39325.107785	3802.836595	19651.377952
93.536500	0.053482	0.032645	0.055196	0.088246	6849.404670	39295.701256	3809.602209	19657.432341
94.037000	0.053779	0.032881	0.056675	0.089056	6844.545250	39247.422022	3811.294047	19625.891327
94.536000	0.052559	0.032879	0.060970	0.088896	6834.551452	39260.727971	3822.631260	19632.135916
95.037000	0.050818	0.031767	0.053815	0.090841	6799.955654	39004.886612	3799.603643	19556.634746
95.543000	0.054264	0.033685	0.059258	0.089613	6843.868947	39268.200357	3816.435439	19604.247897
96.035000	0.053901	0.032216	0.058642	0.088655	6849.499386	39225.317993	3817.306679	19641.507687
96.543500	0.053308	0.032041	0.056038	0.088314	6847.109055	39239.201534	3811.562341	19654.790240
97.035500	0.051428	0.032327	0.050596	0.092376	6791.322910	38923.546496	3787.762377	19497.260849
97.538500	0.053760	0.032005	0.053890	0.088161	6852.841176	39249.082159	3806.522752	19660.762539
98.036000	0.052544	0.033373	0.058738	0.089589	6827.874147	39243.975915	3815.173514	19605.171371
98.536500	0.055580	0.033523	0.056108	0.089491	6857.482063	39264.856625	3808.762521	19608.998290
99.036500	0.052899	0.032054	0.057188	0.091713	6811.266582	38956.003583	3805.883226	19522.856936
99.537000	0.053521	0.032815	0.060703	0.088971	6842.913733	39249.050226	3821.755286	19629.208289
100.037000	0.055221	0.032918	0.061921	0.090632	6843.287311	39118.453999	3820.623859	19564.714490
100.540500	0.056260	0.033396	0.054740	0.089894	6860.100365	39220.378322	3804.298302	19593.334072
101.035000	0.053557	0.032793	0.055103	0.093749	6798.380660	38848.170661	3795.553845	19444.344332
101.535500	0.055833	0.033002	0.054448	0.089167	6862.959484	39248.311408	3805.396214	19621.603484
102.038500	0.053156	0.032400	0.054613	0.089984	6829.930526	39129.371174	3803.754416	19589.860210
102.536000	0.053334	0.032503	0.054517	0.089954	6831.883889	39140.404328	3803.587167	19590.998071
103.036000	0.050748	0.031827	0.051101	0.092153	6787.064149	38900.561431	3789.568635	19505.875311
103.536500	0.050970	0.032634	0.054521	0.089607	6812.929177	39180.506087	3804.470957	19604.493836
104.036000	0.052594	0.032661	0.059012	0.090274	6821.910843	39126.909211	3814.133459	19578.605724
104.537500	0.054016	0.032410	0.059177	0.089347	6844.042470	39183.532329	3816.908697	19614.601318
105.035000	0.050973	0.032438	0.053693	0.091979	6790.780257	38965.899754	3796.451681	19512.591203
105.537500	0.053013	0.033183	0.058632	0.090442	6824.267527	39156.553394	3812.742827	19572.083552
106.035000	0.053492	0.032524	0.058149	0.090088	6832.116406	39131.068445	3812.417796	19585.830099
106.538500	0.054169	0.032784	0.059554	0.090133	6838.072150	39149.024300	3815.868193	19584.079645
107.035500	0.051473	0.032152	0.057087	0.092333	6792.141411	38912.534417	3804.066966	19498.906438
107.536000	0.054284	0.031465	0.058317	0.088720	6852.507718	39156.967746	3816.315459	19639.002605
108.036500	0.052523	0.031942	0.056671	0.089753	6826.137983	39110.340281	3809.522492	19598.815638
108.537000	0.055632	0.032718	0.058588	0.090173	6851.514658	39140.155559	3813.313153	19582.511272
109.037000	0.054072	0.032560	0.055025	0.092071	6818.913331	38968.338095	3799.550521	19509.015875
109.540000	0.057006	0.033344	0.055416	0.090569	6860.777310	39159.414529	3804.301160	19567.151048
110.035000	0.051535	0.031449	0.059306	0.089513	6819.112299	39089.184325	3816.812833	19608.134886
110.537500	0.053830	0.032434	0.057042	0.090111	6835.075231	39121.524865	3809.556455	19584.904066
111.035500	0.052529	0.031851	0.052716	0.091638	6808.506528	38945.394760	3794.865105	19525.774848
111.536000	0.052958	0.032401	0.060214	0.090469	6823.502289	39088.839535	3816.692612	19571.049982
112.036000	0.052624	0.031432	0.056253	0.090229	6822.613036	39027.917399	3807.265285	19580.333134
112.536000	0.053101	0.031709	0.057954	0.089945	6829.777805	39074.829449	3812.284889	19591.374080
113.036500	0.051454	0.032205	0.052506	0.091805	6796.888229	38960.895226	3793.924441	19519.297799
113.537000	0.054828	0.031976	0.056857	0.089835	6847.100359	39106.293347	3809.786586	19595.630426
114.036500	0.053130	0.030706	0.056962	0.089235	6836.740246	39050.318994	3811.568504	19618.939997
114.537500	0.054180	0.032896	0.057883	0.090953	6830.443485	39089.744979	3809.552392	19552.274017
115.035000	0.052742	0.031822	0.058582	0.091819	6808.806338	38927.868804	3809.130672	19518.757186
115.535000	0.052453	0.031439	0.055641	0.090166	6821.609699	39033.839219	3805.885257	19582.801433
116.038000	0.050860	0.031484	0.056114	0.090905	6799.751053	38975.914670	3805.213042	19554.132428
116.564500	0.054158	0.032406	0.056392	0.091061	6829.218896	39039.788706	3805.519877	19548.081408
117.099000	0.053224	0.032572	0.060100	0.091155	6819.561026	39045.841924	3814.659305	19544.472634
117.539000	0.054107	0.031458	0.053237	0.090208	6836.774289	39031.867049	3799.738805	19581.145069
118.036500	0.053893	0.031608	0.056456	0.091093	6826.424157	38970.592854	3805.602005	19546.864557
118.537000	0.053640	0.031992	0.056035	0.090298	6831.527012	39069.015332	3806.543942	19577.684296
119.037000	0.054074	0.032206	0.058962	0.092031	6819.310525	38942.227159	3809.555852	19510.580520
119.538000	0.052808	0.032532	0.060248	0.090686	6820.052739	39081.679363	3816.226051	19562.619526
120.035000	0.055160	0.031331	0.056014	0.091223	6837.129931	38936.626399	3804.160953	19541.820245
120.535500	0.053679	0.031309	0.057877	0.090587	6829.168450	38987.776528	3810.464206	19566.454144
121.036000	0.051455	0.031253	0.055073	0.090993	6804.495105	38949.360670	3802.376781	19550.748148
121.536000	0.053364	0.031443	0.057991	0.090150	6830.320211	39035.424521	3811.859192	19583.410443
122.036500	0.053410	0.032061	0.055216	0.091927	6814.054850	38938.817711	3800.392464	19514.600557
122.536500	0.051188	0.031542	0.056682	0.090737	6804.382453	38994.728397	3807.065812	19560.635346
123.036500	0.052518	0.031441	0.058968	0.091343	6811.169890	38935.805989	3811.312225	19537.191137
123.536500	0.052845	0.032367	0.057223	0.090708	6820.192862	39066.019266	3808.504676	19561.762858
124.037000	0.052429	0.031932	0.057152	0.091966	6804.506271	38924.850619	3805.155187	19513.099381
124.535500	0.053476	0.031469	0.058586	0.090668	6826.495008	38994.391627	3812.053639	19563.306118
125.037500	0.052407	0.030772	0.058929	0.090156	6821.259491	38978.920569	3814.219562	19583.158516
125.535500	0.053227	0.031538	0.054875	0.090515	6825.593354	39012.931372	3803.079654	19569.250678
126.035500	0.051454	0.031397	0.059160	0.090098	6812.867169	39035.998231	3814.955709	19585.429757
126.536000	0.051628	0.031401	0.050540	0.090368	6811.962204	39013.731750	3792.608879	19574.944220
127.036500	0.051986	0.031595	0.055402	0.090828	6811.013611	38991.603680	3803.617756	19557.134293
127.537000	0.052723	0.031233	0.054550	0.090100	6824.765960	39022.154644	3803.306101	19585.362286
128.037000	0.053266	0.031598	0.057000	0.091759	6814.278522	38914.206255	3805.292604	19521.082959
128.537500	0.053854	0.030927	0.058662	0.090411	6832.483856	38970.613179	3812.898353	19573.289756
129.037500	0.052475	0.031376	0.063520	0.091022	6813.772974	38957.193301	3823.717207	19549.618558
129.535000	0.050808	0.029887	0.060416	0.089514	6812.280740	38958.750716	3819.637217	19608.101196
130.035500	0.051362	0.031072	0.058316	0.091833	6795.770363	38864.389253	3808.426233	19518.243982
130.535500	0.051229	0.031116	0.056472	0.090664	6805.451257	38965.245605	3806.722225	19563.459046
131.039000	0.052289	0.030532	0.060412	0.090428	6817.604205	38936.325280	3817.298640	19572.628253
131.536000	0.051949	0.030859	0.054070	0.090452	6814.184596	38961.573343	3801.217038	19571.692627
132.039500	0.054266	0.030792	0.058160	0.092425	6817.414031	38791.942926	3806.537624	19495.357711
132.537000	0.052280	0.030794	0.059932	0.090299	6818.731607	38968.880970	3816.405917	19577.634301
133.037000	0.051033	0.031477	0.061080	0.090859	6801.799775	38979.177926	3817.902103	19555.925355
133.537000	0.052973	0.031052	0.057901	0.090732	6821.163886	38954.286481	3810.156389	19560.830150
134.035000	0.053572	0.030894	0.054695	0.091714	6817.578660	38859.519619	3799.620168	19522.845985
134.537500	0.051474	0.030302	0.057853	0.090517	6809.123985	38909.763773	3810.579986	19569.178487
135.035500	0.053327	0.030751	0.056190	0.090696	6824.829301	38932.186206	3805.930030	19562.225195
135.535500	0.050814	0.031134	0.060446	0.090505	6803.059690	38980.059108	3817.189626	19569.643291
136.036000	0.050497	0.030490	0.055529	0.091793	6788.077219	38819.324769	3801.509982	19519.762092
136.536500	0.052658	0.031038	0.055642	0.090740	6818.138804	38952.511242	3804.442330	19560.534276
137.036500	0.053278	0.030908	0.053728	0.090513	6826.093170	38960.513814	3800.205074	19569.327115
137.537000	0.053071	0.030712	0.061029	0.090189	6827.192261	38971.165356	3819.479970	19581.886407
138.037500	0.052272	0.030595	0.053141	0.092252	6800.357295	38789.964878	3794.393499	19502.026945
138.534500	0.052576	0.030020	0.057168	0.090396	6820.601420	38896.375793	3809.155994	19573.869712
139.037500	0.053526	0.030819	0.053906	0.090643	6827.207627	38942.331329	3800.326346	19564.296849
139.535500	0.052310	0.030717	0.061704	0.090342	6818.612285	38958.912436	3820.811919	19575.967983
140.035500	0.052515	0.031516	0.060922	0.090750	6816.695929	38991.442271	3817.776030	19560.136852
140.536000	0.054356	0.030793	0.055991	0.091163	6830.117488	38896.833486	3804.254803	19544.135761
141.036000	0.052868	0.030356	0.056106	0.090424	6823.084936	38922.046869	3806.406301	19572.794990
141.536500	0.051767	0.030324	0.057166	0.090004	6816.683231	38954.288989	3810.140535	19589.084280
142.036500	0.050183	0.030105	0.054900	0.089565	6805.949393	38972.609427	3805.531153	19606.121048
142.537000	0.052236	0.030615	0.052142	0.091130	6810.530149	38884.860408	3794.702521	19545.443637
143.037500	0.052511	0.030160	0.058139	0.090379	6820.148493	38909.430043	3811.652128	19574.517406
143.537500	0.053755	0.030839	0.055788	0.090849	6827.420824	38926.832896	3804.533236	19556.310505
144.034500	0.052318	0.029799	0.054271	0.090024	6821.668247	38908.945250	3802.794301	19588.304653
144.535500	0.051701	0.029821	0.056371	0.090903	6807.636000	38837.718999	3805.866391	19554.213494
145.035500	0.053408	0.030280	0.059645	0.090978	6822.945752	38869.607980	3813.951406	19551.303312
145.536000	0.052489	0.030484	0.055873	0.090529	6818.531305	38923.913991	3805.554288	19568.710041
146.039000	0.051047	0.029755	0.053808	0.092066	6790.661331	38735.788762	3796.521036	19509.221449
146.536500	0.050209	0.029493	0.056085	0.091853	6784.831480	38731.751862	3802.757859	19517.462668
147.036500	0.053265	0.029840	0.056238	0.090262	6828.331125	38892.515664	3807.146579	19579.060094
147.537000	0.053521	0.030464	0.055757	0.090847	6825.245963	38895.812116	3804.462694	19556.401500
148.040000	0.052786	0.030711	0.057594	0.090535	6821.265618	38942.315160	3809.881399	19568.478239
148.535000	0.050370	0.029365	0.059277	0.091844	6786.411908	38721.885263	3810.825815	19517.798487
149.035000	0.053756	0.029670	0.058494	0.090186	6833.669807	38884.736189	3813.041331	19582.008716
149.535500	0.053546	0.030938	0.055579	0.091026	6823.791575	38920.344764	3803.563429	19549.452241
150.035500	0.051877	0.029580	0.060907	0.089677	6820.787048	38919.594502	3820.473892	19601.765253
150.538500	0.053613	0.029798	0.056421	0.089755	6836.389249	38931.202575	3808.887097	19598.741485
151.036000	0.051583	0.029870	0.054589	0.090393	6811.309222	38884.159897	3802.667246	19573.988049
151.536500	0.052823	0.029609	0.058834	0.089887	6827.702848	38904.526003	3814.661715	19593.606544
152.037000	0.050947	0.030118	0.058646	0.092337	6787.199478	38743.422082	3807.985957	19498.771947
152.537500	0.051521	0.028926	0.056732	0.089700	6817.225736	38863.253826	3809.811528	19600.865151
153.037500	0.054171	0.029625	0.060499	0.090111	6838.288905	38887.184876	3818.327129	19584.906984
153.535500	0.053681	0.029587	0.058688	0.090009	6834.632778	38892.483766	3813.982666	19588.868753
154.035000	0.051405	0.029439	0.052475	0.091830	6796.205947	38729.211182	3793.785458	19518.358470
154.536000	0.052246	0.028839	0.053951	0.089207	6828.670907	38896.979239	3804.043005	19620.021486
155.036000	0.053233	0.029591	0.053758	0.089984	6830.651840	38894.945106	3801.606981	19589.852090
155.536500	0.053963	0.030063	0.056597	0.089851	6838.781458	38945.297018	3809.088241	19595.007126
156.036500	0.052445	0.029542	0.057215	0.092148	6802.946100	38711.384070	3804.856838	19506.058378
156.537000	0.052443	0.029462	0.062709	0.089863	6824.359970	38894.278653	3824.607159	19594.554955
157.034500	0.052786	0.028627	0.059493	0.089777	6828.393726	38832.063325	3816.617337	19597.904041
157.537500	0.054444	0.029566	0.058649	0.089924	6842.640109	38897.877305	3814.099651	19592.176841
158.037500	0.049542	0.029006	0.056267	0.091703	6780.015736	38703.755384	3803.589732	19523.238780
158.535000	0.050054	0.029395	0.058231	0.095025	6753.979212	38462.021909	3800.185089	19395.326025
159.035500	0.052457	0.028735	0.053556	0.089398	6828.860932	38872.523735	3802.569954	19612.603664
159.535500	0.051927	0.029251	0.058302	0.089919	6818.979736	38872.093764	3813.231939	19592.363490
160.035500	0.054902	0.030198	0.062010	0.090384	6842.626374	38912.236355	3821.487955	19574.349256
160.536500	0.050486	0.028477	0.055782	0.092870	6777.949228	38563.754903	3799.447445	19478.197610
161.036500	0.053080	0.028381	0.057114	0.089383	6834.871075	38844.313132	3811.578797	19613.183407
161.536500	0.053659	0.029396	0.057984	0.089621	6838.086330	38908.910825	3813.180470	19603.939329
162.039500	0.049564	0.028834	0.052367	0.092057	6776.935910	38660.348785	3792.950280	19509.571314
162.535000	0.048573	0.028825	0.054156	0.093325	6755.996658	38554.924652	3794.248198	19460.650348
163.037500	0.051716	0.029301	0.059895	0.089657	6819.463296	38898.035930	3817.945379	19602.565456
163.535500	0.051763	0.028915	0.059605	0.089391	6822.395144	38888.007922	3817.883771	19612.878719
164.035500	0.051592	0.028597	0.052323	0.089310	6821.559549	38868.368584	3799.700108	19616.049428
164.536500	0.048345	0.028416	0.050201	0.092784	6758.895106	38565.895989	3785.775271	19481.524890
165.036000	0.050865	0.027900	0.056352	0.088724	6820.226509	38859.112848	3811.317406	19638.816193
165.536500	0.051158	0.028760	0.057645	0.089206	6818.464455	38890.574475	3813.375519	19620.094128
166.036500	0.047468	0.028493	0.055144	0.091949	6758.504877	38641.089779	3800.153536	19513.728699
166.539500	0.049526	0.029202	0.049966	0.095641	6743.419983	38395.612008	3778.158023	19371.687554
167.034500	0.050655	0.028503	0.056310	0.088994	6815.725745	38886.805112	3810.530479	19628.317031
167.538000	0.052316	0.027988	0.058059	0.089038	6830.927293	38840.344677	3814.851496	19626.627762
168.035000	0.051871	0.028922	0.057281	0.092908	6790.496159	38597.331249	3803.112859	19476.742129
168.535000	0.049553	0.028353	0.058182	0.094931	6750.214436	38384.171258	3800.295911	19398.907273
169.035500	0.050514	0.027920	0.058404	0.089100	6813.406166	38829.529072	3815.568708	19624.186569
169.536000	0.053045	0.028083	0.062825	0.089192	6836.349821	38835.497767	3826.625526	19620.638889
170.041500	0.052774	0.027993	0.051348	0.088763	6837.831135	38863.591914	3798.627003	19637.300070
170.536500	0.051958	0.028048	0.059951	0.088850	6829.325767	38860.965779	3820.144885	19633.922855
171.037500	0.053534	0.027796	0.057132	0.089221	6840.675185	38809.233333	3812.034257	19619.481268
171.537000	0.052260	0.029038	0.060795	0.089773	6823.486528	38866.576335	3819.944586	19598.061002
172.034500	0.050137	0.027519	0.053084	0.091347	6788.875709	38610.325147	3796.508555	19537.011676
172.535000	0.050369	0.028132	0.054649	0.089178	6811.313273	38840.676174	3805.873311	19621.165542
173.038000	0.051775	0.027943	0.057605	0.089586	6820.674693	38791.067986	3812.309092	19605.293290
173.535500	0.052158	0.028084	0.054234	0.089135	6828.524312	38840.229173	3804.936331	19622.833150
174.035500	0.050208	0.027822	0.059935	0.088784	6813.499103	38847.655490	3820.272835	19636.479078
174.536000	0.051027	0.028174	0.059189	0.089305	6816.296807	38833.612463	3817.042362	19616.211896
175.036000	0.052451	0.027891	0.057222	0.089327	6829.466729	38808.313826	3811.993976	19615.359559
175.536500	0.051164	0.027958	0.057629	0.089213	6818.445927	38823.358557	3813.315787	19619.799429
176.037000	0.052281	0.027434	0.054690	0.088561	6835.082593	38833.905141	3807.531479	19645.158903
176.537500	0.048175	0.027034	0.050512	0.094598	6740.579541	38303.414080	3782.066495	19411.702247
177.034500	0.051429	0.027998	0.056223	0.089246	6820.632053	38823.957664	3809.674111	19618.533728
177.535000	0.053396	0.028038	0.057684	0.089225	6839.346937	38828.976199	3813.426454	19619.345845
178.038000	0.048373	0.026433	0.057531	0.091289	6773.007987	38525.683926	3807.818707	19539.285743
178.535500	0.048224	0.028169	0.056857	0.095774	6730.209546	38300.035632	3794.876001	19366.579530
179.036000	0.051329	0.028346	0.057494	0.089066	6821.377330	38867.718849	3813.346290	19625.517098
179.536500	0.052028	0.027541	0.056546	0.088951	6829.029711	38810.427061	3811.234471	19629.989153
180.036500	0.050728	0.027775	0.054589	0.092288	6785.615493	38553.918297	3797.918638	19500.659236
180.542500	0.049633	0.028148	0.054912	0.095472	6745.963086	38323.040820	3790.787662	19378.170950
181.037500	0.054284	0.028600	0.058960	0.089477	6845.346309	38854.723998	3816.024994	19609.539890
181.537500	0.051576	0.027133	0.056317	0.088594	6828.136160	38806.212455	3811.560086	19643.885503
182.037500	0.046964	0.027165	0.055561	0.091962	6753.727426	38530.447065	3801.167892	19513.231046
182.535500	0.048026	0.026701	0.055399	0.094505	6740.067620	38283.820812	3794.407546	19415.287558
183.052000	0.052771	0.027854	0.056631	0.089043	6835.171133	38828.867233	3811.220114	19626.430040
183.561500	0.051694	0.027556	0.056633	0.089010	6825.335145	38806.861477	3811.307267	19627.718156
184.102000	0.047565	0.026614	0.050623	0.093433	6745.698306	38364.396568	3785.214102	19456.507583
184.692000	0.049832	0.026886	0.052831	0.090280	6795.989143	38646.217812	3798.543825	19578.359425
185.089000	0.050462	0.027395	0.058848	0.088924	6814.574528	38800.562384	3817.146264	19631.045041
185.533500	0.051955	0.027605	0.061239	0.089267	6825.370769	38789.515808	3822.368285	19617.699951
186.037000	0.050747	0.027390	0.054173	0.092649	6782.433292	38492.532388	3795.978044	19486.737773
186.535000	0.046303	0.026847	0.054864	0.094592	6723.436883	38288.620114	3792.857790	19411.926228
187.035000	0.050225	0.026907	0.059054	0.088919	6812.395121	38760.586053	3817.683540	19631.246613
187.535500	0.053052	0.026753	0.056656	0.088703	6841.021983	38765.641668	3812.141240	19639.632458
