sample name	sample
index	1471
start time	 05-18-2021  12:06:28 PM
880	-0.013510
Peak Time (s)	92.038
Peak Height 	-0.01351
calc peak height	90,93
Baseline Time (s)	11.035
Baseline Value 	-0.004395
subtract baseline	10,4
Abs	-0.026183
Peak Time (s)	91.537
Peak Height 	-0.02618
calc peak height	90,93
Baseline Time (s)	11.535
Baseline Value 	0.001108
subtract baseline	10,3
PK_550	0.001724
Peak Time (s)	90.036
Peak Height 	0.001724
calc peak height	90,93
Baseline Time (s)	9.037
Baseline Value 	2.2399E-4
subtract baseline	10,2
PK_880	-0.025646
Peak Time (s)	91.037
Peak Height 	-0.02565
calc peak height	90,93
Baseline Time (s)	11.535
Baseline Value 	8.8254E-4
subtract baseline	10,1


Time (s)	A880-A510	A880-A775	A880-A975	A880	I510	I775	I975	I880	
0.036500	-0.002357	-0.000828	-0.006683	0.001585	6548.748014	44746.907923	3926.039676	23360.322129
0.537500	-0.002828	-0.000733	-0.006433	0.006479	6503.938007	44287.274793	3914.883845	23130.995064
1.038000	-0.001034	-0.000239	0.000235	0.003417	6544.470230	44627.298378	3938.396581	23274.164324
1.535500	-0.002657	-0.000916	-0.002736	0.000386	6556.303456	44854.006952	3938.542416	23416.877473
2.035500	-0.001294	-0.000853	-0.000286	-0.000106	6571.957634	44907.579841	3945.757619	23440.145198
2.538500	-0.002265	-0.000821	-0.006230	0.004892	6521.825892	44430.305160	3919.167216	23205.057090
3.035500	-0.000078	-0.000197	-0.000097	-0.001237	6591.864448	45080.695312	3949.008457	23493.714946
3.536000	-0.000445	-0.001026	-0.000713	-0.000233	6580.220605	44903.143548	3945.019664	23446.147819
4.036000	-0.001037	-0.000126	-0.002119	0.000205	6571.510636	44947.892356	3940.496006	23425.457459
4.542000	0.000509	-0.000514	-0.001786	-0.000119	6587.353209	44941.702633	3942.104823	23440.772981
5.037500	0.000894	0.000489	0.002230	0.000580	6584.680410	44971.062615	3950.269399	23407.708022
5.534500	-0.000602	0.000192	-0.002416	0.000302	6574.363480	44969.199174	3939.529350	23420.838487
6.035000	-0.001402	-0.000500	0.005583	-0.000227	6572.062875	44953.448200	3960.598178	23445.851043
6.535500	0.001857	0.000361	-0.001581	0.000104	6596.916709	45004.812363	3942.059224	23430.220095
7.035500	0.000176	-0.000241	-0.005329	-0.000163	6584.898449	44972.372103	3933.557962	23442.856847
7.535000	-0.000924	-0.000109	-0.002641	-0.000608	6579.346866	45028.215919	3941.206918	23463.917404
8.036000	-0.000380	0.000070	0.002972	-0.000023	6578.996264	44988.873193	3953.599283	23436.222503
8.536000	0.001597	-0.000749	0.005376	-0.000432	6599.268551	44949.137446	3960.592996	23455.560498
9.037000	-0.001756	0.000000	0.001310	0.000002	6567.138976	44979.661383	3949.423635	23435.029237
9.537000	-0.000287	-0.000440	-0.000527	-0.000273	6581.900344	44963.668727	3945.574068	23448.054179
10.037000	-0.000715	-0.000907	0.000436	-0.000800	6582.744833	44969.511499	3949.247676	23472.997334
10.537500	0.001235	0.000425	-0.001321	0.000071	6591.903085	45014.156156	3942.778914	23431.780196
11.035000	0.001767	0.000307	-0.003093	0.000000	6597.039143	45009.575264	3938.612510	23435.132834
11.535000	0.000000	0.000622	0.000000	0.000367	6578.911281	45004.566268	3945.296978	23417.785908
12.035500	0.000235	0.000132	0.002471	-0.000187	6585.607707	45010.784794	3952.764036	23443.994648
12.536000	0.000645	-0.000298	-0.001058	-0.000581	6592.426716	45007.277255	3945.024398	23462.613622
13.036500	0.000335	-0.000166	-0.002172	-0.002510	6606.229857	45207.500093	3947.032987	23554.197491
13.536000	-0.000325	-0.000937	0.000543	-0.001400	6591.150298	45024.743830	3950.993531	23501.444252
14.039500	0.001192	-0.000401	0.005557	-0.000759	6598.609591	45014.621760	3961.863941	23471.081618
14.537000	-0.001455	-0.000362	-0.004830	0.001904	6553.649925	44760.998173	3929.750776	23345.291140
15.037000	-0.001433	-0.000280	0.004107	0.000354	6566.894652	44918.535505	3955.478716	23418.382736
15.626500	0.002981	0.000587	-0.000571	0.000031	6607.124001	45033.701615	3944.718613	23433.665469
16.035500	0.000743	0.000363	-0.000486	-0.000782	6594.980540	45090.853216	3946.929308	23472.151406
16.535500	-0.001460	0.000134	-0.003850	0.002919	6545.075039	44711.001232	3929.665343	23297.529032
17.036000	-0.000795	-0.000687	0.001843	-0.000949	6583.331213	45005.277583	3953.095814	23480.070882
17.536000	0.002884	-0.000649	0.000981	-0.000829	6613.640383	44997.267741	3950.665127	23474.379478
18.036000	0.002791	0.000162	0.005654	-0.003207	6633.238591	45307.402971	3968.236753	23587.385812
18.536500	-0.001050	-0.000460	0.002220	0.000434	6569.459642	44893.461319	3950.607271	23414.637547
19.037000	0.000086	-0.000478	0.000600	0.000847	6575.570282	44851.731942	3945.591351	23395.101202
19.537000	-0.000450	-0.000708	0.002243	0.000768	6571.712815	44837.247756	3949.838901	23398.852616
20.035000	-0.000741	-0.000477	-0.001491	0.000158	6574.405280	44918.496100	3942.149750	23427.676176
20.535000	-0.003095	-0.000248	0.002183	0.000535	6551.361178	44904.072211	3950.263616	23409.824227
21.035500	0.000058	-0.000300	0.002718	0.000684	6576.712951	44884.660804	3951.219823	23402.805815
21.536000	-0.000505	-0.000025	-0.000513	0.000871	6570.364657	44893.144929	3942.797091	23393.965027
22.036000	-0.000374	-0.000623	-0.002202	0.000648	6573.364491	44856.879843	3939.206213	23404.484010
22.536000	-0.001292	-0.000555	0.000491	0.000196	6569.427329	44907.293682	3946.928258	23425.888427
23.036000	0.000899	-0.000113	0.000320	0.001189	6579.561348	44853.947333	3944.061271	23378.953590
23.539000	0.001068	0.000163	0.001371	0.001508	6578.292144	44849.841859	3945.863260	23363.941672
24.037000	-0.001634	-0.000364	-0.000785	0.000555	6563.500340	44890.911081	3942.904006	23408.877107
24.537500	-0.000994	0.000287	0.000086	0.000874	6566.214643	44923.112259	3944.263154	23393.840191
25.034500	-0.000578	-0.000846	-0.000555	0.000361	6574.062681	44863.143395	3943.946472	23418.046825
25.535000	-0.000782	-0.000387	0.000213	0.000830	6568.373941	44862.163352	3944.682327	23395.914281
26.035500	0.000467	-0.000285	-0.003319	0.000595	6580.938213	44894.827387	3936.608724	23407.032802
26.535500	0.000695	0.000521	-0.001387	0.001741	6573.159347	44861.838558	3938.527612	23352.943352
27.036000	-0.000673	0.000063	-0.002129	0.001151	6566.587281	44874.673300	3938.157430	23380.785140
27.536500	-0.000294	-0.001069	0.000315	0.000383	6576.284234	44839.461700	3946.032522	23417.025406
28.036000	-0.000397	-0.000531	0.000135	-0.000083	6579.362380	44936.472004	3946.736669	23439.051978
28.536500	0.000892	-0.000475	0.001051	0.000379	6586.378973	44897.319910	3947.855100	23417.230919
29.037000	0.002789	0.000047	0.003601	-0.000646	6611.264034	45046.998354	3956.704285	23465.697667
29.556500	-0.000107	0.000851	0.003435	-0.000210	6582.895035	45082.775918	3955.211162	23445.081789
30.035000	0.000354	-0.000264	0.000946	-0.000977	6593.327729	45048.972648	3950.944696	23481.410797
30.535000	-0.001964	-0.000892	-0.000493	0.000402	6562.008897	44854.720923	3943.997407	23416.104789
31.035000	0.000605	-0.000109	0.000783	-0.000515	6591.529113	45019.196646	3949.400724	23459.503227
31.558500	-0.000062	-0.000282	-0.003042	-0.000588	6586.483373	45009.536848	3940.176622	23462.954887
32.036000	-0.001123	-0.000888	-0.000736	0.001423	6560.493292	44756.686191	3940.897362	23367.943929
32.536500	-0.000954	0.000578	-0.000943	0.002255	6554.910236	44817.820621	3938.356231	23328.757385
33.047500	-0.000493	0.000586	0.001845	0.001072	6568.774544	44932.826660	3948.104837	23384.483946
33.537000	-0.001121	-0.000212	-0.004143	-0.000368	6575.638218	44994.961932	3936.946751	23452.547048
34.034500	0.000159	-0.000626	0.001886	-0.001377	6595.066956	45052.640972	3954.261652	23500.350642
34.535000	-0.001626	-0.000855	0.000322	0.000269	6565.982374	44871.115791	3946.329150	23422.412037
35.034500	0.001945	-0.000685	0.000977	-0.000953	6606.681301	45005.788359	3950.960394	23480.256002
35.535500	-0.000152	-0.000147	-0.000716	0.001497	6568.060098	44820.963905	3940.764524	23364.428525
36.035500	0.000668	0.000312	0.001542	0.001741	6572.933303	44841.700730	3945.709765	23352.956710
36.538500	-0.000791	-0.000553	0.005010	0.001184	6565.312593	44812.038878	3955.660322	23379.209848
37.036500	-0.002029	-0.000024	0.002064	0.001398	6553.073230	44842.352975	3947.838867	23369.103688
37.539500	-0.000684	-0.000139	-0.000963	0.001334	6564.946279	44837.489622	3940.559646	23372.139967
38.037000	-0.000549	-0.000433	0.001464	0.000901	6569.743049	44850.829501	3947.584620	23392.545673
38.537500	-0.002531	-0.000266	0.001117	0.001268	6549.945379	44831.541178	3945.827489	23375.228465
39.037500	-0.000128	0.000775	0.000029	0.001614	6567.277666	44898.699492	3942.304674	23358.932585
39.535000	-0.001588	-0.000165	0.001566	0.001216	6558.320062	44846.340088	3947.062750	23377.707259
40.036000	-0.002201	-0.000312	-0.003235	0.000851	6556.231072	44867.442706	3936.188812	23394.929683
40.535500	0.000446	-0.000076	0.000889	0.001577	6572.443814	44820.110353	3944.509294	23360.703041
41.041000	0.000752	0.000053	-0.000507	0.001022	6579.734179	44886.157482	3942.442316	23386.852345
41.536000	-0.000739	-0.000427	-0.000791	0.000505	6571.494282	44889.742805	3943.016102	23411.277661
42.036500	-0.001929	0.000587	-0.003351	0.001813	6550.429334	44861.359734	3933.564280	23349.581030
42.536500	-0.000856	-0.000863	0.001086	0.000640	6569.360034	44834.613857	3947.299267	23404.881258
43.037000	-0.000984	-0.000409	-0.000913	0.000875	6566.294685	44855.763588	3941.808126	23393.798382
43.537500	-0.002845	0.000539	0.000283	0.002036	6540.864006	44835.171746	3941.893248	23339.065202
44.035000	0.000109	-0.000235	-0.001282	0.001193	6572.841305	44841.818211	3940.123656	23378.788480
44.535000	-0.001613	0.000067	-0.001593	0.001380	6556.734544	44852.965826	3938.906349	23369.983635
45.035500	0.000088	0.000214	-0.000304	0.001674	6568.590646	44838.665332	3941.341702	23356.090209
45.535500	0.000550	-0.000739	0.004923	-0.001845	6602.394772	45087.116355	3962.992510	23522.600287
46.036000	0.000134	-0.000093	0.003482	-0.000729	6589.347730	45041.504491	3956.616374	23469.655137
46.559000	-0.001571	-0.000990	-0.000608	-0.000824	6575.695927	44963.794246	3946.732091	23474.150563
47.039500	0.001678	-0.000204	0.004210	0.000563	6591.492896	44905.710119	3955.214709	23408.521705
47.537000	0.001618	-0.000199	-0.001037	-0.000444	6599.549735	45003.634071	3944.739648	23456.138255
48.039500	0.000745	-0.000301	0.002030	-0.000906	6596.052061	45038.544002	3953.452690	23478.045252
48.537500	-0.000200	-0.000867	0.000527	-0.000770	6586.856259	44970.477955	3949.396059	23471.560535
49.035000	0.000990	0.000247	0.001476	-0.000105	6591.321153	45013.949666	3950.097950	23440.089038
49.535000	0.000426	0.000147	-0.001952	0.001236	6575.155646	44874.573012	3938.380727	23376.757825
50.035000	0.000931	-0.000446	0.000431	-0.000201	6591.631685	44956.113997	3947.757876	23444.644749
50.536000	-0.000578	-0.000701	0.001373	-0.000804	6583.940320	44989.909247	3951.573928	23473.202305
51.036000	-0.001200	0.000085	0.000557	0.000087	6571.127474	44979.681470	3947.358465	23431.021474
51.540000	0.000285	0.000383	0.004258	-0.000258	6586.622755	45041.976082	3957.373264	23447.326856
52.036500	0.002938	0.000147	0.009728	-0.002864	6631.553516	45272.556615	3977.653650	23571.057953
52.540000	0.002435	0.000899	-0.000219	0.002752	6579.342172	44800.848087	3938.912667	23305.404591
53.037500	-0.005059	-0.003942	0.005945	0.002634	6517.357046	44347.822457	3954.382457	23310.935245
53.535000	0.017682	-0.008993	0.024152	0.416700	4368.635544	18704.560356	3310.073279	10763.378384
54.035000	-0.003771	-0.018142	-0.015272	-0.079621	7284.833255	51375.380340	4116.948696	27568.241390
54.535500	-0.030788	-0.027568	-0.020312	-0.090532	7125.169299	51541.388081	4133.823922	28196.005440
55.035500	-0.034659	-0.065922	-0.022338	-0.226891	8632.645380	63849.281957	4589.375131	37528.665630
55.535500	-0.036980	-0.086567	-0.014843	-0.255915	8996.233779	65036.088671	4739.585583	39922.384952
56.036000	-0.034865	-0.082279	-0.006811	-0.248400	8920.885198	64576.241837	4741.799894	39287.132990
56.539000	-0.027211	-0.075062	-0.003160	-0.239976	8910.229821	64405.213417	4721.418980	38588.054987
57.036500	-0.027919	-0.046266	-0.010985	-0.191130	8262.036584	61631.346560	4495.794727	34791.083191
57.537500	-0.024143	-0.030545	-0.014404	-0.153376	7858.448683	58727.239454	4349.387106	32135.377182
58.034500	-0.023764	-0.019271	-0.018944	-0.122159	7518.517001	56222.708010	4233.023572	30107.309401
58.535000	-0.025372	-0.013275	-0.025112	-0.107503	7348.718729	55170.433696	4169.539327	29204.284650
59.034500	-0.016060	-0.016390	-0.015594	-0.109598	7467.131668	55047.758578	4204.565527	29331.459258
59.535500	-0.022589	-0.011387	-0.024775	-0.041266	6743.861398	47975.130406	3987.575735	25482.589446
60.035500	-0.028565	-0.012245	-0.028166	-0.049716	6765.826963	48769.657787	4000.588914	25926.419842
60.536000	-0.022936	-0.019053	-0.030338	-0.148954	7821.870864	59643.124098	4281.968086	31839.111963
61.039000	-0.019658	-0.012908	-0.021534	-0.116021	7496.948236	56250.277300	4206.043983	29725.372512
61.536500	-0.019968	-0.011665	-0.024742	-0.101984	7347.539646	54702.107443	4154.304694	28872.005193
62.037000	-0.020974	-0.011872	-0.029694	-0.085661	7173.536171	52768.437931	4093.244216	27913.760415
62.534000	-0.027018	-0.011762	-0.027292	-0.069593	6961.360072	50970.137066	4055.575823	27005.062187
63.035000	-0.029665	-0.011819	-0.029761	-0.045210	6716.239850	48340.999752	3984.916569	25688.691351
63.534500	-0.032540	-0.011621	-0.029679	-0.020015	6477.320142	45800.670345	3922.671630	24403.921957
64.035500	-0.028429	-0.005235	-0.028802	0.025671	6150.673306	42091.031580	3820.171412	22256.182397
64.557500	-0.021582	-0.001564	-0.025851	-0.000657	6408.783010	44892.211982	3885.944572	23466.252205
65.035500	-0.024984	-0.001836	-0.027384	-0.020829	6546.956167	46859.918024	3930.183082	24444.277013
65.536000	-0.025473	-0.001073	-0.032099	-0.019877	6534.875998	46840.817240	3916.533216	24397.113298
66.054000	-0.025963	-0.001566	-0.029861	-0.018735	6521.235807	46675.821731	3919.160159	24340.635202
66.540500	-0.026319	-0.000025	-0.030122	-0.015954	6495.158471	46551.054801	3911.883416	24203.717901
67.037000	-0.027034	0.000337	-0.029881	-0.013271	6467.138740	46318.546282	3906.083564	24072.490231
67.537500	-0.023413	0.001137	-0.027820	-0.016090	6520.439145	46681.620906	3917.710019	24210.399859
68.040500	-0.026691	0.001998	-0.029023	-0.018030	6509.302579	46964.812046	3919.477219	24305.849637
68.535500	-0.025588	0.002298	-0.026436	-0.023718	6566.197646	47576.216438	3939.531071	24588.130849
69.035500	-0.023999	0.003126	-0.031924	-0.027342	6610.478193	48036.368731	3934.979475	24769.903719
69.535500	-0.023467	0.003782	-0.034978	-0.029767	6635.836043	48357.524187	3933.447742	24892.372965
70.036000	-0.027453	0.003286	-0.036886	-0.029080	6595.845386	48233.909291	3927.156368	24857.629178
70.539000	-0.027131	0.002999	-0.041341	-0.032963	6631.806883	48610.597099	3925.771898	25054.841475
71.036500	-0.026154	0.003471	-0.035323	-0.031928	6631.310921	48551.417023	3937.874401	25002.104871
71.542500	-0.024819	0.003588	-0.037303	-0.033701	6658.121429	48750.456222	3937.369366	25092.564297
72.037500	-0.028509	0.003130	-0.040062	-0.032075	6612.384223	48531.009442	3926.717744	25009.584839
72.537500	-0.026224	0.003127	-0.041933	-0.034845	6655.863117	48822.636586	3928.893736	25151.107992
73.035000	-0.028931	0.002653	-0.039310	-0.035216	6635.709558	48811.759366	3936.170703	25170.146507
73.538000	-0.027272	0.002300	-0.040940	-0.035207	6649.937907	48773.455239	3932.180482	25169.681612
74.035500	-0.031188	0.002678	-0.038354	-0.031259	6582.629316	48398.097684	3928.876677	24968.095138
74.536000	-0.027871	0.002701	-0.039184	-0.033827	6632.884580	48670.282312	3933.094929	25099.017554
75.036000	-0.027907	0.002571	-0.035214	-0.032799	6623.744906	48548.405520	3940.272038	25046.501769
75.536500	-0.025712	0.003522	-0.040773	-0.033393	6647.736020	48710.999382	3928.186061	25076.820518
76.039500	-0.027367	0.002831	-0.036081	-0.030071	6605.020189	48289.783411	3931.505651	24907.766971
76.537000	-0.024580	0.003624	-0.037260	-0.032849	6652.818766	48664.458197	3935.396754	25049.066898
77.037500	-0.025591	0.003405	-0.037820	-0.031582	6633.175546	48508.160810	3930.953347	24984.499549
77.537500	-0.024335	0.002469	-0.034327	-0.033765	6662.858020	48639.211819	3944.815147	25095.803653
78.035000	-0.026041	0.003172	-0.040208	-0.030607	6620.949771	48381.614283	3922.825504	24934.982718
78.535500	-0.026036	0.003141	-0.037584	-0.033950	6649.747784	48729.547807	3937.291680	25105.273576
79.038000	-0.023659	0.003273	-0.033370	-0.032449	6657.315874	48585.304962	3943.934973	25028.629336
79.535500	-0.024449	0.003562	-0.035863	-0.034141	6665.135750	48794.151634	3941.970263	25115.054320
80.039000	-0.025932	0.003510	-0.041170	-0.030704	6622.705698	48427.101982	3920.742224	24939.873705
80.536500	-0.023716	0.004002	-0.033669	-0.035324	6681.793216	48965.977209	3950.282172	25175.683715
81.036500	-0.023440	0.004629	-0.034652	-0.035701	6687.478844	49072.504104	3948.787483	25195.037504
81.537500	-0.023089	0.004018	-0.042091	-0.036235	6695.207364	49064.344664	3931.881909	25222.458223
82.034500	-0.028170	0.004341	-0.035128	-0.031176	6607.603757	48563.854679	3936.515184	24963.855365
82.535000	-0.025451	0.004914	-0.038475	-0.035093	6664.698929	49038.196832	3937.907761	25163.821723
83.035500	-0.024883	0.004394	-0.039026	-0.034822	6667.274493	48954.214246	3935.899844	25149.925915
83.535500	-0.026307	0.004361	-0.036946	-0.033824	6646.317651	48845.075132	3938.540608	25098.825880
84.035500	-0.026780	0.003857	-0.035387	-0.028518	6596.789680	48234.859780	3929.422148	24829.205272
84.536500	-0.026054	0.003273	-0.034541	-0.032758	6639.310594	48617.880281	3941.819091	25044.390200
85.036500	-0.026597	0.003399	-0.037924	-0.031888	6627.163575	48539.680665	3931.444335	25000.082640
85.537000	-0.023313	0.002869	-0.038751	-0.031184	6649.377863	48410.226037	3927.733993	24964.263498
86.037000	-0.024723	0.003239	-0.036834	-0.030048	6627.453257	48330.130002	3929.624547	24906.612383
86.537500	-0.025596	0.002006	-0.032032	-0.030395	6622.944933	48237.631175	3942.179272	24924.226938
87.035000	-0.027186	0.002841	-0.038895	-0.029016	6597.577844	48180.901434	3922.155096	24854.384712
87.535000	-0.025002	0.001767	-0.034961	-0.028424	6611.157609	48007.570007	3930.228233	24824.470789
88.035500	-0.023947	0.001792	-0.035389	-0.027285	6610.440791	47892.022558	3926.436230	24767.027020
88.536000	-0.026148	0.001782	-0.032269	-0.027014	6589.376584	47863.004106	3933.340448	24753.378961
89.036000	-0.027286	0.001383	-0.032953	-0.026384	6574.381070	47756.561953	3930.150100	24721.689708
89.538500	-0.025408	0.001145	-0.034469	-0.025293	6581.048839	47619.667092	3923.850084	24666.947325
90.036000	-0.027136	0.001724	-0.033013	-0.023505	6551.357966	47495.350751	3923.049696	24577.482035
90.537000	-0.026219	0.001489	-0.033768	-0.022451	6550.214506	47363.309958	3918.702152	24524.938335
91.036500	-0.025646	0.001120	-0.032824	-0.019544	6530.638680	47029.272793	3914.003740	24380.607154
91.537000	-0.025934	0.001377	-0.026183	-0.020057	6532.521389	47107.549753	3931.223672	24405.994781
92.037500	-0.028610	0.001270	-0.038388	-0.013510	6456.175943	46435.799700	3886.677861	24084.164550
92.593000	-0.027286	0.001281	-0.037315	-0.018744	6510.292033	46964.444751	3901.446604	24341.062046
93.038000	-0.024523	0.001768	-0.032603	-0.017060	6519.276811	46843.251498	3908.613798	24258.063609
93.536000	-0.024951	0.001652	-0.029220	-0.016564	6511.586484	46781.455412	3915.495416	24233.702328
94.038500	-0.024614	0.001833	-0.029427	-0.015911	6508.956176	46733.826792	3913.441297	24201.639090
94.536500	-0.024995	0.000936	-0.034909	-0.015560	6502.879233	46608.078080	3899.614646	24184.417299
95.036500	-0.023970	0.001160	-0.033210	-0.012833	6488.781717	46356.990705	3897.197558	24051.162854
95.537000	-0.022226	0.001922	-0.028528	-0.013219	6506.426068	46471.967959	3909.169184	24069.944448
96.114000	-0.024482	0.001181	-0.032935	-0.009548	6457.533885	46031.823141	3890.150498	23891.744127
96.534500	-0.022343	0.002398	-0.026141	-0.011413	6490.486111	46338.792930	3910.551087	23982.065426
97.060000	-0.025675	0.001035	-0.029807	-0.007816	6433.645590	45845.789560	3893.411251	23808.131234
97.535500	-0.023792	0.002051	-0.025120	-0.010631	6472.094605	46226.135365	3911.120519	23944.170361
98.035500	-0.024090	0.001347	-0.030749	-0.005009	6423.717901	45599.944935	3884.676106	23673.411112
98.536000	-0.022222	0.002198	-0.029692	-0.010318	6482.449283	46209.538309	3899.555517	23928.997723
99.060500	-0.023572	0.001534	-0.023208	-0.008553	6456.837473	45968.184323	3910.725549	23843.687711
99.536500	-0.023599	0.002419	-0.023381	-0.009802	6466.857062	46180.126965	3913.288852	23903.993956
