sample name	sample
index	1046
start time	 04-19-2021  02:23:14 PM


Wavelength (nm)	Absorbance
494.344910	-0.010847
494.563924	-0.010847
494.782919	-0.010847
495.001897	0.201833
495.220856	0.074432
495.439797	0.082141
495.658719	0.078516
495.877624	0.105286
496.096510	0.116531
496.315378	0.054507
496.534227	0.122655
496.753059	0.104132
496.971872	0.148404
497.190667	0.030589
497.409444	0.020900
497.628203	0.020839
497.846943	0.019934
498.065665	0.017818
498.284369	0.018241
498.503055	0.016468
498.721723	0.016562
498.940372	0.015797
499.159003	0.015588
499.377616	0.015892
499.596210	0.015480
499.814787	0.014741
500.033345	0.015903
500.251885	0.015117
500.470406	0.014764
500.688910	0.014082
500.907395	0.014166
501.125862	0.014305
501.344311	0.014530
501.562742	0.014381
501.781154	0.014180
501.999548	0.012850
502.217924	0.013750
502.436282	0.014443
502.654621	0.014871
502.872942	0.014686
503.091245	0.014429
503.309530	0.013513
503.527797	0.013369
503.746045	0.012803
503.964275	0.011893
504.182487	0.011513
504.400681	0.010757
504.618856	0.011035
504.837013	0.010638
505.055152	0.010689
505.273273	0.011497
505.491376	0.011547
505.709460	0.011787
505.927526	0.013448
506.145574	0.013119
506.363604	0.013390
506.581615	0.013044
506.799608	0.013401
507.017583	0.013828
507.235540	0.012469
507.453478	0.012132
507.671399	0.012161
507.889301	0.011873
508.107185	0.011900
508.325050	0.011668
508.542898	0.012207
508.760727	0.012158
508.978538	0.012086
509.196330	0.013152
509.414105	0.013180
509.631861	0.013555
509.849599	0.013329
510.067319	0.013168
510.285021	0.013251
510.502704	0.012925
510.720369	0.012779
510.938016	0.012154
511.155645	0.011247
511.373255	0.010523
511.590848	0.010235
511.808422	0.010201
512.025977	0.010549
512.243515	0.010897
512.461034	0.010438
512.678536	0.010476
512.896018	0.010814
513.113483	0.010939
513.330930	0.011456
513.548358	0.011479
513.765768	0.011282
513.983160	0.011503
514.200533	0.011536
514.417889	0.012231
514.635226	0.011965
514.852545	0.011661
515.069845	0.012441
515.287128	0.013141
515.504392	0.012948
515.721638	0.013222
515.938866	0.013272
516.156075	0.013365
516.373267	0.012921
516.590440	0.012639
516.807594	0.012459
517.024731	0.012146
517.241850	0.011875
517.458950	0.011980
517.676032	0.011903
517.893095	0.011730
518.110141	0.011444
518.327168	0.011720
518.544177	0.011849
518.761168	0.012081
518.978141	0.012446
519.195095	0.012396
519.412031	0.012536
519.628949	0.012358
519.845849	0.011537
520.062731	0.011750
520.279594	0.011191
520.496439	0.011104
520.713266	0.011560
520.930074	0.010820
521.146865	0.010580
521.363637	0.009731
521.580391	0.009935
521.797127	0.010630
522.013844	0.010541
522.230543	0.010699
522.447224	0.011127
522.663887	0.010896
522.880532	0.011836
523.097158	0.011949
523.313766	0.013179
523.530356	0.012902
523.746928	0.012998
523.963481	0.012828
524.180017	0.012670
524.396534	0.012812
524.613032	0.012559
524.829513	0.011393
525.045975	0.011142
525.262420	0.010794
525.478845	0.010713
525.695253	0.010321
525.911643	0.010525
526.128014	0.010051
526.344367	0.009791
526.560702	0.009999
526.777018	0.010318
526.993316	0.010378
527.209597	0.010350
527.425858	0.010941
527.642102	0.011775
527.858328	0.011350
528.074535	0.012538
528.290724	0.012041
528.506894	0.011820
528.723047	0.011992
528.939181	0.012377
529.155297	0.012642
529.371395	0.012402
529.587475	0.011652
529.803536	0.012289
530.019579	0.011998
530.235604	0.012787
530.451611	0.012600
530.667600	0.012561
530.883570	0.012439
531.099522	0.012447
531.315456	0.012285
531.531372	0.012726
531.747269	0.012556
531.963148	0.012472
532.179009	0.012193
532.394852	0.011856
532.610676	0.012106
532.826482	0.012243
533.042271	0.011894
533.258040	0.011613
533.473792	0.011390
533.689525	0.011503
533.905240	0.011485
534.120937	0.011794
534.336616	0.012295
534.552277	0.012448
534.767919	0.012721
534.983543	0.013013
535.199149	0.013536
535.414736	0.013645
535.630306	0.013891
535.845857	0.013773
536.061390	0.014129
536.276904	0.014665
536.492401	0.014450
536.707879	0.013971
536.923339	0.014001
537.138781	0.013934
537.354204	0.014136
537.569610	0.013902
537.784997	0.013337
538.000366	0.012961
538.215716	0.012142
538.431049	0.011971
538.646363	0.012469
538.861659	0.012294
539.076937	0.012266
539.292196	0.011717
539.507438	0.012192
539.722661	0.012558
539.937866	0.012737
540.153052	0.013218
540.368221	0.013196
540.583371	0.012942
540.798503	0.013052
541.013617	0.012941
541.228712	0.013148
541.443789	0.012609
541.658848	0.012810
541.873889	0.012454
542.088912	0.012309
542.303916	0.012463
542.518902	0.012553
542.733870	0.012285
542.948820	0.012917
543.163752	0.013104
543.378665	0.013287
543.593560	0.013693
543.808437	0.013459
544.023295	0.013690
544.238136	0.014345
544.452958	0.014509
544.667762	0.014549
544.882548	0.013861
545.097315	0.013641
545.312064	0.013589
545.526795	0.013285
545.741508	0.013566
545.956203	0.013254
546.170879	0.012878
546.385537	0.012572
546.600177	0.012765
546.814799	0.013145
547.029402	0.013531
547.243988	0.013745
547.458555	0.013870
547.673103	0.013967
547.887634	0.013892
548.102146	0.013575
548.316640	0.013359
548.531116	0.013326
548.745574	0.013093
548.960013	0.012905
549.174435	0.012475
549.388838	0.012184
549.603222	0.011808
549.817589	0.011999
550.031937	0.012351
550.246267	0.012365
550.460579	0.012310
550.674873	0.012045
550.889148	0.011716
551.103405	0.011661
551.317644	0.011783
551.531865	0.012095
551.746068	0.012457
551.960252	0.012225
552.174418	0.012533
552.388566	0.012349
552.602696	0.012768
552.816807	0.012864
553.030900	0.013190
553.244975	0.013268
553.459032	0.013210
553.673070	0.013272
553.887091	0.013606
554.101093	0.013251
554.315077	0.013465
554.529042	0.013475
554.742990	0.013771
554.956919	0.013592
555.170830	0.013690
555.384722	0.013739
555.598597	0.013715
555.812453	0.013193
556.026291	0.013049
556.240111	0.013264
556.453913	0.012976
556.667696	0.012847
556.881461	0.012616
557.095208	0.012377
557.308937	0.012304
557.522647	0.012213
557.736339	0.012434
557.950013	0.012658
558.163669	0.012349
558.377307	0.012442
558.590926	0.012364
558.804527	0.012808
559.018110	0.012776
559.231675	0.013027
559.445221	0.012804
559.658749	0.012464
559.872259	0.012571
560.085751	0.012504
560.299225	0.012547
560.512680	0.012584
560.726117	0.012276
560.939536	0.012530
561.152937	0.012390
561.366319	0.012622
561.579683	0.012948
561.793029	0.012828
562.006357	0.012860
562.219667	0.012619
562.432958	0.012350
562.646231	0.012382
562.859486	0.011871
563.072723	0.012102
563.285941	0.011787
563.499141	0.011479
563.712323	0.011565
563.925487	0.011753
564.138632	0.012142
564.351760	0.012460
564.564869	0.012113
564.777960	0.012604
564.991032	0.012308
565.204087	0.012131
565.417123	0.012161
565.630141	0.011706
565.843140	0.011546
566.056122	0.011394
566.269085	0.011259
566.482030	0.011665
566.694957	0.011563
566.907866	0.011353
567.120756	0.011398
567.333628	0.011233
567.546482	0.011681
567.759318	0.011772
567.972135	0.011639
568.184935	0.011683
568.397716	0.011667
568.610478	0.011384
568.823223	0.011503
569.035949	0.011683
569.248657	0.011596
569.461347	0.011405
569.674019	0.011381
569.886672	0.011652
570.099308	0.011373
570.311925	0.011110
570.524523	0.011219
570.737104	0.011151
570.949666	0.010961
571.162210	0.011307
571.374736	0.011377
571.587244	0.011339
571.799733	0.010731
572.012205	0.010804
572.224658	0.011011
572.437092	0.010780
572.649509	0.010587
572.861907	0.010719
573.074287	0.010632
573.286649	0.010548
573.498993	0.010243
573.711318	0.010517
573.923625	0.010609
574.135914	0.010444
574.348185	0.010737
574.560438	0.010952
574.772672	0.010958
574.984888	0.010765
575.197086	0.010836
575.409266	0.011112
575.621427	0.011206
575.833570	0.011000
576.045695	0.011253
576.257802	0.011232
576.469890	0.011503
576.681961	0.011269
576.894013	0.011583
577.106046	0.011492
577.318062	0.011841
577.530059	0.011492
577.742039	0.011835
577.954000	0.011557
578.165942	0.011740
578.377867	0.011211
578.589773	0.011432
578.801661	0.011342
579.013531	0.011473
579.225382	0.010998
579.437216	0.011319
579.649031	0.011325
579.860828	0.011140
580.072606	0.010638
580.284367	0.011028
580.496109	0.010779
580.707833	0.010808
580.919539	0.010923
581.131227	0.010850
581.342896	0.010764
581.554547	0.010573
581.766180	0.010880
581.977795	0.010856
582.189391	0.010630
582.400969	0.011075
582.612529	0.010829
582.824071	0.010409
583.035595	0.010487
583.247100	0.010594
583.458587	0.010814
583.670056	0.010838
583.881506	0.010912
584.092939	0.010822
584.304353	0.010784
584.515749	0.011084
584.727127	0.011368
584.938486	0.011459
585.149828	0.011411
585.361151	0.011315
585.572456	0.011364
585.783742	0.011547
585.995011	0.011744
586.206261	0.011686
586.417493	0.011762
586.628706	0.011377
586.839902	0.011491
587.051079	0.011458
587.262238	0.011685
587.473379	0.011727
587.684502	0.011840
587.895606	0.011825
588.106692	0.011564
588.317760	0.011394
588.528810	0.011766
588.739841	0.011638
588.950855	0.011538
589.161850	0.011452
589.372827	0.011425
589.583785	0.011364
589.794726	0.011681
590.005648	0.011901
590.216552	0.011832
590.427437	0.012011
590.638305	0.012025
590.849154	0.012274
591.059985	0.012105
591.270798	0.012068
591.481592	0.012414
591.692369	0.012092
591.903127	0.011855
592.113867	0.012136
592.324588	0.012203
592.535292	0.012498
592.745977	0.012566
592.956644	0.012546
593.167293	0.012404
593.377923	0.012170
593.588536	0.012607
593.799130	0.012767
594.009706	0.012718
594.220263	0.012668
594.430803	0.012460
594.641324	0.012743
594.851827	0.013116
595.062312	0.013445
595.272778	0.013612
595.483227	0.013406
595.693657	0.013488
595.904069	0.013278
596.114462	0.013242
596.324838	0.013348
596.535195	0.013079
596.745534	0.012992
596.955855	0.012687
597.166157	0.012509
597.376441	0.012368
597.586707	0.012370
597.796955	0.012468
598.007185	0.012514
598.217396	0.012534
598.427589	0.012485
598.637764	0.012345
598.847921	0.012406
599.058060	0.012482
599.268180	0.012808
599.478282	0.012835
599.688366	0.013045
599.898431	0.013166
600.108479	0.013046
600.318508	0.013033
600.528519	0.013124
600.738511	0.013299
600.948486	0.013172
601.158442	0.013205
601.368380	0.013276
601.578300	0.013256
601.788202	0.013215
601.998085	0.013693
602.207950	0.013956
602.417797	0.013880
602.627626	0.013820
602.837436	0.014044
603.047228	0.014145
603.257002	0.014285
603.466758	0.014397
603.676496	0.014154
603.886215	0.013887
604.095916	0.013708
604.305599	0.013852
604.515264	0.014246
604.724910	0.014042
604.934538	0.013737
605.144148	0.013600
605.353740	0.013465
605.563314	0.013519
605.772869	0.013341
605.982406	0.013295
606.191925	0.013242
606.401425	0.012686
606.610908	0.012948
606.820372	0.013025
607.029818	0.013083
607.239246	0.013164
607.448655	0.013297
607.658047	0.013336
607.867420	0.013150
608.076775	0.013125
608.286111	0.013515
608.495430	0.013590
608.704730	0.013545
608.914012	0.013535
609.123275	0.013388
609.332521	0.013494
609.541748	0.013585
609.750957	0.013840
609.960148	0.013790
610.169321	0.013540
610.378475	0.013359
610.587611	0.013502
610.796729	0.013460
611.005829	0.013477
611.214910	0.013324
611.423974	0.013230
611.633019	0.013341
611.842045	0.013213
612.051054	0.013200
612.260044	0.013089
612.469017	0.012983
612.677970	0.012994
612.886906	0.013038
613.095824	0.013236
613.304723	0.013411
613.513604	0.013300
613.722467	0.013542
613.931311	0.013580
614.140138	0.013735
614.348946	0.013679
614.557736	0.013636
614.766507	0.013712
614.975261	0.013598
615.183996	0.013560
615.392713	0.013711
615.601412	0.013585
615.810092	0.014099
616.018754	0.014194
616.227399	0.014243
616.436024	0.014482
616.644632	0.014593
616.853222	0.014613
617.061793	0.014689
617.270346	0.014465
617.478880	0.014664
617.687397	0.014234
617.895895	0.014148
618.104375	0.014241
618.312837	0.013917
618.521281	0.013721
618.729706	0.013733
618.938113	0.013701
619.146502	0.013778
619.354873	0.014046
619.563226	0.014043
619.771560	0.014222
619.979876	0.014167
620.188174	0.014202
620.396453	0.014558
620.604715	0.014751
620.812958	0.014689
621.021183	0.014794
621.229390	0.014611
621.437578	0.014828
621.645748	0.014845
621.853900	0.014896
622.062034	0.015317
622.270150	0.015100
622.478247	0.015080
622.686326	0.015254
622.894387	0.015345
623.102430	0.015376
623.310454	0.015357
623.518461	0.015289
623.726449	0.015519
623.934418	0.015362
624.142370	0.015300
624.350303	0.015036
624.558218	0.014875
624.766115	0.014834
624.973994	0.014724
625.181855	0.014591
625.389697	0.014664
625.597521	0.014356
625.805327	0.014390
626.013114	0.014452
626.220883	0.014626
626.428634	0.014620
626.636367	0.014457
626.844082	0.014694
627.051778	0.014824
627.259457	0.014829
627.467117	0.015007
627.674758	0.015077
627.882382	0.015203
628.089987	0.015245
628.297574	0.015369
628.505143	0.015552
628.712694	0.015304
628.920226	0.015342
629.127740	0.015356
629.335236	0.015464
629.542714	0.015440
629.750174	0.015516
629.957615	0.015687
630.165038	0.015816
630.372443	0.015800
630.579829	0.015928
630.787198	0.016079
630.994548	0.015976
631.201880	0.016095
631.409194	0.016249
631.616489	0.016222
631.823766	0.016217
632.031025	0.016296
632.238266	0.016432
632.445489	0.016486
632.652693	0.016264
632.859879	0.016472
633.067047	0.016430
633.274197	0.016397
633.481329	0.016375
633.688442	0.016389
633.895537	0.016197
634.102614	0.016230
634.309672	0.016286
634.516713	0.016421
634.723735	0.016309
634.930739	0.016333
635.137724	0.016335
635.344692	0.016485
635.551641	0.016619
635.758572	0.016908
635.965485	0.017202
636.172379	0.017172
636.379256	0.017127
636.586114	0.017215
636.792954	0.017252
636.999775	0.017343
637.206579	0.017532
637.413364	0.017527
637.620131	0.017463
637.826880	0.017229
638.033610	0.017341
638.240323	0.017598
638.447017	0.017561
638.653692	0.017513
638.860350	0.017423
639.066990	0.017224
639.273611	0.017123
639.480214	0.017210
639.686798	0.017114
639.893365	0.017134
640.099913	0.016970
640.306443	0.017028
640.512955	0.017075
640.719449	0.017286
640.925924	0.017359
641.132381	0.017306
641.338820	0.017087
641.545241	0.017209
641.751644	0.017238
641.958028	0.017402
642.164394	0.017598
642.370742	0.017580
642.577071	0.017411
642.783383	0.017436
642.989676	0.017347
643.195951	0.017583
643.402207	0.017490
643.608446	0.017482
643.814666	0.017326
644.020868	0.017164
644.227052	0.017229
644.433218	0.017228
644.639365	0.017138
644.845494	0.017129
645.051605	0.016909
645.257698	0.017058
645.463772	0.016884
645.669828	0.016959
645.875866	0.016753
646.081886	0.016752
646.287888	0.016569
646.493871	0.016622
646.699836	0.016683
646.905783	0.016806
647.111712	0.016794
647.317622	0.016844
647.523514	0.016934
647.729388	0.017082
647.935244	0.016977
648.141082	0.017370
648.346901	0.017411
648.552702	0.017740
648.758485	0.017823
648.964250	0.017815
649.169996	0.018015
649.375724	0.018098
649.581434	0.018414
649.787126	0.018386
649.992800	0.018311
650.198455	0.018400
650.404092	0.018310
650.609711	0.018357
650.815311	0.018427
651.020894	0.018336
651.226458	0.018292
651.432004	0.018194
651.637532	0.018243
651.843041	0.018263
652.048532	0.018160
652.254006	0.018141
652.459460	0.018159
652.664897	0.018170
652.870315	0.018111
653.075716	0.018341
653.281097	0.018395
653.486461	0.018572
653.691807	0.018668
653.897134	0.018928
654.102443	0.019018
654.307734	0.018976
654.513006	0.018940
654.718261	0.019216
654.923497	0.019029
655.128715	0.019143
655.333915	0.019174
655.539096	0.019086
655.744259	0.018952
655.949404	0.019050
656.154531	0.019101
656.359640	0.019121
656.564730	0.019161
656.769802	0.019296
656.974856	0.019206
657.179892	0.019277
657.384909	0.019151
657.589908	0.019145
657.794889	0.019153
657.999852	0.019073
658.204797	0.019143
658.409723	0.019107
658.614631	0.019074
658.819521	0.019163
659.024393	0.019150
659.229246	0.019577
659.434081	0.019702
659.638898	0.019700
659.843697	0.020115
660.048478	0.020230
660.253240	0.020176
660.457984	0.020328
660.662710	0.020419
660.867417	0.020669
661.072107	0.020643
661.276778	0.020693
661.481431	0.020711
661.686066	0.020448
661.890682	0.020539
662.095281	0.020769
662.299861	0.020709
662.504422	0.020721
662.708966	0.020585
662.913491	0.020465
663.117999	0.020392
663.322488	0.020553
663.526958	0.020740
663.731411	0.020767
663.935845	0.020840
664.140261	0.020926
664.344659	0.021005
664.549038	0.021061
664.753400	0.021280
664.957743	0.021601
665.162068	0.021643
665.366375	0.021696
665.570663	0.021830
665.774933	0.021972
665.979185	0.022167
666.183419	0.022045
666.387635	0.022156
666.591832	0.022167
666.796011	0.022121
667.000172	0.022130
667.204315	0.022197
667.408439	0.022068
667.612545	0.021890
667.816634	0.021689
668.020703	0.021790
668.224755	0.022023
668.428788	0.021908
668.632803	0.021797
668.836800	0.021629
669.040779	0.021640
669.244739	0.021559
669.448681	0.021530
669.652605	0.021535
669.856511	0.021495
670.060399	0.021224
670.264268	0.021302
670.468119	0.021366
670.671952	0.021571
670.875767	0.021474
671.079563	0.021756
671.283341	0.021737
671.487101	0.021721
671.690843	0.021793
671.894567	0.021857
672.098272	0.021826
672.301959	0.021812
672.505628	0.021709
672.709278	0.021885
672.912911	0.021787
673.116525	0.021841
673.320121	0.022006
673.523699	0.022045
673.727258	0.022008
673.930799	0.022197
674.134322	0.022311
674.337827	0.022592
674.541314	0.022363
674.744782	0.022473
674.948232	0.022581
675.151664	0.022504
675.355078	0.022537
675.558474	0.022647
675.761851	0.022589
675.965210	0.022632
676.168551	0.022511
676.371873	0.022785
676.575178	0.022815
676.778464	0.022886
676.981732	0.022829
677.184981	0.022906
677.388213	0.022843
677.591426	0.022907
677.794621	0.022868
677.997798	0.022761
678.200956	0.022592
678.404097	0.022493
678.607219	0.022331
678.810323	0.022473
679.013408	0.022331
679.216476	0.022387
679.419525	0.022358
679.622556	0.022273
679.825569	0.022325
680.028563	0.022538
680.231540	0.022621
680.434498	0.022719
680.637438	0.022700
680.840359	0.022878
681.043263	0.022980
681.246148	0.023014
681.449015	0.023148
681.651864	0.023174
681.854694	0.023119
682.057506	0.023104
682.260301	0.023212
682.463076	0.023492
682.665834	0.023577
682.868573	0.023501
683.071295	0.023479
683.273998	0.023550
683.476682	0.023513
683.679349	0.023445
683.881997	0.023546
684.084627	0.023385
684.287239	0.023161
684.489833	0.023018
684.692408	0.023097
684.894965	0.023127
685.097504	0.022818
685.300025	0.022908
685.502527	0.022966
685.705012	0.022869
685.907478	0.023008
686.109925	0.022983
686.312355	0.023087
686.514766	0.022957
686.717159	0.023034
686.919534	0.023425
687.121891	0.023539
687.324230	0.023521
687.526550	0.023460
687.728852	0.023553
687.931136	0.023538
688.133401	0.023501
688.335649	0.023511
688.537878	0.023349
688.740089	0.023138
688.942281	0.023007
689.144456	0.022895
689.346612	0.022808
689.548750	0.022599
689.750870	0.022696
689.952971	0.022612
690.155055	0.022602
690.357120	0.022573
690.559167	0.022603
690.761195	0.022619
690.963206	0.022890
691.165198	0.023185
691.367172	0.023231
691.569128	0.023345
691.771065	0.023610
691.972984	0.023797
692.174885	0.023881
692.376768	0.024087
692.578633	0.024251
692.780479	0.024477
692.982308	0.024477
693.184118	0.024608
693.385909	0.024514
693.587683	0.024355
693.789438	0.024438
693.991175	0.024586
694.192894	0.024547
694.394595	0.024526
694.596277	0.024144
694.797941	0.024357
694.999587	0.024488
695.201215	0.024476
695.402824	0.024552
695.604416	0.024464
695.805989	0.024361
696.007543	0.024338
696.209080	0.024306
696.410598	0.024548
696.612099	0.024416
696.813580	0.024308
697.015044	0.024485
697.216490	0.024465
697.417917	0.024462
697.619326	0.024677
697.820717	0.024764
698.022089	0.024886
698.223444	0.024704
698.424780	0.024737
698.626098	0.024778
698.827397	0.024751
699.028679	0.024707
699.229942	0.024651
699.431187	0.024611
699.632414	0.024514
699.833622	0.024474
700.034813	0.024597
700.235985	0.024527
700.437139	0.024514
700.638274	0.024448
700.839392	0.024515
701.040491	0.024619
701.241572	0.024638
701.442635	0.024705
701.643679	0.024736
701.844706	0.024782
702.045714	0.024943
702.246704	0.025042
702.447675	0.025189
702.648629	0.025310
702.849564	0.025316
703.050481	0.025355
703.251380	0.025427
703.452260	0.025550
703.653122	0.025695
703.853966	0.025635
704.054792	0.025585
704.255600	0.025519
704.456389	0.025506
704.657160	0.025628
704.857913	0.025596
705.058648	0.025669
705.259365	0.025563
705.460063	0.025370
705.660743	0.025330
705.861405	0.025350
706.062048	0.025315
706.262674	0.025477
706.463281	0.025392
706.663870	0.025397
706.864441	0.025217
707.064993	0.025252
707.265527	0.025299
707.466043	0.025255
707.666541	0.025353
707.867021	0.025464
708.067482	0.025158
708.267925	0.025116
708.468350	0.025076
708.668757	0.024998
708.869145	0.024822
709.069516	0.024828
709.269868	0.025002
709.470201	0.024938
709.670517	0.024769
709.870814	0.024711
710.071093	0.024590
710.271354	0.024405
710.471597	0.024434
710.671821	0.024504
710.872028	0.024333
711.072216	0.024190
711.272385	0.024172
711.472537	0.024199
711.672670	0.024329
711.872785	0.024425
712.072882	0.024550
712.272961	0.024498
712.473021	0.024458
712.673063	0.024598
712.873087	0.024556
713.073093	0.024420
713.273081	0.024363
713.473050	0.024285
713.673001	0.024234
713.872934	0.024275
714.072849	0.024476
714.272745	0.024631
714.472623	0.024553
714.672483	0.024634
714.872325	0.024632
715.072148	0.024702
715.271954	0.024852
715.471741	0.024794
715.671509	0.024783
715.871260	0.024782
716.070992	0.024732
716.270707	0.024793
716.470403	0.024699
716.670080	0.024696
716.869740	0.024682
717.069381	0.024501
717.269004	0.024601
717.468609	0.024451
717.668195	0.024276
717.867764	0.024239
718.067314	0.024012
718.266846	0.023968
718.466360	0.023993
718.665855	0.023826
718.865332	0.023921
719.064791	0.023889
719.264232	0.023978
719.463655	0.023893
719.663059	0.023883
719.862445	0.023977
720.061813	0.024113
720.261163	0.024052
720.460494	0.024251
720.659807	0.024299
720.859102	0.024302
721.058379	0.024275
721.257638	0.024408
721.456878	0.024240
721.656100	0.024101
721.855304	0.023874
722.054490	0.023871
722.253657	0.023638
722.452806	0.023315
722.651937	0.023163
722.851050	0.022994
723.050145	0.022775
723.249221	0.022599
723.448279	0.022571
723.647319	0.022343
723.846340	0.022302
724.045344	0.022241
724.244329	0.022334
724.443296	0.022407
724.642245	0.022447
724.841175	0.022504
725.040088	0.022533
725.238982	0.022572
725.437857	0.022766
725.636715	0.022636
725.835554	0.022635
726.034376	0.022519
726.233179	0.022392
726.431963	0.022285
726.630730	0.022200
726.829478	0.022065
727.028208	0.022009
727.226920	0.021847
727.425614	0.021984
727.624289	0.021957
727.822946	0.022025
728.021585	0.021907
728.220206	0.022130
728.418808	0.022173
728.617392	0.022490
728.815958	0.022360
729.014506	0.022511
729.213036	0.022445
729.411547	0.022510
729.610040	0.022543
729.808515	0.022710
730.006972	0.022455
730.205410	0.022455
730.403831	0.022230
730.602233	0.022381
730.800616	0.022340
730.998982	0.022240
731.197329	0.022138
731.395658	0.022109
731.593969	0.022073
731.792262	0.022106
731.990536	0.022113
732.188793	0.022005
732.387031	0.022136
732.585250	0.022040
732.783452	0.022131
732.981635	0.022189
733.179800	0.022005
733.377947	0.021947
733.576076	0.022059
733.774186	0.021971
733.972278	0.022088
734.170352	0.021969
734.368408	0.021915
734.566446	0.021799
734.764465	0.021743
734.962466	0.021759
735.160449	0.021772
735.358413	0.021560
735.556360	0.021507
735.754288	0.021435
735.952198	0.021374
736.150090	0.021435
736.347963	0.021508
736.545818	0.021510
736.743655	0.021629
736.941474	0.021631
737.139275	0.021685
737.337057	0.021800
737.534821	0.021832
737.732567	0.021763
737.930295	0.021807
738.128005	0.021894
738.325696	0.021881
738.523369	0.021834
738.721024	0.021667
738.918660	0.021740
739.116279	0.021605
739.313879	0.021674
739.511461	0.021608
739.709024	0.021503
739.906570	0.021346
740.104097	0.021191
740.301606	0.021128
740.499097	0.021108
740.696569	0.021044
740.894024	0.021047
741.091460	0.021029
741.288878	0.021176
741.486277	0.021327
741.683659	0.021366
741.881022	0.021494
742.078367	0.021454
742.275694	0.021797
742.473002	0.021748
742.670293	0.021906
742.867565	0.021858
743.064819	0.021890
743.262054	0.021816
743.459272	0.021704
743.656471	0.021816
743.853652	0.021901
744.050815	0.021640
744.247959	0.021740
744.445085	0.021623
744.642194	0.021409
744.839283	0.021341
745.036355	0.021302
745.233408	0.021279
745.430444	0.021006
745.627461	0.020821
745.824459	0.020868
746.021440	0.020643
746.218402	0.020541
746.415346	0.020705
746.612272	0.020612
746.809180	0.020468
747.006069	0.020511
747.202940	0.020579
747.399793	0.020742
747.596628	0.020579
747.793444	0.020759
747.990243	0.020812
748.187023	0.020847
748.383784	0.020858
748.580528	0.020770
748.777253	0.020705
748.973960	0.020862
749.170649	0.020966
749.367320	0.021008
749.563973	0.020874
749.760607	0.020870
749.957223	0.020900
750.153821	0.021043
750.350400	0.021229
750.546962	0.021227
750.743505	0.021107
750.940030	0.020871
751.136536	0.020871
751.333025	0.020826
751.529495	0.020960
751.725947	0.020836
751.922381	0.020573
752.118796	0.020522
752.315194	0.020443
752.511573	0.020472
752.707934	0.020493
752.904276	0.020372
753.100601	0.020338
753.296907	0.020036
753.493195	0.020107
753.689465	0.020330
753.885716	0.020363
754.081949	0.020286
754.278164	0.020182
754.474361	0.020167
754.670540	0.020141
754.866700	0.020054
755.062843	0.020175
755.258967	0.020096
755.455072	0.019717
755.651160	0.019577
755.847229	0.019742
756.043280	0.019694
756.239313	0.019548
756.435328	0.019500
756.631324	0.019489
756.827302	0.019394
757.023262	0.019249
757.219204	0.019418
757.415127	0.019287
757.611033	0.019135
757.806920	0.019008
758.002788	0.019185
758.198639	0.019217
758.394471	0.019301
758.590286	0.019170
758.786081	0.019231
758.981859	0.019074
759.177619	0.019139
759.373360	0.019058
759.569083	0.019152
759.764788	0.018903
759.960474	0.018779
760.156143	0.018578
760.351793	0.018540
760.547425	0.018494
760.743038	0.018549
760.938634	0.018623
761.134211	0.018750
761.329770	0.018665
761.525311	0.018890
761.720833	0.019118
761.916338	0.019290
762.111824	0.019347
762.307292	0.019286
762.502741	0.019401
762.698173	0.019337
762.893586	0.019198
763.088981	0.019219
763.284358	0.019036
763.479716	0.018784
763.675057	0.018846
763.870379	0.018887
764.065683	0.018868
764.260968	0.018727
764.456236	0.018816
764.651485	0.018807
764.846716	0.018763
765.041929	0.018888
765.237123	0.019067
765.432299	0.018961
765.627457	0.018823
765.822597	0.018870
766.017719	0.018786
766.212822	0.018621
766.407907	0.018533
766.602974	0.018449
766.798023	0.018351
766.993054	0.018386
767.188066	0.018336
767.383060	0.018434
767.578036	0.018343
767.772993	0.018191
767.967933	0.018029
768.162854	0.018149
768.357757	0.018209
768.552642	0.018125
768.747508	0.017981
768.942356	0.017937
769.137186	0.017840
769.331998	0.017585
769.526792	0.017899
769.721567	0.017909
769.916324	0.017737
770.111063	0.017706
770.305784	0.017770
770.500486	0.017677
770.695171	0.017474
770.889837	0.017623
771.084484	0.017933
771.279114	0.017985
771.473725	0.018094
771.668318	0.018315
771.862893	0.018468
772.057450	0.018407
772.251988	0.018599
772.446509	0.018986
772.641011	0.018964
772.835494	0.018990
773.029960	0.018912
773.224407	0.018983
773.418836	0.018806
773.613247	0.018667
773.807640	0.018681
774.002014	0.018646
774.196370	0.018498
774.390708	0.018579
774.585028	0.018655
774.779330	0.018639
774.973613	0.018699
775.167878	0.018923
775.362125	0.018933
775.556354	0.018958
775.750564	0.018992
775.944756	0.019132
776.138930	0.019089
776.333086	0.018956
776.527223	0.018970
776.721343	0.018792
776.915444	0.018761
777.109526	0.018833
777.303591	0.018999
777.497637	0.019050
777.691666	0.019064
777.885676	0.019258
778.079667	0.019372
778.273641	0.019644
778.467596	0.019846
778.661533	0.020001
778.855452	0.020095
779.049352	0.019999
779.243235	0.020039
779.437099	0.020154
779.630945	0.020112
779.824773	0.020203
780.018582	0.020110
780.212373	0.020368
780.406146	0.020295
780.599901	0.020336
780.793638	0.020416
780.987356	0.020436
781.181056	0.020458
781.374738	0.020412
781.568402	0.020444
781.762047	0.020383
781.955674	0.020280
782.149283	0.020457
782.342874	0.020488
782.536447	0.020513
782.730001	0.020583
782.923537	0.020532
783.117055	0.020640
783.310555	0.020728
783.504036	0.020792
783.697499	0.020788
783.890944	0.020433
784.084371	0.020408
784.277780	0.020469
784.471170	0.020518
784.664542	0.020448
784.857896	0.020520
785.051231	0.020401
785.244549	0.020386
785.437848	0.020211
785.631129	0.020430
785.824392	0.020399
786.017636	0.020069
786.210863	0.019921
786.404071	0.019821
786.597260	0.019643
786.790432	0.019587
786.983585	0.019598
787.176721	0.019592
787.369838	0.019643
787.562936	0.019707
787.756017	0.019968
787.949079	0.019986
788.142123	0.020005
788.335149	0.019840
788.528156	0.019796
788.721146	0.019575
788.914117	0.019501
789.107070	0.019166
789.300005	0.019040
789.492921	0.019036
789.685819	0.018870
789.878699	0.018806
790.071561	0.018921
790.264405	0.018997
790.457230	0.019078
790.650037	0.019016
790.842826	0.019022
791.035597	0.019122
791.228349	0.019037
791.421084	0.018967
791.613800	0.019097
791.806497	0.018985
791.999177	0.018873
792.191838	0.018823
792.384481	0.019160
792.577106	0.019519
792.769713	0.019428
792.962301	0.019571
793.154871	0.019840
793.347423	0.019750
793.539957	0.019837
793.732473	0.020121
793.924970	0.020265
794.117449	0.020179
794.309910	0.020143
794.502353	0.020226
794.694777	0.020235
794.887183	0.020255
795.079571	0.020311
795.271941	0.020505
795.464293	0.020276
795.656626	0.020452
795.848941	0.020456
796.041238	0.020402
796.233516	0.020346
796.425777	0.020271
796.618019	0.020205
796.810243	0.020203
797.002449	0.020170
797.194636	0.020176
797.386805	0.020065
797.578956	0.019868
797.771089	0.019943
797.963204	0.020354
798.155300	0.020523
798.347378	0.020471
798.539438	0.020553
798.731480	0.020524
798.923503	0.020482
799.115509	0.020456
799.307496	0.020696
799.499465	0.020762
799.691415	0.020517
799.883348	0.020354
800.075262	0.020497
800.267158	0.020597
800.459035	0.020538
800.650895	0.020778
800.842736	0.020799
801.034559	0.020624
801.226364	0.020558
801.418150	0.020570
801.609919	0.020582
801.801669	0.020515
801.993401	0.020521
802.185114	0.020477
802.376810	0.020524
802.568487	0.020597
802.760146	0.020929
802.951787	0.021028
803.143409	0.021025
803.335014	0.021323
803.526600	0.021528
803.718168	0.021591
803.909717	0.021777
804.101249	0.021614
804.292762	0.021667
804.484257	0.021698
804.675734	0.021639
804.867192	0.021679
805.058632	0.021802
805.250054	0.021868
805.441458	0.021876
805.632844	0.021869
805.824211	0.022090
806.015561	0.022080
806.206891	0.022030
806.398204	0.022134
806.589499	0.022161
806.780775	0.021893
806.972033	0.021915
807.163273	0.022288
807.354495	0.022400
807.545698	0.022553
807.736883	0.022701
807.928050	0.022728
808.119199	0.022747
808.310329	0.022764
808.501441	0.022936
808.692535	0.022928
808.883611	0.022629
809.074669	0.022709
809.265708	0.022697
809.456729	0.022667
809.647732	0.022765
809.838717	0.022783
810.029683	0.023074
810.220632	0.023160
810.411562	0.023226
810.602474	0.023562
810.793367	0.023833
810.984242	0.023933
811.175100	0.024149
811.365938	0.024042
811.556759	0.024425
811.747562	0.024490
811.938346	0.024633
812.129112	0.024774
812.319860	0.024766
812.510589	0.024754
812.701300	0.024792
812.891994	0.024781
813.082668	0.025090
813.273325	0.024868
813.463964	0.024812
813.654584	0.024691
813.845186	0.024734
814.035769	0.024532
814.226335	0.024414
814.416882	0.024353
814.607411	0.024349
814.797922	0.024231
814.988415	0.024169
815.178889	0.024176
815.369345	0.024365
815.559783	0.024264
815.750203	0.024508
815.940605	0.024483
816.130988	0.024653
816.321353	0.024673
816.511700	0.024903
816.702028	0.025187
816.892339	0.025373
817.082631	0.025480
817.272905	0.025886
817.463161	0.025752
817.653398	0.025912
817.843617	0.025842
818.033819	0.025843
818.224001	0.025724
818.414166	0.025543
818.604312	0.025381
818.794440	0.025357
818.984550	0.025059
819.174642	0.025122
819.364716	0.025189
819.554771	0.025186
819.744808	0.025155
819.934827	0.025238
820.124827	0.025379
820.314810	0.025526
820.504774	0.025336
820.694720	0.025404
820.884647	0.025626
821.074557	0.025573
821.264448	0.025696
821.454321	0.026048
821.644176	0.026256
821.834012	0.026232
822.023831	0.026272
822.213631	0.026423
822.403413	0.026473
822.593176	0.026264
822.782922	0.026291
822.972649	0.026197
823.162358	0.026261
823.352049	0.026154
823.541721	0.026179
823.731376	0.026136
823.921012	0.026376
824.110629	0.026499
824.300229	0.026650
824.489811	0.026819
824.679374	0.026975
824.868919	0.026881
825.058445	0.027099
825.247954	0.027205
825.437444	0.027288
825.626916	0.027139
825.816370	0.027170
826.005806	0.027163
826.195223	0.027144
826.384622	0.027332
826.574003	0.027375
826.763366	0.027186
826.952711	0.027241
827.142037	0.027215
827.331345	0.027525
827.520635	0.027550
827.709906	0.027754
827.899160	0.027915
828.088395	0.027878
828.277612	0.027773
828.466810	0.027979
828.655991	0.028347
828.845153	0.028505
829.034297	0.028316
829.223423	0.028326
829.412531	0.028302
829.601620	0.028346
829.790691	0.028594
829.979744	0.028863
830.168779	0.028926
830.357795	0.028939
830.546793	0.028942
830.735773	0.029033
830.924735	0.029285
831.113679	0.029376
831.302604	0.029473
831.491511	0.029556
831.680400	0.029634
831.869271	0.029672
832.058123	0.029583
832.246957	0.029827
832.435773	0.030065
832.624571	0.030076
832.813351	0.030122
833.002112	0.030032
833.190855	0.029953
833.379580	0.030042
833.568287	0.030139
833.756975	0.030425
833.945645	0.030486
834.134297	0.030313
834.322931	0.030176
834.511547	0.030197
834.700144	0.030437
834.888723	0.030449
835.077284	0.030468
835.265826	0.030336
835.454351	0.030255
835.642857	0.030329
835.831345	0.030419
836.019815	0.030564
836.208266	0.030608
836.396699	0.030706
836.585114	0.030740
836.773511	0.030737
836.961890	0.030764
837.150250	0.030703
837.338592	0.030736
837.526916	0.031034
837.715222	0.031007
837.903510	0.031117
838.091779	0.031043
838.280030	0.031473
838.468263	0.031734
838.656477	0.032270
838.844674	0.032419
839.032852	0.032538
839.221012	0.032604
839.409153	0.032974
839.597277	0.033112
839.785382	0.033189
839.973469	0.033058
840.161538	0.033272
840.349589	0.033258
840.537621	0.033407
840.725635	0.033425
840.913631	0.033260
841.101609	0.033387
841.289568	0.033511
841.477509	0.033789
841.665432	0.033847
841.853337	0.033777
842.041224	0.033933
842.229092	0.033968
842.416942	0.034137
842.604774	0.034540
842.792588	0.034419
842.980383	0.034620
843.168160	0.034444
843.355919	0.034642
843.543660	0.034556
843.731382	0.034443
843.919087	0.034608
844.106773	0.034763
844.294441	0.034736
844.482090	0.034900
844.669722	0.034649
844.857335	0.035067
845.044930	0.034997
845.232507	0.035221
845.420065	0.035098
845.607605	0.035055
845.795127	0.034982
845.982631	0.035129
846.170117	0.035260
846.357584	0.035518
846.545033	0.035637
846.732464	0.036024
846.919877	0.036246
847.107272	0.036422
847.294648	0.036691
847.482006	0.036942
847.669346	0.036668
847.856667	0.036739
848.043971	0.037009
848.231256	0.036901
848.418523	0.036475
848.605771	0.036609
848.793002	0.036859
848.980214	0.037000
849.167408	0.036953
849.354584	0.037484
849.541742	0.037604
849.728881	0.037674
849.916002	0.038048
850.103105	0.038629
850.290190	0.038589
850.477256	0.038644
850.664304	0.038605
850.851334	0.038746
851.038346	0.038919
851.225340	0.039246
851.412315	0.039334
851.599272	0.039224
851.786211	0.039235
851.973132	0.039381
852.160034	0.039686
852.346918	0.039819
852.533784	0.039902
852.720632	0.039791
852.907462	0.039658
853.094273	0.039705
853.281066	0.039722
853.467841	0.039607
853.654598	0.039580
853.841336	0.039426
854.028056	0.039430
854.214758	0.039488
854.401442	0.039401
854.588107	0.039577
854.774755	0.039429
854.961384	0.039557
855.147995	0.039624
855.334587	0.039697
855.521162	0.039768
855.707718	0.039951
855.894256	0.039982
856.080775	0.039824
856.267277	0.039895
856.453760	0.040368
856.640225	0.040417
856.826672	0.040928
857.013101	0.040876
857.199511	0.041076
857.385903	0.041517
857.572277	0.041910
857.758633	0.042263
857.944970	0.042309
858.131290	0.042489
858.317591	0.042723
858.503873	0.042848
858.690138	0.043254
858.876384	0.043381
859.062612	0.043459
859.248822	0.043450
859.435014	0.043877
859.621188	0.043996
859.807343	0.043857
859.993480	0.043964
860.179599	0.043989
860.365699	0.043965
860.551781	0.044093
860.737846	0.043844
860.923891	0.043944
861.109919	0.043978
861.295929	0.044134
861.481920	0.044472
861.667893	0.044510
861.853848	0.044407
862.039784	0.044465
862.225702	0.044434
862.411603	0.044550
862.597484	0.044615
862.783348	0.044482
862.969193	0.044382
863.155021	0.044320
863.340830	0.044443
863.526620	0.044683
863.712393	0.044709
863.898147	0.045018
864.083883	0.045307
864.269601	0.045388
864.455301	0.045826
864.640982	0.045914
864.826645	0.045945
865.012290	0.046028
865.197917	0.046035
865.383526	0.046191
865.569116	0.046074
865.754688	0.045991
865.940242	0.045997
866.125777	0.046109
866.311295	0.046459
866.496794	0.046460
866.682275	0.046702
866.867737	0.046574
867.053182	0.046918
867.238608	0.047078
867.424016	0.047191
867.609406	0.047500
867.794778	0.047260
867.980131	0.047164
868.165466	0.047400
868.350783	0.047117
868.536082	0.047418
868.721362	0.047142
868.906625	0.047205
869.091869	0.047186
869.277094	0.047223
869.462302	0.047340
869.647491	0.047537
869.832662	0.047214
870.017815	0.047382
870.202950	0.047088
870.388066	0.047366
870.573165	0.047404
870.758245	0.047548
870.943306	0.047411
871.128350	0.047504
871.313375	0.047432
871.498382	0.047678
871.683371	0.047758
871.868342	0.048021
872.053294	0.048065
872.238229	0.047981
872.423144	0.047969
872.608042	0.048020
872.792922	0.048240
872.977783	0.048321
873.162626	0.048443
873.347451	0.048458
873.532258	0.048572
873.717046	0.048563
873.901816	0.048677
874.086568	0.048635
874.271302	0.048633
874.456017	0.048551
874.640715	0.048550
874.825394	0.048859
875.010055	0.048813
875.194697	0.048776
875.379322	0.048886
875.563928	0.048791
875.748516	0.048596
875.933085	0.048550
876.117637	0.048458
876.302170	0.048516
876.486685	0.048426
876.671182	0.048391
876.855661	0.047971
877.040121	0.047964
877.224563	0.048131
877.408987	0.048254
877.593393	0.048320
877.777780	0.048103
877.962150	0.047846
878.146501	0.047898
878.330833	0.048292
878.515148	0.048964
878.699444	0.049063
878.883722	0.048884
879.067982	0.049080
879.252224	0.049192
879.436447	0.049438
879.620653	0.049738
879.804840	0.049315
879.989008	0.049162
880.173159	0.049225
880.357291	0.049078
880.541405	0.049268
880.725501	0.049127
880.909579	0.049069
881.093638	0.049176
881.277680	0.049297
881.461703	0.049490
881.645707	0.049489
881.829694	0.049358
882.013662	0.049196
882.197612	0.049454
882.381544	0.049830
882.565458	0.049772
882.749353	0.049753
882.933230	0.050003
883.117089	0.050297
883.300930	0.050090
883.484753	0.049925
883.668557	0.050109
883.852343	0.049833
884.036111	0.049615
884.219861	0.049508
884.403592	0.049546
884.587305	0.049103
884.771000	0.048739
884.954677	0.048801
885.138335	0.048928
885.321976	0.049218
885.505598	0.049286
885.689201	0.049418
885.872787	0.049742
886.056354	0.049536
886.239904	0.049480
886.423434	0.049692
886.606947	0.049859
886.790442	0.049720
886.973918	0.049742
887.157376	0.049741
887.340816	0.049708
887.524237	0.049838
887.707641	0.049762
887.891026	0.050207
888.074393	0.050031
888.257741	0.049905
888.441072	0.049897
888.624384	0.049678
888.807678	0.049634
888.990954	0.049280
889.174211	0.048923
889.357451	0.049156
889.540672	0.048778
889.723875	0.049093
889.907059	0.049185
890.090226	0.049313
890.273374	0.049173
890.456504	0.049541
890.639616	0.050005
890.822709	0.050244
891.005785	0.050348
891.188842	0.050244
891.371881	0.049950
891.554901	0.049606
891.737904	0.049393
891.920888	0.049355
892.103854	0.049142
892.286802	0.048941
892.469731	0.048464
892.652643	0.048251
892.835536	0.048325
893.018410	0.048243
893.201267	0.048226
893.384106	0.047868
893.566926	0.047907
893.749728	0.047580
893.932511	0.047359
894.115277	0.047525
894.298024	0.047579
894.480753	0.047361
894.663464	0.047491
894.846157	0.048225
895.028831	0.048358
895.211487	0.048027
895.394125	0.048245
895.576745	0.048210
895.759346	0.048104
895.941930	0.048040
896.124495	0.048202
896.307041	0.048070
896.489570	0.047585
896.672080	0.047866
896.854573	0.047970
897.037046	0.047811
897.219502	0.047895
897.401940	0.048121
897.584359	0.047847
897.766760	0.047965
897.949143	0.047801
898.131507	0.047488
898.313854	0.047405
898.496182	0.047566
898.678492	0.047292
898.860783	0.047524
899.043057	0.047338
899.225312	0.047354
899.407549	0.047307
899.589768	0.047550
899.771968	0.047406
899.954151	0.047365
900.136315	0.047209
900.318461	0.047434
900.500588	0.046859
900.682698	0.046569
900.864789	0.046707
901.046862	0.046635
901.228917	0.046377
901.410953	0.046305
901.592971	0.045865
901.774972	0.045705
901.956953	0.045175
902.138917	0.045307
902.320862	0.045352
902.502790	0.045106
902.684699	0.044940
902.866589	0.044846
903.048462	0.045353
903.230316	0.045780
903.412152	0.045961
903.593970	0.046423
903.775770	0.046444
903.957551	0.046647
904.139314	0.046706
904.321059	0.046451
904.502786	0.046501
904.684494	0.046152
904.866185	0.045982
905.047857	0.046052
905.229510	0.045672
905.411146	0.045419
905.592763	0.045258
905.774363	0.044801
905.955943	0.044908
906.137506	0.044779
906.319051	0.044610
906.500577	0.044525
906.682085	0.043898
906.863575	0.044224
907.045046	0.044469
907.226500	0.044633
907.407935	0.045000
907.589352	0.044799
907.770750	0.044781
907.952131	0.044747
908.133493	0.044566
908.314837	0.044289
908.496163	0.044129
908.677470	0.043603
908.858760	0.043123
909.040031	0.042957
909.221284	0.042447
909.402518	0.042305
909.583735	0.042031
909.764933	0.041868
909.946113	0.041951
910.127275	0.041599
910.308418	0.041613
910.489544	0.041541
910.670651	0.041015
910.851740	0.041191
911.032810	0.040889
911.213863	0.040641
911.394897	0.040322
911.575913	0.040206
911.756911	0.040070
911.937890	0.039923
912.118851	0.040353
912.299794	0.040669
912.480719	0.040609
912.661626	0.040559
912.842514	0.040982
913.023384	0.040663
913.204236	0.040635
913.385070	0.040284
913.565886	0.040170
913.746683	0.039565
913.927462	0.039033
914.108223	0.038468
914.288965	0.038411
914.469690	0.038057
914.650396	0.038151
914.831084	0.037855
915.011754	0.038024
915.192405	0.037781
915.373038	0.037760
915.553653	0.038098
915.734250	0.038562
915.914829	0.038391
916.095389	0.038427
916.275931	0.037832
916.456455	0.037567
916.636961	0.037422
916.817448	0.037076
916.997917	0.036603
917.178368	0.035908
917.358801	0.035512
917.539216	0.035256
917.719612	0.034565
917.899990	0.034742
918.080350	0.034339
918.260692	0.033715
918.441015	0.033521
918.621320	0.033393
918.801607	0.033241
918.981876	0.033300
919.162127	0.033072
919.342359	0.032680
919.522573	0.032453
919.702769	0.032831
919.882947	0.032663
920.063106	0.032611
920.243247	0.032609
920.423370	0.032859
920.603475	0.032500
920.783562	0.032709
920.963630	0.032806
921.143680	0.032896
921.323712	0.032787
921.503725	0.033113
921.683721	0.032592
921.863698	0.031933
922.043657	0.031387
922.223598	0.031289
922.403520	0.030802
922.583424	0.030491
922.763311	0.030325
922.943178	0.029847
923.123028	0.029375
923.302859	0.029392
923.482673	0.029640
923.662467	0.029733
923.842244	0.029605
924.022003	0.029199
924.201743	0.029236
924.381465	0.028670
924.561169	0.028312
924.740854	0.028236
924.920522	0.027762
925.100171	0.027012
925.279802	0.026637
925.459414	0.026079
925.639009	0.025732
925.818585	0.025378
925.998143	0.025246
926.177683	0.024823
926.357205	0.024312
926.536708	0.024366
926.716193	0.024179
926.895660	0.023608
927.075109	0.023387
927.254539	0.023074
927.433951	0.023094
927.613345	0.022722
927.792721	0.022910
927.972079	0.022869
928.151418	0.023010
928.330739	0.023272
928.510042	0.023658
928.689327	0.022954
928.868593	0.022609
929.047841	0.022327
929.227071	0.021861
929.406283	0.021768
929.585476	0.021194
929.764652	0.020354
929.943809	0.020178
930.122948	0.019159
930.302068	0.019265
930.481171	0.019272
930.660255	0.019029
930.839321	0.019066
931.018369	0.018301
931.197398	0.018287
931.376409	0.018254
931.555402	0.017225
931.734377	0.016875
931.913334	0.016495
932.092272	0.016355
932.271192	0.015288
932.450094	0.014631
932.628978	0.013833
932.807844	0.013543
932.986691	0.012977
933.165520	0.012928
933.344331	0.013060
933.523123	0.012138
933.701898	0.011441
933.880654	0.011417
934.059392	0.010981
934.238111	0.011554
934.416813	0.011108
934.595496	0.010891
934.774161	0.010234
934.952808	0.009053
935.131437	0.009070
935.310047	0.008910
935.488639	0.008380
935.667213	0.008720
935.845769	0.007614
936.024306	0.007009
936.202825	0.006393
936.381326	0.005476
936.559809	0.005580
936.738274	0.005096
936.916720	0.004168
937.095148	0.003986
937.273558	0.003542
937.451950	0.003829
937.630323	0.003356
937.808678	0.003482
937.987015	0.004024
938.165334	0.003559
938.343635	0.002667
938.521917	0.002834
938.700181	0.002092
938.878427	0.001013
939.056655	0.000009
939.234864	-0.000221
939.413055	0.000072
939.591228	-0.000090
939.769383	0.000387
939.947519	0.001365
940.125638	0.000914
940.303738	0.000809
940.481820	0.000779
940.659883	0.001490
940.837929	0.001649
941.015956	0.000799
941.193965	0.000474
941.371955	0.000313
941.549928	0.000166
941.727882	-0.000010
941.905818	-0.000323
942.083736	-0.000292
942.261636	-0.001535
942.439517	-0.002009
942.617380	-0.002753
942.795225	-0.003228
942.973052	-0.003823
943.150860	-0.004195
943.328651	-0.004473
943.506423	-0.003426
943.684176	-0.003543
943.861912	-0.003417
944.039629	-0.003382
944.217328	-0.002608
944.395009	-0.002627
944.572672	-0.002036
944.750317	-0.002992
944.927943	-0.002966
945.105551	-0.004590
945.283141	-0.003552
945.460712	-0.003555
945.638265	-0.003834
945.815801	-0.005388
945.993317	-0.005472
946.170816	-0.005819
946.348297	-0.005276
946.525759	-0.005448
946.703203	-0.004889
946.880629	-0.006271
947.058036	-0.006714
947.235425	-0.006600
947.412797	-0.005581
947.590149	-0.005790
947.767484	-0.007080
947.944800	-0.007037
948.122099	-0.006948
948.299379	-0.007363
948.476640	-0.007588
948.653884	-0.007886
948.831109	-0.008284
949.008316	-0.008726
949.185505	-0.009558
949.362676	-0.009137
949.539828	-0.008710
949.716962	-0.007972
949.894078	-0.007978
950.071176	-0.006486
950.248256	-0.006309
950.425317	-0.006913
950.602360	-0.007641
950.779385	-0.007210
950.956391	-0.007607
951.133380	-0.008280
951.310350	-0.008820
951.487302	-0.008405
951.664235	-0.009483
951.841151	-0.008902
952.018048	-0.007253
952.194927	-0.007430
952.371788	-0.006359
952.548631	-0.006245
952.725455	-0.005944
952.902261	-0.006142
953.079049	-0.006725
953.255819	-0.007881
953.432570	-0.009360
953.609303	-0.009884
953.786018	-0.008833
953.962715	-0.008061
954.139394	-0.008664
954.316054	-0.008345
954.492696	-0.007144
954.669320	-0.006789
954.845926	-0.004587
955.022513	-0.002795
955.199083	-0.004105
955.375634	-0.001988
955.552166	-0.003424
955.728681	-0.002733
955.905177	-0.003195
956.081655	-0.004094
956.258115	-0.002061
956.434557	-0.002942
956.610980	-0.002759
956.787385	-0.000355
956.963772	-0.002447
957.140141	-0.001310
957.316492	-0.000988
957.492824	-0.000601
957.669138	-0.001033
957.845434	-0.002345
958.021712	-0.000644
958.197971	0.001378
958.374212	0.000819
958.550435	0.000514
958.726640	-0.000330
958.902826	0.000766
959.078995	-0.000686
959.255145	0.000398
959.431277	0.000407
959.607390	-0.002167
959.783486	-0.002339
959.959563	-0.001330
960.135622	-0.001708
960.311662	-0.000849
960.487685	-0.000972
960.663689	0.001680
960.839675	0.001811
961.015643	0.002413
961.191593	0.004796
961.367524	0.003297
961.543437	0.002307
961.719332	0.005020
961.895209	0.006208
962.071067	0.007005
962.246907	0.005831
962.422730	0.007044
962.598533	0.006610
962.774319	0.007319
962.950086	0.009128
963.125835	0.009694
963.301566	0.008838
963.477279	0.008128
963.652973	0.008578
963.828650	0.009208
964.004308	0.009346
964.179947	0.010143
964.355569	0.009954
964.531172	0.009376
964.706757	0.009457
964.882324	0.009955
965.057873	0.009011
965.233403	0.008153
965.408916	0.009192
965.584410	0.008369
965.759885	0.009408
965.935343	0.009197
966.110782	0.009435
966.286203	0.010014
966.461606	0.008665
966.636991	0.009639
966.812357	0.011137
966.987705	0.011269
967.163035	0.010964
967.338347	0.011223
967.513641	0.011516
967.688916	0.013201
967.864173	0.012376
968.039412	0.014198
968.214632	0.014154
968.389835	0.013842
968.565019	0.014197
968.740185	0.014524
968.915333	0.013443
969.090462	0.014638
969.265573	0.012236
969.440667	0.013028
969.615741	0.014090
969.790798	0.015247
969.965836	0.014525
970.140856	0.014934
970.315858	0.013694
970.490842	0.014568
970.665808	0.013421
970.840755	0.014996
971.015684	0.013974
971.190595	0.012797
971.365487	0.012328
971.540362	0.013232
971.715218	0.011040
971.890056	0.013048
972.064875	0.014790
972.239677	0.014771
972.414460	0.014194
972.589225	0.014388
972.763972	0.016076
972.938700	0.016143
973.113411	0.015308
973.288103	0.016269
973.462777	0.016607
973.637432	0.014022
973.812070	0.014304
973.986689	0.015256
974.161290	0.015975
974.335873	0.016123
974.510437	0.015917
974.684984	0.016172
974.859512	0.016615
975.034022	0.016326
975.208513	0.016881
975.382987	0.015644
975.557442	0.015501
975.731879	0.015355
975.906298	0.014798
976.080698	0.015724
976.255080	0.017227
976.429445	0.015770
976.603790	0.016426
976.778118	0.016935
976.952427	0.017101
977.126719	0.015795
977.300992	0.016103
977.475246	0.016944
977.649483	0.014798
977.823701	0.013764
977.997901	0.015714
978.172083	0.014056
978.346247	0.013778
978.520392	0.014654
978.694519	0.015386
978.868628	0.015382
979.042719	0.014224
979.216791	0.016577
979.390845	0.014927
979.564882	0.013564
979.738899	0.013312
979.912899	0.013778
980.086880	0.013408
980.260843	0.012319
980.434788	0.011401
980.608715	0.010902
980.782623	0.009502
980.956514	0.010119
981.130386	0.012019
981.304240	0.013265
981.478075	0.013898
981.651892	0.014470
981.825692	0.018214
981.999472	0.020345
982.173235	0.019021
982.346980	0.021089
982.520706	0.022463
982.694414	0.019703
982.868104	0.019026
983.041775	0.017659
983.215428	0.017094
983.389064	0.015149
983.562680	0.015368
983.736279	0.016372
983.909860	0.015804
984.083422	0.015468
984.256966	0.015910
984.430491	0.016181
984.603999	0.016950
984.777488	0.016990
984.950959	0.016225
985.124412	0.014079
985.297847	0.014269
985.471263	0.013150
985.644661	0.012997
985.818041	0.012628
985.991403	0.013418
986.164747	0.012449
986.338072	0.012450
986.511379	0.012084
986.684668	0.013260
986.857938	0.014736
987.031191	0.014395
987.204425	0.013377
987.377641	0.014859
987.550839	0.014725
987.724018	0.013761
987.897179	0.013022
988.070322	0.012538
988.243447	0.012675
988.416554	0.010966
988.589642	0.012281
988.762712	0.014103
988.935764	0.013839
989.108798	0.013279
989.281813	0.013502
989.454811	0.015092
989.627790	0.016542
989.800751	0.016785
989.973693	0.016109
990.146617	0.015613
990.319524	0.013184
990.492412	0.011814
990.665281	0.013355
990.838133	0.013764
991.010966	0.013241
991.183781	0.011377
991.356578	0.009713
991.529356	0.010408
991.702117	0.011063
991.874859	0.012369
992.047583	0.012589
992.220288	0.010086
992.392976	0.011456
992.565645	0.011683
992.738296	0.012424
992.910929	0.012405
993.083543	0.012433
993.256139	0.011339
993.428718	0.012622
993.601277	0.015248
993.773819	0.015861
993.946342	0.013544
994.118848	0.013227
994.291335	0.014814
994.463803	0.015900
994.636254	0.015130
994.808686	0.016450
994.981100	0.015216
995.153496	0.013095
995.325874	0.013968
995.498233	0.014371
995.670574	0.013101
995.842897	0.009973
996.015202	0.009478
996.187488	0.009172
996.359757	0.008176
996.532007	0.008523
996.704239	0.009482
996.876452	0.008512
997.048648	0.009606
997.220825	0.010087
997.392984	0.011154
997.565124	0.010596
997.737247	0.010093
997.909351	0.008380
998.081437	0.008614
998.253505	0.007204
998.425554	0.006735
998.597586	0.006109
998.769599	0.006642
998.941594	0.006593
999.113571	0.008086
999.285529	0.010533
999.457469	0.011669
999.629391	0.009509
999.801295	0.010936
999.973181	0.012222
1000.145048	0.012154
1000.316897	0.012055
1000.488728	0.013923
1000.660541	0.012982
1000.832335	0.011572
1001.004111	0.012655
1001.175869	0.012884
1001.347609	0.013143
1001.519331	0.011147
1001.691034	0.012233
1001.862719	0.013617
1002.034386	0.012529
1002.206035	0.012724
1002.377665	0.012646
1002.549277	0.010054
1002.720871	0.009212
1002.892447	0.008141
1003.064004	0.008809
1003.235544	0.007028
1003.407065	0.006741
1003.578568	0.006570
1003.750052	0.006121
1003.921519	0.005481
1004.092967	0.005522
1004.264397	0.007226
1004.435809	0.006876
1004.607202	0.008375
1004.778577	0.008639
1004.949934	0.007798
1005.121273	0.007940
1005.292594	0.008911
1005.463896	0.008721
1005.635180	0.009719
1005.806446	0.009312
1005.977694	0.009859
1006.148923	0.009345
1006.320135	0.010788
1006.491328	0.011104
1006.662503	0.010325
1006.833659	0.008947
1007.004798	0.009922
1007.175918	0.010756
1007.347020	0.010803
1007.518103	0.009397
1007.689169	0.008819
1007.860216	0.008060
1008.031245	0.007906
1008.202256	0.008820
1008.373248	0.007639
1008.544223	0.007809
1008.715179	0.007821
1008.886117	0.007801
1009.057036	0.008538
1009.227938	0.008540
1009.398821	0.007804
1009.569686	0.006778
1009.740533	0.006672
1009.911361	0.008322
1010.082172	0.008898
1010.252964	0.007846
1010.423738	0.008025
1010.594493	0.008870
1010.765231	0.009735
1010.935950	0.009523
1011.106651	0.009295
1011.277334	0.008436
1011.447998	0.008890
1011.618645	0.009327
1011.789273	0.009697
1011.959882	0.009525
1012.130474	0.009812
1012.301048	0.009180
1012.471603	0.011182
1012.642140	0.011681
1012.812658	0.011574
1012.983159	0.008887
1013.153641	0.007706
1013.324105	0.007405
1013.494551	0.008259
1013.664979	0.006184
1013.835388	0.005559
1014.005779	0.005034
1014.176152	0.005720
1014.346507	0.005905
1014.516843	0.008914
1014.687162	0.008874
1014.857462	0.009304
1015.027744	0.009395
1015.198007	0.010330
1015.368252	0.009917
1015.538480	0.010227
1015.708689	0.009478
1015.878879	0.009161
1016.049052	0.009170
1016.219206	0.008744
1016.389342	0.007929
1016.559460	0.007911
1016.729559	0.008426
1016.899641	0.008761
1017.069704	0.006800
1017.239749	0.007503
1017.409775	0.007536
1017.579784	0.006550
1017.749774	0.007116
1017.919746	0.007464
1018.089700	0.007216
1018.259635	0.006132
1018.429553	0.007042
1018.599452	0.008182
1018.769333	0.006604
1018.939195	0.007969
1019.109040	0.007243
1019.278866	0.007010
1019.448674	0.006253
1019.618464	0.005273
1019.788235	0.006144
1019.957989	0.006533
1020.127724	0.006033
1020.297441	0.006949
1020.467139	0.006466
1020.636820	0.007189
1020.806482	0.006878
1020.976126	0.008125
1021.145752	0.009279
1021.315359	0.008916
1021.484948	0.007879
1021.654519	0.007710
1021.824072	0.008362
1021.993607	0.008044
1022.163123	0.008302
1022.332621	0.007690
1022.502101	0.007834
1022.671563	0.007239
1022.841007	0.006646
1023.010432	0.007609
1023.179839	0.006403
1023.349228	0.006244
1023.518598	0.006680
1023.687951	0.006923
1023.857285	0.008004
1024.026601	0.008545
1024.195899	0.008063
1024.365178	0.008563
1024.534439	0.007173
1024.703682	0.009043
1024.872907	0.008680
1025.042114	0.009458
1025.211302	0.009366
1025.380472	0.009578
1025.549624	0.009047
1025.718758	0.010559
1025.887873	0.010967
1026.056970	0.012436
1026.226049	0.012267
1026.395110	0.010832
1026.564153	0.009884
1026.733177	0.010272
1026.902183	0.008792
1027.071171	0.007013
1027.240141	0.004573
1027.409092	0.006117
1027.578026	0.004976
1027.746940	0.004440
1027.915837	0.005852
1028.084716	0.004988
1028.253576	0.003701
1028.422418	0.004364
1028.591242	0.005560
1028.760048	0.005736
1028.928835	0.004191
1029.097604	0.004068
1029.266355	0.003170
1029.435088	0.002785
1029.603803	0.002621
1029.772499	0.001508
1029.941177	0.002686
1030.109837	0.003086
1030.278478	0.004803
1030.447102	0.003936
1030.615707	0.002596
1030.784294	0.004343
1030.952863	0.004487
1031.121413	0.004748
1031.289945	0.006853
1031.458460	0.006286
1031.626955	0.005873
1031.795433	0.004914
1031.963892	0.005444
1032.132334	0.006844
1032.300756	0.006454
1032.469161	0.005592
1032.637548	0.005240
1032.805916	0.004177
1032.974266	0.003522
1033.142598	0.003396
1033.310911	0.004119
1033.479207	0.003647
1033.647484	0.003315
1033.815743	0.003627
1033.983983	0.004282
1034.152206	0.004993
1034.320410	0.005048
1034.488596	0.005472
1034.656764	0.005582
1034.824914	0.005688
1034.993045	0.005903
1035.161158	0.005609
1035.329253	0.004606
1035.497330	0.005366
1035.665388	0.005159
1035.833428	0.005575
1036.001450	0.004684
1036.169454	0.005843
1036.337440	0.004733
1036.505407	0.006666
1036.673356	0.009216
1036.841287	0.008885
1037.009200	0.007583
1037.177094	0.008552
1037.344970	0.007830
1037.512828	0.008664
1037.680668	0.008561
1037.848489	0.009435
1038.016293	0.008241
1038.184078	0.006119
1038.351845	0.006801
1038.519593	0.008077
1038.687324	0.007691
1038.855036	0.008782
1039.022730	0.007587
1039.190406	0.006631
1039.358063	0.006261
1039.525702	0.006322
1039.693323	0.006784
1039.860926	0.007060
1040.028511	0.007080
1040.196077	0.006628
1040.363625	0.005869
1040.531155	0.005832
1040.698667	0.006450
1040.866161	0.006854
1041.033636	0.006119
1041.201093	0.006540
1041.368532	0.005494
1041.535952	0.004702
1041.703355	0.004048
1041.870739	0.005389
1042.038105	0.006266
1042.205452	0.005233
1042.372782	0.004158
1042.540093	0.003302
1042.707386	0.002217
1042.874661	0.002706
1043.041918	0.003254
1043.209156	0.004863
1043.376376	0.003436
1043.543578	0.002250
1043.710762	0.001853
1043.877927	0.002976
1044.045074	0.004285
1044.212203	0.003792
1044.379314	0.003823
1044.546407	0.004179
1044.713481	0.002974
1044.880537	0.002736
1045.047575	0.002580
1045.214595	0.001453
1045.381596	-0.000228
1045.548579	0.000071
1045.715544	0.000772
1045.882491	0.001772
1046.049420	0.001095
1046.216330	0.000460
1046.383222	0.001348
1046.550096	0.004070
1046.716951	0.005796
1046.883789	0.006386
1047.050608	0.006356
1047.217409	0.005653
1047.384192	0.005491
1047.550956	0.003671
1047.717703	0.003690
1047.884431	0.002695
1048.051140	0.002702
1048.217832	0.002335
1048.384505	0.002706
1048.551161	0.002365
1048.717798	0.002473
1048.884416	0.002185
1049.051017	0.004175
1049.217599	0.004416
1049.384163	0.004357
1049.550709	0.002824
1049.717237	0.002769
1049.883746	0.002283
1050.050237	0.002798
1050.216710	0.003891
1050.383165	0.002606
1050.549601	0.003137
1050.716019	0.004560
1050.882420	0.005717
1051.048801	0.006161
1051.215165	0.007381
1051.381510	0.006800
1051.547837	0.005223
1051.714146	0.004426
1051.880437	0.005802
1052.046709	0.004218
1052.212964	0.003301
1052.379200	0.001475
1052.545417	0.000405
1052.711617	-0.001305
1052.877798	-0.000875
1053.043961	-0.001444
1053.210106	-0.001451
1053.376233	-0.001985
1053.542341	-0.001781
1053.708432	-0.001991
1053.874504	-0.001107
1054.040557	0.000202
1054.206593	0.001731
1054.372610	0.003367
1054.538609	0.006315
1054.704590	0.006379
1054.870553	0.006977
1055.036497	0.006932
1055.202424	0.007335
1055.368331	0.008155
1055.534221	0.008179
1055.700093	0.005582
1055.865946	0.004693
1056.031781	0.003359
1056.197598	0.004228
1056.363397	0.003688
1056.529177	0.005201
1056.694939	0.003921
1056.860683	0.003071
1057.026409	0.002934
1057.192116	0.004055
1057.357806	0.002933
1057.523477	0.002393
1057.689130	0.003026
1057.854764	0.002307
1058.020381	0.001683
1058.185979	0.002671
1058.351559	0.002331
1058.517120	0.003271
1058.682664	0.004857
1058.848189	0.006135
1059.013696	0.006342
1059.179185	0.004967
1059.344656	0.007397
1059.510108	0.006877
1059.675542	0.007379
1059.840958	0.008388
1060.006356	0.007145
1060.171735	0.006928
1060.337096	0.005915
1060.502439	0.005121
1060.667764	0.004628
1060.833071	0.002932
1060.998359	0.003224
1061.163629	0.003988
1061.328881	0.004419
1061.494115	0.004458
1061.659330	0.004357
1061.824527	0.003948
1061.989706	0.005043
1062.154867	0.005767
1062.320010	0.004370
1062.485134	0.005229
1062.650240	0.003954
1062.815328	0.002695
1062.980398	0.003985
1063.145449	0.005477
1063.310482	0.006874
1063.475497	0.005913
1063.640494	0.006944
1063.805473	0.008170
1063.970433	0.009615
1064.135375	0.009012
1064.300299	0.009838
1064.465204	0.008559
1064.630092	0.005968
1064.794961	0.004624
1064.959812	0.004997
1065.124645	0.003842
1065.289459	0.002703
1065.454256	-0.000481
1065.619034	0.001022
1065.783793	0.001252
1065.948535	0.002047
1066.113258	0.002276
1066.277964	0.003469
1066.442651	0.002800
1066.607319	0.002553
1066.771970	0.005535
1066.936602	0.005758
1067.101216	0.005614
1067.265812	0.005862
1067.430389	0.005368
1067.594949	0.007155
1067.759490	0.007434
1067.924013	0.008229
1068.088518	0.007838
1068.253004	0.007154
1068.417472	0.007219
1068.581922	0.006110
1068.746354	0.005152
1068.910768	0.004567
1069.075163	0.003411
1069.239540	0.002855
1069.403899	0.003483
1069.568240	0.003092
1069.732562	0.002906
1069.896866	0.001550
1070.061152	0.003999
1070.225420	0.003728
1070.389670	0.002423
1070.553901	0.001971
1070.718114	0.002638
1070.882309	0.003013
1071.046486	0.005725
1071.210644	0.002919
1071.374784	0.005552
1071.538906	0.002696
1071.703010	0.003923
1071.867096	0.003724
1072.031163	0.004250
1072.195212	0.003434
1072.359243	0.002218
1072.523256	-0.000575
1072.687250	0.001926
1072.851226	0.001931
1073.015184	0.001864
1073.179124	0.002588
1073.343045	0.004826
1073.506949	0.004729
1073.670834	0.004547
1073.834701	0.004437
1073.998549	0.005102
1074.162380	0.005176
1074.326192	0.004582
1074.489986	0.004154
1074.653761	0.003119
1074.817519	0.001483
1074.981258	-0.000985
1075.144979	-0.002256
1075.308682	-0.001729
1075.472367	-0.001050
1075.636033	-0.001672
1075.799681	-0.001206
1075.963311	0.000454
1076.126923	0.000952
1076.290516	0.002084
1076.454092	0.004986
1076.617649	0.007763
1076.781187	0.007168
1076.944708	0.005875
1077.108210	0.006043
1077.271695	0.005323
1077.435160	0.005382
1077.598608	0.002845
1077.762038	0.003312
1077.925449	0.003128
1078.088842	0.001033
1078.252217	0.000736
1078.415573	0.002356
1078.578912	0.001348
1078.742232	0.001146
1078.905534	-0.000469
1079.068817	0.001476
1079.232083	0.002062
1079.395330	0.001543
1079.558559	0.002458
1079.721770	0.003280
1079.884962	0.002668
1080.048136	0.001886
1080.211293	0.002251
1080.374430	0.004242
1080.537550	0.001598
1080.700651	-0.000952
1080.863735	-0.002299
1081.026800	-0.002273
1081.189846	-0.003085
1081.352875	-0.001879
1081.515885	-0.002075
1081.678877	-0.003369
1081.841851	-0.003114
1082.004807	-0.003733
1082.167744	-0.001781
1082.330663	-0.000620
1082.493564	0.001458
1082.656447	0.000129
1082.819312	-0.001544
1082.982158	-0.001299
1083.144986	0.000154
1083.307796	-0.002094
1083.470587	0.000088
1083.633361	-0.000799
1083.796116	-0.002291
1083.958853	-0.005308
1084.121571	-0.004943
1084.284272	-0.004458
1084.446954	-0.002067
1084.609618	-0.003355
1084.772264	-0.002651
1084.934892	-0.001681
1085.097501	-0.002837
1085.260092	-0.002702
1085.422665	-0.003305
1085.585220	-0.002113
1085.747756	-0.003766
1085.910274	-0.007289
1086.072774	-0.007669
1086.235256	-0.008146
1086.397720	-0.010525
1086.560165	-0.009804
1086.722592	-0.009695
1086.885001	-0.008990
1087.047392	-0.008576
1087.209764	-0.006957
1087.372119	-0.005112
1087.534455	-0.004298
1087.696772	-0.003430
1087.859072	-0.000491
1088.021353	-0.000511
1088.183616	0.001263
1088.345861	-0.001117
1088.508088	0.000743
1088.670296	-0.000519
1088.832486	-0.000499
1088.994658	0.001575
1089.156812	0.001705
1089.318948	0.000893
1089.481065	0.001088
1089.643164	-0.000426
1089.805245	0.003396
1089.967308	0.001746
1090.129352	0.003832
1090.291378	0.004694
1090.453386	0.001392
1090.615376	-0.000125
1090.777347	0.000902
1090.939301	-0.000515
1091.101236	0.000430
1091.263153	-0.001753
1091.425051	-0.001330
1091.586932	-0.003016
1091.748794	-0.003240
1091.910638	-0.003303
1092.072463	-0.001316
1092.234271	-0.001889
1092.396060	-0.001985
1092.557831	-0.002698
1092.719584	-0.001377
1092.881319	-0.001733
1093.043035	0.000501
1093.204733	0.003523
1093.366413	0.005565
1093.528075	0.004884
1093.689718	0.002914
1093.851343	0.004793
1094.012950	0.004366
1094.174539	0.006849
1094.336110	0.007273
1094.497662	0.006072
1094.659196	0.001661
1094.820712	-0.000877
1094.982210	-0.001572
1095.143689	0.000149
1095.305151	-0.001552
1095.466594	-0.001919
1095.628018	-0.006013
1095.789425	-0.004919
1095.950813	-0.006921
1096.112183	-0.006959
1096.273535	-0.004424
1096.434869	-0.006188
1096.596184	-0.008909
1096.757482	-0.008836
1096.918761	-0.007361
1097.080021	-0.007952
1097.241264	-0.009657
1097.402488	-0.008491
1097.563694	-0.005906
1097.724882	-0.005747
1097.886052	-0.002935
1098.047203	-0.001198
1098.208336	-0.002696
1098.369451	-0.004419
1098.530548	-0.001706
1098.691627	-0.001009
1098.852687	-0.001213
1099.013729	-0.001621
1099.174753	-0.000322
1099.335758	-0.001775
1099.496746	-0.000315
1099.657715	-0.000880
1099.818666	0.002525
1099.979599	0.002058
1100.140513	-0.001138
1100.301409	-0.000271
1100.462287	-0.002315
1100.623147	-0.003767
1100.783989	-0.002894
1100.944812	-0.003349
1101.105617	0.001436
1101.266404	0.000127
1101.427173	-0.000349
1101.587923	0.004075
1101.748656	0.002677
1101.909370	0.002776
1102.070066	-0.001224
1102.230743	-0.000867
1102.391403	-0.000532
1102.552044	-0.002936
1102.712667	-0.002227
1102.873271	-0.001153
1103.033858	-0.003652
1103.194426	-0.002452
1103.354976	-0.002096
1103.515508	0.001474
1103.676021	-0.001866
1103.836517	-0.003771
1103.996994	-0.002315
1104.157453	-0.006460
1104.317893	-0.008965
1104.478316	-0.008418
1104.638720	-0.007439
1104.799106	-0.008308
1104.959474	-0.008853
1105.119823	-0.007844
1105.280155	-0.007855
1105.440468	-0.006369
1105.600763	-0.003480
1105.761039	-0.000782
1105.921298	0.001676
1106.081538	0.001993
1106.241760	0.004421
1106.401964	0.005067
1106.562149	0.007773
1106.722316	0.009731
1106.882465	0.007811
1107.042596	0.008725
1107.202709	0.004533
1107.362803	0.000286
1107.522879	-0.001873
1107.682937	-0.004631
1107.842977	-0.005397
1108.002999	-0.003764
1108.163002	-0.007578
1108.322987	-0.008190
1108.482954	-0.008450
1108.642902	-0.005908
1108.802833	-0.006257
1108.962745	-0.005086
1109.122639	-0.003817
1109.282515	-0.001976
1109.442372	-0.004995
1109.602211	0.000449
1109.762032	0.001792
1109.921835	-0.000579
1110.081620	-0.001942
1110.241386	0.000904
1110.401134	-0.001383
1110.560864	0.003108
1110.720576	0.001499
1110.880269	0.002937
1111.039945	-0.004406
1111.199602	-0.001139
1111.359240	-0.000351
1111.518861	0.001619
1111.678463	0.003065
1111.838047	0.005560
1111.997613	0.000999
1112.157161	0.003269
1112.316690	0.002143
1112.476202	0.008955
1112.635695	0.005395
1112.795169	0.008085
1112.954626	0.010040
1113.114064	0.004063
1113.273484	0.002577
1113.432886	0.005417
1113.592270	0.002180
1113.751635	0.000787
1113.910983	-0.002193
1114.070312	-0.000024
1114.229622	0.000019
1114.388915	-0.002129
1114.548189	0.003964
1114.707445	0.001722
1114.866683	-0.002751
1115.025903	-0.002121
1115.185104	-0.000554
1115.344287	0.000942
1115.503452	-0.001497
1115.662599	-0.003404
1115.821727	-0.000896
1115.980838	-0.002875
1116.139930	-0.000816
1116.299004	-0.001329
1116.458059	0.000820
1116.617097	0.002874
1116.776116	-0.000579
1116.935117	-0.001936
1117.094099	-0.001358
1117.253064	0.000091
1117.412010	-0.002599
1117.570938	-0.002941
1117.729848	0.001916
1117.888740	0.002433
1118.047613	0.000559
1118.206468	0.003830
1118.365305	0.004125
1118.524124	0.007181
1118.682924	0.001625
1118.841707	0.004140
1119.000471	0.004161
1119.159216	-0.005811
1119.317944	-0.009613
1119.476653	-0.012259
1119.635344	-0.012376
1119.794017	-0.009155
1119.952672	-0.009650
1120.111308	-0.006066
1120.269927	-0.009887
1120.428527	-0.005188
1120.587108	-0.000487
1120.745672	0.003439
1120.904217	0.006982
1121.062744	0.004934
1121.221253	0.004614
1121.379744	-0.001501
1121.538216	-0.006277
1121.696671	-0.007205
1121.855107	-0.008751
1122.013524	-0.007093
1122.171924	-0.008474
1122.330305	-0.011260
1122.488668	-0.006904
1122.647013	-0.005776
1122.805340	-0.000427
1122.963648	0.001403
1123.121938	0.002146
1123.280210	0.000666
1123.438464	0.000124
1123.596700	-0.001342
1123.754917	-0.002680
1123.913116	-0.003069
1124.071297	-0.004443
1124.229459	-0.009813
1124.387604	-0.011092
1124.545730	-0.007860
1124.703838	-0.007965
1124.861928	-0.003776
1125.019999	-0.007940
1125.178052	-0.006659
1125.336088	-0.009425
1125.494104	-0.014896
1125.652103	-0.012179
1125.810083	-0.007738
1125.968045	-0.008478
1126.125989	-0.007282
1126.283915	-0.008356
1126.441823	0.001577
1126.599712	0.001279
1126.757583	-0.002870
1126.915436	-0.003767
1127.073270	-0.003426
1127.231087	-0.000257
1127.388885	0.001826
1127.546665	-0.002724
1127.704426	-0.004343
1127.862170	-0.010161
1128.019895	-0.004540
1128.177602	-0.003426
1128.335291	-0.000679
1128.492961	0.003632
1128.650614	0.001024
1128.808248	-0.001207
1128.965864	0.002039
1129.123461	-0.000581
1129.281041	-0.001557
1129.438602	-0.004043
1129.596145	-0.002617
1129.753670	-0.005073
1129.911176	-0.003231
1130.068665	-0.008032
1130.226135	-0.007764
1130.383587	-0.004355
1130.541020	-0.002283
1130.698436	-0.005197
1130.855833	-0.006933
1131.013212	-0.005321
1131.170573	-0.001460
1131.327915	-0.006831
1131.485239	-0.003393
1131.642545	-0.004024
1131.799833	-0.004951
1131.957103	-0.003314
1132.114354	0.003187
1132.271588	0.006188
1132.428803	0.000414
1132.585999	-0.000862
1132.743178	-0.001828
1132.900338	0.002722
1133.057480	0.009971
1133.214604	0.005091
1133.371710	0.006435
1133.528797	0.002146
1133.685866	-0.001783
1133.842917	0.005355
1133.999950	0.005123
1134.156964	0.004547
1134.313960	-0.001285
1134.470938	-0.009623
1134.627898	-0.012710
1134.784840	-0.015580
1134.941763	-0.011988
1135.098668	-0.008843
1135.255555	-0.007524
1135.412424	-0.005769
1135.569274	-0.003552
1135.726107	-0.008473
1135.882921	-0.005958
1136.039716	0.000583
1136.196494	-0.002126
1136.353253	0.000381
1136.509995	-0.002594
1136.666717	-0.003658
1136.823422	-0.000977
1136.980109	-0.002668
1137.136777	0.005026
1137.293427	0.008035
1137.450059	0.004668
1137.606672	0.009978
1137.763267	0.007606
1137.919844	0.001816
1138.076403	-0.003588
1138.232944	-0.006567
1138.389466	-0.003826
1138.545971	-0.009815
1138.702457	-0.009255
1138.858924	-0.009703
1139.015374	-0.013015
1139.171805	-0.015174
1139.328218	-0.011710
1139.484613	-0.001350
1139.640990	-0.000611
1139.797348	-0.003795
1139.953688	-0.002188
1140.110010	-0.000513
1140.266314	-0.002739
1140.422600	-0.001183
1140.578867	-0.001513
1140.735116	0.001147
1140.891347	-0.001864
1141.047559	-0.006607
1141.203754	-0.006003
1141.359930	-0.003801
1141.516088	-0.007660
1141.672228	-0.005657
1141.828349	-0.007023
1141.984452	-0.007470
1142.140537	0.000911
1142.296604	-0.002221
1142.452653	0.003314
1142.608683	0.005156
1142.764695	0.009777
1142.920689	0.012167
1143.076665	0.014275
1143.232622	0.023332
1143.388562	0.026885
1143.544483	0.016342
1143.700385	0.009625
1143.856270	0.007405
1144.012136	-0.003203
1144.167985	-0.008924
1144.323814	-0.010135
1144.479626	-0.010837
1144.635420	-0.018422
1144.791195	-0.016875
1144.946952	-0.016274
1145.102691	-0.016202
1145.258411	-0.009363
1145.414113	-0.001301
1145.569798	0.002839
1145.725463	-0.001954
1145.881111	0.001196
1146.036741	-0.001192
1146.192352	-0.002637
1146.347945	-0.005276
1146.503519	0.000390
1146.659076	-0.003524
1146.814614	-0.002903
1146.970134	-0.004374
1147.125636	0.002558
1147.281120	0.004702
1147.436585	0.008426
1147.592032	0.016969
1147.747461	0.022564
1147.902872	0.023666
1148.058265	0.020990
1148.213639	0.019594
1148.368995	0.017493
1148.524333	0.015682
1148.679653	0.003528
1148.834954	0.002605
1148.990237	-0.009842
1149.145502	-0.016058
1149.300749	-0.011757
1149.455977	-0.008711
1149.611188	-0.002307
1149.766380	-0.004273
1149.921553	-0.006860
1150.076709	-0.006873
1150.231846	-0.004626
1150.386966	-0.001424
1150.542066	0.004621
1150.697149	0.004145
1150.852214	0.001309
1151.007260	-0.000176
1151.162288	0.012723
1151.317298	0.013579
1151.472289	0.021742
1151.627263	0.023874
1151.782218	0.021291
1151.937155	0.017829
1152.092073	0.009850
1152.246974	0.010750
1152.401856	0.002709
1152.556720	-0.007577
1152.711566	0.000346
1152.866393	-0.001615
1153.021203	-0.005925
1153.175994	-0.008763
1153.330767	-0.008155
1153.485521	-0.006736
1153.640258	-0.006221
1153.794976	-0.002650
1153.949676	-0.000718
1154.104358	-0.015102
1154.259021	-0.010549
1154.413667	-0.010472
1154.568294	0.000393
1154.722903	0.006617
1154.877493	0.014933
1155.032066	0.023651
1155.186620	0.024827
1155.341156	0.019681
1155.495674	0.033997
1155.650173	0.029821
1155.804654	0.026753
1155.959118	0.022428
1156.113562	0.019535
1156.267989	0.009746
1156.422397	0.000684
1156.576788	0.003562
1156.731160	0.004730
1156.885513	-0.004254
1157.039849	-0.000287
1157.194166	0.004302
1157.348465	-0.003842
1157.502746	-0.004646
1157.657009	0.001849
1157.811253	0.002917
1157.965479	0.011924
1158.119687	0.023244
1158.273877	0.018395
1158.428048	0.017762
1158.582201	0.017156
1158.736337	0.021791
1158.890453	0.022320
1159.044552	0.017005
1159.198632	0.013542
1159.352694	0.001265
1159.506738	-0.005711
1159.660764	0.004987
1159.814771	0.001128
1159.968761	-0.000699
1160.122732	0.002334
1160.276685	0.006718
1160.430619	0.013032
1160.584535	0.016093
1160.738434	0.023309
1160.892313	0.028477
1161.046175	0.019712
1161.200019	0.010148
1161.353844	0.015040
1161.507651	0.019881
1161.661440	0.013392
1161.815210	0.011777
1161.968962	0.004467
1162.122697	-0.009181
1162.276412	-0.014335
1162.430110	-0.009545
1162.583789	-0.000319
1162.737451	-0.002045
1162.891094	-0.012093
1163.044718	-0.004154
1163.198325	-0.014230
1163.351913	-0.017044
1163.505483	-0.006987
1163.659035	-0.007228
1163.812569	-0.015450
1163.966084	0.000237
1164.119581	0.007546
1164.273060	0.009950
1164.426521	0.008209
1164.579964	0.016204
1164.733388	0.026690
1164.886794	0.016762
1165.040182	0.009514
1165.193551	0.024348
1165.346903	0.003345
1165.500236	-0.012034
1165.653551	-0.007252
1165.806848	-0.013506
1165.960126	-0.014506
1166.113386	-0.017803
1166.266628	-0.016138
1166.419852	-0.015285
1166.573058	-0.025023
1166.726245	-0.012437
1166.879414	-0.006864
1167.032565	-0.009434
1167.185698	-0.007883
1167.338812	-0.004027
1167.491909	-0.005681
1167.644987	-0.011579
1167.798046	-0.004646
1167.951088	-0.003637
1168.104111	-0.012517
1168.257117	-0.015828
1168.410103	-0.016198
1168.563072	-0.018531
1168.716023	-0.018284
1168.868955	-0.004456
1169.021869	0.012897
1169.174765	0.012223
1169.327642	0.009193
1169.480501	0.012947
1169.633343	0.010163
1169.786165	0.004771
1169.938970	0.011771
1170.091757	0.001270
1170.244525	0.002804
1170.397275	-0.004047
1170.550007	-0.002137
1170.702720	-0.003832
1170.855415	-0.011944
1171.008092	-0.007931
1171.160751	-0.007915
1171.313392	-0.014894
1171.466014	-0.063673
1171.618619	-0.024987
1171.771205	-0.024987
1171.923772	-0.024987
