sample name	sample
index	452
start time	 03-11-2021  11:17:01 AM


Wavelength (nm)	Absorbance
494.344910	-0.345574
494.563924	-0.345574
494.782919	-0.345574
495.001897	0.159530
495.220856	-0.073580
495.439797	-0.019941
495.658719	0.032345
495.877624	0.060547
496.096510	0.014939
496.315378	0.071760
496.534227	0.132987
496.753059	0.103188
496.971872	0.072182
497.190667	0.010049
497.409444	0.006322
497.628203	0.002725
497.846943	0.002460
498.065665	0.004472
498.284369	0.003190
498.503055	0.003509
498.721723	0.003928
498.940372	0.003991
499.159003	0.004965
499.377616	0.005222
499.596210	0.006594
499.814787	0.006464
500.033345	0.005888
500.251885	0.007357
500.470406	0.007807
500.688910	0.007536
500.907395	0.008070
501.125862	0.007809
501.344311	0.007416
501.562742	0.007194
501.781154	0.008484
501.999548	0.008684
502.217924	0.006826
502.436282	0.006142
502.654621	0.006315
502.872942	0.006059
503.091245	0.005691
503.309530	0.006438
503.527797	0.006720
503.746045	0.006332
503.964275	0.005630
504.182487	0.006286
504.400681	0.006259
504.618856	0.006205
504.837013	0.006538
505.055152	0.006762
505.273273	0.006872
505.491376	0.006341
505.709460	0.006235
505.927526	0.006756
506.145574	0.007147
506.363604	0.007262
506.581615	0.007302
506.799608	0.006729
507.017583	0.006490
507.235540	0.005437
507.453478	0.005337
507.671399	0.006046
507.889301	0.005716
508.107185	0.004927
508.325050	0.005081
508.542898	0.004590
508.760727	0.004387
508.978538	0.004122
509.196330	0.004139
509.414105	0.004264
509.631861	0.003459
509.849599	0.003766
510.067319	0.004139
510.285021	0.004135
510.502704	0.004575
510.720369	0.005146
510.938016	0.005276
511.155645	0.005436
511.373255	0.005311
511.590848	0.005820
511.808422	0.006382
512.025977	0.006089
512.243515	0.006025
512.461034	0.005335
512.678536	0.004929
512.896018	0.004966
513.113483	0.005408
513.330930	0.005510
513.548358	0.004680
513.765768	0.003695
513.983160	0.004344
514.200533	0.003701
514.417889	0.004429
514.635226	0.004525
514.852545	0.004827
515.069845	0.004217
515.287128	0.003879
515.504392	0.004411
515.721638	0.004941
515.938866	0.004940
516.156075	0.005747
516.373267	0.005177
516.590440	0.005318
516.807594	0.005264
517.024731	0.005639
517.241850	0.006441
517.458950	0.006194
517.676032	0.006182
517.893095	0.006243
518.110141	0.005744
518.327168	0.005862
518.544177	0.005536
518.761168	0.005751
518.978141	0.005146
519.195095	0.004797
519.412031	0.005366
519.628949	0.005258
519.845849	0.004892
520.062731	0.004740
520.279594	0.004974
520.496439	0.004725
520.713266	0.004309
520.930074	0.004782
521.146865	0.004995
521.363637	0.004748
521.580391	0.004928
521.797127	0.004671
522.013844	0.004441
522.230543	0.005057
522.447224	0.005277
522.663887	0.004687
522.880532	0.004857
523.097158	0.004441
523.313766	0.004414
523.530356	0.003832
523.746928	0.004184
523.963481	0.004408
524.180017	0.003881
524.396534	0.003954
524.613032	0.004565
524.829513	0.004266
525.045975	0.004454
525.262420	0.003997
525.478845	0.004841
525.695253	0.004966
525.911643	0.005341
526.128014	0.005540
526.344367	0.005470
526.560702	0.005324
526.777018	0.005514
526.993316	0.005385
527.209597	0.005931
527.425858	0.005845
527.642102	0.005479
527.858328	0.005440
528.074535	0.005389
528.290724	0.005541
528.506894	0.005573
528.723047	0.005624
528.939181	0.005953
529.155297	0.005646
529.371395	0.005526
529.587475	0.005904
529.803536	0.005821
530.019579	0.005993
530.235604	0.006025
530.451611	0.006395
530.667600	0.006570
530.883570	0.006453
531.099522	0.006380
531.315456	0.006279
531.531372	0.006389
531.747269	0.006622
531.963148	0.006644
532.179009	0.006898
532.394852	0.006873
532.610676	0.006573
532.826482	0.006856
533.042271	0.006598
533.258040	0.006872
533.473792	0.006849
533.689525	0.006713
533.905240	0.006158
534.120937	0.005974
534.336616	0.005671
534.552277	0.005805
534.767919	0.005268
534.983543	0.005757
535.199149	0.005462
535.414736	0.005400
535.630306	0.005035
535.845857	0.004928
536.061390	0.004747
536.276904	0.005307
536.492401	0.005443
536.707879	0.005838
536.923339	0.005874
537.138781	0.006107
537.354204	0.006204
537.569610	0.006800
537.784997	0.007016
538.000366	0.007288
538.215716	0.007474
538.431049	0.007578
538.646363	0.007484
538.861659	0.007492
539.076937	0.007108
539.292196	0.006929
539.507438	0.006772
539.722661	0.006791
539.937866	0.007084
540.153052	0.006433
540.368221	0.006351
540.583371	0.006488
540.798503	0.006280
541.013617	0.006648
541.228712	0.006755
541.443789	0.006657
541.658848	0.006507
541.873889	0.005956
542.088912	0.006111
542.303916	0.005936
542.518902	0.005745
542.733870	0.005877
542.948820	0.005409
543.163752	0.005648
543.378665	0.005846
543.593560	0.005942
543.808437	0.006117
544.023295	0.005873
544.238136	0.005760
544.452958	0.005802
544.667762	0.005797
544.882548	0.006193
545.097315	0.005742
545.312064	0.005964
545.526795	0.006086
545.741508	0.006364
545.956203	0.006487
546.170879	0.007019
546.385537	0.006973
546.600177	0.006888
546.814799	0.006811
547.029402	0.006938
547.243988	0.006667
547.458555	0.007133
547.673103	0.007173
547.887634	0.007484
548.102146	0.006992
548.316640	0.006933
548.531116	0.007097
548.745574	0.006814
548.960013	0.006906
549.174435	0.006582
549.388838	0.006656
549.603222	0.006328
549.817589	0.006121
550.031937	0.006273
550.246267	0.005991
550.460579	0.005916
550.674873	0.006330
550.889148	0.006542
551.103405	0.006677
551.317644	0.006399
551.531865	0.006889
551.746068	0.007077
551.960252	0.007249
552.174418	0.007690
552.388566	0.007996
552.602696	0.007894
552.816807	0.007438
553.030900	0.007673
553.244975	0.007615
553.459032	0.007208
553.673070	0.007093
553.887091	0.006813
554.101093	0.007015
554.315077	0.006853
554.529042	0.006982
554.742990	0.007112
554.956919	0.007016
555.170830	0.006969
555.384722	0.006882
555.598597	0.007096
555.812453	0.007502
556.026291	0.007244
556.240111	0.007280
556.453913	0.007091
556.667696	0.007296
556.881461	0.007317
557.095208	0.007373
557.308937	0.007710
557.522647	0.007694
557.736339	0.007445
557.950013	0.007618
558.163669	0.007517
558.377307	0.007527
558.590926	0.007575
558.804527	0.007634
559.018110	0.008115
559.231675	0.007825
559.445221	0.007294
559.658749	0.007236
559.872259	0.007258
560.085751	0.007523
560.299225	0.007739
560.512680	0.007666
560.726117	0.007606
560.939536	0.007066
561.152937	0.007214
561.366319	0.007655
561.579683	0.007644
561.793029	0.007940
562.006357	0.007673
562.219667	0.007602
562.432958	0.007640
562.646231	0.007571
562.859486	0.007430
563.072723	0.007613
563.285941	0.007454
563.499141	0.007585
563.712323	0.006956
563.925487	0.006929
564.138632	0.006720
564.351760	0.006691
564.564869	0.006387
564.777960	0.006598
564.991032	0.006588
565.204087	0.006660
565.417123	0.006495
565.630141	0.006760
565.843140	0.006801
566.056122	0.007015
566.269085	0.007096
566.482030	0.007293
566.694957	0.007257
566.907866	0.007053
567.120756	0.007069
567.333628	0.007039
567.546482	0.006873
567.759318	0.006908
567.972135	0.006967
568.184935	0.006696
568.397716	0.006704
568.610478	0.006766
568.823223	0.006609
569.035949	0.006491
569.248657	0.006763
569.461347	0.006612
569.674019	0.006550
569.886672	0.006284
570.099308	0.006407
570.311925	0.006509
570.524523	0.006671
570.737104	0.006722
570.949666	0.006986
571.162210	0.006773
571.374736	0.006851
571.587244	0.006684
571.799733	0.006902
572.012205	0.007009
572.224658	0.007067
572.437092	0.006813
572.649509	0.007010
572.861907	0.006746
573.074287	0.006900
573.286649	0.007105
573.498993	0.007352
573.711318	0.007557
573.923625	0.007478
574.135914	0.007222
574.348185	0.006870
574.560438	0.006690
574.772672	0.006766
574.984888	0.006483
575.197086	0.006171
575.409266	0.006099
575.621427	0.005834
575.833570	0.005598
576.045695	0.006214
576.257802	0.006651
576.469890	0.006830
576.681961	0.006847
576.894013	0.007268
577.106046	0.007583
577.318062	0.007735
577.530059	0.007563
577.742039	0.007582
577.954000	0.007273
578.165942	0.007356
578.377867	0.007257
578.589773	0.007300
578.801661	0.007199
579.013531	0.007198
579.225382	0.007124
579.437216	0.007378
579.649031	0.007474
579.860828	0.007515
580.072606	0.007468
580.284367	0.007263
580.496109	0.007257
580.707833	0.007099
580.919539	0.007110
581.131227	0.006926
581.342896	0.006787
581.554547	0.006998
581.766180	0.006952
581.977795	0.006834
582.189391	0.007279
582.400969	0.007309
582.612529	0.007327
582.824071	0.007187
583.035595	0.007108
583.247100	0.007371
583.458587	0.007332
583.670056	0.007336
583.881506	0.007485
584.092939	0.007193
584.304353	0.007226
584.515749	0.007003
584.727127	0.007096
584.938486	0.007356
585.149828	0.007228
585.361151	0.007114
585.572456	0.007280
585.783742	0.007198
585.995011	0.007315
586.206261	0.007317
586.417493	0.007596
586.628706	0.007506
586.839902	0.007326
587.051079	0.007371
587.262238	0.007228
587.473379	0.007154
587.684502	0.007027
587.895606	0.006924
588.106692	0.007100
588.317760	0.006725
588.528810	0.006681
588.739841	0.006715
588.950855	0.006690
589.161850	0.006669
589.372827	0.006743
589.583785	0.007107
589.794726	0.007474
590.005648	0.007074
590.216552	0.007209
590.427437	0.007422
590.638305	0.007537
590.849154	0.007841
591.059985	0.007991
591.270798	0.007743
591.481592	0.007639
591.692369	0.007343
591.903127	0.007524
592.113867	0.007668
592.324588	0.007668
592.535292	0.007692
592.745977	0.007339
592.956644	0.007446
593.167293	0.007421
593.377923	0.007455
593.588536	0.007413
593.799130	0.007269
594.009706	0.007472
594.220263	0.007498
594.430803	0.007631
594.641324	0.007493
594.851827	0.007319
595.062312	0.007465
595.272778	0.007418
595.483227	0.007558
595.693657	0.007773
595.904069	0.007486
596.114462	0.007536
596.324838	0.007363
596.535195	0.007635
596.745534	0.007914
596.955855	0.008002
597.166157	0.008047
597.376441	0.008184
597.586707	0.008303
597.796955	0.008546
598.007185	0.008596
598.217396	0.008901
598.427589	0.009320
598.637764	0.009439
598.847921	0.009440
599.058060	0.009441
599.268180	0.009272
599.478282	0.009224
599.688366	0.009406
599.898431	0.009411
600.108479	0.008985
600.318508	0.008590
600.528519	0.008578
600.738511	0.008638
600.948486	0.008881
601.158442	0.009036
601.368380	0.008884
601.578300	0.008774
601.788202	0.008638
601.998085	0.008965
602.207950	0.009081
602.417797	0.009137
602.627626	0.009024
602.837436	0.008763
603.047228	0.008866
603.257002	0.009002
603.466758	0.009136
603.676496	0.009073
603.886215	0.008820
604.095916	0.008400
604.305599	0.008437
604.515264	0.008584
604.724910	0.008709
604.934538	0.008401
605.144148	0.008341
605.353740	0.008316
605.563314	0.008323
605.772869	0.008477
605.982406	0.008779
606.191925	0.008507
606.401425	0.008470
606.610908	0.008290
606.820372	0.008317
607.029818	0.008272
607.239246	0.008030
607.448655	0.008229
607.658047	0.008390
607.867420	0.008483
608.076775	0.008608
608.286111	0.008513
608.495430	0.008467
608.704730	0.008606
608.914012	0.008758
609.123275	0.009022
609.332521	0.009084
609.541748	0.008940
609.750957	0.009136
609.960148	0.009108
610.169321	0.009164
610.378475	0.009376
610.587611	0.009544
610.796729	0.009584
611.005829	0.009653
611.214910	0.009611
611.423974	0.009897
611.633019	0.009927
611.842045	0.009999
612.051054	0.010037
612.260044	0.010027
612.469017	0.009912
612.677970	0.010333
612.886906	0.010355
613.095824	0.010405
613.304723	0.010129
613.513604	0.009962
613.722467	0.010060
613.931311	0.010234
614.140138	0.010294
614.348946	0.010342
614.557736	0.009988
614.766507	0.010041
614.975261	0.010367
615.183996	0.010773
615.392713	0.010622
615.601412	0.010629
615.810092	0.010727
616.018754	0.010753
616.227399	0.010615
616.436024	0.010728
616.644632	0.010659
616.853222	0.010452
617.061793	0.010440
617.270346	0.010489
617.478880	0.010518
617.687397	0.010454
617.895895	0.010692
618.104375	0.010798
618.312837	0.010673
618.521281	0.010905
618.729706	0.010837
618.938113	0.010704
619.146502	0.011008
619.354873	0.011044
619.563226	0.010908
619.771560	0.010663
619.979876	0.010674
620.188174	0.010788
620.396453	0.010387
620.604715	0.010704
620.812958	0.010684
621.021183	0.010594
621.229390	0.010731
621.437578	0.010979
621.645748	0.011219
621.853900	0.011636
622.062034	0.011692
622.270150	0.011935
622.478247	0.011837
622.686326	0.011931
622.894387	0.011941
623.102430	0.011716
623.310454	0.011509
623.518461	0.011338
623.726449	0.011000
623.934418	0.010946
624.142370	0.011036
624.350303	0.011081
624.558218	0.011079
624.766115	0.011080
624.973994	0.011135
625.181855	0.011406
625.389697	0.011330
625.597521	0.011517
625.805327	0.011511
626.013114	0.011774
626.220883	0.011537
626.428634	0.011727
626.636367	0.011729
626.844082	0.011816
627.051778	0.011641
627.259457	0.011799
627.467117	0.011790
627.674758	0.011925
627.882382	0.011758
628.089987	0.011664
628.297574	0.011417
628.505143	0.011529
628.712694	0.011602
628.920226	0.011687
629.127740	0.011712
629.335236	0.011732
629.542714	0.011836
629.750174	0.011861
629.957615	0.012127
630.165038	0.012316
630.372443	0.012232
630.579829	0.012219
630.787198	0.012253
630.994548	0.012206
631.201880	0.012033
631.409194	0.011898
631.616489	0.012050
631.823766	0.012021
632.031025	0.012136
632.238266	0.012382
632.445489	0.012332
632.652693	0.012283
632.859879	0.012349
633.067047	0.012493
633.274197	0.012542
633.481329	0.012230
633.688442	0.012290
633.895537	0.012226
634.102614	0.011958
634.309672	0.011997
634.516713	0.012102
634.723735	0.012158
634.930739	0.012242
635.137724	0.012153
635.344692	0.012338
635.551641	0.012265
635.758572	0.012183
635.965485	0.012434
636.172379	0.012484
636.379256	0.012488
636.586114	0.012594
636.792954	0.012570
636.999775	0.012743
637.206579	0.012827
637.413364	0.012966
637.620131	0.013019
637.826880	0.013036
638.033610	0.013050
638.240323	0.012991
638.447017	0.012794
638.653692	0.012930
638.860350	0.012935
639.066990	0.012742
639.273611	0.012587
639.480214	0.012544
639.686798	0.012530
639.893365	0.012524
640.099913	0.012651
640.306443	0.012961
640.512955	0.012668
640.719449	0.012852
640.925924	0.013026
641.132381	0.013218
641.338820	0.013331
641.545241	0.013439
641.751644	0.013491
641.958028	0.013552
642.164394	0.013533
642.370742	0.013675
642.577071	0.013569
642.783383	0.013500
642.989676	0.013514
643.195951	0.013710
643.402207	0.013621
643.608446	0.013696
643.814666	0.013580
644.020868	0.013535
644.227052	0.013618
644.433218	0.013514
644.639365	0.013602
644.845494	0.013868
645.051605	0.013730
645.257698	0.013704
645.463772	0.013742
645.669828	0.013703
645.875866	0.013499
646.081886	0.013574
646.287888	0.013803
646.493871	0.013892
646.699836	0.013704
646.905783	0.013640
647.111712	0.013682
647.317622	0.013845
647.523514	0.014167
647.729388	0.014443
647.935244	0.014680
648.141082	0.014740
648.346901	0.014798
648.552702	0.014894
648.758485	0.014947
648.964250	0.014760
649.169996	0.014695
649.375724	0.014715
649.581434	0.014704
649.787126	0.014528
649.992800	0.014402
650.198455	0.014155
650.404092	0.013927
650.609711	0.014152
650.815311	0.014204
651.020894	0.014253
651.226458	0.014124
651.432004	0.014031
651.637532	0.013860
651.843041	0.013777
652.048532	0.013932
652.254006	0.014036
652.459460	0.013970
652.664897	0.014163
652.870315	0.014211
653.075716	0.014233
653.281097	0.014403
653.486461	0.014495
653.691807	0.014693
653.897134	0.014663
654.102443	0.014762
654.307734	0.014647
654.513006	0.014766
654.718261	0.014496
654.923497	0.014572
655.128715	0.014658
655.333915	0.014659
655.539096	0.014595
655.744259	0.014677
655.949404	0.014686
656.154531	0.014639
656.359640	0.014553
656.564730	0.014828
656.769802	0.014785
656.974856	0.014722
657.179892	0.014844
657.384909	0.015113
657.589908	0.015083
657.794889	0.015171
657.999852	0.015096
658.204797	0.015212
658.409723	0.014990
658.614631	0.014984
658.819521	0.015078
659.024393	0.015147
659.229246	0.014937
659.434081	0.015179
659.638898	0.015240
659.843697	0.015628
660.048478	0.015668
660.253240	0.015972
660.457984	0.015994
660.662710	0.016002
660.867417	0.015960
661.072107	0.015968
661.276778	0.015935
661.481431	0.015950
661.686066	0.016049
661.890682	0.016110
662.095281	0.016041
662.299861	0.016170
662.504422	0.016086
662.708966	0.016234
662.913491	0.016375
663.117999	0.016303
663.322488	0.016205
663.526958	0.015969
663.731411	0.016087
663.935845	0.016040
664.140261	0.016027
664.344659	0.016151
664.549038	0.016144
664.753400	0.016050
664.957743	0.016018
665.162068	0.016151
665.366375	0.016191
665.570663	0.015966
665.774933	0.016016
665.979185	0.016058
666.183419	0.016131
666.387635	0.016008
666.591832	0.015952
666.796011	0.016074
667.000172	0.015992
667.204315	0.015971
667.408439	0.016022
667.612545	0.016134
667.816634	0.016160
668.020703	0.016159
668.224755	0.016541
668.428788	0.016639
668.632803	0.016584
668.836800	0.016605
669.040779	0.016895
669.244739	0.016987
669.448681	0.016985
669.652605	0.016981
669.856511	0.016966
670.060399	0.016676
670.264268	0.016757
670.468119	0.016921
670.671952	0.016978
670.875767	0.016890
671.079563	0.016943
671.283341	0.016890
671.487101	0.016822
671.690843	0.016729
671.894567	0.016749
672.098272	0.016692
672.301959	0.016613
672.505628	0.016567
672.709278	0.016453
672.912911	0.016356
673.116525	0.016261
673.320121	0.016347
673.523699	0.016534
673.727258	0.016552
673.930799	0.016548
674.134322	0.016504
674.337827	0.016557
674.541314	0.016733
674.744782	0.016918
674.948232	0.017041
675.151664	0.017071
675.355078	0.017033
675.558474	0.017152
675.761851	0.017230
675.965210	0.017398
676.168551	0.017572
676.371873	0.017564
676.575178	0.017504
676.778464	0.017686
676.981732	0.017800
677.184981	0.017892
677.388213	0.017947
677.591426	0.018138
677.794621	0.018178
677.997798	0.018194
678.200956	0.018066
678.404097	0.018137
678.607219	0.018102
678.810323	0.017985
679.013408	0.017955
679.216476	0.017964
679.419525	0.017846
679.622556	0.017895
679.825569	0.017836
680.028563	0.017999
680.231540	0.017979
680.434498	0.018132
680.637438	0.018375
680.840359	0.018376
681.043263	0.018344
681.246148	0.018320
681.449015	0.018281
681.651864	0.018381
681.854694	0.018323
682.057506	0.018307
682.260301	0.018320
682.463076	0.018275
682.665834	0.018336
682.868573	0.018284
683.071295	0.018385
683.273998	0.018538
683.476682	0.018419
683.679349	0.018470
683.881997	0.018694
684.084627	0.018682
684.287239	0.018733
684.489833	0.018688
684.692408	0.018979
684.894965	0.019024
685.097504	0.018949
685.300025	0.019153
685.502527	0.019351
685.705012	0.019193
685.907478	0.019289
686.109925	0.019349
686.312355	0.019410
686.514766	0.019378
686.717159	0.019532
686.919534	0.019591
687.121891	0.019437
687.324230	0.019314
687.526550	0.019386
687.728852	0.019218
687.931136	0.019135
688.133401	0.019134
688.335649	0.019004
688.537878	0.018850
688.740089	0.018763
688.942281	0.018823
689.144456	0.018937
689.346612	0.018955
689.548750	0.019019
689.750870	0.019043
689.952971	0.019137
690.155055	0.019120
690.357120	0.019215
690.559167	0.019167
690.761195	0.019197
690.963206	0.019256
691.165198	0.019160
691.367172	0.019153
691.569128	0.019121
691.771065	0.019028
691.972984	0.019072
692.174885	0.019150
692.376768	0.019434
692.578633	0.019552
692.780479	0.019364
692.982308	0.019385
693.184118	0.019370
693.385909	0.019401
693.587683	0.019416
693.789438	0.019504
693.991175	0.019369
694.192894	0.019133
694.394595	0.019150
694.596277	0.019166
694.797941	0.019274
694.999587	0.019266
695.201215	0.019179
695.402824	0.019191
695.604416	0.019218
695.805989	0.019258
696.007543	0.019199
696.209080	0.019143
696.410598	0.019128
696.612099	0.019193
696.813580	0.019253
697.015044	0.019284
697.216490	0.019308
697.417917	0.019343
697.619326	0.019237
697.820717	0.019467
698.022089	0.019518
698.223444	0.019635
698.424780	0.019619
698.626098	0.019748
698.827397	0.019848
699.028679	0.020079
699.229942	0.020152
699.431187	0.020421
699.632414	0.020398
699.833622	0.020266
700.034813	0.020287
700.235985	0.020332
700.437139	0.020400
700.638274	0.020452
700.839392	0.020543
701.040491	0.020441
701.241572	0.020375
701.442635	0.020343
701.643679	0.020464
701.844706	0.020639
702.045714	0.020492
702.246704	0.020361
702.447675	0.020442
702.648629	0.020337
702.849564	0.020422
703.050481	0.020522
703.251380	0.020480
703.452260	0.020516
703.653122	0.020378
703.853966	0.020520
704.054792	0.020457
704.255600	0.020410
704.456389	0.020315
704.657160	0.020325
704.857913	0.020093
705.058648	0.020240
705.259365	0.020209
705.460063	0.020193
705.660743	0.020198
705.861405	0.020210
706.062048	0.020252
706.262674	0.020215
706.463281	0.020050
706.663870	0.020140
706.864441	0.020062
707.064993	0.020085
707.265527	0.020143
707.466043	0.020093
707.666541	0.020009
707.867021	0.019988
708.067482	0.020032
708.267925	0.020103
708.468350	0.020194
708.668757	0.020391
708.869145	0.020443
709.069516	0.020344
709.269868	0.020435
709.470201	0.020580
709.670517	0.020573
709.870814	0.020532
710.071093	0.020563
710.271354	0.020377
710.471597	0.020098
710.671821	0.020095
710.872028	0.020095
711.072216	0.020089
711.272385	0.020131
711.472537	0.020178
711.672670	0.020279
711.872785	0.020327
712.072882	0.020448
712.272961	0.020653
712.473021	0.020753
712.673063	0.020834
712.873087	0.020848
713.073093	0.020860
713.273081	0.020784
713.473050	0.020848
713.673001	0.020837
713.872934	0.020976
714.072849	0.021029
714.272745	0.020950
714.472623	0.021019
714.672483	0.021030
714.872325	0.020927
715.072148	0.021007
715.271954	0.020927
715.471741	0.020979
715.671509	0.020808
715.871260	0.020596
716.070992	0.020665
716.270707	0.020743
716.470403	0.020621
716.670080	0.020673
716.869740	0.020438
717.069381	0.020343
717.269004	0.020280
717.468609	0.020199
717.668195	0.019942
717.867764	0.019845
718.067314	0.019498
718.266846	0.019407
718.466360	0.019222
718.665855	0.019218
718.865332	0.019145
719.064791	0.018974
719.264232	0.019084
719.463655	0.019301
719.663059	0.019210
719.862445	0.019125
720.061813	0.019255
720.261163	0.019471
720.460494	0.019513
720.659807	0.019704
720.859102	0.019933
721.058379	0.019789
721.257638	0.019714
721.456878	0.019570
721.656100	0.019741
721.855304	0.019716
722.054490	0.019547
722.253657	0.019447
722.452806	0.019271
722.651937	0.019241
722.851050	0.019287
723.050145	0.019381
723.249221	0.019334
723.448279	0.019233
723.647319	0.019178
723.846340	0.019288
724.045344	0.019261
724.244329	0.019191
724.443296	0.018995
724.642245	0.019004
724.841175	0.018974
725.040088	0.019014
725.238982	0.018972
725.437857	0.018873
725.636715	0.018664
725.835554	0.018638
726.034376	0.018534
726.233179	0.018494
726.431963	0.018399
726.630730	0.018313
726.829478	0.018269
727.028208	0.018470
727.226920	0.018421
727.425614	0.018483
727.624289	0.018588
727.822946	0.018645
728.021585	0.018670
728.220206	0.018664
728.418808	0.018639
728.617392	0.018799
728.815958	0.018883
729.014506	0.019039
729.213036	0.019054
729.411547	0.019133
729.610040	0.019329
729.808515	0.019411
730.006972	0.019532
730.205410	0.019514
730.403831	0.019269
730.602233	0.019104
730.800616	0.018916
730.998982	0.018866
731.197329	0.018741
731.395658	0.018576
731.593969	0.018370
731.792262	0.018171
731.990536	0.018251
732.188793	0.018287
732.387031	0.018185
732.585250	0.018361
732.783452	0.018286
732.981635	0.018253
733.179800	0.018141
733.377947	0.018077
733.576076	0.018013
733.774186	0.017857
733.972278	0.017879
734.170352	0.017840
734.368408	0.017571
734.566446	0.017691
734.764465	0.017628
734.962466	0.017641
735.160449	0.017788
735.358413	0.017836
735.556360	0.017810
735.754288	0.017811
735.952198	0.017827
736.150090	0.017885
736.347963	0.017830
736.545818	0.017820
736.743655	0.017726
736.941474	0.017554
737.139275	0.017506
737.337057	0.017489
737.534821	0.017548
737.732567	0.017594
737.930295	0.017447
738.128005	0.017281
738.325696	0.017251
738.523369	0.017405
738.721024	0.017404
738.918660	0.017366
739.116279	0.017263
739.313879	0.017213
739.511461	0.016980
739.709024	0.017144
739.906570	0.017157
740.104097	0.017015
740.301606	0.016921
740.499097	0.016757
740.696569	0.016706
740.894024	0.016905
741.091460	0.016911
741.288878	0.016914
741.486277	0.016774
741.683659	0.016813
741.881022	0.016960
742.078367	0.016854
742.275694	0.017035
742.473002	0.017126
742.670293	0.017001
742.867565	0.016890
743.064819	0.017074
743.262054	0.017236
743.459272	0.017329
743.656471	0.017384
743.853652	0.017518
744.050815	0.017455
744.247959	0.017437
744.445085	0.017412
744.642194	0.017350
744.839283	0.017264
745.036355	0.017350
745.233408	0.017293
745.430444	0.017253
745.627461	0.017270
745.824459	0.017421
746.021440	0.017479
746.218402	0.017484
746.415346	0.017648
746.612272	0.017702
746.809180	0.017495
747.006069	0.017441
747.202940	0.017520
747.399793	0.017453
747.596628	0.017491
747.793444	0.017493
747.990243	0.017621
748.187023	0.017411
748.383784	0.017472
748.580528	0.017585
748.777253	0.017820
748.973960	0.017566
749.170649	0.017593
749.367320	0.017372
749.563973	0.017378
749.760607	0.017404
749.957223	0.017560
750.153821	0.017306
750.350400	0.017180
750.546962	0.016942
750.743505	0.017231
750.940030	0.017185
751.136536	0.017225
751.333025	0.017332
751.529495	0.017089
751.725947	0.017019
751.922381	0.017219
752.118796	0.017190
752.315194	0.017185
752.511573	0.017081
752.707934	0.017148
752.904276	0.017358
753.100601	0.017299
753.296907	0.017294
753.493195	0.017399
753.689465	0.017416
753.885716	0.017530
754.081949	0.017617
754.278164	0.017616
754.474361	0.017595
754.670540	0.017362
754.866700	0.017150
755.062843	0.017374
755.258967	0.017296
755.455072	0.017039
755.651160	0.016888
755.847229	0.016789
756.043280	0.016703
756.239313	0.016625
756.435328	0.016917
756.631324	0.017117
756.827302	0.017142
757.023262	0.017076
757.219204	0.017234
757.415127	0.017312
757.611033	0.017504
757.806920	0.017359
758.002788	0.017440
758.198639	0.017366
758.394471	0.017257
758.590286	0.017092
758.786081	0.017198
758.981859	0.017160
759.177619	0.017123
759.373360	0.016882
759.569083	0.016977
759.764788	0.016818
759.960474	0.016743
760.156143	0.016596
760.351793	0.016731
760.547425	0.016529
760.743038	0.016593
760.938634	0.016610
761.134211	0.016936
761.329770	0.017265
761.525311	0.017564
761.720833	0.017564
761.916338	0.017716
762.111824	0.017903
762.307292	0.018227
762.502741	0.018252
762.698173	0.018486
762.893586	0.018534
763.088981	0.018449
763.284358	0.018251
763.479716	0.018466
763.675057	0.018438
763.870379	0.018313
764.065683	0.018354
764.260968	0.018430
764.456236	0.018336
764.651485	0.018052
764.846716	0.017958
765.041929	0.018084
765.237123	0.017832
765.432299	0.017882
765.627457	0.017670
765.822597	0.017601
766.017719	0.017591
766.212822	0.017497
766.407907	0.017438
766.602974	0.017404
766.798023	0.017105
766.993054	0.017186
767.188066	0.016919
767.383060	0.016975
767.578036	0.016748
767.772993	0.016580
767.967933	0.016621
768.162854	0.016717
768.357757	0.016541
768.552642	0.016634
768.747508	0.016499
768.942356	0.016726
769.137186	0.016647
769.331998	0.016980
769.526792	0.017059
769.721567	0.017084
769.916324	0.016978
770.111063	0.017123
770.305784	0.017303
770.500486	0.017284
770.695171	0.017350
770.889837	0.017417
771.084484	0.017137
771.279114	0.017108
771.473725	0.016901
771.668318	0.016889
771.862893	0.016842
772.057450	0.016578
772.251988	0.016624
772.446509	0.016476
772.641011	0.016374
772.835494	0.016531
773.029960	0.016658
773.224407	0.016593
773.418836	0.016572
773.613247	0.016533
773.807640	0.016593
774.002014	0.016522
774.196370	0.016464
774.390708	0.016486
774.585028	0.016204
774.779330	0.015841
774.973613	0.015913
775.167878	0.015866
775.362125	0.015819
775.556354	0.015718
775.750564	0.015502
775.944756	0.015498
776.138930	0.015417
776.333086	0.015526
776.527223	0.015715
776.721343	0.015720
776.915444	0.015769
777.109526	0.015857
777.303591	0.016017
777.497637	0.016125
777.691666	0.016088
777.885676	0.016082
778.079667	0.016111
778.273641	0.016063
778.467596	0.016357
778.661533	0.016295
778.855452	0.016365
779.049352	0.016383
779.243235	0.016487
779.437099	0.016599
779.630945	0.016708
779.824773	0.016835
780.018582	0.016874
780.212373	0.016848
780.406146	0.017013
780.599901	0.017081
780.793638	0.016969
780.987356	0.017006
781.181056	0.017079
781.374738	0.017282
781.568402	0.017199
781.762047	0.017409
781.955674	0.017277
782.149283	0.017276
782.342874	0.017215
782.536447	0.017342
782.730001	0.017304
782.923537	0.017319
783.117055	0.017184
783.310555	0.017210
783.504036	0.017056
783.697499	0.016933
783.890944	0.016989
784.084371	0.017060
784.277780	0.017172
784.471170	0.017227
784.664542	0.017233
784.857896	0.017111
785.051231	0.017231
785.244549	0.017334
785.437848	0.017314
785.631129	0.017298
785.824392	0.017099
786.017636	0.017028
786.210863	0.017098
786.404071	0.016952
786.597260	0.017111
786.790432	0.016753
786.983585	0.016556
787.176721	0.016717
787.369838	0.016654
787.562936	0.016666
787.756017	0.016566
787.949079	0.016507
788.142123	0.016540
788.335149	0.016267
788.528156	0.016387
788.721146	0.016484
788.914117	0.016229
789.107070	0.016161
789.300005	0.016045
789.492921	0.015904
789.685819	0.015855
789.878699	0.015805
790.071561	0.016090
790.264405	0.016043
790.457230	0.015891
790.650037	0.016247
790.842826	0.016096
791.035597	0.016214
791.228349	0.016335
791.421084	0.016474
791.613800	0.016526
791.806497	0.016430
791.999177	0.016535
792.191838	0.016605
792.384481	0.016368
792.577106	0.016683
792.769713	0.017022
792.962301	0.017078
793.154871	0.017109
793.347423	0.017223
793.539957	0.017286
793.732473	0.017345
793.924970	0.017316
794.117449	0.017376
794.309910	0.017363
794.502353	0.017219
794.694777	0.017435
794.887183	0.017396
795.079571	0.017195
795.271941	0.017281
795.464293	0.017062
795.656626	0.017062
795.848941	0.017016
796.041238	0.016876
796.233516	0.016760
796.425777	0.016483
796.618019	0.016296
796.810243	0.016492
797.002449	0.016459
797.194636	0.016570
797.386805	0.016538
797.578956	0.016473
797.771089	0.016446
797.963204	0.016555
798.155300	0.016701
798.347378	0.016667
798.539438	0.016493
798.731480	0.016503
798.923503	0.016601
799.115509	0.016776
799.307496	0.016796
799.499465	0.016904
799.691415	0.016913
799.883348	0.016926
800.075262	0.017033
800.267158	0.017178
800.459035	0.017244
800.650895	0.017337
800.842736	0.017251
801.034559	0.017342
801.226364	0.017463
801.418150	0.017243
801.609919	0.017159
801.801669	0.017330
801.993401	0.017356
802.185114	0.017140
802.376810	0.016865
802.568487	0.016877
802.760146	0.017067
802.951787	0.016878
803.143409	0.017144
803.335014	0.017083
803.526600	0.016881
803.718168	0.016802
803.909717	0.016944
804.101249	0.017060
804.292762	0.017057
804.484257	0.016955
804.675734	0.016948
804.867192	0.016960
805.058632	0.017085
805.250054	0.017075
805.441458	0.017245
805.632844	0.017281
805.824211	0.017360
806.015561	0.017533
806.206891	0.017726
806.398204	0.017968
806.589499	0.017883
806.780775	0.017958
806.972033	0.018322
807.163273	0.018385
807.354495	0.018449
807.545698	0.018466
807.736883	0.018500
807.928050	0.018430
808.119199	0.018250
808.310329	0.018371
808.501441	0.018585
808.692535	0.018666
808.883611	0.018587
809.074669	0.018612
809.265708	0.018874
809.456729	0.018833
809.647732	0.018824
809.838717	0.019016
810.029683	0.019024
810.220632	0.018819
810.411562	0.018641
810.602474	0.018798
810.793367	0.018767
810.984242	0.018664
811.175100	0.018849
811.365938	0.018871
811.556759	0.018804
811.747562	0.018883
811.938346	0.018979
812.129112	0.019017
812.319860	0.019012
812.510589	0.019100
812.701300	0.019293
812.891994	0.019227
813.082668	0.019179
813.273325	0.019253
813.463964	0.019128
813.654584	0.019205
813.845186	0.019340
814.035769	0.019282
814.226335	0.019179
814.416882	0.018879
814.607411	0.018706
814.797922	0.018773
814.988415	0.018852
815.178889	0.018804
815.369345	0.018701
815.559783	0.018782
815.750203	0.019005
815.940605	0.019122
816.130988	0.019293
816.321353	0.019547
816.511700	0.019577
816.702028	0.019547
816.892339	0.019662
817.082631	0.019648
817.272905	0.019384
817.463161	0.019226
817.653398	0.018975
817.843617	0.018914
818.033819	0.018540
818.224001	0.018412
818.414166	0.018155
818.604312	0.018072
818.794440	0.017892
818.984550	0.018010
819.174642	0.017740
819.364716	0.017950
819.554771	0.017783
819.744808	0.017972
819.934827	0.018132
820.124827	0.018412
820.314810	0.018420
820.504774	0.018541
820.694720	0.018299
820.884647	0.018552
821.074557	0.018559
821.264448	0.018669
821.454321	0.018679
821.644176	0.018616
821.834012	0.018695
822.023831	0.018586
822.213631	0.018662
822.403413	0.018808
822.593176	0.018861
822.782922	0.018817
822.972649	0.018906
823.162358	0.018929
823.352049	0.018968
823.541721	0.018948
823.731376	0.019161
823.921012	0.019256
824.110629	0.019297
824.300229	0.019234
824.489811	0.019214
824.679374	0.019264
824.868919	0.019290
825.058445	0.019124
825.247954	0.019091
825.437444	0.018942
825.626916	0.018817
825.816370	0.018890
826.005806	0.019014
826.195223	0.019199
826.384622	0.019191
826.574003	0.019171
826.763366	0.019342
826.952711	0.019408
827.142037	0.019648
827.331345	0.019639
827.520635	0.019692
827.709906	0.019555
827.899160	0.019579
828.088395	0.019499
828.277612	0.019766
828.466810	0.019757
828.655991	0.019679
828.845153	0.019694
829.034297	0.019788
829.223423	0.019729
829.412531	0.019847
829.601620	0.019828
829.790691	0.019835
829.979744	0.019892
830.168779	0.019897
830.357795	0.020027
830.546793	0.020083
830.735773	0.020221
830.924735	0.020221
831.113679	0.020106
831.302604	0.020163
831.491511	0.020453
831.680400	0.020245
831.869271	0.020354
832.058123	0.020377
832.246957	0.020383
832.435773	0.020505
832.624571	0.020650
832.813351	0.020928
833.002112	0.020823
833.190855	0.020694
833.379580	0.020815
833.568287	0.020857
833.756975	0.020905
833.945645	0.021065
834.134297	0.021060
834.322931	0.020790
834.511547	0.020608
834.700144	0.020696
834.888723	0.020779
835.077284	0.020669
835.265826	0.020842
835.454351	0.020909
835.642857	0.020737
835.831345	0.020766
836.019815	0.020845
836.208266	0.020824
836.396699	0.020961
836.585114	0.020914
836.773511	0.021105
836.961890	0.020942
837.150250	0.020896
837.338592	0.020939
837.526916	0.020931
837.715222	0.021317
837.903510	0.021691
838.091779	0.021784
838.280030	0.022088
838.468263	0.022209
838.656477	0.022328
838.844674	0.022267
839.032852	0.022416
839.221012	0.022498
839.409153	0.022643
839.597277	0.022408
839.785382	0.022401
839.973469	0.022183
840.161538	0.021842
840.349589	0.021876
840.537621	0.021930
840.725635	0.021842
840.913631	0.021846
841.101609	0.021764
841.289568	0.021834
841.477509	0.021573
841.665432	0.021439
841.853337	0.021761
842.041224	0.021725
842.229092	0.021785
842.416942	0.021644
842.604774	0.021726
842.792588	0.021570
842.980383	0.021639
843.168160	0.021877
843.355919	0.022033
843.543660	0.021902
843.731382	0.021928
843.919087	0.021782
844.106773	0.021923
844.294441	0.021821
844.482090	0.021830
844.669722	0.021809
844.857335	0.021927
845.044930	0.021972
845.232507	0.022014
845.420065	0.021997
845.607605	0.022281
845.795127	0.022450
845.982631	0.022670
846.170117	0.022806
846.357584	0.022896
846.545033	0.023103
846.732464	0.023285
846.919877	0.023526
847.107272	0.023920
847.294648	0.024175
847.482006	0.024351
847.669346	0.024258
847.856667	0.024373
848.043971	0.024528
848.231256	0.024310
848.418523	0.024378
848.605771	0.024627
848.793002	0.024660
848.980214	0.024538
849.167408	0.024477
849.354584	0.024642
849.541742	0.024729
849.728881	0.024788
849.916002	0.024950
850.103105	0.025096
850.290190	0.025139
850.477256	0.025140
850.664304	0.025248
850.851334	0.025330
851.038346	0.025359
851.225340	0.025604
851.412315	0.025561
851.599272	0.025697
851.786211	0.025784
851.973132	0.025873
852.160034	0.025820
852.346918	0.025870
852.533784	0.026089
852.720632	0.026136
852.907462	0.026255
853.094273	0.026707
853.281066	0.026801
853.467841	0.026891
853.654598	0.026778
853.841336	0.026940
854.028056	0.027093
854.214758	0.027152
854.401442	0.027317
854.588107	0.027159
854.774755	0.026978
854.961384	0.026802
855.147995	0.026996
855.334587	0.027235
855.521162	0.027175
855.707718	0.027296
855.894256	0.027565
856.080775	0.027781
856.267277	0.027739
856.453760	0.028099
856.640225	0.028430
856.826672	0.028195
857.013101	0.028212
857.199511	0.028319
857.385903	0.028282
857.572277	0.028024
857.758633	0.027977
857.944970	0.027845
858.131290	0.027745
858.317591	0.027927
858.503873	0.027861
858.690138	0.027696
858.876384	0.027886
859.062612	0.027839
859.248822	0.027848
859.435014	0.027903
859.621188	0.028050
859.807343	0.028052
859.993480	0.028001
860.179599	0.028403
860.365699	0.028465
860.551781	0.028414
860.737846	0.028607
860.923891	0.028791
861.109919	0.028853
861.295929	0.029125
861.481920	0.029100
861.667893	0.029093
861.853848	0.028997
862.039784	0.029008
862.225702	0.029134
862.411603	0.029121
862.597484	0.029086
862.783348	0.029053
862.969193	0.029073
863.155021	0.028933
863.340830	0.028783
863.526620	0.028571
863.712393	0.029077
863.898147	0.029148
864.083883	0.029346
864.269601	0.029431
864.455301	0.029471
864.640982	0.029541
864.826645	0.029808
865.012290	0.029694
865.197917	0.029903
865.383526	0.029661
865.569116	0.029735
865.754688	0.029598
865.940242	0.029423
866.125777	0.029221
866.311295	0.029231
866.496794	0.029375
866.682275	0.029765
866.867737	0.029952
867.053182	0.029969
867.238608	0.029795
867.424016	0.029923
867.609406	0.030058
867.794778	0.030116
867.980131	0.030207
868.165466	0.029949
868.350783	0.029989
868.536082	0.029922
868.721362	0.029693
868.906625	0.029835
869.091869	0.029646
869.277094	0.029732
869.462302	0.030167
869.647491	0.030163
869.832662	0.030358
870.017815	0.030523
870.202950	0.030627
870.388066	0.030865
870.573165	0.030813
870.758245	0.030780
870.943306	0.030940
871.128350	0.030580
871.313375	0.030408
871.498382	0.030325
871.683371	0.030148
871.868342	0.029721
872.053294	0.029721
872.238229	0.029828
872.423144	0.030140
872.608042	0.030038
872.792922	0.030168
872.977783	0.030256
873.162626	0.030501
873.347451	0.030454
873.532258	0.030620
873.717046	0.030658
873.901816	0.030536
874.086568	0.030328
874.271302	0.030222
874.456017	0.030178
874.640715	0.030256
874.825394	0.030117
875.010055	0.030049
875.194697	0.030164
875.379322	0.030087
875.563928	0.030423
875.748516	0.030474
875.933085	0.030775
876.117637	0.030959
876.302170	0.030831
876.486685	0.030866
876.671182	0.030957
876.855661	0.030974
877.040121	0.031097
877.224563	0.030822
877.408987	0.030793
877.593393	0.030516
877.777780	0.030382
877.962150	0.030616
878.146501	0.030652
878.330833	0.030453
878.515148	0.030441
878.699444	0.030440
878.883722	0.030402
879.067982	0.030396
879.252224	0.030686
879.436447	0.030752
879.620653	0.030640
879.804840	0.030584
879.989008	0.030954
880.173159	0.030929
880.357291	0.031035
880.541405	0.031295
880.725501	0.031427
880.909579	0.031396
881.093638	0.031505
881.277680	0.031718
881.461703	0.031729
881.645707	0.031815
881.829694	0.031943
882.013662	0.031903
882.197612	0.031880
882.381544	0.031777
882.565458	0.031598
882.749353	0.031288
882.933230	0.031279
883.117089	0.031244
883.300930	0.031081
883.484753	0.031120
883.668557	0.031135
883.852343	0.031177
884.036111	0.031280
884.219861	0.031545
884.403592	0.031497
884.587305	0.031297
884.771000	0.031582
884.954677	0.031644
885.138335	0.031690
885.321976	0.031823
885.505598	0.031751
885.689201	0.031816
885.872787	0.031879
886.056354	0.032141
886.239904	0.032193
886.423434	0.031901
886.606947	0.032077
886.790442	0.031972
886.973918	0.031615
887.157376	0.031869
887.340816	0.031896
887.524237	0.031582
887.707641	0.031722
887.891026	0.031791
888.074393	0.031714
888.257741	0.031440
888.441072	0.031809
888.624384	0.032082
888.807678	0.031774
888.990954	0.031677
889.174211	0.031780
889.357451	0.031595
889.540672	0.031686
889.723875	0.031776
889.907059	0.031691
890.090226	0.031518
890.273374	0.031335
890.456504	0.030969
890.639616	0.030970
890.822709	0.031067
891.005785	0.031223
891.188842	0.030888
891.371881	0.031014
891.554901	0.031130
891.737904	0.031197
891.920888	0.031281
892.103854	0.031767
892.286802	0.031956
892.469731	0.031954
892.652643	0.032094
892.835536	0.032355
893.018410	0.032218
893.201267	0.032408
893.384106	0.032505
893.566926	0.032603
893.749728	0.032681
893.932511	0.032426
894.115277	0.032393
894.298024	0.032146
894.480753	0.031966
894.663464	0.031998
894.846157	0.031951
895.028831	0.031791
895.211487	0.031394
895.394125	0.031158
895.576745	0.031023
895.759346	0.030937
895.941930	0.030913
896.124495	0.031025
896.307041	0.031010
896.489570	0.030928
896.672080	0.031042
896.854573	0.031472
897.037046	0.031356
897.219502	0.031227
897.401940	0.031029
897.584359	0.030585
897.766760	0.030628
897.949143	0.030530
898.131507	0.030393
898.313854	0.030196
898.496182	0.030023
898.678492	0.029846
898.860783	0.029922
899.043057	0.029954
899.225312	0.030305
899.407549	0.029708
899.589768	0.029512
899.771968	0.029298
899.954151	0.029041
900.136315	0.029019
900.318461	0.029363
900.500588	0.029211
900.682698	0.029087
900.864789	0.029063
901.046862	0.029531
901.228917	0.029672
901.410953	0.029826
901.592971	0.029980
901.774972	0.029954
901.956953	0.029690
902.138917	0.030008
902.320862	0.030183
902.502790	0.030052
902.684699	0.029916
902.866589	0.029741
903.048462	0.029659
903.230316	0.029514
903.412152	0.029171
903.593970	0.029179
903.775770	0.028954
903.957551	0.028794
904.139314	0.028820
904.321059	0.028543
904.502786	0.028757
904.684494	0.028670
904.866185	0.028610
905.047857	0.028835
905.229510	0.028449
905.411146	0.028215
905.592763	0.027879
905.774363	0.027620
905.955943	0.027514
906.137506	0.027077
906.319051	0.026926
906.500577	0.026918
906.682085	0.026839
906.863575	0.027113
907.045046	0.027274
907.226500	0.027377
907.407935	0.027356
907.589352	0.027442
907.770750	0.027386
907.952131	0.027437
908.133493	0.027368
908.314837	0.027153
908.496163	0.026925
908.677470	0.026942
908.858760	0.027151
909.040031	0.027094
909.221284	0.027359
909.402518	0.027488
909.583735	0.027515
909.764933	0.027575
909.946113	0.027644
910.127275	0.027580
910.308418	0.027147
910.489544	0.026688
910.670651	0.026703
910.851740	0.026400
911.032810	0.026122
911.213863	0.025850
911.394897	0.025460
911.575913	0.025185
911.756911	0.025126
911.937890	0.025056
912.118851	0.025243
912.299794	0.025585
912.480719	0.025482
912.661626	0.025475
912.842514	0.025526
913.023384	0.025192
913.204236	0.024968
913.385070	0.024646
913.565886	0.024644
913.746683	0.024547
913.927462	0.023997
914.108223	0.023850
914.288965	0.023904
914.469690	0.023845
914.650396	0.023720
914.831084	0.023506
915.011754	0.023509
915.192405	0.023391
915.373038	0.023017
915.553653	0.022859
915.734250	0.022644
915.914829	0.022270
916.095389	0.021952
916.275931	0.022082
916.456455	0.022474
916.636961	0.022517
916.817448	0.022312
916.997917	0.022163
917.178368	0.022129
917.358801	0.021815
917.539216	0.021885
917.719612	0.021775
917.899990	0.021687
918.080350	0.021619
918.260692	0.021447
918.441015	0.021667
918.621320	0.021767
918.801607	0.021687
918.981876	0.021933
919.162127	0.021973
919.342359	0.021711
919.522573	0.021517
919.702769	0.021076
919.882947	0.020734
920.063106	0.020545
920.243247	0.020159
920.423370	0.020218
920.603475	0.020207
920.783562	0.019688
920.963630	0.019585
921.143680	0.019541
921.323712	0.019371
921.503725	0.019329
921.683721	0.018868
921.863698	0.018776
922.043657	0.018115
922.223598	0.017950
922.403520	0.018095
922.583424	0.018371
922.763311	0.018298
922.943178	0.017955
923.123028	0.017630
923.302859	0.017571
923.482673	0.017635
923.662467	0.017433
923.842244	0.016962
924.022003	0.016512
924.201743	0.015963
924.381465	0.015662
924.561169	0.015361
924.740854	0.015474
924.920522	0.015421
925.100171	0.015213
925.279802	0.015218
925.459414	0.015220
925.639009	0.015163
925.818585	0.014689
925.998143	0.014637
926.177683	0.014476
926.357205	0.014233
926.536708	0.013653
926.716193	0.012989
926.895660	0.012970
927.075109	0.012367
927.254539	0.012383
927.433951	0.012509
927.613345	0.011962
927.792721	0.012289
927.972079	0.012213
928.151418	0.012225
928.330739	0.012265
928.510042	0.011716
928.689327	0.011885
928.868593	0.011267
929.047841	0.010941
929.227071	0.010852
929.406283	0.010313
929.585476	0.009773
929.764652	0.009782
929.943809	0.009380
930.122948	0.009320
930.302068	0.009172
930.481171	0.009131
930.660255	0.009025
930.839321	0.008900
931.018369	0.008352
931.197398	0.008452
931.376409	0.007770
931.555402	0.007920
931.734377	0.007406
931.913334	0.006924
932.092272	0.006366
932.271192	0.006016
932.450094	0.005800
932.628978	0.006090
932.807844	0.005492
932.986691	0.005828
933.165520	0.005750
933.344331	0.005776
933.523123	0.005400
933.701898	0.005523
933.880654	0.005483
934.059392	0.005377
934.238111	0.005236
934.416813	0.005386
934.595496	0.004755
934.774161	0.004747
934.952808	0.004832
935.131437	0.004613
935.310047	0.004495
935.488639	0.004030
935.667213	0.003507
935.845769	0.002691
936.024306	0.002880
936.202825	0.003121
936.381326	0.002067
936.559809	0.001378
936.738274	0.001257
936.916720	0.000809
937.095148	0.000675
937.273558	0.001087
937.451950	0.001319
937.630323	0.000119
937.808678	-0.000378
937.987015	0.000337
938.165334	-0.000423
938.343635	-0.000488
938.521917	-0.000624
938.700181	-0.001058
938.878427	-0.002238
939.056655	-0.002408
939.234864	-0.002241
939.413055	-0.002568
939.591228	-0.003883
939.769383	-0.003574
939.947519	-0.004287
940.125638	-0.004883
940.303738	-0.004877
940.481820	-0.004675
940.659883	-0.005318
940.837929	-0.005704
941.015956	-0.005963
941.193965	-0.005823
941.371955	-0.006501
941.549928	-0.006236
941.727882	-0.006144
941.905818	-0.005488
942.083736	-0.006156
942.261636	-0.005832
942.439517	-0.006224
942.617380	-0.006476
942.795225	-0.006464
942.973052	-0.005520
943.150860	-0.006359
943.328651	-0.006454
943.506423	-0.007685
943.684176	-0.007926
943.861912	-0.008399
944.039629	-0.007840
944.217328	-0.007935
944.395009	-0.008138
944.572672	-0.009021
944.750317	-0.009711
944.927943	-0.009299
945.105551	-0.009757
945.283141	-0.009862
945.460712	-0.010294
945.638265	-0.010100
945.815801	-0.010193
945.993317	-0.011005
946.170816	-0.010958
946.348297	-0.009165
946.525759	-0.009377
946.703203	-0.009427
946.880629	-0.009257
947.058036	-0.009181
947.235425	-0.010469
947.412797	-0.010765
947.590149	-0.010809
947.767484	-0.011397
947.944800	-0.012479
948.122099	-0.013824
948.299379	-0.014665
948.476640	-0.014034
948.653884	-0.014500
948.831109	-0.014106
949.008316	-0.014123
949.185505	-0.013065
949.362676	-0.011796
949.539828	-0.011073
949.716962	-0.010927
949.894078	-0.010124
950.071176	-0.010061
950.248256	-0.009894
950.425317	-0.009478
950.602360	-0.008612
950.779385	-0.009096
950.956391	-0.010105
951.133380	-0.009644
951.310350	-0.007969
951.487302	-0.007955
951.664235	-0.009886
951.841151	-0.009624
952.018048	-0.010271
952.194927	-0.010773
952.371788	-0.011114
952.548631	-0.010625
952.725455	-0.012312
952.902261	-0.012599
953.079049	-0.012887
953.255819	-0.011473
953.432570	-0.012504
953.609303	-0.012468
953.786018	-0.012226
953.962715	-0.013091
954.139394	-0.012928
954.316054	-0.012188
954.492696	-0.012502
954.669320	-0.013651
954.845926	-0.013843
955.022513	-0.013686
955.199083	-0.013920
955.375634	-0.014796
955.552166	-0.014546
955.728681	-0.015045
955.905177	-0.015559
956.081655	-0.015856
956.258115	-0.014459
956.434557	-0.013226
956.610980	-0.012938
956.787385	-0.013392
956.963772	-0.013616
957.140141	-0.012206
957.316492	-0.011377
957.492824	-0.011096
957.669138	-0.011703
957.845434	-0.010632
958.021712	-0.011515
958.197971	-0.009855
958.374212	-0.009169
958.550435	-0.007357
958.726640	-0.007107
958.902826	-0.007437
959.078995	-0.006102
959.255145	-0.004214
959.431277	-0.004773
959.607390	-0.004389
959.783486	-0.003982
959.959563	-0.003066
960.135622	-0.004156
960.311662	-0.005184
960.487685	-0.005204
960.663689	-0.006546
960.839675	-0.008073
961.015643	-0.008181
961.191593	-0.007236
961.367524	-0.008824
961.543437	-0.008165
961.719332	-0.007310
961.895209	-0.006445
962.071067	-0.005581
962.246907	-0.005453
962.422730	-0.003139
962.598533	-0.002825
962.774319	-0.002927
962.950086	-0.001990
963.125835	-0.002374
963.301566	-0.001968
963.477279	-0.002745
963.652973	-0.002413
963.828650	-0.000779
964.004308	-0.003201
964.179947	-0.003087
964.355569	-0.003809
964.531172	-0.003434
964.706757	-0.002905
964.882324	-0.004104
965.057873	-0.003910
965.233403	-0.004491
965.408916	-0.002564
965.584410	-0.001389
965.759885	-0.001663
965.935343	-0.001400
966.110782	-0.001990
966.286203	-0.002556
966.461606	-0.001942
966.636991	0.001329
966.812357	0.001391
966.987705	-0.001381
967.163035	-0.002238
967.338347	-0.001762
967.513641	-0.001415
967.688916	-0.001118
967.864173	-0.000102
968.039412	0.000720
968.214632	-0.001178
968.389835	-0.001496
968.565019	-0.000630
968.740185	0.000593
968.915333	0.000408
969.090462	0.001345
969.265573	0.000124
969.440667	-0.000465
969.615741	-0.000415
969.790798	-0.000636
969.965836	-0.000102
970.140856	0.000640
970.315858	0.000753
970.490842	0.002675
970.665808	0.002169
970.840755	0.004463
971.015684	0.005837
971.190595	0.004583
971.365487	0.004864
971.540362	0.004831
971.715218	0.003251
971.890056	0.002774
972.064875	0.003635
972.239677	0.002535
972.414460	0.003352
972.589225	0.002980
972.763972	0.002719
972.938700	0.003844
973.113411	0.005044
973.288103	0.005808
973.462777	0.004582
973.637432	0.002067
973.812070	0.003040
973.986689	0.002381
974.161290	0.002862
974.335873	0.006596
974.510437	0.006732
974.684984	0.008020
974.859512	0.008873
975.034022	0.010223
975.208513	0.012410
975.382987	0.013027
975.557442	0.012238
975.731879	0.011301
975.906298	0.007605
976.080698	0.006643
976.255080	0.005695
976.429445	0.004166
976.603790	0.004382
976.778118	0.003263
976.952427	0.001913
977.126719	0.001647
977.300992	0.001690
977.475246	0.001154
977.649483	0.000216
977.823701	-0.000113
977.997901	0.000388
978.172083	0.000328
978.346247	-0.000934
978.520392	-0.001728
978.694519	-0.000081
978.868628	0.000210
979.042719	0.002917
979.216791	0.002321
979.390845	0.001876
979.564882	0.001624
979.738899	0.003004
979.912899	0.003694
980.086880	0.004805
980.260843	0.006071
980.434788	0.003758
980.608715	0.003235
980.782623	0.003119
980.956514	0.004551
981.130386	0.005785
981.304240	0.004106
981.478075	0.004308
981.651892	0.004904
981.825692	0.001879
981.999472	0.004200
982.173235	0.003283
982.346980	0.004995
982.520706	0.002709
982.694414	0.001359
982.868104	0.002973
983.041775	0.004102
983.215428	0.003511
983.389064	0.004219
983.562680	0.004353
983.736279	0.004214
983.909860	0.004705
984.083422	0.006373
984.256966	0.006157
984.430491	0.006617
984.603999	0.005536
984.777488	0.006606
984.950959	0.007289
985.124412	0.006861
985.297847	0.007373
985.471263	0.006818
985.644661	0.004358
985.818041	0.006915
985.991403	0.005370
986.164747	0.006314
986.338072	0.005493
986.511379	0.006824
986.684668	0.006955
986.857938	0.007163
987.031191	0.005141
987.204425	0.005632
987.377641	0.002977
987.550839	0.002273
987.724018	0.001812
987.897179	0.001516
988.070322	0.000356
988.243447	0.000973
988.416554	-0.000364
988.589642	0.001431
988.762712	0.002295
988.935764	0.003555
989.108798	0.003098
989.281813	0.003235
989.454811	0.003616
989.627790	0.003102
989.800751	0.002406
989.973693	0.003180
990.146617	0.004893
990.319524	0.005390
990.492412	0.004023
990.665281	0.006519
990.838133	0.008051
991.010966	0.008202
991.183781	0.009211
991.356578	0.009509
991.529356	0.007984
991.702117	0.008669
991.874859	0.008603
992.047583	0.009883
992.220288	0.008455
992.392976	0.006899
992.565645	0.007484
992.738296	0.006461
992.910929	0.006239
993.083543	0.009309
993.256139	0.005949
993.428718	0.006999
993.601277	0.006677
993.773819	0.007736
993.946342	0.007981
994.118848	0.007830
994.291335	0.008530
994.463803	0.009254
994.636254	0.008087
994.808686	0.009165
994.981100	0.007652
995.153496	0.009627
995.325874	0.009761
995.498233	0.009727
995.670574	0.008279
995.842897	0.006629
996.015202	0.003839
996.187488	0.003108
996.359757	0.003244
996.532007	0.002543
996.704239	0.000598
996.876452	0.000422
997.048648	-0.002569
997.220825	-0.001527
997.392984	-0.001624
997.565124	0.000229
997.737247	0.001129
997.909351	0.001473
998.081437	0.001433
998.253505	0.001950
998.425554	0.001528
998.597586	0.004113
998.769599	0.003916
998.941594	0.005432
999.113571	0.006478
999.285529	0.006065
999.457469	0.006021
999.629391	0.006907
999.801295	0.006929
999.973181	0.007151
1000.145048	0.006745
1000.316897	0.006969
1000.488728	0.006418
1000.660541	0.004355
1000.832335	0.004969
1001.004111	0.004142
1001.175869	0.004227
1001.347609	0.003972
1001.519331	0.003689
1001.691034	0.004886
1001.862719	0.005328
1002.034386	0.005785
1002.206035	0.009112
1002.377665	0.008895
1002.549277	0.008808
1002.720871	0.009082
1002.892447	0.009747
1003.064004	0.009310
1003.235544	0.008956
1003.407065	0.007269
1003.578568	0.005376
1003.750052	0.002368
1003.921519	0.002671
1004.092967	0.003541
1004.264397	0.003096
1004.435809	0.002048
1004.607202	0.002897
1004.778577	0.003147
1004.949934	0.003473
1005.121273	0.004481
1005.292594	0.005537
1005.463896	0.004935
1005.635180	0.004771
1005.806446	0.004931
1005.977694	0.004901
1006.148923	0.003739
1006.320135	0.003297
1006.491328	0.003613
1006.662503	0.004583
1006.833659	0.004541
1007.004798	0.003685
1007.175918	0.004017
1007.347020	0.004217
1007.518103	0.003743
1007.689169	0.004711
1007.860216	0.004782
1008.031245	0.005276
1008.202256	0.004293
1008.373248	0.001634
1008.544223	0.002191
1008.715179	0.000648
1008.886117	-0.000039
1009.057036	0.000381
1009.227938	0.000265
1009.398821	0.000123
1009.569686	0.000067
1009.740533	0.000630
1009.911361	0.003328
1010.082172	0.003862
1010.252964	0.004390
1010.423738	0.005267
1010.594493	0.005173
1010.765231	0.003842
1010.935950	0.002995
1011.106651	0.002235
1011.277334	0.002425
1011.447998	0.002239
1011.618645	0.001178
1011.789273	0.002383
1011.959882	0.002487
1012.130474	0.003581
1012.301048	0.004530
1012.471603	0.004986
1012.642140	0.005893
1012.812658	0.005407
1012.983159	0.005926
1013.153641	0.006544
1013.324105	0.006301
1013.494551	0.005146
1013.664979	0.004113
1013.835388	0.004999
1014.005779	0.006437
1014.176152	0.005709
1014.346507	0.005917
1014.516843	0.004854
1014.687162	0.005317
1014.857462	0.004572
1015.027744	0.005045
1015.198007	0.005128
1015.368252	0.004223
1015.538480	0.002891
1015.708689	0.002308
1015.878879	0.002796
1016.049052	0.001995
1016.219206	0.002354
1016.389342	0.002619
1016.559460	0.002891
1016.729559	0.003481
1016.899641	0.003100
1017.069704	0.002629
1017.239749	0.003071
1017.409775	0.001901
1017.579784	0.002886
1017.749774	0.002566
1017.919746	0.001373
1018.089700	0.002675
1018.259635	0.003670
1018.429553	0.003462
1018.599452	0.003844
1018.769333	0.002770
1018.939195	0.002233
1019.109040	0.001924
1019.278866	0.001254
1019.448674	0.001156
1019.618464	-0.001061
1019.788235	-0.002856
1019.957989	-0.003058
1020.127724	-0.003304
1020.297441	-0.002231
1020.467139	-0.000962
1020.636820	0.000092
1020.806482	0.000507
1020.976126	0.000975
1021.145752	0.001569
1021.315359	0.001709
1021.484948	0.002109
1021.654519	0.003779
1021.824072	0.004358
1021.993607	0.003413
1022.163123	0.002118
1022.332621	0.001715
1022.502101	0.001553
1022.671563	0.001353
1022.841007	0.001504
1023.010432	0.001236
1023.179839	0.000811
1023.349228	0.001659
1023.518598	0.002869
1023.687951	0.002344
1023.857285	0.002556
1024.026601	0.003324
1024.195899	0.004315
1024.365178	0.004199
1024.534439	0.005228
1024.703682	0.003771
1024.872907	0.002504
1025.042114	0.002006
1025.211302	0.001513
1025.380472	0.001302
1025.549624	0.001545
1025.718758	0.000227
1025.887873	-0.000767
1026.056970	-0.002203
1026.226049	-0.002674
1026.395110	-0.003352
1026.564153	-0.002500
1026.733177	-0.001294
1026.902183	-0.001289
1027.071171	-0.001261
1027.240141	-0.000449
1027.409092	-0.000652
1027.578026	0.000562
1027.746940	0.003053
1027.915837	0.004060
1028.084716	0.003710
1028.253576	0.003654
1028.422418	0.003034
1028.591242	0.002322
1028.760048	0.001972
1028.928835	0.002494
1029.097604	0.001790
1029.266355	-0.000118
1029.435088	-0.001261
1029.603803	-0.002477
1029.772499	-0.002802
1029.941177	-0.002255
1030.109837	-0.002157
1030.278478	-0.002637
1030.447102	-0.001158
1030.615707	-0.001692
1030.784294	-0.000152
1030.952863	0.000364
1031.121413	0.001166
1031.289945	0.001818
1031.458460	0.000382
1031.626955	0.001587
1031.795433	0.000430
1031.963892	-0.000945
1032.132334	0.000069
1032.300756	-0.002890
1032.469161	-0.002396
1032.637548	-0.002439
1032.805916	-0.003009
1032.974266	-0.000283
1033.142598	-0.001192
1033.310911	-0.000271
1033.479207	-0.000670
1033.647484	-0.000608
1033.815743	0.000530
1033.983983	0.000070
1034.152206	-0.001150
1034.320410	-0.000722
1034.488596	-0.001592
1034.656764	-0.002489
1034.824914	-0.003512
1034.993045	-0.002591
1035.161158	-0.003356
1035.329253	-0.003735
1035.497330	-0.003894
1035.665388	-0.003698
1035.833428	-0.004214
1036.001450	-0.004805
1036.169454	-0.005354
1036.337440	-0.003163
1036.505407	-0.003860
1036.673356	-0.004822
1036.841287	-0.004499
1037.009200	-0.004251
1037.177094	-0.003326
1037.344970	-0.002528
1037.512828	-0.002579
1037.680668	-0.001244
1037.848489	-0.002249
1038.016293	-0.000597
1038.184078	0.000923
1038.351845	0.000758
1038.519593	0.001342
1038.687324	0.001032
1038.855036	0.000783
1039.022730	0.001758
1039.190406	0.002475
1039.358063	0.001814
1039.525702	0.000120
1039.693323	-0.000158
1039.860926	0.000326
1040.028511	-0.000201
1040.196077	-0.000256
1040.363625	-0.000226
1040.531155	-0.001616
1040.698667	-0.002931
1040.866161	-0.003405
1041.033636	-0.004533
1041.201093	-0.004249
1041.368532	-0.004166
1041.535952	-0.005096
1041.703355	-0.005225
1041.870739	-0.005097
1042.038105	-0.005043
1042.205452	-0.004703
1042.372782	-0.003428
1042.540093	-0.000557
1042.707386	-0.000263
1042.874661	-0.001024
1043.041918	0.000346
1043.209156	0.000443
1043.376376	0.000155
1043.543578	0.000286
1043.710762	-0.000265
1043.877927	-0.000531
1044.045074	-0.002522
1044.212203	-0.002897
1044.379314	-0.001513
1044.546407	-0.001536
1044.713481	-0.001257
1044.880537	-0.002090
1045.047575	-0.001074
1045.214595	-0.000110
1045.381596	0.000762
1045.548579	0.002738
1045.715544	0.001438
1045.882491	0.000993
1046.049420	0.000247
1046.216330	-0.000743
1046.383222	0.001068
1046.550096	0.000090
1046.716951	-0.000432
1046.883789	0.000353
1047.050608	-0.000139
1047.217409	0.000737
1047.384192	0.000516
1047.550956	0.000169
1047.717703	0.001093
1047.884431	-0.000529
1048.051140	-0.000873
1048.217832	-0.001553
1048.384505	-0.002915
1048.551161	-0.003099
1048.717798	-0.003266
1048.884416	-0.003809
1049.051017	-0.003543
1049.217599	-0.003292
1049.384163	-0.002170
1049.550709	-0.002212
1049.717237	-0.001921
1049.883746	-0.000708
1050.050237	-0.001839
1050.216710	0.000130
1050.383165	0.001040
1050.549601	0.000928
1050.716019	0.001084
1050.882420	-0.000187
1051.048801	-0.000846
1051.215165	-0.000222
1051.381510	-0.001536
1051.547837	-0.002756
1051.714146	-0.003988
1051.880437	-0.004577
1052.046709	-0.004375
1052.212964	-0.005236
1052.379200	-0.004915
1052.545417	-0.003752
1052.711617	-0.005676
1052.877798	-0.005438
1053.043961	-0.003837
1053.210106	-0.005315
1053.376233	-0.005563
1053.542341	-0.005414
1053.708432	-0.005489
1053.874504	-0.004842
1054.040557	-0.004508
1054.206593	-0.002538
1054.372610	-0.001484
1054.538609	-0.000117
1054.704590	-0.000242
1054.870553	0.000097
1055.036497	-0.000118
1055.202424	0.000725
1055.368331	-0.000688
1055.534221	-0.000331
1055.700093	0.000379
1055.865946	-0.000322
1056.031781	-0.002456
1056.197598	0.000138
1056.363397	0.002060
1056.529177	0.002536
1056.694939	0.000494
1056.860683	0.000530
1057.026409	-0.000297
1057.192116	-0.000478
1057.357806	-0.001723
1057.523477	-0.000904
1057.689130	-0.002051
1057.854764	-0.002885
1058.020381	-0.002550
1058.185979	-0.001919
1058.351559	-0.000759
1058.517120	-0.001035
1058.682664	-0.001559
1058.848189	-0.001311
1059.013696	-0.001960
1059.179185	-0.000359
1059.344656	-0.002354
1059.510108	-0.002651
1059.675542	-0.001984
1059.840958	-0.001796
1060.006356	-0.002475
1060.171735	-0.002435
1060.337096	-0.002099
1060.502439	-0.000875
1060.667764	-0.001957
1060.833071	-0.000663
1060.998359	-0.001918
1061.163629	-0.000848
1061.328881	-0.000227
1061.494115	0.000144
1061.659330	-0.000761
1061.824527	-0.000649
1061.989706	-0.000168
1062.154867	-0.002252
1062.320010	-0.003274
1062.485134	-0.001989
1062.650240	-0.002678
1062.815328	-0.003032
1062.980398	-0.002085
1063.145449	-0.000961
1063.310482	-0.001323
1063.475497	-0.002110
1063.640494	-0.002461
1063.805473	-0.002096
1063.970433	-0.002774
1064.135375	-0.002602
1064.300299	-0.002206
1064.465204	-0.001988
1064.630092	-0.001994
1064.794961	0.000263
1064.959812	0.000054
1065.124645	0.002209
1065.289459	0.003770
1065.454256	0.005279
1065.619034	0.006905
1065.783793	0.006396
1065.948535	0.006473
1066.113258	0.005093
1066.277964	0.002819
1066.442651	0.003254
1066.607319	0.001255
1066.771970	-0.000974
1066.936602	-0.002114
1067.101216	-0.004851
1067.265812	-0.006209
1067.430389	-0.006024
1067.594949	-0.005490
1067.759490	-0.005266
1067.924013	-0.006011
1068.088518	-0.005023
1068.253004	-0.003793
1068.417472	-0.004123
1068.581922	-0.004875
1068.746354	-0.005100
1068.910768	-0.005230
1069.075163	-0.004420
1069.239540	-0.003425
1069.403899	-0.001702
1069.568240	-0.003411
1069.732562	-0.002700
1069.896866	-0.001650
1070.061152	-0.000202
1070.225420	-0.000533
1070.389670	-0.000094
1070.553901	-0.000545
1070.718114	-0.000496
1070.882309	-0.000836
1071.046486	0.000808
1071.210644	-0.000524
1071.374784	-0.001882
1071.538906	-0.000990
1071.703010	0.001014
1071.867096	0.000738
1072.031163	0.000434
1072.195212	0.000567
1072.359243	-0.001955
1072.523256	-0.000828
1072.687250	0.000519
1072.851226	0.000701
1073.015184	-0.000189
1073.179124	-0.001216
1073.343045	-0.003028
1073.506949	-0.001588
1073.670834	-0.001435
1073.834701	0.001334
1073.998549	0.000591
1074.162380	0.000593
1074.326192	0.001097
1074.489986	-0.000242
1074.653761	0.001978
1074.817519	0.003530
1074.981258	0.001946
1075.144979	0.001098
1075.308682	0.000623
1075.472367	-0.001036
1075.636033	-0.002170
1075.799681	-0.000744
1075.963311	-0.000826
1076.126923	-0.002190
1076.290516	-0.002773
1076.454092	-0.002941
1076.617649	-0.004045
1076.781187	-0.002989
1076.944708	-0.001480
1077.108210	-0.000334
1077.271695	-0.000304
1077.435160	0.000577
1077.598608	0.000231
1077.762038	0.001048
1077.925449	-0.000786
1078.088842	-0.000582
1078.252217	-0.001919
1078.415573	-0.001909
1078.578912	-0.002337
1078.742232	-0.001498
1078.905534	-0.000363
1079.068817	-0.001686
1079.232083	-0.001504
1079.395330	0.000315
1079.558559	0.001326
1079.721770	0.000603
1079.884962	0.001319
1080.048136	0.001010
1080.211293	-0.000072
1080.374430	-0.000376
1080.537550	0.001332
1080.700651	0.001279
1080.863735	0.000820
1081.026800	-0.000208
1081.189846	-0.000191
1081.352875	-0.001663
1081.515885	-0.002870
1081.678877	-0.004161
1081.841851	-0.004781
1082.004807	-0.006073
1082.167744	-0.007820
1082.330663	-0.006552
1082.493564	-0.006167
1082.656447	-0.006998
1082.819312	-0.006356
1082.982158	-0.004904
1083.144986	-0.004238
1083.307796	-0.003595
1083.470587	-0.000772
1083.633361	0.001408
1083.796116	0.002545
1083.958853	0.003648
1084.121571	0.003964
1084.284272	0.003135
1084.446954	0.003296
1084.609618	0.003526
1084.772264	0.003257
1084.934892	0.002005
1085.097501	-0.001198
1085.260092	-0.001429
1085.422665	-0.003558
1085.585220	-0.004564
1085.747756	-0.003285
1085.910274	-0.004131
1086.072774	-0.003866
1086.235256	-0.002966
1086.397720	-0.004731
1086.560165	-0.001311
1086.722592	-0.002994
1086.885001	-0.002146
1087.047392	-0.000301
1087.209764	-0.000224
1087.372119	-0.000362
1087.534455	-0.001388
1087.696772	-0.001832
1087.859072	-0.000876
1088.021353	-0.003182
1088.183616	-0.004094
1088.345861	-0.002988
1088.508088	-0.002351
1088.670296	-0.002462
1088.832486	-0.000150
1088.994658	-0.000264
1089.156812	0.000146
1089.318948	0.000779
1089.481065	0.002207
1089.643164	0.003795
1089.805245	0.003516
1089.967308	0.004042
1090.129352	0.004451
1090.291378	0.004092
1090.453386	0.005720
1090.615376	0.003686
1090.777347	0.002914
1090.939301	0.003529
1091.101236	0.005190
1091.263153	0.004755
1091.425051	0.003496
1091.586932	0.004834
1091.748794	0.003844
1091.910638	-0.000036
1092.072463	0.001389
1092.234271	0.004513
1092.396060	0.004663
1092.557831	0.002105
1092.719584	0.002430
1092.881319	0.004360
1093.043035	0.002676
1093.204733	0.000334
1093.366413	0.002066
1093.528075	0.000279
1093.689718	-0.000406
1093.851343	-0.001355
1094.012950	-0.000242
1094.174539	-0.000574
1094.336110	-0.004133
1094.497662	-0.004597
1094.659196	-0.000692
1094.820712	0.000093
1094.982210	0.002067
1095.143689	-0.002756
1095.305151	-0.004617
1095.466594	-0.004025
1095.628018	-0.003220
1095.789425	-0.002112
1095.950813	-0.000875
1096.112183	-0.001280
1096.273535	-0.000019
1096.434869	-0.000274
1096.596184	0.001086
1096.757482	0.004953
1096.918761	0.002225
1097.080021	0.000652
1097.241264	0.001883
1097.402488	-0.000006
1097.563694	-0.001856
1097.724882	-0.003202
1097.886052	-0.002674
1098.047203	-0.000499
1098.208336	-0.001116
1098.369451	0.002015
1098.530548	0.001927
1098.691627	0.001501
1098.852687	0.003885
1099.013729	0.002143
1099.174753	0.001422
1099.335758	-0.001158
1099.496746	-0.001384
1099.657715	-0.001195
1099.818666	-0.005101
1099.979599	-0.005607
1100.140513	-0.003034
1100.301409	-0.003836
1100.462287	-0.005601
1100.623147	-0.002620
1100.783989	0.001643
1100.944812	-0.001258
1101.105617	-0.001716
1101.266404	0.001118
1101.427173	0.001296
1101.587923	0.000397
1101.748656	-0.001422
1101.909370	0.002386
1102.070066	0.000736
1102.230743	-0.004324
1102.391403	0.000610
1102.552044	0.000381
1102.712667	0.002791
1102.873271	0.004236
1103.033858	0.001623
1103.194426	0.002539
1103.354976	0.003140
1103.515508	0.002094
1103.676021	0.004787
1103.836517	0.000929
1103.996994	0.001240
1104.157453	-0.002196
1104.317893	-0.002505
1104.478316	-0.002821
1104.638720	-0.004849
1104.799106	-0.006951
1104.959474	-0.006168
1105.119823	-0.006670
1105.280155	-0.004546
1105.440468	-0.007568
1105.600763	-0.006621
1105.761039	-0.006905
1105.921298	-0.006545
1106.081538	-0.004297
1106.241760	-0.002169
1106.401964	-0.004839
1106.562149	-0.002883
1106.722316	-0.001486
1106.882465	0.000881
1107.042596	-0.001297
1107.202709	-0.002430
1107.362803	-0.002009
1107.522879	-0.000545
1107.682937	-0.002436
1107.842977	0.000776
1108.002999	0.001073
1108.163002	0.001086
1108.322987	0.000760
1108.482954	0.003773
1108.642902	0.008061
1108.802833	0.008297
1108.962745	0.009472
1109.122639	0.010754
1109.282515	0.010095
1109.442372	0.005988
1109.602211	0.002084
1109.762032	0.003513
1109.921835	0.002321
1110.081620	-0.003718
1110.241386	-0.004411
1110.401134	-0.004541
1110.560864	-0.006489
1110.720576	-0.006792
1110.880269	-0.004486
1111.039945	-0.001244
1111.199602	-0.003547
1111.359240	-0.003299
1111.518861	-0.002572
1111.678463	-0.003036
1111.838047	-0.005836
1111.997613	-0.002729
1112.157161	-0.002663
1112.316690	-0.003621
1112.476202	-0.005863
1112.635695	-0.002746
1112.795169	-0.001214
1112.954626	0.003639
1113.114064	0.005491
1113.273484	0.006338
1113.432886	0.005054
1113.592270	0.003858
1113.751635	0.003024
1113.910983	0.002377
1114.070312	-0.000140
1114.229622	-0.001527
1114.388915	-0.004570
1114.548189	-0.003087
1114.707445	-0.003187
1114.866683	-0.003508
1115.025903	-0.001957
1115.185104	0.000442
1115.344287	-0.000858
1115.503452	-0.002394
1115.662599	-0.004527
1115.821727	-0.002736
1115.980838	-0.001683
1116.139930	-0.003784
1116.299004	-0.002826
1116.458059	-0.002538
1116.617097	-0.002849
1116.776116	-0.002172
1116.935117	0.000071
1117.094099	0.003000
1117.253064	0.000296
1117.412010	-0.004350
1117.570938	0.000355
1117.729848	0.000009
1117.888740	-0.001165
1118.047613	-0.002479
1118.206468	-0.001046
1118.365305	-0.000707
1118.524124	-0.002902
1118.682924	-0.000132
1118.841707	0.000252
1119.000471	-0.002433
1119.159216	-0.001504
1119.317944	0.002043
1119.476653	0.000488
1119.635344	0.001868
1119.794017	0.002977
1119.952672	0.002723
1120.111308	0.004532
1120.269927	0.005331
1120.428527	0.004537
1120.587108	0.006108
1120.745672	0.002092
1120.904217	0.006567
1121.062744	0.006683
1121.221253	0.004702
1121.379744	0.005551
1121.538216	0.000199
1121.696671	-0.000682
1121.855107	-0.003650
1122.013524	-0.006124
1122.171924	-0.005960
1122.330305	-0.009149
1122.488668	-0.011245
1122.647013	-0.006310
1122.805340	-0.006214
1122.963648	-0.003776
1123.121938	-0.001446
1123.280210	0.002903
1123.438464	0.003055
1123.596700	0.002250
1123.754917	0.006153
1123.913116	0.005933
1124.071297	0.000659
1124.229459	0.001348
1124.387604	0.002384
1124.545730	0.000881
1124.703838	0.000415
1124.861928	0.002847
1125.019999	0.008031
1125.178052	0.005886
1125.336088	0.007998
1125.494104	0.007244
1125.652103	0.006384
1125.810083	0.005297
1125.968045	0.009321
1126.125989	0.006542
1126.283915	0.005166
1126.441823	0.002687
1126.599712	0.004404
1126.757583	0.004150
1126.915436	0.007201
1127.073270	0.009694
1127.231087	0.011507
1127.388885	0.009175
1127.546665	0.011417
1127.704426	0.008384
1127.862170	0.010130
1128.019895	0.006971
1128.177602	0.009662
1128.335291	0.004505
1128.492961	0.005980
1128.650614	0.009378
1128.808248	0.008936
1128.965864	0.010520
1129.123461	0.015437
1129.281041	0.008234
1129.438602	0.008381
1129.596145	0.002884
1129.753670	0.006437
1129.911176	0.006576
1130.068665	0.004655
1130.226135	0.005897
1130.383587	0.007306
1130.541020	0.004947
1130.698436	0.002887
1130.855833	0.004414
1131.013212	0.003589
1131.170573	0.001571
1131.327915	-0.003918
1131.485239	-0.009917
1131.642545	-0.010579
1131.799833	-0.010764
1131.957103	-0.008680
1132.114354	-0.002593
1132.271588	-0.002000
1132.428803	0.001668
1132.585999	-0.000834
1132.743178	0.000962
1132.900338	0.002371
1133.057480	-0.001182
1133.214604	-0.001162
1133.371710	-0.006096
1133.528797	-0.011449
1133.685866	-0.013922
1133.842917	-0.011257
1133.999950	-0.008570
1134.156964	-0.007864
1134.313960	-0.008230
1134.470938	-0.008227
1134.627898	-0.013438
1134.784840	-0.013166
1134.941763	-0.008134
1135.098668	-0.006179
1135.255555	-0.012010
1135.412424	-0.013990
1135.569274	-0.012098
1135.726107	-0.010096
1135.882921	-0.010811
1136.039716	-0.010363
1136.196494	-0.005619
1136.353253	0.000505
1136.509995	0.003048
1136.666717	0.007289
1136.823422	0.013383
1136.980109	0.006329
1137.136777	0.006385
1137.293427	0.006357
1137.450059	0.007974
1137.606672	0.005001
1137.763267	0.001794
1137.919844	0.002028
1138.076403	-0.000044
1138.232944	0.000282
1138.389466	0.004695
1138.545971	0.001434
1138.702457	0.003029
1138.858924	0.004525
1139.015374	0.002638
1139.171805	0.002886
1139.328218	-0.005257
1139.484613	-0.006817
1139.640990	-0.011737
1139.797348	-0.013395
1139.953688	-0.011499
1140.110010	-0.014354
1140.266314	-0.014398
1140.422600	-0.010305
1140.578867	-0.014074
1140.735116	-0.007245
1140.891347	-0.007226
1141.047559	-0.001573
1141.203754	0.005716
1141.359930	0.003989
1141.516088	0.004073
1141.672228	0.001044
1141.828349	-0.001752
1141.984452	-0.000998
1142.140537	-0.001710
1142.296604	0.001032
1142.452653	-0.004042
1142.608683	-0.008002
1142.764695	-0.007258
1142.920689	-0.001628
1143.076665	-0.001884
1143.232622	-0.003247
1143.388562	-0.006195
1143.544483	-0.012984
1143.700385	-0.008908
1143.856270	-0.006352
1144.012136	-0.012815
1144.167985	-0.012725
1144.323814	-0.018398
1144.479626	-0.012700
1144.635420	-0.010994
1144.791195	-0.008668
1144.946952	-0.003731
1145.102691	-0.009516
1145.258411	-0.006928
1145.414113	-0.001288
1145.569798	-0.000221
1145.725463	0.000004
1145.881111	0.002239
1146.036741	-0.000627
1146.192352	-0.002573
1146.347945	0.000781
1146.503519	0.002504
1146.659076	-0.002358
1146.814614	-0.001337
1146.970134	-0.002843
1147.125636	0.005792
1147.281120	-0.001798
1147.436585	0.002783
1147.592032	0.005258
1147.747461	-0.001369
1147.902872	-0.000286
1148.058265	0.002018
1148.213639	0.001369
1148.368995	0.006422
1148.524333	0.004935
1148.679653	0.004441
1148.834954	0.005022
1148.990237	0.007809
1149.145502	0.014997
1149.300749	0.010665
1149.455977	0.009534
1149.611188	0.011656
1149.766380	0.011291
1149.921553	0.008550
1150.076709	0.011051
1150.231846	0.011023
1150.386966	0.009321
1150.542066	0.006291
1150.697149	0.004585
1150.852214	0.004465
1151.007260	0.001514
1151.162288	-0.002739
1151.317298	-0.005380
1151.472289	-0.006800
1151.627263	-0.009359
1151.782218	-0.005125
1151.937155	-0.006258
1152.092073	-0.002147
1152.246974	-0.007552
1152.401856	-0.005599
1152.556720	-0.007107
1152.711566	-0.003457
1152.866393	-0.000911
1153.021203	-0.001757
1153.175994	-0.009283
1153.330767	-0.006278
1153.485521	-0.009753
1153.640258	-0.006461
1153.794976	-0.009869
1153.949676	0.006963
1154.104358	0.008953
1154.259021	0.010611
1154.413667	0.012087
1154.568294	0.016416
1154.722903	0.011994
1154.877493	0.020028
1155.032066	0.018330
1155.186620	0.017758
1155.341156	-0.002713
1155.495674	-0.007582
1155.650173	-0.012549
1155.804654	-0.014980
1155.959118	-0.011415
1156.113562	-0.014184
1156.267989	-0.012346
1156.422397	-0.004316
1156.576788	-0.001873
1156.731160	0.011662
1156.885513	0.013692
1157.039849	0.009533
1157.194166	0.009972
1157.348465	0.000312
1157.502746	0.003480
1157.657009	-0.001762
1157.811253	-0.005859
1157.965479	-0.005146
1158.119687	-0.015597
1158.273877	-0.010553
1158.428048	-0.001634
1158.582201	-0.001306
1158.736337	0.004814
1158.890453	0.008434
1159.044552	0.001802
1159.198632	-0.004793
1159.352694	-0.014880
1159.506738	-0.007183
1159.660764	-0.011203
1159.814771	-0.021086
1159.968761	-0.019496
1160.122732	-0.025090
1160.276685	-0.021835
1160.430619	-0.013910
1160.584535	-0.008139
1160.738434	0.004190
1160.892313	0.000969
1161.046175	-0.005156
1161.200019	0.002305
1161.353844	0.004539
1161.507651	0.000066
1161.661440	-0.006723
1161.815210	-0.007386
1161.968962	-0.002312
1162.122697	-0.004696
1162.276412	-0.006958
1162.430110	-0.000609
1162.583789	0.005290
1162.737451	0.006465
1162.891094	0.016998
1163.044718	0.010368
1163.198325	0.010967
1163.351913	-0.000549
1163.505483	0.003632
1163.659035	0.002552
1163.812569	0.009810
1163.966084	-0.002487
1164.119581	-0.007812
1164.273060	-0.004132
1164.426521	0.007700
1164.579964	0.000033
1164.733388	0.004050
1164.886794	-0.001391
1165.040182	-0.003077
1165.193551	-0.003343
1165.346903	-0.000040
1165.500236	0.003839
1165.653551	0.006836
1165.806848	0.005312
1165.960126	0.008679
1166.113386	0.009925
1166.266628	0.019913
1166.419852	0.027221
1166.573058	0.015662
1166.726245	0.023788
1166.879414	0.020161
1167.032565	0.003427
1167.185698	-0.003062
1167.338812	0.000480
1167.491909	0.009601
1167.644987	-0.007186
1167.798046	-0.016746
1167.951088	-0.019678
1168.104111	-0.031052
1168.257117	-0.037838
1168.410103	-0.029449
1168.563072	-0.028015
1168.716023	-0.029011
1168.868955	-0.037175
1169.021869	-0.030416
1169.174765	-0.024203
1169.327642	-0.014581
1169.480501	-0.007343
1169.633343	-0.000791
1169.786165	-0.000387
1169.938970	-0.000163
1170.091757	-0.001347
1170.244525	-0.007748
1170.397275	-0.022471
1170.550007	-0.027284
1170.702720	-0.028428
1170.855415	-0.033908
1171.008092	-0.035194
1171.160751	-0.040342
1171.313392	-0.040588
1171.466014	-0.042000
1171.618619	-0.035805
1171.771205	-0.035805
1171.923772	-0.035805
