sample name	sample
index	668
start time	 03-22-2021  10:58:07 AM
880	0.023194
Peak Time (s)	180.042
Peak Height 	0.02319
calc peak height	180,183
Baseline Time (s)	10.536
Baseline Value 	-0.00336
subtract baseline	10,4
Abs	-0.008341
Peak Time (s)	180.042
Peak Height 	-0.008341
calc peak height	180,183
Baseline Time (s)	10.536
Baseline Value 	0.003647
subtract baseline	10,3
PK_550	0.001218
Peak Time (s)	180.042
Peak Height 	0.001218
calc peak height	180,183
Baseline Time (s)	9.036
Baseline Value 	3.013E-4
subtract baseline	10,2
PK_880	-0.007490
Peak Time (s)	180.042
Peak Height 	-0.00749
calc peak height	180,183
Baseline Time (s)	11.037
Baseline Value 	0.002061
subtract baseline	10,1


Time (s)	A880-A510	A880-A775	A880-A975	A880	I510	I775	I975	I880	
0.038500	-0.003519	-0.000084	-0.007680	0.007239	7300.165587	45420.312950	3906.036002	23933.190363
0.539000	-0.004566	-0.000019	-0.002455	0.004633	7316.297891	45682.936967	3926.479419	24060.335581
1.036500	-0.001940	-0.000498	-0.006095	0.003524	7355.187284	45745.153155	3919.831169	24114.688659
1.539500	-0.004742	0.000169	-0.003212	0.004324	7317.686911	45732.112180	3925.303219	24075.508432
2.036500	-0.002050	-0.000332	-0.002362	0.002672	7362.951525	45845.848246	3931.901223	24156.516281
2.537500	0.000871	0.000123	-0.000529	0.000193	7419.863738	46137.381877	3943.373735	24278.760675
3.035000	0.002427	0.000263	0.003033	-0.001064	7449.788412	46276.823058	3956.325238	24340.972709
3.535000	-0.003952	0.000058	-0.004305	0.003545	7333.983943	45798.038277	3924.475340	24113.659298
4.035500	-0.000129	0.000072	0.001387	0.000459	7406.454432	46105.705557	3947.789721	24265.594231
4.535500	-0.001897	0.000197	-0.001032	0.000734	7384.906665	46090.882769	3940.585931	24252.037105
5.039000	-0.001598	0.000619	-0.002022	0.000772	7387.661236	46129.111200	3937.848632	24250.154689
5.536000	-0.000982	-0.000200	0.001121	0.000013	7402.156144	46123.032384	3948.274255	24287.636536
6.036500	-0.000943	-0.001003	-0.004243	-0.000297	7405.845473	46073.944293	3934.785183	24302.976093
6.537000	-0.000711	-0.000117	0.000767	-0.000061	7405.802438	46138.749373	3947.523614	24291.333051
7.037000	-0.000136	-0.000068	0.000802	0.000036	7410.854057	46133.917918	3947.355607	24286.512604
7.537500	0.000123	0.000036	0.000762	0.000373	7410.040004	46110.806417	3946.348241	24269.875459
8.035000	-0.000241	0.000375	-0.000047	0.000750	7402.200117	46107.034014	3943.172231	24251.255699
8.535500	-0.001458	-0.000235	-0.002262	0.000098	7396.236023	46111.125481	3939.003125	24283.454848
9.035500	-0.000533	0.000000	-0.005119	0.000350	7403.335820	46109.389097	3930.752824	24270.968649
9.538500	-0.001064	0.000050	-0.001067	-0.000135	7402.853791	46162.832053	3942.812722	24294.994104
10.036000	0.000494	-0.000091	0.000441	-0.000220	7420.247098	46157.178814	3947.073112	24299.164273
10.535500	0.000924	0.000238	0.000000	0.000000	7422.478433	46168.052116	3945.303967	24288.295511
11.036500	0.000000	-0.000512	0.000361	-0.000761	7420.741627	46169.150830	3948.311522	24325.955162
11.537000	0.000950	0.000894	0.004093	0.000188	7420.750916	46214.771043	3955.805916	24279.003094
12.037500	-0.000648	0.001212	-0.002458	0.000637	7399.101022	46201.732430	3937.047348	24256.825038
12.537500	0.000308	0.000801	-0.000073	0.000589	7409.706645	46165.535258	3943.534891	24259.201830
13.034500	0.000486	0.000699	-0.002443	-0.000286	7420.857589	46242.576266	3939.542570	24302.438549
13.535000	-0.001297	0.000331	-0.001177	-0.000479	7404.025513	46225.084002	3943.437220	24311.995587
14.038000	-0.001854	-0.000184	-0.005246	0.002726	7364.434273	45855.133462	3924.152496	24153.869880
14.540000	-0.001131	0.000162	-0.001365	0.002101	7378.588016	45951.399803	3936.061309	24184.612731
15.036500	-0.003918	-0.000836	-0.000601	0.004745	7321.863308	45591.478095	3931.075960	24054.859223
15.536500	-0.000857	0.000074	0.000119	-0.000101	7404.685807	46161.806710	3945.892626	24293.301498
16.036500	0.000443	0.000163	0.000641	-0.000467	7422.329615	46207.150816	3948.274857	24311.416051
16.538500	0.001144	0.000350	0.003644	-0.000044	7425.276286	46183.571405	3955.220648	24290.470189
17.037500	-0.004506	-0.000883	-0.002478	0.003324	7330.512851	45726.919400	3929.873458	24124.504507
17.534500	-0.002150	-0.000671	-0.001757	0.002771	7360.871874	45802.491745	3933.244206	24151.669211
18.035000	-0.002209	-0.000532	-0.000466	0.001240	7376.314387	45968.081893	3940.745743	24227.066486
18.538500	-0.001864	0.000037	0.006321	0.001749	7374.586129	45974.029659	3957.611434	24201.985289
19.035500	-0.004043	-0.000120	-0.001416	0.002906	7339.694967	45843.762330	3933.790572	24145.059084
19.536000	-0.000178	-0.000089	-0.004726	0.001841	7391.354122	45952.299938	3927.852320	24197.417542
20.036500	-0.001050	0.000254	0.000543	0.002022	7380.270324	45968.365288	3941.351306	24188.514973
20.537000	-0.002586	0.000466	0.001879	0.002390	7360.294882	45952.905142	3943.937383	24170.397739
21.037000	-0.002460	0.000381	-0.002001	0.003166	7353.493364	45867.497418	3931.550045	24132.262332
21.536500	-0.000546	0.000155	0.000761	0.001809	7387.805854	45979.690973	3942.500997	24198.994583
22.041000	-0.000922	0.000945	-0.000154	0.002579	7375.754688	45981.663967	3938.007618	24161.097982
22.535000	-0.000224	0.000975	-0.001307	0.002850	7380.252686	45957.781587	3934.228903	24147.808693
23.082500	-0.001139	-0.000290	-0.001821	0.003200	7366.965863	45797.741497	3931.937354	24130.582450
23.535500	-0.001482	-0.000288	0.000068	0.001756	7378.523340	45941.009793	3940.792634	24201.598000
24.036000	0.000766	0.000215	-0.003401	0.002402	7395.390793	45926.892608	3929.869929	24169.827773
24.539000	0.001171	0.000159	-0.001235	0.002242	7401.354047	45937.187311	3936.033061	24177.691844
25.036500	-0.000737	0.000507	0.005292	0.002438	7379.181708	45952.282835	3952.971393	24168.050519
25.539500	0.000439	0.000078	0.000953	0.002080	7395.337778	45945.195303	3942.292125	24185.679571
26.036500	-0.000771	0.001168	-0.000512	0.002837	7374.637711	45978.258987	3936.372207	24148.431993
26.534500	-0.000581	-0.000143	-0.002240	0.001806	7387.480105	45950.437870	3934.522295	24199.153797
27.037500	-0.002642	-0.000213	-0.001806	0.003588	7347.185535	45767.050420	3930.950936	24111.553747
27.538500	0.000701	0.000743	0.005262	0.000323	7416.683662	46186.191828	3958.604307	24272.330912
28.036000	0.001226	0.000501	0.002360	0.000530	7420.055789	46141.428830	3950.212525	24262.091345
29.426000	-0.000622	0.000394	0.002327	0.000303	7402.898111	46153.434830	3950.735445	24273.332205
30.473000	-0.000461	0.000198	0.002875	0.000386	7403.712115	46125.569310	3951.986938	24269.187935
30.569500	0.002751	0.000689	0.002267	0.000765	7433.747266	46136.735125	3949.330475	24250.467770
30.658500	0.001142	0.001036	0.002955	0.001173	7412.351825	46130.600279	3950.083301	24230.348613
30.746000	0.000355	-0.000385	0.003653	0.000020	7416.220260	46103.884028	3955.069321	24287.283058
31.040000	-0.003444	0.000074	-0.005995	0.006113	7312.596753	45546.478761	3913.333624	23988.074662
31.537500	-0.002783	0.000187	0.003185	0.006264	7317.885829	45542.752592	3937.091002	23980.702353
32.034500	0.001804	-0.000236	-0.001588	0.000262	7429.032168	46094.690658	3940.360241	24275.334671
32.543500	0.000008	-0.000049	0.003533	0.000372	7408.830929	46102.356900	3953.800030	24269.915618
33.035500	-0.003746	0.000908	-0.000985	0.006527	7305.182175	45587.759599	3925.363398	23967.877716
33.536000	-0.002509	-0.000284	-0.001464	0.006467	7318.608724	45476.479472	3924.260977	23970.776349
34.038500	0.002420	0.001392	0.002705	0.001449	7422.971381	46138.634675	3948.671342	24216.743233
34.536500	0.000263	0.000694	0.003472	0.000976	7405.135128	46116.167600	3952.005339	24240.070134
35.039000	-0.001797	0.000756	-0.003160	0.006462	7326.065596	45579.207432	3919.826211	23971.057300
35.534000	-0.002562	0.000121	-0.001830	0.005632	7326.738589	45598.354176	3925.495187	24011.525339
36.037500	-0.002829	0.001304	0.003397	0.003840	7342.608534	45892.265467	3944.118971	24099.222523
36.540500	-0.000145	0.000033	0.003879	0.003285	7376.496260	45821.320048	3946.894364	24126.406628
37.041500	-0.002554	0.001147	-0.001336	0.005135	7331.985420	45748.599317	3928.107102	24035.801850
37.535500	-0.002445	0.000194	-0.001085	0.004785	7336.761637	45689.083679	3929.694572	24052.930783
38.035500	0.000115	-0.000043	-0.000031	0.003098	7381.200883	45832.308909	3936.955014	24135.599236
38.536000	-0.000332	0.001338	-0.000611	0.004033	7366.700787	45876.529142	3932.937750	24089.753983
39.036500	-0.002254	0.000661	-0.000052	0.003396	7353.242814	45872.557300	3936.110437	24120.987690
39.536500	-0.000544	0.000383	0.002381	0.003571	7369.317261	45827.710200	3942.123379	24112.399042
40.039500	-0.001258	0.000485	-0.004653	0.003320	7364.453394	45862.620644	3924.151446	24124.693202
40.537000	0.000119	0.000645	0.001477	0.003437	7377.676578	45866.821461	3940.069018	24118.961067
41.040000	-0.000802	0.000114	0.004402	0.003049	7372.090755	45852.745219	3948.932268	24138.025750
41.535000	-0.002267	0.000001	-0.000487	0.003533	7351.667722	45793.548114	3934.590065	24114.232273
42.038000	-0.000754	0.000955	0.002491	0.003927	7363.383207	45849.009144	3941.466949	24094.942769
42.535500	-0.002680	0.000467	0.002311	0.003636	7346.287833	45829.492946	3941.762441	24109.202135
43.039500	-0.002425	-0.000209	-0.003665	0.004246	7342.594305	45702.456791	3924.316130	24079.319465
43.538500	-0.001084	0.001532	0.007641	0.004487	7354.066008	45850.752284	3953.778168	24067.494800
44.036500	-0.002818	0.000479	0.004199	0.003592	7345.311226	45835.131921	3946.930514	24111.372568
44.536500	-0.001572	0.000720	0.003974	0.003653	7357.686610	45852.894121	3946.161609	24108.346881
45.042000	-0.001781	0.000698	0.000049	0.005194	7339.418082	45698.426941	3931.610603	24032.939800
45.546000	0.000792	0.000738	0.006171	0.001390	7406.347414	46079.357845	3958.174789	24219.650406
46.037500	0.003092	0.000735	0.002058	-0.000143	7447.065858	46232.013696	3951.212921	24295.394269
46.535000	0.001242	0.001317	0.004187	0.001293	7412.134379	46146.624118	3953.077258	24224.414486
47.040500	-0.003904	-0.000544	-0.002827	0.005639	7312.735344	45532.281375	3922.857504	24011.189191
47.536000	0.000181	0.000535	0.004011	0.001285	7401.002951	46069.633813	3952.627066	24224.834265
48.041000	0.001955	0.000692	0.003430	0.001424	7418.309298	46071.401544	3950.689536	24217.995613
48.535500	0.002023	0.000789	0.005415	0.001335	7419.964630	46089.899046	3956.278658	24222.358894
49.042000	-0.003372	0.000349	0.000800	0.005905	7315.495399	45593.922882	3931.714591	23998.187406
49.536000	-0.001734	0.001123	0.000190	0.004822	7343.780651	45777.135062	3932.967719	24051.094421
50.039500	-0.001335	0.000688	0.001061	0.001507	7382.685656	46062.732006	3944.109659	24213.894358
50.537500	0.001111	0.000021	0.005632	0.000905	7414.861379	46056.281318	3958.030520	24243.580055
51.040500	-0.004779	0.000864	-0.003412	0.006848	7291.201362	45551.815316	3918.155184	23952.233653
51.535000	-0.000498	0.000579	0.005952	0.004827	7356.640337	45722.893889	3948.318959	24050.847763
52.038000	0.001073	0.001120	0.002598	0.002984	7392.487503	45958.912180	3944.270590	24141.218448
52.536000	-0.007120	-0.002256	0.006671	0.014800	7186.349166	44476.905415	3923.742567	23568.595795
53.035500	-0.057729	-0.016905	-0.009403	0.329766	4698.426684	22337.130135	3315.030225	12860.167920
53.536000	-0.034875	-0.010865	-0.018165	0.027317	6799.162549	42500.452197	3829.689663	22978.786277
54.042000	-0.046855	-0.142340	-0.016486	-0.303069	11109.363013	65535.000000	5032.007731	45971.454095
54.539500	-0.038650	-0.185634	-0.008828	-0.346363	12153.676261	65535.000000	5312.026482	50496.167125
55.037000	-0.068990	-0.154536	-0.017588	-0.315266	10921.680611	65535.000000	5090.212565	47200.785316
55.537500	-0.047305	-0.135586	-0.009424	-0.296316	10972.888667	65535.000000	5033.605428	45305.395179
56.035000	-0.030899	-0.119414	-0.009135	-0.280144	10977.292443	65535.000000	4952.764728	43752.009000
56.535000	-0.015648	-0.120809	-0.016014	-0.281539	11296.257351	65535.000000	4925.534197	43883.744733
57.035500	-0.018486	-0.127361	-0.014361	-0.288090	11369.090103	65535.000000	4966.403542	44508.079563
57.536000	-0.016254	-0.101785	-0.012801	-0.262514	10921.388459	65535.000000	4848.915880	42123.202296
58.036000	-0.016701	-0.066447	-0.012379	-0.223506	10217.341289	65007.457819	4673.237139	38745.782850
58.536500	-0.017024	-0.048219	-0.011407	-0.196909	9772.402318	63821.169243	4564.908804	36610.935909
59.039500	-0.016340	-0.028119	-0.009297	-0.159189	9203.618642	61396.894527	4424.592482	33798.857954
59.537000	-0.014158	-0.015945	-0.016278	-0.121619	8703.628724	58071.403303	4264.493751	31230.505727
60.037000	-0.013511	-0.011857	-0.010301	-0.093402	8341.371636	55086.901864	4190.511155	29442.491219
60.534500	-0.017659	-0.011078	-0.012556	-0.081730	8143.664605	53792.955892	4146.076391	28736.183036
61.034500	-0.018342	-0.008433	-0.014572	-0.059228	7866.609032	51516.065585	4071.228046	27426.945068
61.535500	-0.025979	-0.009673	-0.019330	-0.035379	7513.300111	48784.380434	3989.078687	26111.472738
62.035000	-0.022704	-0.007487	-0.016275	-0.020222	7386.478496	47432.687691	3955.921472	25312.181152
62.536000	-0.022746	-0.005547	-0.013187	-0.000279	7180.845262	45622.238735	3911.250879	24302.085316
63.036000	-0.023007	-0.005571	-0.017678	0.006974	7105.946693	44911.631225	3881.138866	23946.123166
63.539500	-0.018985	-0.004229	-0.017560	0.009309	7122.644329	44815.511443	3875.544426	23832.751416
64.037000	-0.013093	-0.002678	-0.013435	0.000387	7272.145461	45839.801125	3908.877513	24269.150426
64.534500	-0.013163	-0.002455	-0.017466	0.001928	7255.635973	45709.571278	3894.520506	24193.144653
65.042500	-0.016311	-0.003334	-0.018855	0.002575	7216.991744	45559.192158	3889.319452	24161.288304
65.535000	-0.013267	-0.003065	-0.013599	-0.005623	7332.450947	46400.035888	3924.143407	24568.230343
66.035000	-0.014550	-0.003377	-0.016825	-0.007713	7340.851026	46578.732838	3921.161690	24673.186170
66.536000	-0.012642	-0.002982	-0.015604	-0.009012	7374.405442	46749.584889	3927.787631	24738.683370
67.036000	-0.016176	-0.004049	-0.019379	-0.005571	7301.752142	46296.353063	3908.916210	24565.631592
67.536000	-0.012728	-0.002856	-0.016666	-0.012315	7408.313079	47097.669329	3933.712370	24906.138881
68.039000	-0.012774	-0.003411	-0.016399	-0.013608	7421.513881	47172.841384	3937.855018	24972.020062
68.536500	-0.011166	-0.002718	-0.016331	-0.012831	7430.347717	47164.379415	3935.970696	24932.412601
69.037000	-0.018183	-0.003840	-0.018212	-0.007150	7297.332210	46475.497727	3916.059958	24644.855122
69.537000	-0.013357	-0.002554	-0.018497	-0.013128	7410.252460	47211.330998	3931.016005	24947.539634
70.037500	-0.011869	-0.003861	-0.020273	-0.014197	7437.395141	47187.075795	3929.148655	25002.082309
70.535000	-0.011931	-0.003341	-0.013997	-0.013739	7431.865397	47193.452452	3944.614624	24978.729333
71.035500	-0.016203	-0.004580	-0.022973	-0.009107	7338.161526	46597.962364	3908.766175	24743.507788
71.535500	-0.014814	-0.003454	-0.014888	-0.011699	7379.816211	46974.068991	3936.796630	24874.809672
72.036000	-0.010968	-0.002499	-0.010966	-0.011999	7423.608997	47101.789122	3948.073645	24890.047130
72.539000	-0.013144	-0.002725	-0.018244	-0.012010	7400.686588	47079.852215	3928.730929	24890.605579
73.036500	-0.014945	-0.003052	-0.026280	-0.006473	7323.846465	46486.642851	3893.463168	24610.836460
73.537000	-0.010162	-0.002290	-0.016586	-0.010549	7416.773684	46975.541316	3929.251215	24816.448831
74.037000	-0.011189	-0.003831	-0.016342	-0.012840	7430.202160	47051.862458	3935.966564	24932.883301
74.537500	-0.009958	-0.002637	-0.021087	-0.011949	7433.806013	47082.635420	3921.093919	24887.512536
75.035000	-0.009694	-0.003137	-0.017480	-0.012429	7441.733203	47080.596728	3931.857569	24911.939869
75.534500	-0.011040	-0.002692	-0.015766	-0.011448	7417.002346	47026.048557	3933.800418	24862.053949
76.035500	-0.011200	-0.002967	-0.021255	-0.012882	7430.529392	47144.147416	3923.100115	24935.013459
76.536000	-0.011212	-0.003186	-0.019156	-0.012919	7430.793332	47125.607744	3928.725661	24936.904842
77.039000	-0.014052	-0.002868	-0.021378	-0.006878	7337.350190	46545.944986	3907.122346	24631.207690
77.536500	-0.010728	-0.002786	-0.016875	-0.012086	7427.082164	47081.436712	3932.553298	24894.509921
78.037000	-0.010663	-0.001640	-0.016075	-0.012081	7427.721460	47197.822441	3934.661141	24894.240854
78.536000	-0.011788	-0.001590	-0.015542	-0.012155	7416.564982	47210.457432	3936.270026	24898.003098
79.036500	-0.011921	-0.002394	-0.015915	-0.012850	7422.522259	47199.344169	3937.126463	24933.357040
79.537500	-0.011064	-0.002221	-0.015932	-0.012003	7422.633526	47130.536081	3934.832143	24890.259593
80.038000	-0.013133	-0.002635	-0.018810	-0.012612	7407.164382	47150.448505	3928.827016	24921.264325
80.535500	-0.012195	-0.001916	-0.016510	-0.012265	7413.413613	47188.329161	3933.993281	24903.573338
81.035500	-0.011509	-0.002258	-0.018722	-0.012135	7419.311895	47140.204687	3927.799354	24896.962273
81.538500	-0.011185	-0.002868	-0.015121	-0.011832	7419.541051	47047.219071	3936.530815	24881.581717
82.036500	-0.012330	-0.001997	-0.019524	-0.012112	7410.371683	47164.476059	3925.626063	24895.802429
82.536500	-0.011376	-0.003145	-0.019688	-0.012549	7425.118722	47092.056008	3926.346443	24918.050722
83.039500	-0.012667	-0.003498	-0.016029	-0.013099	7417.262087	47112.167395	3937.486041	24946.078891
83.537000	-0.011375	-0.003245	-0.017894	-0.012011	7419.417876	47026.998460	3929.657683	24890.649769
84.034500	-0.014546	-0.002886	-0.020021	-0.012547	7391.557142	47118.240370	3925.463635	24917.930910
84.535000	-0.012220	-0.003098	-0.012500	-0.012008	7410.435617	47041.720465	3943.987492	24890.520419
85.035500	-0.016459	-0.003601	-0.023416	-0.006329	7306.667344	46417.091882	3900.442009	24603.629530
85.535500	-0.012311	-0.003341	-0.010819	-0.011886	7408.186149	47004.671646	3948.165308	24884.330760
86.038500	-0.013795	-0.002711	-0.008517	-0.011494	7388.384576	47028.812133	3953.301674	24864.393348
86.536000	-0.011994	-0.003056	-0.017407	-0.011476	7407.190816	46991.848257	3929.530560	24863.460189
87.036500	-0.017039	-0.003491	-0.017041	-0.006095	7298.251800	46404.659187	3916.361096	24591.873931
87.536500	-0.011675	-0.003135	-0.014967	-0.010435	7399.575392	46878.275798	3933.234825	24810.694403
88.036500	-0.012174	-0.004067	-0.015612	-0.012006	7410.902280	46943.090454	3935.689474	24890.433518
88.537000	-0.014309	-0.003523	-0.014056	-0.011517	7383.214623	46948.558480	3938.525047	24865.553649
89.034500	-0.017159	-0.003605	-0.023131	-0.006445	7300.628890	46428.422657	3901.476883	24609.473113
89.535000	-0.011754	-0.003394	-0.016223	-0.011101	7405.768297	46919.438038	3931.669887	24844.427783
90.035000	-0.014926	-0.003285	-0.014592	-0.011300	7374.452677	46950.770227	3936.523000	24854.549074
90.538000	-0.014574	-0.003438	-0.016650	-0.010954	7374.505149	46900.141604	3930.151977	24836.989661
91.036000	-0.017429	-0.004115	-0.016614	-0.006154	7294.833427	46348.035374	3917.631214	24594.825501
91.536500	-0.015025	-0.003387	-0.013557	-0.010576	7365.805111	46866.952657	3937.347952	24817.799088
92.036500	-0.014246	-0.003289	-0.012881	-0.010273	7370.811076	46846.245642	3938.342254	24802.489943
92.536500	-0.013987	-0.002883	-0.016931	-0.009591	7366.367379	46818.241401	3925.815776	24767.959819
93.037000	-0.019025	-0.003579	-0.019531	-0.004078	7257.107455	46194.032955	3904.656335	24490.938446
93.534500	-0.013632	-0.002419	-0.019174	-0.008304	7356.604713	46734.941858	3916.561930	24702.963403
94.035000	-0.012768	-0.003029	-0.011587	-0.008383	7366.488034	46681.367523	3936.757038	24706.972007
94.535500	-0.014180	-0.003325	-0.016507	-0.008474	7352.659547	46660.683909	3923.994715	24711.569532
95.038000	-0.018342	-0.003387	-0.019412	-0.003008	7253.147367	46106.480867	3902.201686	24437.578298
95.535000	-0.014970	-0.003241	-0.013611	-0.007215	7331.299779	46542.323592	3928.304922	24648.152166
96.036000	-0.015223	-0.004041	-0.010890	-0.007999	7336.825225	46540.736495	3937.590700	24687.618735
96.535500	-0.015012	-0.003706	-0.016615	-0.007401	7332.792014	46514.166127	3920.893999	24657.475416
97.036500	-0.016111	-0.002994	-0.016499	-0.005662	7303.362067	46411.075670	3916.647499	24570.160349
97.537000	-0.016503	-0.003560	-0.016531	-0.006616	7309.175959	46450.081535	3919.058288	24618.046721
98.039500	-0.013713	-0.002616	-0.012356	-0.005909	7330.784696	46473.807377	3928.169536	24582.563795
98.537500	-0.016185	-0.003519	-0.015585	-0.006514	7311.418757	46443.995413	3921.269878	24612.938855
99.035000	-0.014591	-0.002618	-0.013089	-0.003818	7300.011729	46264.132348	3920.744032	24477.964912
99.537500	-0.016646	-0.003274	-0.016902	-0.005246	7293.543965	46341.299699	3914.510961	24549.321842
100.036000	-0.016489	-0.003966	-0.015788	-0.005720	7300.054615	46319.461670	3918.656621	24573.065116
100.536000	-0.016073	-0.003633	-0.016465	-0.005374	7300.781068	46318.221487	3915.985509	24555.758921
101.036000	-0.017938	-0.004169	-0.015399	-0.003402	7261.319772	46067.913049	3913.621008	24457.212435
101.536500	-0.014969	-0.003081	-0.013875	-0.004156	7299.596698	46251.607441	3919.570914	24494.833646
102.037000	-0.015990	-0.002729	-0.012311	-0.003084	7278.045028	46179.772397	3920.859433	24441.389752
102.536000	-0.017102	-0.004030	-0.013397	-0.003907	7275.063771	46132.041824	3920.170693	24482.400573
103.036500	-0.019637	-0.004202	-0.020566	-0.001423	7223.818412	45868.127580	3895.164542	24358.804235
103.534500	-0.016895	-0.004619	-0.014372	-0.003829	7276.392908	46065.583839	3917.414596	24478.497034
104.037500	-0.017593	-0.004164	-0.013510	-0.003591	7266.783656	46087.164182	3919.047460	24466.632033
104.535500	-0.016391	-0.003586	-0.012803	-0.002455	7267.463368	46031.684511	3917.926706	24410.066975
105.036000	-0.019107	-0.004432	-0.011384	0.000043	7214.326998	45700.489218	3915.109311	24286.178107
105.536000	-0.017103	-0.003120	-0.014920	-0.001032	7245.627945	45936.584780	3908.706512	24339.387007
106.036000	-0.018641	-0.003612	-0.011141	-0.001630	7236.040827	45947.183715	3920.115540	24369.055167
106.536500	-0.018134	-0.003113	-0.009074	-0.000921	7233.986226	45926.254481	3923.678325	24333.879213
107.037000	-0.023187	-0.004091	-0.016306	0.004526	7128.413260	45293.757982	3890.843972	24065.593495
107.537500	-0.017899	-0.003969	-0.016338	-0.000924	7236.418851	45841.771025	3904.758292	24334.049982
108.037500	-0.017298	-0.004251	-0.015662	-0.000653	7239.772500	45787.101107	3905.804287	24320.615342
108.540500	-0.018832	-0.004256	-0.017515	-0.000354	7221.130246	45757.048376	3900.252743	24305.804965
109.035000	-0.022704	-0.004112	-0.018964	0.005444	7124.092837	45202.021025	3881.755033	24020.697104
109.535500	-0.017888	-0.003891	-0.017758	0.000349	7223.584759	45723.745976	3897.820403	24271.056092
110.036000	-0.019543	-0.004238	-0.012938	0.000192	7208.395909	45704.890299	3910.676714	24278.806486
110.536000	-0.017138	-0.003355	-0.013354	0.001722	7217.266752	45641.151871	3905.633062	24203.313886
111.036500	-0.023821	-0.004964	-0.017162	0.006291	7104.648684	45036.639142	3884.175116	23979.354739
111.537000	-0.016979	-0.003966	-0.010613	0.001733	7218.761358	45579.892636	3912.712879	24202.750450
112.037000	-0.017947	-0.003987	-0.012832	0.001708	7209.214212	45580.347601	3907.020457	24204.005412
112.537000	-0.018605	-0.004150	-0.015945	0.001547	7204.178552	45580.092808	3899.399990	24211.897576
113.037500	-0.021622	-0.004344	-0.011617	0.008442	7105.130861	44888.281430	3892.819200	23874.777303
113.535000	-0.017078	-0.004811	-0.014728	0.002287	7212.141959	45442.412290	3900.627728	24175.459289
114.035500	-0.019950	-0.004568	-0.018255	0.002602	7179.991780	45435.358706	3890.780178	24159.977091
114.535500	-0.018208	-0.004674	-0.014948	0.003178	7191.727622	45368.656438	3897.772773	24131.701630
115.036000	-0.022099	-0.004108	-0.016972	0.010186	7083.236148	44742.549231	3874.817144	23790.341311
115.536000	-0.018573	-0.004447	-0.013030	0.003974	7180.044895	45312.952370	3900.656354	24092.635945
116.039500	-0.019747	-0.004258	-0.010328	0.004233	7165.654930	45306.023609	3906.963359	24079.930820
116.537000	-0.019036	-0.004383	-0.016080	0.004415	7170.955419	45275.991423	3891.704162	24071.009783
117.037000	-0.023083	-0.004629	-0.017326	0.009688	7078.462451	44740.260286	3875.178977	23814.411438
117.537500	-0.020044	-0.004652	-0.014289	0.004730	7157.719537	45219.075023	3895.482119	24055.632534
118.035000	-0.020340	-0.004660	-0.015182	0.005013	7151.918244	45190.637972	3892.469314	24041.754774
118.535500	-0.021380	-0.004987	-0.014983	0.004777	7143.894509	45181.744805	3893.582253	24053.293104
119.035500	-0.024582	-0.005039	-0.021713	0.010643	7054.430279	44608.836344	3861.820472	23768.260114
119.536000	-0.020145	-0.004731	-0.014578	0.006193	7142.092188	45068.892597	3890.999275	23984.149744
120.036000	-0.021616	-0.005168	-0.016101	0.005537	7133.981148	45090.173981	3888.790972	24016.176588
120.536500	-0.022701	-0.005325	-0.012809	0.006136	7117.267355	45016.673051	3895.669956	23986.931812
121.037000	-0.024867	-0.004396	-0.019288	0.013484	7024.023725	44397.987179	3860.788610	23631.587638
121.537000	-0.021052	-0.004247	-0.015751	0.007081	7124.245756	45029.630584	3885.752983	23940.888623
122.039500	-0.021178	-0.003898	-0.011418	0.007811	7115.765042	44992.651399	3894.942071	23905.408767
122.537500	-0.022295	-0.003744	-0.012974	0.008259	7100.289327	44964.094431	3889.821336	23883.639897
123.035500	-0.026400	-0.005351	-0.021523	0.012830	7015.515737	44369.311594	3856.870222	23663.004418
123.535000	-0.020367	-0.003928	-0.012302	0.008963	7112.382935	44878.030013	3889.738314	23849.495527
124.035500	-0.021492	-0.005012	-0.012372	0.008605	7104.794439	44807.824821	3890.474995	23866.860263
124.536000	-0.022344	-0.004266	-0.014363	0.009445	7088.115430	44798.768012	3883.276920	23826.174949
125.036000	-0.026513	-0.005115	-0.020570	0.014314	7000.088739	44250.040120	3855.555245	23591.821559
125.536500	-0.022503	-0.004050	-0.013705	0.010227	7078.871949	44744.164507	3882.963319	23788.380807
126.036500	-0.021864	-0.005236	-0.013696	0.009306	7094.208974	44718.648961	3885.320142	23832.906964
126.540000	-0.022702	-0.004565	-0.015179	0.010457	7074.658149	44672.340706	3878.653267	23777.266945
127.037500	-0.025620	-0.005546	-0.017323	0.015997	6992.485075	44049.003903	3859.428705	23511.437910
127.537500	-0.022152	-0.004267	-0.015532	0.010854	7076.150432	44662.769037	3876.759614	23758.077402
128.035000	-0.022376	-0.005266	-0.013811	0.010896	7073.547101	44562.643995	3880.997472	23756.048763
128.535500	-0.020094	-0.004170	-0.012651	0.011419	7090.838379	44617.863838	3882.613346	23730.874738
129.035500	-0.025840	-0.005403	-0.019946	0.017326	6977.609623	43936.679757	3849.674694	23448.198325
129.535500	-0.022515	-0.003947	-0.017791	0.012014	7061.243457	44581.995507	3868.180375	23702.213646
130.036500	-0.022439	-0.004575	-0.017408	0.012024	7061.879048	44520.713494	3869.113602	23701.718185
130.536000	-0.021935	-0.005147	-0.017256	0.011410	7072.824305	44524.786594	3871.030390	23731.267740
131.039500	-0.025321	-0.004964	-0.016994	0.018019	6975.941297	43912.624689	3855.238787	23415.264397
131.537500	-0.022655	-0.004574	-0.014274	0.012535	7054.771000	44471.855275	3875.694150	23677.141293
132.034500	-0.024399	-0.005015	-0.013526	0.012621	7036.953768	44421.391997	3877.363009	23673.037120
132.534500	-0.022930	-0.004668	-0.009686	0.012818	7049.330437	44435.715196	3886.586732	23663.559857
133.035500	-0.026788	-0.004940	-0.016281	0.018831	6954.157802	43838.212088	3854.993560	23376.778071
133.535500	-0.022394	-0.005150	-0.016565	0.013160	7051.220113	44356.907373	3868.379779	23647.122000
134.035500	-0.023284	-0.004623	-0.012976	0.013223	7041.935326	44401.305312	3877.231599	23644.125368
134.536000	-0.021765	-0.003586	-0.008756	0.014461	7044.672604	44382.021347	3884.774311	23584.793103
135.036000	-0.026240	-0.005359	-0.020098	0.019444	6953.543655	43740.899475	3844.110154	23347.767382
135.539000	-0.023643	-0.004437	-0.014614	0.014497	7026.075361	44297.289599	3869.916091	23583.082809
136.037000	-0.021246	-0.005039	-0.015840	0.014015	7054.084272	44285.860531	3868.054456	23606.140751
136.537500	-0.021205	-0.004870	-0.007167	0.014572	7049.052218	44248.855456	3888.531233	23579.492656
137.037000	-0.024527	-0.004333	-0.014505	0.019043	6973.741781	43875.598666	3858.863112	23366.765854
137.535000	-0.022332	-0.004284	-0.017339	0.015160	7032.357992	44248.623075	3861.466609	23551.380954
138.035000	-0.023131	-0.004603	-0.010364	0.015190	7024.323486	44215.446268	3878.860469	23549.983137
138.535500	-0.021878	-0.004243	-0.009775	0.015578	7032.708644	44212.737349	3879.365968	23531.431390
139.036000	-0.023462	-0.005338	-0.015184	0.017938	6994.567344	43884.968973	3859.917369	23419.103529
139.536000	-0.019274	-0.003700	-0.015233	0.016295	7051.078904	44196.138976	3863.879790	23497.229569
140.039500	-0.021376	-0.004714	-0.012557	0.015984	7033.643106	44129.294562	3871.345867	23512.081579
140.537000	-0.022940	-0.004195	-0.016474	0.016187	7016.508946	44159.353628	3861.065166	23502.409931
141.037000	-0.025278	-0.004684	-0.017264	0.022424	6934.355389	43524.557509	3843.753278	23207.336992
141.534500	-0.021369	-0.004366	-0.015192	0.017231	7021.615804	44043.920237	3861.654738	23452.701786
142.035000	-0.022638	-0.004532	-0.017340	0.016868	7012.842098	44062.629118	3857.227322	23469.951072
142.535500	-0.021511	-0.003598	-0.014156	0.018183	7011.021298	44026.492353	3861.862250	23407.481727
143.035500	-0.026736	-0.004452	-0.019684	0.023558	6909.838668	43440.120215	3835.105287	23154.130437
143.536000	-0.021180	-0.004777	-0.009292	0.017556	7020.295610	43974.195114	3875.596566	23437.259655
144.036500	-0.021276	-0.004337	-0.012208	0.018316	7012.015001	43943.879864	3866.384255	23401.175984
144.539000	-0.020338	-0.003925	-0.013738	0.018883	7015.605908	43929.201529	3861.163371	23374.331554
145.036500	-0.023215	-0.004732	-0.023202	0.024864	6930.781230	43292.162883	3823.476645	23093.028532
145.536500	-0.021243	-0.004520	-0.013332	0.019030	7005.437154	43859.101386	3861.808233	23367.376460
146.037500	-0.020769	-0.003879	-0.015618	0.019951	7001.132097	43832.700171	3853.866712	23323.829607
146.537500	-0.020073	-0.003417	-0.010890	0.020297	7004.506793	43843.672186	3864.731114	23307.490833
147.037000	-0.024037	-0.003362	-0.020733	0.026384	6908.636066	43278.161495	3825.753390	23022.138988
147.538000	-0.019862	-0.003770	-0.014167	0.020388	7005.651834	43801.740329	3856.369388	23303.163313
148.038500	-0.020175	-0.004042	-0.013981	0.020487	7001.682211	43766.775082	3856.586143	23298.508696
148.599500	-0.019393	-0.003406	-0.012439	0.021195	7002.389592	43759.898616	3858.650488	23265.105031
149.099000	-0.021539	-0.003835	-0.016025	0.024171	6953.290190	43440.427468	3842.511787	23125.401033
149.539500	-0.018866	-0.003159	-0.013427	0.021464	7004.891685	43757.925091	3855.542025	23252.472220
150.037000	-0.019997	-0.003482	-0.012556	0.021584	6992.836418	43716.177898	3857.397945	23246.809122
150.609000	-0.018839	-0.003070	-0.016000	0.021643	7003.420598	43749.376019	3848.762433	23244.024800
151.034500	-0.023040	-0.003389	-0.018990	0.026135	6920.401602	43298.798838	3830.548871	23033.722289
151.538000	-0.017303	-0.002023	-0.011735	0.023161	7003.593725	43705.069121	3855.527376	23172.723633
152.035500	-0.017375	-0.002607	-0.013072	0.022777	7006.603985	43686.278373	3853.176027	23190.741991
152.613000	-0.018808	-0.002676	-0.013613	0.022937	6991.260733	43664.836825	3851.450605	23183.252575
153.060500	-0.016438	-0.002454	-0.010634	0.025382	6990.529340	43456.378943	3852.763619	23068.824785
153.538500	-0.017998	-0.002495	-0.013699	0.022872	6999.673510	43687.874954	3851.395762	23186.261091
154.036500	-0.015732	-0.001534	-0.011139	0.023953	7011.119324	43676.667025	3855.045166	23135.635361
154.564000	-0.014799	-0.002149	-0.014673	0.023483	7024.699237	43662.979848	3847.504348	23157.631703
155.040000	-0.019581	-0.002471	-0.017564	0.026270	6951.952752	43371.854710	3833.670485	23027.457874
155.534500	-0.015768	-0.002639	-0.011630	0.022939	7020.583810	43668.063148	3856.336096	23183.156500
156.034500	-0.013696	-0.001944	-0.011986	0.023750	7032.807164	43657.120504	3853.454993	23145.117198
156.535000	-0.015212	-0.001417	-0.017058	0.023722	7018.377574	43709.335161	3841.088552	23146.445619
157.035500	-0.014276	-0.000937	-0.012665	0.023783	7026.861400	43748.773927	3851.700497	23143.579147
157.536000	-0.014759	-0.001541	-0.013093	0.023843	7021.597622	43686.297599	3850.500181	23140.783575
158.039500	-0.013272	-0.001363	-0.015603	0.024291	7031.676155	43660.945257	3843.248984	23119.808682
158.536000	-0.014936	-0.001997	-0.018738	0.023237	7025.754948	43700.389040	3838.180010	23169.170630
159.039500	-0.013732	-0.001926	-0.012089	0.023070	7039.066523	43722.766740	3854.877333	23176.994184
159.537500	-0.013802	-0.000504	-0.016538	0.024018	7029.177520	43767.396326	3841.633781	23132.559587
160.081000	-0.013265	-0.000852	-0.016485	0.024027	7034.299991	43733.797074	3841.739267	23132.133346
160.538000	-0.011028	-0.001060	-0.016687	0.023737	7058.928672	43741.477451	3841.956625	23145.733853
161.035000	-0.016332	-0.000893	-0.017132	0.029496	6952.174250	43218.432044	3826.930932	22877.828681
161.537000	-0.011551	-0.001006	-0.009144	0.023575	7055.398438	43761.847953	3860.919194	23153.302739
162.043500	-0.011672	-0.000119	-0.009339	0.023947	7050.590699	43810.450573	3859.512553	23135.909788
162.538500	-0.014259	-0.001351	-0.012819	0.023447	7030.283776	43741.368723	3852.147694	23159.299555
163.036000	-0.010294	-0.000441	-0.011649	0.024065	7062.901259	43768.959381	3853.510215	23130.385482
163.536500	-0.012031	-0.000452	-0.011770	0.023695	7049.547686	43802.844537	3854.123369	23147.714902
164.037500	-0.012948	-0.001316	-0.016914	0.022658	7050.720297	43819.067358	3844.036600	23196.336449
164.537000	-0.010755	-0.000236	-0.010671	0.023045	7068.368107	43884.483978	3858.447555	23178.163719
165.037500	-0.016065	-0.000524	-0.016142	0.029000	6959.443864	43298.892369	3830.510484	22900.758754
165.534000	-0.010051	-0.000230	-0.014936	0.022951	7076.191836	43893.996247	3848.163325	23182.577209
166.035000	-0.011660	0.000423	-0.010757	0.023304	7056.989044	43922.347476	3857.594423	23166.031174
166.535000	-0.011289	-0.000203	-0.015969	0.022946	7064.114632	43896.971366	3845.643453	23182.793966
167.044000	-0.012690	-0.000640	-0.013223	0.028399	6997.572515	43344.114764	3839.037428	22928.589231
167.536000	-0.010516	0.000082	-0.018459	0.022742	7073.681689	43943.222181	3840.063059	23192.386861
168.036000	-0.010260	0.000001	-0.015330	0.022777	7075.855464	43932.257142	3847.624552	23190.759710
168.544000	-0.011560	0.000145	-0.014222	0.022941	7061.511053	43930.319726	3849.940217	23183.042013
169.036500	-0.015560	-0.000653	-0.016069	0.028198	6971.944548	43361.616275	3832.622304	22937.891003
169.537500	-0.010459	-0.000160	-0.013795	0.022493	7076.691900	43943.968780	3852.094262	23204.094274
170.037000	-0.008876	0.000622	-0.013971	0.022669	7090.523153	44001.334104	3851.227239	23195.824293
170.535000	-0.010766	-0.000181	-0.011834	0.023041	7068.307977	43890.091312	3855.579517	23178.369317
171.035000	-0.012838	-0.000538	-0.013351	0.025773	7021.505672	43599.182148	3845.133306	23050.606031
171.537500	-0.009422	0.000790	-0.014930	0.022972	7082.163688	43988.485702	3848.125765	23181.585898
172.039500	-0.008523	0.000788	-0.011115	0.022605	7094.624203	44023.051099	3858.435677	23198.796500
172.536000	-0.010701	-0.000045	-0.015199	0.021840	7080.722542	44016.600485	3850.245934	23234.754463
173.036500	-0.009403	0.000903	-0.016269	0.025429	7058.280482	43767.093211	3838.855151	23066.669537
173.539500	-0.009951	0.000717	-0.012072	0.022629	7080.340615	44014.135062	3856.010170	23197.706953
174.036500	-0.009529	0.000680	-0.013096	0.022372	7087.020094	44034.958130	3854.116157	23209.780018
174.540000	-0.010986	-0.000397	-0.014523	0.021807	7078.253454	43986.410552	3851.992304	23236.325815
175.035000	-0.009344	0.000277	-0.013195	0.024180	7071.081273	43825.791900	3849.420068	23125.003456
175.535000	-0.010196	-0.000012	-0.013386	0.021955	7084.552438	44008.854793	3854.428639	23229.353543
176.038000	-0.009032	-0.000470	-0.018554	0.021869	7096.861763	43973.529247	3841.957073	23233.379689
176.538000	-0.009815	-0.000296	-0.014849	0.021728	7090.541928	44003.464990	3851.382163	23240.034122
177.035500	-0.011111	-0.000149	-0.011945	0.023118	7064.169722	43885.811191	3855.115416	23174.729351
177.536000	-0.008511	0.000685	-0.011187	0.022126	7099.464947	44058.796931	3859.446435	23221.325116
178.036500	-0.008948	0.000334	-0.008069	0.022380	7092.653497	44001.346884	3866.571111	23209.358589
178.537000	-0.009465	-0.000408	-0.017011	0.022103	7090.285696	43957.290586	3845.155770	23222.383739
179.039500	-0.009429	0.000336	-0.017232	0.024013	7071.880504	43847.069329	3839.954939	23132.810521
179.537500	-0.008760	0.000600	-0.016510	0.022208	7096.209868	44042.924264	3846.126265	23217.472206
180.042000	-0.007490	0.001218	-0.008341	0.023194	7098.998630	44008.024294	3863.862576	23171.164464
180.537500	-0.009621	-0.000172	-0.013195	0.022086	7088.922814	43981.267010	3854.577468	23223.185422
181.035000	-0.009718	-0.000264	-0.012231	0.022517	7083.729392	43931.846086	3855.894769	23202.967181
181.534500	-0.009747	0.000435	-0.011369	0.021971	7088.815894	44049.791593	3859.380695	23228.626135
182.052000	-0.010105	0.000094	-0.017492	0.021418	7090.728742	44069.825947	3845.654952	23254.612399
182.536000	-0.009908	0.000276	-0.014927	0.021966	7087.273461	44035.096303	3850.603635	23228.831739
183.036000	-0.010435	0.000221	-0.014090	0.023176	7070.225173	43915.321101	3849.687622	23172.028142
183.537500	-0.009284	0.000531	-0.018890	0.021915	7093.928631	44064.181332	3841.027908	23231.260178
184.085000	-0.008442	0.000067	-0.021720	0.021427	7107.057000	44066.440595	3835.335418	23254.213470
184.539500	-0.009440	-0.000316	-0.014286	0.021581	7095.679815	44015.506807	3853.130273	23246.938502
185.043000	-0.012378	-0.000021	-0.016575	0.026518	7018.742011	43577.812250	3835.465175	23015.904511
185.535000	-0.008747	0.000169	-0.010051	0.021616	7102.174852	44058.239590	3863.537184	23245.318118
186.110500	-0.010525	0.000080	-0.011864	0.021386	7086.914162	44071.521863	3859.601359	23256.116188
186.539500	-0.009671	0.000139	-0.014589	0.021536	7093.850269	44062.877209	3852.495704	23249.065110
187.035500	-0.010686	-0.000305	-0.016277	0.022102	7078.300144	43967.184780	3846.956778	23222.446252
187.536500	-0.009508	0.000546	-0.011803	0.021891	7091.960890	44067.886864	3858.501192	23232.366329
188.036500	-0.010834	0.000260	-0.013644	0.021623	7081.547614	44066.214605	3854.612636	23244.994718
188.537500	-0.009186	-0.000082	-0.015456	0.021720	7096.812701	44024.479094	3849.909938	23240.422343
