sample name	sample
index	985
start time	 04-14-2021  03:54:05 PM
880	-0.013571
Peak Time (s)	101.538
Peak Height 	-0.01357
calc peak height	100,103
Baseline Time (s)	9.537
Baseline Value 	-0.002929
subtract baseline	10,4
Abs	-0.005401
Peak Time (s)	102.035
Peak Height 	-0.005401
calc peak height	100,103
Baseline Time (s)	11.035
Baseline Value 	0.003107
subtract baseline	10,3
PK_550	0.000911
Peak Time (s)	102.535
Peak Height 	9.1146E-4
calc peak height	100,103
Baseline Time (s)	10.537
Baseline Value 	1.0474E-4
subtract baseline	10,2
PK_880	-0.002123
Peak Time (s)	100.537
Peak Height 	-0.002123
calc peak height	100,103
Baseline Time (s)	10.037
Baseline Value 	-4.6991E-4
subtract baseline	10,1


Time (s)	A880-A510	A880-A775	A880-A975	A880	I510	I775	I975	I880	
0.034500	-0.003579	-0.000640	-0.010913	0.006888	6245.855922	41612.229715	3928.879087	21943.799077
0.537500	-0.000341	-0.000976	-0.001781	0.003213	6298.014498	41910.064655	3957.572290	22104.868473
1.037500	-0.001581	-0.000702	-0.004520	0.002740	6292.180496	41976.917143	3952.432619	22125.671183
1.535500	-0.001077	-0.000255	-0.010851	0.001019	6309.116725	42171.856251	3942.062529	22201.664719
2.035500	-0.006257	-0.001241	-0.005924	0.005137	6238.926238	41714.548778	3943.873968	22020.373885
2.535500	0.000011	0.000208	-0.002373	0.000473	6321.604761	42262.863143	3962.467025	22225.802585
3.036000	0.001483	-0.000646	-0.004743	-0.002381	6354.909813	42444.059683	3963.573354	22352.620049
3.535500	0.000339	0.000453	-0.005514	0.000525	6323.725619	42280.367803	3955.198700	22223.514954
4.036500	-0.000900	-0.001167	-0.007449	0.001150	6309.470737	42077.965372	3949.409210	22195.848327
4.537000	0.000664	0.000396	-0.004081	0.000244	6328.375745	42300.620311	3959.093574	22235.968785
5.037000	0.001411	-0.001109	-0.006611	-0.000777	6341.961883	42256.856910	3955.662267	22281.231469
5.534500	0.002740	0.000458	-0.002195	0.000463	6342.651329	42286.412543	3962.897765	22226.273078
6.037000	-0.001232	-0.001127	-0.004128	-0.000712	6321.170362	42249.391647	3961.166180	22278.380846
6.535500	0.002078	0.000398	-0.003781	0.000203	6339.559743	42304.519478	3959.870672	22237.778194
7.038500	0.000538	-0.000222	-0.005135	-0.000160	6330.509152	42281.305713	3957.614894	22253.881170
7.535500	0.001895	-0.000328	-0.003482	-0.000658	6344.776436	42316.693992	3962.515189	22275.947443
8.036000	-0.000894	-0.000045	-0.002711	-0.000714	6323.771124	42347.401933	3964.408532	22278.442421
8.536500	-0.002654	-0.000927	-0.007494	0.003094	6281.370273	41925.071281	3944.936108	22110.101962
9.037000	-0.000187	0.000099	0.000208	-0.000423	6326.960637	42334.034058	3970.441528	22265.530492
9.537000	0.000072	0.000340	0.000516	0.000000	6325.697164	42317.604948	3970.178484	22246.768901
10.037000	0.000000	-0.000232	-0.002876	-0.001080	6333.438135	42363.560173	3964.869241	22294.702717
10.537500	-0.002389	0.000000	-0.007457	0.004045	6276.178828	41922.887092	3942.886052	22068.268108
11.035000	0.002713	0.000680	0.000000	0.000108	6345.183759	42338.622274	3968.742701	22241.994113
11.538000	0.001171	-0.000038	0.002512	-0.000577	6338.577256	42335.657812	3976.121090	22272.372664
12.035500	0.000877	0.000309	-0.003805	-0.000300	6334.184696	42341.903804	3960.962042	22260.055998
12.535000	0.001984	0.000286	-0.005401	0.000050	6340.016475	42308.271757	3956.534334	22244.573739
13.038500	-0.000279	0.000576	-0.001581	-0.000709	6328.443385	42403.121657	3966.986328	22278.215881
13.536500	-0.000513	-0.000661	0.001610	-0.000953	6328.523772	42313.230618	3974.902441	22289.063411
14.036500	-0.000322	-0.000897	0.002000	0.000574	6318.282290	42154.061421	3972.274226	22221.334800
14.537000	-0.001066	-0.000622	-0.005380	0.003268	6292.081877	41936.734213	3949.298456	22102.416754
15.034500	0.000543	-0.000050	0.000805	-0.000917	6336.362868	42365.333324	3972.959747	22287.482764
15.534500	0.001331	-0.000306	0.000559	-0.001140	6344.151468	42362.367782	3972.907297	22297.395594
16.036000	0.000337	-0.000107	-0.002898	-0.001645	6340.382838	42426.172128	3966.114261	22319.846603
16.535500	-0.002539	0.000004	-0.003533	0.003645	6278.072703	41959.125297	3952.619096	22085.871055
17.035500	0.001468	0.000676	0.001902	-0.003016	6359.703816	42621.988098	3980.364061	22380.927000
17.536000	-0.000077	0.000116	-0.002665	-0.000205	6326.130625	42315.862046	3963.348336	22255.849732
18.036500	0.000523	-0.000128	-0.005559	-0.000098	6329.909778	42284.104610	3956.511199	22251.114232
18.536500	-0.001554	-0.000141	0.001584	0.001188	6304.188677	42166.891695	3969.899741	22194.154636
19.037000	0.000416	0.000219	-0.006318	0.000044	6328.004885	42302.641187	3954.466306	22244.821243
19.537000	-0.000405	-0.000093	-0.006349	0.000240	6320.208379	42256.816847	3953.952406	22236.137776
20.037500	0.002423	0.001163	0.002047	0.000823	6337.438688	42317.596232	3971.810435	22210.332027
20.534500	-0.000588	0.000342	-0.003768	0.001886	6306.234088	42147.566349	3956.073177	22163.342633
21.038000	0.000017	-0.000038	-0.002146	-0.000291	6327.513715	42309.735439	3964.734526	22259.681975
21.535500	0.002049	0.000336	-0.000871	0.000379	6337.975708	42283.005878	3966.120871	22229.972907
22.035500	-0.000485	-0.000549	-0.007908	-0.000791	6327.502104	42308.769643	3952.758321	22281.885060
22.536000	0.000615	-0.000171	-0.004466	0.001721	6316.684272	42116.196421	3954.862257	22170.630775
23.036500	0.000739	-0.000061	0.001291	0.000424	6327.563074	42243.066534	3970.986756	22227.976393
23.537000	0.003119	0.000359	-0.002834	0.000808	6342.915565	42246.291960	3960.651455	22211.001382
24.037000	-0.000703	0.000118	-0.000299	0.000025	6319.572591	42295.293240	3968.245774	22245.656373
24.537500	-0.000560	-0.000528	-0.001222	-0.000112	6321.714695	42249.250234	3966.439292	22251.714008
25.034500	0.001074	0.000911	-0.006135	0.000732	6327.775333	42302.999692	3953.321814	22214.344572
25.535000	0.000134	0.000661	0.001097	0.001264	6316.501214	42232.399539	3968.607538	22190.834038
26.035500	0.000295	0.000581	-0.003151	0.000759	6321.589543	42270.746970	3960.038524	22213.129287
26.535500	-0.000215	-0.000106	-0.003220	-0.000038	6323.787676	42280.646034	3961.699773	22248.441748
27.036000	0.001166	0.000525	0.004820	-0.001468	6345.408370	42467.441010	3983.556441	22311.968096
27.536000	0.002438	0.000688	-0.003825	-0.000998	6351.595938	42439.552766	3962.511953	22291.077607
28.036500	0.001924	0.001670	-0.001887	0.001492	6328.461518	42302.940054	3961.249202	22180.745262
28.537000	-0.002286	-0.001108	-0.003019	0.004040	6276.998860	41824.236682	3952.886271	22068.486498
29.037000	0.001148	-0.000300	0.001778	-0.000770	6339.884554	42329.324497	3974.867136	22280.927622
29.537500	0.001266	-0.000044	-0.000802	-0.001017	6342.695006	42374.918067	3969.485991	22291.910391
30.035000	0.000930	-0.000394	-0.001419	-0.000215	6333.942743	42270.705771	3966.226736	22256.321730
30.538000	0.003675	0.000125	-0.000366	0.001132	6344.701681	42195.923990	3965.550166	22196.648743
31.035000	-0.000592	-0.000390	-0.003940	0.000998	6312.980960	42161.571857	3957.698966	22202.565693
31.535500	0.001427	0.000209	-0.002880	-0.000773	6342.055809	42375.744538	3964.155558	22281.064817
32.036000	0.002112	0.000691	-0.007379	0.000117	6340.484719	42338.838542	3951.899406	22241.601324
32.536000	-0.001130	0.000367	0.000007	0.004954	6278.828702	41874.346783	3957.676949	22028.392000
33.036000	0.001724	0.000252	-0.005738	-0.000887	6345.231240	42389.943261	3957.898215	22286.147936
33.537000	0.002629	0.001281	-0.004044	-0.001459	6356.643457	42535.332428	3963.065083	22311.580082
34.037500	0.000144	0.000133	-0.005834	0.000794	6320.166728	42227.151863	3953.862172	22211.580795
34.534500	-0.000378	0.000176	0.001448	0.000638	6317.370704	42245.130038	3970.856483	22218.520607
35.035000	0.001626	0.000604	-0.001288	0.000543	6333.459479	42292.378546	3964.788474	22222.693725
35.535500	0.001535	0.000614	0.000477	0.000612	6332.234792	42287.047392	3968.680714	22219.660844
36.035500	0.001089	0.000103	-0.004871	0.000521	6329.502702	42249.081720	3956.665589	22223.682867
36.536000	0.000359	-0.000325	-0.001285	0.000274	6325.794696	42232.718584	3965.411251	22234.612808
37.035500	0.000401	-0.000220	-0.005693	0.000326	6325.722807	42237.595248	3955.245280	22232.336098
37.536500	-0.000054	-0.000078	0.000340	0.000184	6323.319679	42263.158127	3969.347971	22238.603309
38.037000	0.000429	0.000189	-0.001223	0.000316	6326.018319	42275.370965	3965.458658	22232.768266
38.537000	-0.000473	-0.000116	-0.005636	0.001947	6306.641461	42100.750631	3951.702480	22160.634711
39.037500	0.000657	0.000466	-0.000828	0.000699	6324.824216	42265.828374	3965.484116	22215.805949
39.535000	0.000104	-0.000707	-0.001872	-0.000145	6327.057922	42236.064677	3965.025370	22253.185045
40.037500	0.000670	-0.000014	-0.001282	-0.000200	6331.824158	42303.680757	3966.504429	22255.633274
40.535500	0.001441	0.000576	-0.007663	0.002373	6318.013310	42124.717350	3946.175432	22141.858204
41.035500	0.000748	0.000289	0.001790	0.000619	6326.140309	42257.047360	3971.686995	22219.354652
41.536000	0.000349	0.000480	-0.000965	0.000366	6325.014883	42297.105411	3965.932363	22230.533274
42.036000	0.003242	0.000467	-0.003491	0.000467	6346.487401	42286.826455	3959.927478	22226.054871
42.537000	-0.002649	-0.000574	-0.004181	0.001321	6294.854185	42115.987899	3956.417728	22188.314696
43.037000	0.000649	0.000235	-0.004853	0.000432	6326.811819	42269.081632	3956.911263	22227.637503
43.537000	0.002412	0.000465	-0.001327	0.000432	6340.362334	42289.800586	3964.951661	22227.609137
44.035000	0.004259	0.000749	0.003803	-0.003609	6386.024835	42682.818259	3986.182246	22407.449151
44.538000	0.000335	-0.000017	-0.001421	0.002369	6309.594110	42071.805843	3960.313651	22142.045632
45.035000	0.002519	0.000308	0.002305	-0.000337	6347.121410	42345.248799	3975.086818	22261.731068
45.536000	0.002321	0.001283	0.003263	-0.000408	6346.136996	42440.016338	3977.468223	22264.873381
46.036000	-0.001242	-0.000263	-0.001769	-0.001509	6327.193252	42399.622780	3968.390782	22313.767247
46.536000	0.002198	-0.000109	-0.003867	0.002687	6321.398629	42034.891369	3954.029713	22128.009803
47.036500	0.001736	0.000477	-0.001249	-0.000135	6339.524366	42342.198185	3966.432682	22252.763251
47.536000	-0.000298	0.000604	-0.006612	0.001087	6314.549185	42243.249000	3951.441847	22198.647030
48.037000	0.000954	0.000363	-0.000462	-0.000064	6332.957094	42325.468707	3968.074325	22249.593595
48.537000	0.000402	0.000214	-0.003476	0.002765	6307.080603	42056.895073	3954.740849	22124.577543
49.035000	0.002262	0.000051	-0.008414	-0.000719	6348.077217	42356.465774	3951.448991	22278.659482
49.535000	0.003017	0.000231	0.003914	-0.001854	6362.704885	42475.750890	3982.342147	22329.124432
50.035500	0.003221	0.000191	-0.003254	-0.001285	6359.877486	42420.450041	3964.471190	22303.810617
50.535500	-0.001155	-0.000575	-0.003749	0.007487	6259.546461	41564.844828	3943.482303	21917.711860
51.036000	0.021324	-0.008655	0.006013	0.366163	4500.555073	19590.554080	3406.050942	11279.367668
51.536000	0.002674	-0.006862	-0.014075	0.244729	4902.446337	25024.376204	3520.600092	13952.553016
52.036500	-0.002080	-0.021016	-0.029627	-0.122902	7393.160051	52666.886121	4208.275421	28544.451459
52.536500	-0.009549	-0.065246	-0.022997	-0.259964	8922.246944	64496.717242	4693.804978	38025.929541
53.037000	0.014997	-0.027466	-0.001679	-0.201531	8477.379023	61641.897575	4552.625006	33615.719027
53.534500	0.011200	-0.008787	-0.000199	-0.094937	7246.944680	50900.590656	4212.453324	26951.037107
54.037500	0.004001	-0.006881	-0.005840	-0.059924	6853.161343	47386.789467	4101.445992	25095.350903
54.535500	0.008166	-0.006786	-0.004931	-0.094418	7212.308713	51064.195762	4197.524630	26922.436116
55.035500	0.007154	-0.007170	-0.006732	-0.092443	7183.402545	50803.981027	4186.898777	26813.821015
55.536000	0.002072	-0.006297	-0.009465	-0.079224	7010.596731	49464.935030	4143.023081	26099.731185
56.036000	0.003440	-0.005558	-0.011793	-0.060080	6849.563469	47538.138137	4086.445999	25103.279887
56.536500	0.004149	-0.004352	-0.004791	-0.061049	6864.487687	47761.677756	4107.124212	25152.705188
57.036500	0.003296	-0.004482	-0.010440	-0.049329	6754.079165	46557.534877	4062.551738	24562.680649
57.537000	-0.000409	-0.004606	-0.010562	-0.039697	6640.410574	45590.606910	4038.292028	24089.564929
58.037500	-0.001423	-0.004547	-0.015527	-0.037192	6610.992139	45351.546739	4020.076210	23968.227313
58.535000	-0.002798	-0.003516	-0.010638	-0.035091	6582.175599	45247.416657	4026.838588	23867.028291
59.042000	0.001732	-0.003283	-0.004866	-0.015988	6463.818097	43452.285499	3994.899953	22968.777068
59.535000	-0.002708	-0.001114	-0.012921	0.004128	6273.147372	41815.865113	3930.542299	22064.645021
60.035500	0.001179	0.000185	-0.004227	0.002516	6314.912781	42076.725465	3953.603035	22135.557035
60.536000	0.000752	-0.000042	-0.013114	0.005274	6290.657579	41809.228188	3927.585456	22014.367177
61.039500	0.001671	0.001398	-0.007431	0.039542	6047.091006	38985.856544	3866.600943	20571.189554
61.536500	-0.000211	-0.002591	-0.010865	-0.020090	6481.106460	43901.017165	3990.432653	23158.341575
62.036500	0.000174	-0.002985	-0.013219	0.031054	6096.616457	39327.392005	3872.192009	20918.151403
62.537000	-0.003948	-0.001185	-0.009882	0.027665	6091.387166	39763.664353	3886.268242	21058.545301
63.034500	0.000131	-0.001530	-0.007395	0.030588	6099.638377	39488.281088	3885.351024	20937.378065
63.537500	-0.003109	-0.000811	-0.016573	0.038968	6017.683145	38850.747926	3849.089117	20594.443599
64.035500	-0.002895	-0.001961	-0.013582	0.037666	6028.255022	38863.328387	3857.821628	20647.311295
64.535500	-0.002503	-0.002986	-0.016877	0.034475	6053.376700	39042.514965	3857.608848	20777.504342
65.036000	-0.000285	-0.000828	-0.011337	0.019725	6175.214978	40472.213212	3900.051239	21391.878125
65.536000	0.000829	-0.001064	-0.012219	0.021366	6171.355486	40310.690818	3894.663105	21322.466563
66.036500	0.000032	-0.002694	-0.010422	0.013664	6222.255234	40835.651046	3915.107211	21650.438022
66.536500	0.002945	-0.000839	-0.010547	-0.001301	6357.858015	42328.608091	3947.952013	22304.531349
67.037000	0.000096	-0.003210	-0.015743	-0.012956	6426.733694	43177.803779	3962.600243	22829.790519
67.537500	-0.007490	-0.004681	-0.011851	-0.014404	6378.575424	43175.669541	3974.878772	22896.025714
68.038500	0.001205	-0.003984	-0.009247	-0.028353	6559.656709	44552.663338	4013.909481	23545.657420
68.534500	-0.001572	-0.004319	-0.009777	-0.040474	6637.167650	45694.982025	4042.139787	24127.347394
69.037500	-0.002626	-0.005287	-0.014940	-0.050656	6714.529527	46609.915630	4054.602109	24628.715630
69.547500	-0.006054	-0.005965	-0.011600	-0.055131	6723.497013	46992.602144	4074.288792	24852.764419
70.038000	-0.003076	-0.005474	-0.011564	-0.064176	6828.151921	47968.655054	4097.618510	25312.829328
70.536500	-0.007003	-0.005452	-0.011936	-0.059956	6756.929044	47536.312636	4085.763043	25097.014546
71.036500	-0.001600	-0.003660	-0.006342	-0.063926	6838.979240	48130.659276	4110.599466	25299.946460
71.536500	-0.006221	-0.003740	-0.010375	-0.059043	6755.784349	47618.305125	4087.427528	25050.574506
72.037000	-0.003668	-0.003608	-0.011770	-0.062546	6808.587903	47992.993938	4092.862174	25229.182478
72.537500	-0.005028	-0.003615	-0.011397	-0.062345	6794.909223	47971.532174	4093.306806	25218.919387
73.037000	-0.005125	-0.003167	-0.014808	-0.060867	6781.156331	47864.992444	4080.735090	25143.393128
73.535000	-0.007800	-0.004107	-0.012503	-0.055745	6713.793984	47243.489511	4073.555124	24883.686312
74.035000	-0.003687	-0.003791	-0.006677	-0.058707	6774.869649	47578.595618	4096.110601	25033.527243
74.535500	-0.005670	-0.003785	-0.013000	-0.058358	6754.630217	47543.354227	4078.945289	25015.811861
75.036000	-0.002585	-0.004013	-0.014882	-0.057061	6770.142001	47387.384784	4070.857795	24950.148015
75.536000	-0.008535	-0.003367	-0.009172	-0.050915	6666.458068	46829.117339	4069.753790	24641.624221
76.039500	-0.007953	-0.004068	-0.010793	-0.055786	6712.837732	47251.629084	4078.010340	24885.748640
76.537000	-0.004633	-0.002627	-0.005976	-0.053453	6721.288159	47160.880135	4084.365199	24768.459007
77.039500	-0.006665	-0.002599	-0.009604	-0.053030	6700.291889	47120.870076	4074.023424	24747.295931
77.540000	-0.009282	-0.002792	-0.009326	-0.046366	6621.956369	46430.109181	4057.910113	24416.006097
78.035000	-0.005459	-0.002658	-0.003599	-0.050691	6690.637972	46878.061233	4083.381191	24630.440513
78.535500	-0.008170	-0.002521	-0.014717	-0.043270	6605.437839	46148.812775	4036.861873	24263.873265
79.036000	-0.003288	-0.002011	-0.008861	-0.047454	6681.580612	46617.277750	4061.806795	24469.759667
79.536000	-0.006848	-0.001940	-0.011930	-0.041225	6599.426560	46003.665877	4038.686327	24163.940425
80.039000	-0.004544	-0.001986	-0.012997	-0.045431	6653.858616	46417.267133	4046.437154	24369.979908
80.536500	-0.003906	-0.001489	-0.007683	-0.044429	6650.788227	46366.772160	4057.173364	24320.672975
81.039000	-0.005747	-0.002249	-0.006712	-0.043781	6629.906683	46226.600987	4057.985475	24288.917038
81.536500	-0.007281	-0.001427	-0.008333	-0.042357	6605.229039	46166.758687	4050.384615	24219.188964
82.034500	-0.005433	-0.000632	-0.013244	-0.040399	6604.316959	46051.349117	4033.435008	24123.716273
82.535000	-0.005325	-0.002415	-0.010062	-0.040374	6605.002452	45872.598443	4041.191550	24122.487392
83.035000	-0.006909	-0.002759	-0.009303	-0.039660	6585.955740	45768.376167	4041.301012	24087.789538
83.535500	-0.008484	-0.002255	-0.009197	-0.031630	6507.418931	45034.082404	4021.935590	23701.339351
84.035500	-0.005085	-0.001806	-0.009481	-0.036293	6573.223133	45531.424691	4032.594425	23924.855018
84.535500	-0.006586	-0.002000	-0.009972	-0.035276	6552.540706	45413.146992	4028.911952	23875.924788
85.036500	-0.003910	-0.001908	-0.010377	-0.033805	6562.424026	45278.755677	4024.348771	23805.297879
85.535500	-0.010910	-0.002636	-0.012479	-0.027312	6453.312970	44582.084955	4003.693401	23496.483297
86.037000	-0.007905	-0.002110	-0.007423	-0.031967	6514.839240	45080.761926	4027.060233	23717.408241
86.537000	-0.006318	-0.001424	-0.004312	-0.024194	6465.058842	44400.057567	4015.775918	23349.771290
87.037500	-0.004080	-0.001912	-0.011967	-0.029946	6529.481089	44904.566910	4011.204853	23621.187230
87.535000	-0.009847	-0.001503	-0.010719	-0.022504	6423.610042	44231.897973	3996.462791	23270.709954
88.035500	-0.005227	-0.001335	-0.009273	-0.027285	6498.633861	44704.105412	4011.284346	23495.191002
88.536000	-0.005151	-0.001079	-0.005608	-0.026379	6491.944055	44641.784523	4017.918929	23452.473352
89.036000	-0.004193	-0.001270	-0.011143	-0.025528	6492.807221	44542.083410	4002.626595	23412.407671
89.536500	-0.008511	-0.002071	-0.014904	-0.019071	6407.104259	43854.100996	3978.621803	23111.096428
90.036500	-0.002922	-0.000492	-0.006617	-0.023313	6485.219961	44405.004966	4008.135311	23308.559385
90.537000	-0.005578	-0.000770	-0.006213	-0.022798	6459.831329	44329.465910	4007.869943	23284.479786
91.037500	-0.004163	-0.001290	-0.011259	-0.022459	6468.418369	44247.812314	3995.082075	23268.634785
91.537500	-0.003685	-0.001385	-0.011418	-0.021777	6466.788039	44174.129778	3993.100013	23236.794316
92.037000	-0.002775	-0.000870	-0.005857	-0.020441	6463.379942	44096.425027	4003.097598	23174.618323
92.535000	-0.009408	-0.001951	-0.010433	-0.015349	6371.012422	43516.857722	3980.358570	22939.387331
93.035500	-0.002291	-0.001115	-0.004854	-0.020206	6465.372141	44051.061108	4004.925493	23163.700740
93.535500	-0.006128	-0.001859	-0.008277	-0.015788	6400.040530	43566.429599	3986.415682	22959.585392
94.036000	-0.002514	-0.000773	-0.009260	-0.019013	6454.072032	43970.711690	3991.672337	23108.367243
94.536000	-0.009106	-0.002018	-0.011836	-0.014375	6365.794890	43419.887116	3974.847151	22894.717150
95.037000	-0.003712	-0.001110	-0.007370	-0.018704	6442.099030	43909.921063	3995.397930	23094.068748
95.537000	-0.009280	-0.000816	-0.010544	-0.013261	6355.808651	43428.112950	3975.258870	22843.720681
96.037500	-0.003501	-0.000735	-0.008776	-0.018315	6440.680267	43908.606575	3991.169781	23076.061555
96.540500	-0.003568	-0.001196	-0.006013	-0.018705	6443.250346	43901.889798	3998.608953	23094.118682
97.034000	-0.004814	-0.000654	-0.007585	-0.018550	6432.142931	43938.349105	3994.529547	23086.958562
97.535500	-0.002517	-0.000064	-0.008512	-0.017657	6443.272679	43909.857158	3990.245350	23045.701266
98.035500	-0.004756	-0.001202	-0.011482	-0.018478	6432.033590	43880.052391	3985.210787	23083.623942
98.535500	-0.003345	-0.000838	-0.004679	-0.018215	6441.131168	43889.528002	4000.610639	23071.471668
99.036500	-0.001571	0.000000	-0.008618	-0.017667	6450.871699	43916.802820	3990.019419	23046.134335
99.536500	-0.003970	-0.000635	-0.004905	-0.018355	6437.284028	43921.756371	4000.406656	23077.934585
100.037000	-0.003341	0.000123	-0.007422	-0.018059	6439.928418	43965.371894	3993.754635	23064.256801
100.537000	-0.002123	-0.000226	-0.009112	-0.018404	6452.344515	43964.962285	3990.589677	23080.208828
101.034500	-0.004082	0.000029	-0.010931	-0.018268	6435.705626	43976.132439	3986.006442	23073.917856
101.537500	-0.004805	-0.000870	-0.007595	-0.013571	6393.043651	43451.903136	3982.829606	22857.907362
102.035000	-0.005501	0.000252	-0.005401	-0.018756	6428.345694	44043.237816	4000.181551	23096.500348
102.535000	-0.004542	0.000911	-0.008981	-0.017878	6428.976986	44022.608768	3989.662767	23055.880580
103.035500	-0.002679	0.000458	-0.008346	-0.018440	6448.203840	44032.867399	3992.475428	23081.864645
103.536000	-0.008918	-0.000246	-0.009622	-0.014136	6365.395719	43562.786946	3979.426702	22883.766298
104.036000	-0.004062	0.001204	-0.009718	-0.017900	6432.954366	44052.323172	3987.985578	23056.900494
104.536500	-0.003207	0.001154	-0.005744	-0.017288	6434.877886	43989.886157	3995.896665	23028.666063
105.036500	-0.004739	0.001556	-0.007664	-0.017019	6420.643756	44002.437340	3990.738059	23016.249022
105.537000	-0.005551	0.000695	-0.009369	-0.012057	6375.403253	43456.655471	3975.191857	22788.769928
106.037000	-0.006231	0.000627	-0.009766	-0.017266	6410.832720	43938.074445	3986.386832	23027.628552
106.535000	-0.006448	0.001075	-0.011400	-0.011152	6361.410236	43407.821752	3968.419478	22747.556731
107.035000	-0.005382	0.000947	-0.008143	-0.016573	6412.057259	43902.968901	3988.565751	22995.671737
107.535500	-0.007627	0.000964	-0.013927	-0.012011	6358.930870	43477.461529	3964.592685	22786.670273
108.035500	-0.002594	0.001839	-0.008129	-0.015789	6427.863171	43913.061289	3986.760990	22959.596368
108.536000	-0.003373	0.000971	-0.013525	-0.016126	6424.369054	43863.170165	3974.990508	22975.105793
109.036500	-0.005691	0.001005	-0.014097	-0.016055	6405.564642	43859.725084	3973.504752	22971.863160
109.575000	-0.007783	0.002171	-0.006707	-0.012860	6364.298950	43669.353520	3983.240051	22825.389303
110.037000	-0.008292	0.001585	-0.012084	-0.015269	6379.070892	43840.342499	3976.343269	22935.735573
110.539500	-0.009719	0.000633	-0.012205	-0.009608	6324.296188	43223.542828	3963.035854	22677.450426
111.034000	-0.005204	0.001184	-0.008435	-0.015224	6402.865953	43798.505840	3984.727304	22933.677788
111.535000	-0.006879	0.000913	-0.009175	-0.010360	6351.945009	43319.270781	3971.720735	22711.592634
112.035500	-0.004488	0.000308	-0.006950	-0.015849	6413.399933	43774.888800	3989.666072	22962.361862
