sample name	sample
index	538
start time	 03-15-2021  10:31:51 AM


Wavelength (nm)	Absorbance
494.344910	0.123306
494.563924	0.123306
494.782919	0.123306
495.001897	0.125670
495.220856	0.004805
495.439797	-0.073202
495.658719	-0.071147
495.877624	-0.073884
496.096510	0.033741
496.315378	-0.067153
496.534227	-0.032845
496.753059	0.009313
496.971872	0.023422
497.190667	0.006291
497.409444	0.012029
497.628203	0.010895
497.846943	0.011291
498.065665	0.008893
498.284369	0.009608
498.503055	0.009624
498.721723	0.008677
498.940372	0.009178
499.159003	0.010304
499.377616	0.010398
499.596210	0.010271
499.814787	0.008838
500.033345	0.010115
500.251885	0.009012
500.470406	0.008609
500.688910	0.009127
500.907395	0.008517
501.125862	0.007909
501.344311	0.007769
501.562742	0.007709
501.781154	0.009001
501.999548	0.008119
502.217924	0.008347
502.436282	0.008549
502.654621	0.008362
502.872942	0.008369
503.091245	0.010073
503.309530	0.009621
503.527797	0.008996
503.746045	0.009151
503.964275	0.009609
504.182487	0.009678
504.400681	0.010369
504.618856	0.010893
504.837013	0.010826
505.055152	0.009455
505.273273	0.009350
505.491376	0.009509
505.709460	0.008851
505.927526	0.008004
506.145574	0.008863
506.363604	0.008378
506.581615	0.007010
506.799608	0.006960
507.017583	0.007004
507.235540	0.007505
507.453478	0.006998
507.671399	0.006749
507.889301	0.007306
508.107185	0.007031
508.325050	0.006853
508.542898	0.007302
508.760727	0.007433
508.978538	0.007783
509.196330	0.007271
509.414105	0.007770
509.631861	0.008457
509.849599	0.008217
510.067319	0.007966
510.285021	0.008005
510.502704	0.008581
510.720369	0.009500
510.938016	0.009355
511.155645	0.008684
511.373255	0.009762
511.590848	0.008484
511.808422	0.008064
512.025977	0.007845
512.243515	0.007862
512.461034	0.007038
512.678536	0.006681
512.896018	0.006638
513.113483	0.007232
513.330930	0.006077
513.548358	0.006858
513.765768	0.006804
513.983160	0.006882
514.200533	0.006187
514.417889	0.006509
514.635226	0.006041
514.852545	0.005240
515.069845	0.005009
515.287128	0.005655
515.504392	0.005929
515.721638	0.006512
515.938866	0.007034
516.156075	0.007054
516.373267	0.007165
516.590440	0.007563
516.807594	0.008038
517.024731	0.008357
517.241850	0.007847
517.458950	0.007558
517.676032	0.007115
517.893095	0.006297
518.110141	0.006841
518.327168	0.006463
518.544177	0.005709
518.761168	0.005700
518.978141	0.005477
519.195095	0.005541
519.412031	0.004724
519.628949	0.005096
519.845849	0.005943
520.062731	0.006021
520.279594	0.005941
520.496439	0.006727
520.713266	0.007177
520.930074	0.006801
521.146865	0.006973
521.363637	0.007674
521.580391	0.007442
521.797127	0.007963
522.013844	0.008357
522.230543	0.008599
522.447224	0.007955
522.663887	0.007138
522.880532	0.007942
523.097158	0.008451
523.313766	0.008332
523.530356	0.008786
523.746928	0.007445
523.963481	0.006664
524.180017	0.007163
524.396534	0.007271
524.613032	0.007183
524.829513	0.007157
525.045975	0.006477
525.262420	0.006734
525.478845	0.005928
525.695253	0.006548
525.911643	0.006573
526.128014	0.006274
526.344367	0.006206
526.560702	0.006564
526.777018	0.006149
526.993316	0.006231
527.209597	0.006200
527.425858	0.006242
527.642102	0.005706
527.858328	0.005303
528.074535	0.005425
528.290724	0.005225
528.506894	0.005102
528.723047	0.005305
528.939181	0.004932
529.155297	0.004815
529.371395	0.005235
529.587475	0.005526
529.803536	0.006037
530.019579	0.005544
530.235604	0.005629
530.451611	0.006115
530.667600	0.005998
530.883570	0.006296
531.099522	0.005754
531.315456	0.005804
531.531372	0.005552
531.747269	0.005513
531.963148	0.005957
532.179009	0.005664
532.394852	0.005353
532.610676	0.005234
532.826482	0.005709
533.042271	0.006054
533.258040	0.006012
533.473792	0.006300
533.689525	0.006215
533.905240	0.006144
534.120937	0.006572
534.336616	0.006368
534.552277	0.006941
534.767919	0.006699
534.983543	0.007007
535.199149	0.006606
535.414736	0.005999
535.630306	0.006324
535.845857	0.006368
536.061390	0.006588
536.276904	0.006947
536.492401	0.006821
536.707879	0.006325
536.923339	0.006088
537.138781	0.005936
537.354204	0.006109
537.569610	0.005808
537.784997	0.005564
538.000366	0.005200
538.215716	0.004844
538.431049	0.004524
538.646363	0.004296
538.861659	0.004627
539.076937	0.004799
539.292196	0.004977
539.507438	0.004677
539.722661	0.004363
539.937866	0.004638
540.153052	0.004557
540.368221	0.004371
540.583371	0.004668
540.798503	0.004456
541.013617	0.004707
541.228712	0.005228
541.443789	0.005591
541.658848	0.005750
541.873889	0.006097
542.088912	0.005817
542.303916	0.006027
542.518902	0.006193
542.733870	0.006014
542.948820	0.005937
543.163752	0.005620
543.378665	0.005005
543.593560	0.004423
543.808437	0.003941
544.023295	0.004187
544.238136	0.004280
544.452958	0.004092
544.667762	0.004103
544.882548	0.003825
545.097315	0.003287
545.312064	0.003912
545.526795	0.004724
545.741508	0.004624
545.956203	0.004451
546.170879	0.004174
546.385537	0.003968
546.600177	0.004347
546.814799	0.004690
547.029402	0.004791
547.243988	0.004684
547.458555	0.004511
547.673103	0.004380
547.887634	0.004402
548.102146	0.004385
548.316640	0.004596
548.531116	0.004439
548.745574	0.003976
548.960013	0.003941
549.174435	0.003929
549.388838	0.003917
549.603222	0.003916
549.817589	0.004253
550.031937	0.004569
550.246267	0.004476
550.460579	0.004396
550.674873	0.004306
550.889148	0.004549
551.103405	0.004706
551.317644	0.004316
551.531865	0.004232
551.746068	0.004052
551.960252	0.003847
552.174418	0.003965
552.388566	0.003751
552.602696	0.003951
552.816807	0.004397
553.030900	0.004186
553.244975	0.004506
553.459032	0.004946
553.673070	0.004803
553.887091	0.004846
554.101093	0.004477
554.315077	0.004394
554.529042	0.004276
554.742990	0.003590
554.956919	0.003470
555.170830	0.003234
555.384722	0.003025
555.598597	0.003408
555.812453	0.003224
556.026291	0.003404
556.240111	0.003637
556.453913	0.003567
556.667696	0.003821
556.881461	0.003978
557.095208	0.004071
557.308937	0.004066
557.522647	0.003583
557.736339	0.004091
557.950013	0.003978
558.163669	0.003787
558.377307	0.004104
558.590926	0.004269
558.804527	0.003690
559.018110	0.003834
559.231675	0.003986
559.445221	0.004490
559.658749	0.004370
559.872259	0.004593
560.085751	0.004575
560.299225	0.004408
560.512680	0.004114
560.726117	0.004499
560.939536	0.004203
561.152937	0.003992
561.366319	0.003683
561.579683	0.003574
561.793029	0.003487
562.006357	0.003464
562.219667	0.003454
562.432958	0.003294
562.646231	0.003058
562.859486	0.002997
563.072723	0.002991
563.285941	0.003102
563.499141	0.002663
563.712323	0.002604
563.925487	0.002610
564.138632	0.002407
564.351760	0.002530
564.564869	0.002567
564.777960	0.002487
564.991032	0.002265
565.204087	0.002285
565.417123	0.002750
565.630141	0.002571
565.843140	0.002765
566.056122	0.002905
566.269085	0.002967
566.482030	0.003107
566.694957	0.003274
566.907866	0.003384
567.120756	0.003032
567.333628	0.002991
567.546482	0.002851
567.759318	0.002633
567.972135	0.002699
568.184935	0.002639
568.397716	0.002553
568.610478	0.002638
568.823223	0.002642
569.035949	0.002692
569.248657	0.002074
569.461347	0.002513
569.674019	0.002686
569.886672	0.002613
570.099308	0.003027
570.311925	0.002990
570.524523	0.003030
570.737104	0.002991
570.949666	0.003123
571.162210	0.003448
571.374736	0.003222
571.587244	0.003108
571.799733	0.003293
572.012205	0.003024
572.224658	0.003311
572.437092	0.003126
572.649509	0.003174
572.861907	0.003000
573.074287	0.002733
573.286649	0.002895
573.498993	0.002580
573.711318	0.002476
573.923625	0.002228
574.135914	0.002238
574.348185	0.002635
574.560438	0.002809
574.772672	0.003024
574.984888	0.003127
575.197086	0.002904
575.409266	0.003242
575.621427	0.003131
575.833570	0.003232
576.045695	0.003208
576.257802	0.003130
576.469890	0.002782
576.681961	0.002614
576.894013	0.002672
577.106046	0.003004
577.318062	0.002835
577.530059	0.003045
577.742039	0.002949
577.954000	0.002740
578.165942	0.002548
578.377867	0.002638
578.589773	0.002803
578.801661	0.002521
579.013531	0.002428
579.225382	0.002686
579.437216	0.002346
579.649031	0.002517
579.860828	0.002463
580.072606	0.002680
580.284367	0.002846
580.496109	0.002630
580.707833	0.003379
580.919539	0.003224
581.131227	0.003128
581.342896	0.003094
581.554547	0.002802
581.766180	0.002776
581.977795	0.002743
582.189391	0.002413
582.400969	0.002643
582.612529	0.002431
582.824071	0.002312
583.035595	0.002158
583.247100	0.002531
583.458587	0.003015
583.670056	0.002998
583.881506	0.002820
584.092939	0.002802
584.304353	0.002662
584.515749	0.002582
584.727127	0.002324
584.938486	0.002258
585.149828	0.002068
585.361151	0.001798
585.572456	0.001931
585.783742	0.001942
585.995011	0.002056
586.206261	0.002179
586.417493	0.002153
586.628706	0.002382
586.839902	0.002500
587.051079	0.002550
587.262238	0.002485
587.473379	0.002476
587.684502	0.002701
587.895606	0.002575
588.106692	0.002321
588.317760	0.001962
588.528810	0.001989
588.739841	0.001788
588.950855	0.001596
589.161850	0.001750
589.372827	0.001683
589.583785	0.001107
589.794726	0.001196
590.005648	0.001236
590.216552	0.001588
590.427437	0.001601
590.638305	0.001727
590.849154	0.001833
591.059985	0.001597
591.270798	0.001674
591.481592	0.002202
591.692369	0.002256
591.903127	0.002606
592.113867	0.002477
592.324588	0.002423
592.535292	0.002072
592.745977	0.001954
592.956644	0.002047
593.167293	0.002156
593.377923	0.001794
593.588536	0.002063
593.799130	0.001905
594.009706	0.001945
594.220263	0.001939
594.430803	0.002319
594.641324	0.002408
594.851827	0.002188
595.062312	0.001989
595.272778	0.002006
595.483227	0.001619
595.693657	0.001505
595.904069	0.001522
596.114462	0.001568
596.324838	0.001442
596.535195	0.001596
596.745534	0.001784
596.955855	0.001984
597.166157	0.002272
597.376441	0.002224
597.586707	0.002307
597.796955	0.002359
598.007185	0.002437
598.217396	0.002651
598.427589	0.002693
598.637764	0.002534
598.847921	0.002302
599.058060	0.002200
599.268180	0.002411
599.478282	0.002235
599.688366	0.002173
599.898431	0.001944
600.108479	0.001565
600.318508	0.001318
600.528519	0.001324
600.738511	0.001369
600.948486	0.001368
601.158442	0.001248
601.368380	0.001404
601.578300	0.001391
601.788202	0.001327
601.998085	0.001748
602.207950	0.001970
602.417797	0.002120
602.627626	0.001952
602.837436	0.001927
603.047228	0.002007
603.257002	0.001676
603.466758	0.001726
603.676496	0.001831
603.886215	0.001390
604.095916	0.001332
604.305599	0.001085
604.515264	0.001133
604.724910	0.000962
604.934538	0.000745
605.144148	0.000752
605.353740	0.000775
605.563314	0.000671
605.772869	0.000959
605.982406	0.000982
606.191925	0.001261
606.401425	0.001424
606.610908	0.001494
606.820372	0.001664
607.029818	0.001979
607.239246	0.001674
607.448655	0.001980
607.658047	0.001870
607.867420	0.001663
608.076775	0.001711
608.286111	0.001762
608.495430	0.001760
608.704730	0.001754
608.914012	0.001281
609.123275	0.001424
609.332521	0.001150
609.541748	0.000987
609.750957	0.001091
609.960148	0.000821
610.169321	0.000644
610.378475	0.000720
610.587611	0.000732
610.796729	0.001071
611.005829	0.001085
611.214910	0.001292
611.423974	0.001414
611.633019	0.001399
611.842045	0.001640
612.051054	0.001568
612.260044	0.001404
612.469017	0.001495
612.677970	0.001500
612.886906	0.001450
613.095824	0.001379
613.304723	0.001469
613.513604	0.001459
613.722467	0.001177
613.931311	0.001218
614.140138	0.001185
614.348946	0.001102
614.557736	0.001115
614.766507	0.001173
614.975261	0.000979
615.183996	0.000976
615.392713	0.000994
615.601412	0.001117
615.810092	0.001267
616.018754	0.001205
616.227399	0.001362
616.436024	0.001500
616.644632	0.001481
616.853222	0.001844
617.061793	0.001933
617.270346	0.001656
617.478880	0.001648
617.687397	0.001640
617.895895	0.001837
618.104375	0.001650
618.312837	0.001577
618.521281	0.001491
618.729706	0.001272
618.938113	0.000983
619.146502	0.000938
619.354873	0.000868
619.563226	0.000745
619.771560	0.000701
619.979876	0.000711
620.188174	0.000410
620.396453	0.000606
620.604715	0.000718
620.812958	0.000877
621.021183	0.001153
621.229390	0.001190
621.437578	0.001094
621.645748	0.001139
621.853900	0.001103
622.062034	0.001211
622.270150	0.001032
622.478247	0.000909
622.686326	0.001037
622.894387	0.001007
623.102430	0.000952
623.310454	0.001086
623.518461	0.001021
623.726449	0.001089
623.934418	0.001224
624.142370	0.001163
624.350303	0.001180
624.558218	0.001222
624.766115	0.000994
624.973994	0.001163
625.181855	0.001127
625.389697	0.001001
625.597521	0.000917
625.805327	0.000771
626.013114	0.000832
626.220883	0.000904
626.428634	0.000712
626.636367	0.000813
626.844082	0.000601
627.051778	0.000750
627.259457	0.000929
627.467117	0.001057
627.674758	0.001129
627.882382	0.001159
628.089987	0.001049
628.297574	0.001063
628.505143	0.001075
628.712694	0.001094
628.920226	0.001069
629.127740	0.001028
629.335236	0.000889
629.542714	0.000727
629.750174	0.000664
629.957615	0.000660
630.165038	0.000638
630.372443	0.000397
630.579829	0.000642
630.787198	0.000458
630.994548	0.000519
631.201880	0.000436
631.409194	0.000479
631.616489	0.000550
631.823766	0.000499
632.031025	0.000602
632.238266	0.000909
632.445489	0.000664
632.652693	0.000666
632.859879	0.000450
633.067047	0.000559
633.274197	0.000635
633.481329	0.000399
633.688442	0.000404
633.895537	0.000106
634.102614	0.000151
634.309672	0.000106
634.516713	0.000070
634.723735	0.000072
634.930739	0.000143
635.137724	0.000075
635.344692	0.000216
635.551641	0.000264
635.758572	0.000390
635.965485	0.000339
636.172379	0.000482
636.379256	0.000667
636.586114	0.000829
636.792954	0.000744
636.999775	0.000893
637.206579	0.000865
637.413364	0.000949
637.620131	0.000738
637.826880	0.000567
638.033610	0.000576
638.240323	0.000526
638.447017	0.000458
638.653692	0.000500
638.860350	0.000385
639.066990	0.000418
639.273611	0.000232
639.480214	0.000440
639.686798	0.000491
639.893365	0.000290
640.099913	0.000108
640.306443	0.000023
640.512955	0.000140
640.719449	0.000322
640.925924	0.000337
641.132381	0.000441
641.338820	0.000549
641.545241	0.000639
641.751644	0.000732
641.958028	0.000643
642.164394	0.000767
642.370742	0.000729
642.577071	0.000592
642.783383	0.000720
642.989676	0.000932
643.195951	0.000818
643.402207	0.000848
643.608446	0.000878
643.814666	0.001092
644.020868	0.001065
644.227052	0.000801
644.433218	0.000824
644.639365	0.000704
644.845494	0.000502
645.051605	0.000624
645.257698	0.000561
645.463772	0.000744
645.669828	0.000877
645.875866	0.000791
646.081886	0.000878
646.287888	0.000891
646.493871	0.001018
646.699836	0.001055
646.905783	0.000907
647.111712	0.000930
647.317622	0.000898
647.523514	0.000785
647.729388	0.000901
647.935244	0.000890
648.141082	0.000863
648.346901	0.000677
648.552702	0.000831
648.758485	0.000949
648.964250	0.001029
649.169996	0.000882
649.375724	0.000947
649.581434	0.001113
649.787126	0.001233
649.992800	0.001346
650.198455	0.001560
650.404092	0.001280
650.609711	0.001380
650.815311	0.001397
651.020894	0.001447
651.226458	0.001533
651.432004	0.001334
651.637532	0.001165
651.843041	0.001067
652.048532	0.000922
652.254006	0.001105
652.459460	0.000823
652.664897	0.000563
652.870315	0.000438
653.075716	0.000218
653.281097	0.000302
653.486461	0.000321
653.691807	0.000300
653.897134	0.000373
654.102443	0.000290
654.307734	0.000469
654.513006	0.000576
654.718261	0.000557
654.923497	0.000617
655.128715	0.000569
655.333915	0.000685
655.539096	0.000537
655.744259	0.000477
655.949404	0.000331
656.154531	0.000238
656.359640	0.000216
656.564730	0.000393
656.769802	0.000371
656.974856	0.000213
657.179892	0.000166
657.384909	0.000356
657.589908	0.000549
657.794889	0.000703
657.999852	0.000792
658.204797	0.000770
658.409723	0.000797
658.614631	0.000706
658.819521	0.000741
659.024393	0.000923
659.229246	0.000858
659.434081	0.000643
659.638898	0.000455
659.843697	0.000282
660.048478	0.000237
660.253240	0.000103
660.457984	0.000153
660.662710	0.000281
660.867417	0.000043
661.072107	0.000103
661.276778	0.000149
661.481431	0.000416
661.686066	0.000531
661.890682	0.000615
662.095281	0.000717
662.299861	0.000756
662.504422	0.000774
662.708966	0.000701
662.913491	0.000661
663.117999	0.000400
663.322488	0.000206
663.526958	0.000194
663.731411	0.000144
663.935845	0.000025
664.140261	-0.000074
664.344659	-0.000266
664.549038	-0.000141
664.753400	-0.000290
664.957743	-0.000100
665.162068	-0.000129
665.366375	-0.000062
665.570663	0.000059
665.774933	0.000057
665.979185	0.000214
666.183419	0.000264
666.387635	0.000275
666.591832	0.000396
666.796011	0.000380
667.000172	0.000349
667.204315	0.000333
667.408439	0.000321
667.612545	0.000249
667.816634	0.000052
668.020703	0.000114
668.224755	-0.000009
668.428788	0.000020
668.632803	0.000270
668.836800	0.000444
669.040779	0.000265
669.244739	0.000280
669.448681	0.000344
669.652605	0.000437
669.856511	0.000431
670.060399	0.000432
670.264268	0.000446
670.468119	0.000162
670.671952	0.000173
670.875767	0.000270
671.079563	0.000231
671.283341	0.000257
671.487101	0.000256
671.690843	0.000195
671.894567	0.000174
672.098272	0.000080
672.301959	-0.000008
672.505628	-0.000127
672.709278	-0.000205
672.912911	-0.000167
673.116525	-0.000153
673.320121	-0.000257
673.523699	-0.000276
673.727258	-0.000128
673.930799	0.000003
674.134322	0.000184
674.337827	0.000195
674.541314	0.000271
674.744782	0.000429
674.948232	0.000404
675.151664	0.000420
675.355078	0.000624
675.558474	0.000652
675.761851	0.000678
675.965210	0.000745
676.168551	0.000901
676.371873	0.000936
676.575178	0.000765
676.778464	0.000910
676.981732	0.001142
677.184981	0.001089
677.388213	0.000958
677.591426	0.000696
677.794621	0.000606
677.997798	0.000451
678.200956	0.000535
678.404097	0.000508
678.607219	0.000377
678.810323	0.000381
679.013408	0.000300
679.216476	0.000373
679.419525	0.000531
679.622556	0.000522
679.825569	0.000433
680.028563	0.000313
680.231540	0.000272
680.434498	0.000199
680.637438	0.000152
680.840359	0.000022
681.043263	0.000039
681.246148	0.000069
681.449015	0.000154
681.651864	0.000390
681.854694	0.000627
682.057506	0.000471
682.260301	0.000496
682.463076	0.000514
682.665834	0.000606
682.868573	0.000575
683.071295	0.000575
683.273998	0.000566
683.476682	0.000486
683.679349	0.000255
683.881997	0.000353
684.084627	0.000426
684.287239	0.000223
684.489833	0.000315
684.692408	0.000540
684.894965	0.000489
685.097504	0.000382
685.300025	0.000415
685.502527	0.000287
685.705012	0.000376
685.907478	0.000135
686.109925	0.000149
686.312355	0.000002
686.514766	-0.000232
686.717159	-0.000148
686.919534	-0.000172
687.121891	-0.000212
687.324230	-0.000037
687.526550	0.000022
687.728852	0.000336
687.931136	0.000408
688.133401	0.000467
688.335649	0.000483
688.537878	0.000333
688.740089	0.000301
688.942281	0.000086
689.144456	0.000075
689.346612	-0.000015
689.548750	-0.000051
689.750870	0.000021
689.952971	-0.000009
690.155055	-0.000149
690.357120	-0.000274
690.559167	-0.000269
690.761195	-0.000196
690.963206	-0.000278
691.165198	-0.000354
691.367172	-0.000344
691.569128	-0.000393
691.771065	-0.000386
691.972984	-0.000355
692.174885	-0.000152
692.376768	-0.000093
692.578633	-0.000185
692.780479	-0.000184
692.982308	-0.000318
693.184118	-0.000387
693.385909	-0.000637
693.587683	-0.000595
693.789438	-0.000412
693.991175	-0.000530
694.192894	-0.000389
694.394595	-0.000274
694.596277	-0.000319
694.797941	-0.000246
694.999587	-0.000336
695.201215	-0.000073
695.402824	-0.000087
695.604416	-0.000231
695.805989	-0.000234
696.007543	-0.000407
696.209080	-0.000264
696.410598	-0.000111
696.612099	-0.000060
696.813580	0.000004
697.015044	-0.000157
697.216490	-0.000221
697.417917	-0.000297
697.619326	-0.000149
697.820717	-0.000089
698.022089	-0.000158
698.223444	-0.000162
698.424780	-0.000065
698.626098	-0.000067
698.827397	-0.000033
699.028679	-0.000052
699.229942	-0.000070
699.431187	-0.000337
699.632414	-0.000616
699.833622	-0.000684
700.034813	-0.000893
700.235985	-0.000957
700.437139	-0.001018
700.638274	-0.001032
700.839392	-0.001141
701.040491	-0.001262
701.241572	-0.001164
701.442635	-0.001031
701.643679	-0.001062
701.844706	-0.000974
702.045714	-0.001077
702.246704	-0.000968
702.447675	-0.001035
702.648629	-0.000862
702.849564	-0.000719
703.050481	-0.000616
703.251380	-0.000572
703.452260	-0.000460
703.653122	-0.000366
703.853966	-0.000162
704.054792	-0.000101
704.255600	0.000016
704.456389	-0.000005
704.657160	0.000034
704.857913	-0.000040
705.058648	-0.000080
705.259365	-0.000103
705.460063	-0.000135
705.660743	-0.000186
705.861405	-0.000360
706.062048	-0.000580
706.262674	-0.000487
706.463281	-0.000463
706.663870	-0.000397
706.864441	-0.000307
707.064993	-0.000300
707.265527	-0.000581
707.466043	-0.000688
707.666541	-0.000611
707.867021	-0.000277
708.067482	-0.000495
708.267925	-0.000490
708.468350	-0.000516
708.668757	-0.000473
708.869145	-0.000587
709.069516	-0.000361
709.269868	-0.000308
709.470201	-0.000391
709.670517	-0.000627
709.870814	-0.000572
710.071093	-0.000655
710.271354	-0.000597
710.471597	-0.000697
710.671821	-0.000628
710.872028	-0.000725
711.072216	-0.000771
711.272385	-0.000865
711.472537	-0.000975
711.672670	-0.001038
711.872785	-0.001067
712.072882	-0.001204
712.272961	-0.001228
712.473021	-0.001292
712.673063	-0.001271
712.873087	-0.001230
713.073093	-0.001040
713.273081	-0.000873
713.473050	-0.000812
713.673001	-0.000666
713.872934	-0.000639
714.072849	-0.000485
714.272745	-0.000460
714.472623	-0.000498
714.672483	-0.000531
714.872325	-0.000719
715.072148	-0.000777
715.271954	-0.000750
715.471741	-0.000964
715.671509	-0.000947
715.871260	-0.001075
716.070992	-0.001215
716.270707	-0.001309
716.470403	-0.001295
716.670080	-0.001303
716.869740	-0.001155
717.069381	-0.001296
717.269004	-0.001305
717.468609	-0.001464
717.668195	-0.001656
717.867764	-0.001503
718.067314	-0.001515
718.266846	-0.001512
718.466360	-0.001590
718.665855	-0.001695
718.865332	-0.001595
719.064791	-0.001517
719.264232	-0.001333
719.463655	-0.001271
719.663059	-0.001357
719.862445	-0.001271
720.061813	-0.001264
720.261163	-0.001226
720.460494	-0.001250
720.659807	-0.001197
720.859102	-0.001223
721.058379	-0.001308
721.257638	-0.001126
721.456878	-0.001057
721.656100	-0.000937
721.855304	-0.000957
722.054490	-0.000935
722.253657	-0.000861
722.452806	-0.001021
722.651937	-0.000996
722.851050	-0.001030
723.050145	-0.001200
723.249221	-0.001180
723.448279	-0.001300
723.647319	-0.001261
723.846340	-0.001448
724.045344	-0.001541
724.244329	-0.001357
724.443296	-0.001474
724.642245	-0.001469
724.841175	-0.001593
725.040088	-0.001831
725.238982	-0.001978
725.437857	-0.002000
725.636715	-0.001830
725.835554	-0.001892
726.034376	-0.002004
726.233179	-0.002032
726.431963	-0.002013
726.630730	-0.002013
726.829478	-0.002009
727.028208	-0.002005
727.226920	-0.002149
727.425614	-0.002173
727.624289	-0.002124
727.822946	-0.002100
728.021585	-0.002090
728.220206	-0.002399
728.418808	-0.002431
728.617392	-0.002479
728.815958	-0.002539
729.014506	-0.002576
729.213036	-0.002432
729.411547	-0.002613
729.610040	-0.002601
729.808515	-0.002415
730.006972	-0.002123
730.205410	-0.002078
730.403831	-0.001905
730.602233	-0.001845
730.800616	-0.001883
730.998982	-0.001956
731.197329	-0.001857
731.395658	-0.002051
731.593969	-0.002290
731.792262	-0.002369
731.990536	-0.002482
732.188793	-0.002748
732.387031	-0.002760
732.585250	-0.002858
732.783452	-0.003086
732.981635	-0.003059
733.179800	-0.003197
733.377947	-0.003130
733.576076	-0.003196
733.774186	-0.002998
733.972278	-0.002783
734.170352	-0.002664
734.368408	-0.002587
734.566446	-0.002654
734.764465	-0.002814
734.962466	-0.002602
735.160449	-0.002566
735.358413	-0.002578
735.556360	-0.002681
735.754288	-0.002684
735.952198	-0.002738
736.150090	-0.002753
736.347963	-0.002519
736.545818	-0.002447
736.743655	-0.002532
736.941474	-0.002563
737.139275	-0.002666
737.337057	-0.002812
737.534821	-0.002842
737.732567	-0.002933
737.930295	-0.002908
738.128005	-0.002923
738.325696	-0.002840
738.523369	-0.002771
738.721024	-0.002791
738.918660	-0.002581
739.116279	-0.002334
739.313879	-0.002234
739.511461	-0.002255
739.709024	-0.002420
739.906570	-0.002488
740.104097	-0.002631
740.301606	-0.002841
740.499097	-0.002949
740.696569	-0.003180
740.894024	-0.003331
741.091460	-0.003432
741.288878	-0.003457
741.486277	-0.003229
741.683659	-0.003314
741.881022	-0.003347
742.078367	-0.003360
742.275694	-0.003366
742.473002	-0.003251
742.670293	-0.003229
742.867565	-0.003286
743.064819	-0.003175
743.262054	-0.003205
743.459272	-0.003203
743.656471	-0.003095
743.853652	-0.003106
744.050815	-0.003044
744.247959	-0.003274
744.445085	-0.003281
744.642194	-0.003294
744.839283	-0.003373
745.036355	-0.003478
745.233408	-0.003377
745.430444	-0.003429
745.627461	-0.003260
745.824459	-0.003210
746.021440	-0.002813
746.218402	-0.002748
746.415346	-0.002967
746.612272	-0.002957
746.809180	-0.002832
747.006069	-0.002892
747.202940	-0.002934
747.399793	-0.002859
747.596628	-0.002874
747.793444	-0.003088
747.990243	-0.003183
748.187023	-0.003081
748.383784	-0.002970
748.580528	-0.003013
748.777253	-0.002973
748.973960	-0.002907
749.170649	-0.003058
749.367320	-0.003081
749.563973	-0.003208
749.760607	-0.003179
749.957223	-0.003078
750.153821	-0.003275
750.350400	-0.003235
750.546962	-0.003294
750.743505	-0.003275
750.940030	-0.003277
751.136536	-0.003265
751.333025	-0.003173
751.529495	-0.002993
751.725947	-0.002820
751.922381	-0.002563
752.118796	-0.002415
752.315194	-0.002297
752.511573	-0.002156
752.707934	-0.002045
752.904276	-0.002139
753.100601	-0.001991
753.296907	-0.002146
753.493195	-0.002198
753.689465	-0.002240
753.885716	-0.002414
754.081949	-0.002510
754.278164	-0.002732
754.474361	-0.002828
754.670540	-0.002814
754.866700	-0.002900
755.062843	-0.002952
755.258967	-0.002935
755.455072	-0.002987
755.651160	-0.002870
755.847229	-0.002704
756.043280	-0.002635
756.239313	-0.002543
756.435328	-0.002471
756.631324	-0.002234
756.827302	-0.002195
757.023262	-0.002302
757.219204	-0.002550
757.415127	-0.002819
757.611033	-0.002990
757.806920	-0.002804
758.002788	-0.002944
758.198639	-0.003027
758.394471	-0.003223
758.590286	-0.003212
758.786081	-0.003114
758.981859	-0.002843
759.177619	-0.002665
759.373360	-0.002570
759.569083	-0.002806
759.764788	-0.002639
759.960474	-0.002494
760.156143	-0.002511
760.351793	-0.002448
760.547425	-0.002630
760.743038	-0.002412
760.938634	-0.002404
761.134211	-0.002381
761.329770	-0.002219
761.525311	-0.002126
761.720833	-0.002135
761.916338	-0.001705
762.111824	-0.001760
762.307292	-0.001727
762.502741	-0.001754
762.698173	-0.001845
762.893586	-0.001808
763.088981	-0.001636
763.284358	-0.001744
763.479716	-0.001528
763.675057	-0.001830
763.870379	-0.001805
764.065683	-0.001576
764.260968	-0.001772
764.456236	-0.001570
764.651485	-0.001534
764.846716	-0.001732
765.041929	-0.001928
765.237123	-0.002175
765.432299	-0.002282
765.627457	-0.002227
765.822597	-0.002318
766.017719	-0.002203
766.212822	-0.002191
766.407907	-0.002403
766.602974	-0.002500
766.798023	-0.002113
766.993054	-0.002018
767.188066	-0.001911
767.383060	-0.001940
767.578036	-0.001827
767.772993	-0.001859
767.967933	-0.001939
768.162854	-0.001782
768.357757	-0.001721
768.552642	-0.001808
768.747508	-0.001910
768.942356	-0.001919
769.137186	-0.001830
769.331998	-0.001818
769.526792	-0.001770
769.721567	-0.001747
769.916324	-0.001595
770.111063	-0.001489
770.305784	-0.001543
770.500486	-0.001353
770.695171	-0.001216
770.889837	-0.001188
771.084484	-0.001111
771.279114	-0.001054
771.473725	-0.001037
771.668318	-0.001069
771.862893	-0.001011
772.057450	-0.001108
772.251988	-0.000909
772.446509	-0.000893
772.641011	-0.000710
772.835494	-0.000811
773.029960	-0.000785
773.224407	-0.000740
773.418836	-0.000777
773.613247	-0.000830
773.807640	-0.000661
774.002014	-0.001044
774.196370	-0.001248
774.390708	-0.001343
774.585028	-0.001413
774.779330	-0.001513
774.973613	-0.001535
775.167878	-0.001609
775.362125	-0.001485
775.556354	-0.001424
775.750564	-0.001145
775.944756	-0.000988
776.138930	-0.000914
776.333086	-0.000773
776.527223	-0.000687
776.721343	-0.000727
776.915444	-0.000761
777.109526	-0.000747
777.303591	-0.000573
777.497637	-0.000544
777.691666	-0.000490
777.885676	-0.000743
778.079667	-0.000733
778.273641	-0.000684
778.467596	-0.000734
778.661533	-0.000567
778.855452	-0.000739
779.049352	-0.000850
779.243235	-0.000898
779.437099	-0.000871
779.630945	-0.000578
779.824773	-0.000457
780.018582	-0.000604
780.212373	-0.000406
780.406146	-0.000344
780.599901	-0.000222
780.793638	-0.000242
780.987356	-0.000352
781.181056	-0.000485
781.374738	-0.000601
781.568402	-0.000784
781.762047	-0.000702
781.955674	-0.000984
782.149283	-0.001034
782.342874	-0.001038
782.536447	-0.001083
782.730001	-0.000782
782.923537	-0.000875
783.117055	-0.000588
783.310555	-0.000670
783.504036	-0.000714
783.697499	-0.000354
783.890944	-0.000409
784.084371	-0.000412
784.277780	-0.000336
784.471170	-0.000680
784.664542	-0.000595
784.857896	-0.000777
785.051231	-0.000612
785.244549	-0.000503
785.437848	-0.000585
785.631129	-0.000524
785.824392	-0.000496
786.017636	-0.000444
786.210863	-0.000077
786.404071	-0.000024
786.597260	-0.000061
786.790432	-0.000119
786.983585	-0.000046
787.176721	-0.000067
787.369838	0.000052
787.562936	0.000019
787.756017	-0.000209
787.949079	-0.000247
788.142123	-0.000217
788.335149	-0.000372
788.528156	-0.000281
788.721146	-0.000414
788.914117	-0.000432
789.107070	-0.000521
789.300005	-0.000541
789.492921	-0.000450
789.685819	-0.000566
789.878699	-0.000546
790.071561	-0.000246
790.264405	-0.000225
790.457230	-0.000177
790.650037	-0.000202
790.842826	0.000007
791.035597	0.000188
791.228349	0.000345
791.421084	0.000410
791.613800	0.000503
791.806497	0.000179
791.999177	0.000127
792.191838	0.000080
792.384481	0.000199
792.577106	0.000007
792.769713	-0.000157
792.962301	-0.000218
793.154871	-0.000114
793.347423	-0.000077
793.539957	0.000155
793.732473	0.000229
793.924970	0.000433
794.117449	0.000431
794.309910	0.000282
794.502353	0.000343
794.694777	0.000223
794.887183	-0.000206
795.079571	-0.000190
795.271941	-0.000307
795.464293	-0.000220
795.656626	-0.000292
795.848941	-0.000153
796.041238	0.000022
796.233516	0.000090
796.425777	0.000475
796.618019	0.000846
796.810243	0.000781
797.002449	0.000844
797.194636	0.000779
797.386805	0.000536
797.578956	0.000524
797.771089	0.000656
797.963204	0.000713
798.155300	0.000843
798.347378	0.000787
798.539438	0.001015
798.731480	0.001066
798.923503	0.000967
799.115509	0.001351
799.307496	0.001392
799.499465	0.001356
799.691415	0.001312
799.883348	0.000917
800.075262	0.000848
800.267158	0.000447
800.459035	0.000546
800.650895	0.000624
800.842736	0.000461
801.034559	0.000418
801.226364	0.000494
801.418150	0.000421
801.609919	0.000585
801.801669	0.000722
801.993401	0.000891
802.185114	0.000748
802.376810	0.000899
802.568487	0.001131
802.760146	0.000908
802.951787	0.000821
803.143409	0.000891
803.335014	0.001012
803.526600	0.000996
803.718168	0.001123
803.909717	0.001284
804.101249	0.001116
804.292762	0.000858
804.484257	0.000945
804.675734	0.001111
804.867192	0.001096
805.058632	0.000584
805.250054	0.000452
805.441458	0.000296
805.632844	0.000370
805.824211	0.000494
806.015561	0.000660
806.206891	0.000699
806.398204	0.000537
806.589499	0.000472
806.780775	0.000821
806.972033	0.000870
807.163273	0.000992
807.354495	0.000782
807.545698	0.000591
807.736883	0.000689
807.928050	0.000718
808.119199	0.000880
808.310329	0.000970
808.501441	0.000895
808.692535	0.000808
808.883611	0.000758
809.074669	0.000945
809.265708	0.001265
809.456729	0.000900
809.647732	0.001009
809.838717	0.000946
810.029683	0.001196
810.220632	0.001117
810.411562	0.001377
810.602474	0.001387
810.793367	0.001091
810.984242	0.000865
811.175100	0.000958
811.365938	0.000861
811.556759	0.000594
811.747562	0.000252
811.938346	0.000322
812.129112	-0.000032
812.319860	-0.000005
812.510589	0.000179
812.701300	-0.000036
812.891994	0.000189
813.082668	0.000057
813.273325	0.000190
813.463964	0.000254
813.654584	0.000372
813.845186	0.000534
814.035769	0.000464
814.226335	0.000248
814.416882	0.000355
814.607411	0.000298
814.797922	0.000374
814.988415	0.000017
815.178889	-0.000100
815.369345	-0.000031
815.559783	0.000154
815.750203	0.000217
815.940605	0.000418
816.130988	0.000300
816.321353	0.000047
816.511700	0.000001
816.702028	0.000205
816.892339	0.000096
817.082631	-0.000120
817.272905	-0.000514
817.463161	-0.000857
817.653398	-0.001250
817.843617	-0.001241
818.033819	-0.001245
818.224001	-0.001354
818.414166	-0.001317
818.604312	-0.001135
818.794440	-0.001380
818.984550	-0.001211
819.174642	-0.000952
819.364716	-0.000528
819.554771	-0.000407
819.744808	-0.000183
819.934827	-0.000168
820.124827	-0.000323
820.314810	-0.000356
820.504774	-0.000006
820.694720	-0.000040
820.884647	-0.000112
821.074557	-0.000165
821.264448	-0.000331
821.454321	-0.000772
821.644176	-0.000852
821.834012	-0.000891
822.023831	-0.001024
822.213631	-0.001182
822.403413	-0.001450
822.593176	-0.001514
822.782922	-0.001578
822.972649	-0.001410
823.162358	-0.001073
823.352049	-0.000977
823.541721	-0.001062
823.731376	-0.001015
823.921012	-0.001225
824.110629	-0.001190
824.300229	-0.001269
824.489811	-0.001388
824.679374	-0.001429
824.868919	-0.001716
825.058445	-0.001795
825.247954	-0.001679
825.437444	-0.001848
825.626916	-0.001647
825.816370	-0.001529
826.005806	-0.001612
826.195223	-0.001752
826.384622	-0.001746
826.574003	-0.001500
826.763366	-0.001418
826.952711	-0.001380
827.142037	-0.001093
827.331345	-0.001069
827.520635	-0.000977
827.709906	-0.000766
827.899160	-0.000745
828.088395	-0.000935
828.277612	-0.001216
828.466810	-0.001242
828.655991	-0.001294
828.845153	-0.001550
829.034297	-0.001619
829.223423	-0.001628
829.412531	-0.001885
829.601620	-0.001953
829.790691	-0.001777
829.979744	-0.001826
830.168779	-0.002023
830.357795	-0.002078
830.546793	-0.001888
830.735773	-0.001850
830.924735	-0.002000
831.113679	-0.002121
831.302604	-0.002033
831.491511	-0.002336
831.680400	-0.002298
831.869271	-0.002200
832.058123	-0.002255
832.246957	-0.002429
832.435773	-0.002583
832.624571	-0.002751
832.813351	-0.002653
833.002112	-0.002548
833.190855	-0.002489
833.379580	-0.002506
833.568287	-0.002449
833.756975	-0.002574
833.945645	-0.002494
834.134297	-0.002279
834.322931	-0.001970
834.511547	-0.001884
834.700144	-0.001954
834.888723	-0.001817
835.077284	-0.001645
835.265826	-0.001795
835.454351	-0.001735
835.642857	-0.001702
835.831345	-0.002005
836.019815	-0.001821
836.208266	-0.001927
836.396699	-0.002032
836.585114	-0.002226
836.773511	-0.002288
836.961890	-0.002205
837.150250	-0.001835
837.338592	-0.002113
837.526916	-0.002228
837.715222	-0.002473
837.903510	-0.002476
838.091779	-0.002315
838.280030	-0.002242
838.468263	-0.002453
838.656477	-0.002593
838.844674	-0.003050
839.032852	-0.002909
839.221012	-0.002842
839.409153	-0.003073
839.597277	-0.003090
839.785382	-0.003334
839.973469	-0.003380
840.161538	-0.003289
840.349589	-0.003289
840.537621	-0.003100
840.725635	-0.003111
840.913631	-0.003217
841.101609	-0.003115
841.289568	-0.002971
841.477509	-0.002945
841.665432	-0.003193
841.853337	-0.003295
842.041224	-0.003300
842.229092	-0.003365
842.416942	-0.003246
842.604774	-0.003200
842.792588	-0.003236
842.980383	-0.003368
843.168160	-0.003352
843.355919	-0.003113
843.543660	-0.002934
843.731382	-0.002870
843.919087	-0.002870
844.106773	-0.003148
844.294441	-0.002980
844.482090	-0.003168
844.669722	-0.003014
844.857335	-0.002898
845.044930	-0.002781
845.232507	-0.002860
845.420065	-0.002739
845.607605	-0.002739
845.795127	-0.002709
845.982631	-0.002753
846.170117	-0.002618
846.357584	-0.002786
846.545033	-0.002843
846.732464	-0.002915
846.919877	-0.002752
847.107272	-0.002844
847.294648	-0.002667
847.482006	-0.002370
847.669346	-0.002288
847.856667	-0.002353
848.043971	-0.002175
848.231256	-0.002213
848.418523	-0.002190
848.605771	-0.002341
848.793002	-0.002191
848.980214	-0.002303
849.167408	-0.002595
849.354584	-0.002617
849.541742	-0.002400
849.728881	-0.002503
849.916002	-0.002411
850.103105	-0.002331
850.290190	-0.002242
850.477256	-0.002240
850.664304	-0.002022
850.851334	-0.001852
851.038346	-0.001473
851.225340	-0.001518
851.412315	-0.001396
851.599272	-0.001286
851.786211	-0.001184
851.973132	-0.001084
852.160034	-0.001285
852.346918	-0.001444
852.533784	-0.001614
852.720632	-0.001999
852.907462	-0.002089
853.094273	-0.002096
853.281066	-0.002229
853.467841	-0.002344
853.654598	-0.002575
853.841336	-0.002390
854.028056	-0.002461
854.214758	-0.002574
854.401442	-0.002637
854.588107	-0.002279
854.774755	-0.002357
854.961384	-0.002293
855.147995	-0.002376
855.334587	-0.002323
855.521162	-0.002367
855.707718	-0.002325
855.894256	-0.001779
856.080775	-0.001760
856.267277	-0.002093
856.453760	-0.002010
856.640225	-0.002178
856.826672	-0.001998
857.013101	-0.002010
857.199511	-0.001947
857.385903	-0.001668
857.572277	-0.001756
857.758633	-0.001634
857.944970	-0.001351
858.131290	-0.001324
858.317591	-0.001087
858.503873	-0.001052
858.690138	-0.000759
858.876384	-0.000599
859.062612	-0.000674
859.248822	-0.000804
859.435014	-0.000970
859.621188	-0.000958
859.807343	-0.000701
859.993480	-0.000681
860.179599	-0.000442
860.365699	-0.000502
860.551781	-0.000605
860.737846	-0.000667
860.923891	-0.000604
861.109919	-0.000520
861.295929	-0.000737
861.481920	-0.001000
861.667893	-0.000982
861.853848	-0.001241
862.039784	-0.001187
862.225702	-0.001362
862.411603	-0.001340
862.597484	-0.001315
862.783348	-0.001248
862.969193	-0.001105
863.155021	-0.001113
863.340830	-0.001197
863.526620	-0.001243
863.712393	-0.001512
863.898147	-0.001623
864.083883	-0.001747
864.269601	-0.001623
864.455301	-0.001349
864.640982	-0.001408
864.826645	-0.001244
865.012290	-0.001280
865.197917	-0.001389
865.383526	-0.001181
865.569116	-0.000918
865.754688	-0.000839
865.940242	-0.000942
866.125777	-0.001158
866.311295	-0.000844
866.496794	-0.000993
866.682275	-0.000902
866.867737	-0.000709
867.053182	-0.000601
867.238608	-0.000585
867.424016	-0.000395
867.609406	-0.000462
867.794778	-0.000600
867.980131	-0.000820
868.165466	-0.000611
868.350783	-0.000509
868.536082	-0.000604
868.721362	-0.000549
868.906625	-0.000251
869.091869	-0.000597
869.277094	-0.000690
869.462302	-0.000492
869.647491	-0.000607
869.832662	-0.000745
870.017815	-0.000936
870.202950	-0.000921
870.388066	-0.001192
870.573165	-0.001272
870.758245	-0.001112
870.943306	-0.001124
871.128350	-0.001061
871.313375	-0.000999
871.498382	-0.001123
871.683371	-0.001008
871.868342	-0.000927
872.053294	-0.000730
872.238229	-0.000855
872.423144	-0.000840
872.608042	-0.000628
872.792922	-0.000459
872.977783	-0.000538
873.162626	-0.000360
873.347451	-0.000435
873.532258	-0.000374
873.717046	-0.000553
873.901816	-0.000835
874.086568	-0.000850
874.271302	-0.000913
874.456017	-0.001202
874.640715	-0.000890
874.825394	-0.000632
875.010055	-0.000358
875.194697	-0.000025
875.379322	0.000062
875.563928	0.000158
875.748516	-0.000011
875.933085	0.000112
876.117637	0.000095
876.302170	0.000068
876.486685	-0.000382
876.671182	-0.000846
876.855661	-0.001226
877.040121	-0.001280
877.224563	-0.000902
877.408987	-0.000694
877.593393	-0.000719
877.777780	-0.000828
877.962150	-0.001087
878.146501	-0.000782
878.330833	-0.000290
878.515148	-0.000061
878.699444	0.000067
878.883722	-0.000308
879.067982	0.000183
879.252224	0.000443
879.436447	0.000591
879.620653	0.000797
879.804840	0.000657
879.989008	0.000549
880.173159	0.000414
880.357291	0.000645
880.541405	0.000887
880.725501	0.000478
880.909579	0.000449
881.093638	0.000954
881.277680	0.000869
881.461703	0.000966
881.645707	0.000875
881.829694	0.000841
882.013662	0.000590
882.197612	0.000583
882.381544	0.000547
882.565458	0.000272
882.749353	-0.000114
882.933230	0.000215
883.117089	0.000130
883.300930	0.000291
883.484753	0.000273
883.668557	0.000238
883.852343	0.000324
884.036111	0.000492
884.219861	0.000407
884.403592	0.000495
884.587305	0.000316
884.771000	0.000437
884.954677	0.000158
885.138335	0.000278
885.321976	0.000352
885.505598	0.000446
885.689201	0.000504
885.872787	0.000442
886.056354	0.000311
886.239904	0.000169
886.423434	0.000058
886.606947	0.000403
886.790442	0.000379
886.973918	0.000297
887.157376	0.000051
887.340816	0.000049
887.524237	0.000186
887.707641	0.000193
887.891026	0.000210
888.074393	0.000259
888.257741	0.000366
888.441072	0.000092
888.624384	0.000196
888.807678	0.000076
888.990954	0.000094
889.174211	0.000246
889.357451	0.000398
889.540672	0.000940
889.723875	0.001085
889.907059	0.000645
890.090226	0.000936
890.273374	0.001006
890.456504	0.000974
890.639616	0.000913
890.822709	0.000948
891.005785	0.000847
891.188842	0.000464
891.371881	0.000807
891.554901	0.001083
891.737904	0.001169
891.920888	0.001518
892.103854	0.001522
892.286802	0.001455
892.469731	0.001520
892.652643	0.001530
892.835536	0.001414
893.018410	0.000700
893.201267	0.000715
893.384106	0.000730
893.566926	0.000436
893.749728	0.000696
893.932511	0.000989
894.115277	0.001060
894.298024	0.001130
894.480753	0.001067
894.663464	0.001400
894.846157	0.001184
895.028831	0.001049
895.211487	0.000847
895.394125	0.000704
895.576745	0.000626
895.759346	0.000315
895.941930	0.000202
896.124495	0.000399
896.307041	0.000388
896.489570	0.000552
896.672080	0.000442
896.854573	0.000439
897.037046	0.000347
897.219502	0.000088
897.401940	-0.000101
897.584359	0.000007
897.766760	-0.000242
897.949143	0.000019
898.131507	-0.000211
898.313854	-0.000084
898.496182	-0.000050
898.678492	0.000286
898.860783	0.000238
899.043057	0.000424
899.225312	0.000167
899.407549	-0.000019
899.589768	-0.000133
899.771968	-0.000087
899.954151	-0.000393
900.136315	-0.000397
900.318461	-0.000537
900.500588	-0.000296
900.682698	-0.000145
900.864789	-0.000174
901.046862	-0.000032
901.228917	-0.000240
901.410953	-0.000098
901.592971	0.000417
901.774972	0.000315
901.956953	0.000197
902.138917	0.000063
902.320862	0.000207
902.502790	0.000232
902.684699	0.000026
902.866589	-0.000318
903.048462	-0.000419
903.230316	-0.000631
903.412152	-0.000457
903.593970	-0.000497
903.775770	-0.000873
903.957551	-0.001258
904.139314	-0.001349
904.321059	-0.000954
904.502786	-0.000422
904.684494	-0.000426
904.866185	-0.000591
905.047857	-0.000785
905.229510	-0.000565
905.411146	-0.000368
905.592763	-0.000508
905.774363	-0.000349
905.955943	-0.000305
906.137506	-0.000295
906.319051	-0.000102
906.500577	-0.000113
906.682085	-0.000003
906.863575	-0.000419
907.045046	-0.000535
907.226500	-0.000486
907.407935	-0.000718
907.589352	-0.000998
907.770750	-0.001299
907.952131	-0.001181
908.133493	-0.001195
908.314837	-0.001176
908.496163	-0.000764
908.677470	-0.000277
908.858760	-0.000095
909.040031	0.000128
909.221284	0.000330
909.402518	-0.000295
909.583735	-0.000634
909.764933	-0.000257
909.946113	-0.000258
910.127275	-0.000229
910.308418	-0.000646
910.489544	-0.000627
910.670651	-0.000532
910.851740	-0.000805
911.032810	0.000001
911.213863	0.000374
911.394897	0.000032
911.575913	-0.000257
911.756911	-0.000410
911.937890	-0.000326
912.118851	-0.000305
912.299794	0.000033
912.480719	0.000156
912.661626	0.000249
912.842514	-0.000186
913.023384	-0.000349
913.204236	0.000150
913.385070	-0.000266
913.565886	-0.000134
913.746683	0.000048
913.927462	-0.000298
914.108223	0.000005
914.288965	-0.000508
914.469690	-0.000682
914.650396	-0.000205
914.831084	-0.000356
915.011754	0.000148
915.192405	0.000160
915.373038	-0.000212
915.553653	-0.000564
915.734250	-0.000662
915.914829	-0.000448
916.095389	-0.000478
916.275931	-0.000936
916.456455	-0.000749
916.636961	-0.001076
916.817448	-0.001060
916.997917	-0.000695
917.178368	-0.000098
917.358801	0.000015
917.539216	0.000052
917.719612	0.000550
917.899990	0.000481
918.080350	0.000167
918.260692	0.000474
918.441015	0.000069
918.621320	-0.000158
918.801607	-0.000330
918.981876	-0.000890
919.162127	-0.001166
919.342359	-0.001773
919.522573	-0.001769
919.702769	-0.002095
919.882947	-0.002494
920.063106	-0.002336
920.243247	-0.002678
920.423370	-0.003292
920.603475	-0.002898
920.783562	-0.002627
920.963630	-0.002259
921.143680	-0.002261
921.323712	-0.001920
921.503725	-0.002017
921.683721	-0.002271
921.863698	-0.002017
922.043657	-0.001910
922.223598	-0.002011
922.403520	-0.002637
922.583424	-0.002991
922.763311	-0.002639
922.943178	-0.002696
923.123028	-0.003116
923.302859	-0.002973
923.482673	-0.003569
923.662467	-0.003615
923.842244	-0.004331
924.022003	-0.004191
924.201743	-0.003988
924.381465	-0.004592
924.561169	-0.005018
924.740854	-0.004756
924.920522	-0.005016
925.100171	-0.005112
925.279802	-0.004987
925.459414	-0.004710
925.639009	-0.004405
925.818585	-0.004690
925.998143	-0.005010
926.177683	-0.004692
926.357205	-0.004738
926.536708	-0.005329
926.716193	-0.005197
926.895660	-0.005790
927.075109	-0.006008
927.254539	-0.006273
927.433951	-0.006711
927.613345	-0.006451
927.792721	-0.006866
927.972079	-0.007230
928.151418	-0.006713
928.330739	-0.006603
928.510042	-0.006322
928.689327	-0.006506
928.868593	-0.006987
929.047841	-0.006746
929.227071	-0.007271
929.406283	-0.007847
929.585476	-0.007715
929.764652	-0.008056
929.943809	-0.008129
930.122948	-0.008279
930.302068	-0.008286
930.481171	-0.008375
930.660255	-0.008945
930.839321	-0.008930
931.018369	-0.008590
931.197398	-0.008451
931.376409	-0.008142
931.555402	-0.008415
931.734377	-0.008709
931.913334	-0.008999
932.092272	-0.008533
932.271192	-0.008792
932.450094	-0.008650
932.628978	-0.008690
932.807844	-0.008869
932.986691	-0.009406
933.165520	-0.009897
933.344331	-0.010316
933.523123	-0.010435
933.701898	-0.011032
933.880654	-0.011047
934.059392	-0.011658
934.238111	-0.012081
934.416813	-0.012291
934.595496	-0.012278
934.774161	-0.012283
934.952808	-0.012201
935.131437	-0.012148
935.310047	-0.012429
935.488639	-0.011864
935.667213	-0.011906
935.845769	-0.011928
936.024306	-0.012514
936.202825	-0.012539
936.381326	-0.012395
936.559809	-0.012504
936.738274	-0.012155
936.916720	-0.012333
937.095148	-0.012089
937.273558	-0.011486
937.451950	-0.011064
937.630323	-0.011339
937.808678	-0.011541
937.987015	-0.011741
938.165334	-0.011924
938.343635	-0.012631
938.521917	-0.012233
938.700181	-0.012755
938.878427	-0.013096
939.056655	-0.013318
939.234864	-0.012408
939.413055	-0.012743
939.591228	-0.012794
939.769383	-0.012699
939.947519	-0.012038
940.125638	-0.012339
940.303738	-0.012541
940.481820	-0.012507
940.659883	-0.013677
940.837929	-0.014577
941.015956	-0.013786
941.193965	-0.013127
941.371955	-0.013406
941.549928	-0.014731
941.727882	-0.014686
941.905818	-0.015586
942.083736	-0.015789
942.261636	-0.015537
942.439517	-0.014917
942.617380	-0.015891
942.795225	-0.017282
942.973052	-0.016709
943.150860	-0.016048
943.328651	-0.015887
943.506423	-0.015640
943.684176	-0.016287
943.861912	-0.016262
944.039629	-0.016260
944.217328	-0.016097
944.395009	-0.016221
944.572672	-0.015909
944.750317	-0.015801
944.927943	-0.016246
945.105551	-0.015393
945.283141	-0.014191
945.460712	-0.014046
945.638265	-0.014466
945.815801	-0.013973
945.993317	-0.013262
946.170816	-0.014132
946.348297	-0.013457
946.525759	-0.012807
946.703203	-0.013648
946.880629	-0.014514
947.058036	-0.014126
947.235425	-0.013994
947.412797	-0.014391
947.590149	-0.014817
947.767484	-0.015111
947.944800	-0.015702
948.122099	-0.015631
948.299379	-0.014765
948.476640	-0.014933
948.653884	-0.014934
948.831109	-0.014876
949.008316	-0.015318
949.185505	-0.014948
949.362676	-0.014190
949.539828	-0.014344
949.716962	-0.015179
949.894078	-0.015929
950.071176	-0.016805
950.248256	-0.017078
950.425317	-0.017271
950.602360	-0.017260
950.779385	-0.017356
950.956391	-0.017874
951.133380	-0.018198
951.310350	-0.018682
951.487302	-0.019147
951.664235	-0.017783
951.841151	-0.018066
952.018048	-0.018236
952.194927	-0.018374
952.371788	-0.018997
952.548631	-0.017846
952.725455	-0.017980
952.902261	-0.016895
953.079049	-0.016273
953.255819	-0.016081
953.432570	-0.015537
953.609303	-0.015626
953.786018	-0.014426
953.962715	-0.014018
954.139394	-0.014194
954.316054	-0.014191
954.492696	-0.013634
954.669320	-0.013080
954.845926	-0.011968
955.022513	-0.011996
955.199083	-0.011071
955.375634	-0.011253
955.552166	-0.010794
955.728681	-0.011633
955.905177	-0.011704
956.081655	-0.012645
956.258115	-0.013321
956.434557	-0.012564
956.610980	-0.011489
956.787385	-0.010897
956.963772	-0.010790
957.140141	-0.010158
957.316492	-0.010522
957.492824	-0.009821
957.669138	-0.007419
957.845434	-0.006224
958.021712	-0.008171
958.197971	-0.009629
958.374212	-0.009688
958.550435	-0.009095
958.726640	-0.008171
958.902826	-0.005638
959.078995	-0.005939
959.255145	-0.007848
959.431277	-0.009046
959.607390	-0.006248
959.783486	-0.004585
959.959563	-0.004799
960.135622	-0.004925
960.311662	-0.003630
960.487685	-0.005857
960.663689	-0.005632
960.839675	-0.005841
961.015643	-0.004108
961.191593	-0.005713
961.367524	-0.005434
961.543437	-0.005027
961.719332	-0.006071
961.895209	-0.007433
962.071067	-0.004450
962.246907	-0.003817
962.422730	-0.003982
962.598533	-0.004221
962.774319	-0.003294
962.950086	-0.003663
963.125835	-0.003722
963.301566	-0.002865
963.477279	-0.003101
963.652973	-0.002938
963.828650	-0.002394
964.004308	-0.000580
964.179947	0.000795
964.355569	-0.001518
964.531172	-0.001489
964.706757	-0.002444
964.882324	-0.001018
965.057873	0.000077
965.233403	-0.000143
965.408916	0.001770
965.584410	0.003033
965.759885	0.001405
965.935343	0.003846
966.110782	0.003746
966.286203	0.004283
966.461606	0.002901
966.636991	0.002848
966.812357	0.000469
966.987705	-0.000528
967.163035	-0.002106
967.338347	-0.000678
967.513641	0.000602
967.688916	0.002038
967.864173	0.001627
968.039412	0.003701
968.214632	0.004740
968.389835	0.005079
968.565019	0.005964
968.740185	0.007684
968.915333	0.007247
969.090462	0.005830
969.265573	0.006656
969.440667	0.008813
969.615741	0.007173
969.790798	0.005842
969.965836	0.005137
970.140856	0.003866
970.315858	0.001765
970.490842	0.002228
970.665808	0.001654
970.840755	0.000459
971.015684	0.000381
971.190595	0.000686
971.365487	0.000895
971.540362	0.002380
971.715218	0.003498
971.890056	0.005970
972.064875	0.003972
972.239677	0.004504
972.414460	0.004677
972.589225	0.004253
972.763972	0.004967
972.938700	0.004258
973.113411	0.004307
973.288103	0.003897
973.462777	0.002915
973.637432	0.005530
973.812070	0.004483
973.986689	0.003634
974.161290	0.002995
974.335873	0.002748
974.510437	0.002867
974.684984	0.006331
974.859512	0.006200
975.034022	0.004651
975.208513	0.004879
975.382987	0.004875
975.557442	0.005020
975.731879	0.005756
975.906298	0.004329
976.080698	0.004814
976.255080	0.001588
976.429445	0.001145
976.603790	0.002000
976.778118	0.000716
976.952427	0.000590
977.126719	0.002232
977.300992	0.002642
977.475246	0.004134
977.649483	0.004605
977.823701	0.004646
977.997901	0.005895
978.172083	0.007529
978.346247	0.008348
978.520392	0.009490
978.694519	0.007665
978.868628	0.007471
979.042719	0.007183
979.216791	0.008584
979.390845	0.009046
979.564882	0.009212
979.738899	0.007602
979.912899	0.009453
980.086880	0.007858
980.260843	0.008268
980.434788	0.007764
980.608715	0.007602
980.782623	0.005666
980.956514	0.006180
981.130386	0.006697
981.304240	0.006795
981.478075	0.003048
981.651892	0.004974
981.825692	0.005453
981.999472	0.005322
982.173235	0.006481
982.346980	0.007238
982.520706	0.005879
982.694414	0.003828
982.868104	0.004684
983.041775	0.007279
983.215428	0.006156
983.389064	0.006432
983.562680	0.005379
983.736279	0.003583
983.909860	0.004062
984.083422	0.006124
984.256966	0.008071
984.430491	0.007387
984.603999	0.007082
984.777488	0.008212
984.950959	0.008047
985.124412	0.009408
985.297847	0.010412
985.471263	0.010062
985.644661	0.009466
985.818041	0.008157
985.991403	0.006875
986.164747	0.007287
986.338072	0.006948
986.511379	0.005826
986.684668	0.005703
986.857938	0.005365
987.031191	0.004381
987.204425	0.003466
987.377641	0.005840
987.550839	0.005285
987.724018	0.004801
987.897179	0.004035
988.070322	0.004037
988.243447	0.004687
988.416554	0.006001
988.589642	0.006779
988.762712	0.008274
988.935764	0.006048
989.108798	0.007795
989.281813	0.007288
989.454811	0.008237
989.627790	0.008827
989.800751	0.007813
989.973693	0.007373
990.146617	0.008474
990.319524	0.007423
990.492412	0.008327
990.665281	0.008752
990.838133	0.010839
991.010966	0.009344
991.183781	0.010932
991.356578	0.010779
991.529356	0.010128
991.702117	0.007989
991.874859	0.007760
992.047583	0.006863
992.220288	0.006399
992.392976	0.005547
992.565645	0.007936
992.738296	0.005025
992.910929	0.006026
993.083543	0.005914
993.256139	0.005420
993.428718	0.005564
993.601277	0.005515
993.773819	0.003685
993.946342	0.004235
994.118848	0.003801
994.291335	0.005009
994.463803	0.006777
994.636254	0.007227
994.808686	0.008525
994.981100	0.008847
995.153496	0.009865
995.325874	0.010522
995.498233	0.009307
995.670574	0.010048
995.842897	0.010113
996.015202	0.009629
996.187488	0.008861
996.359757	0.009208
996.532007	0.009268
996.704239	0.008306
996.876452	0.010643
997.048648	0.010237
997.220825	0.008001
997.392984	0.009466
997.565124	0.007995
997.737247	0.008934
997.909351	0.008999
998.081437	0.007330
998.253505	0.008419
998.425554	0.007806
998.597586	0.007197
998.769599	0.008135
998.941594	0.006876
999.113571	0.007272
999.285529	0.007053
999.457469	0.006335
999.629391	0.008242
999.801295	0.007461
999.973181	0.006226
1000.145048	0.007152
1000.316897	0.007773
1000.488728	0.009265
1000.660541	0.008624
1000.832335	0.008351
1001.004111	0.008443
1001.175869	0.007830
1001.347609	0.007483
1001.519331	0.007990
1001.691034	0.007559
1001.862719	0.006876
1002.034386	0.005389
1002.206035	0.005886
1002.377665	0.006182
1002.549277	0.007214
1002.720871	0.007761
1002.892447	0.007827
1003.064004	0.007873
1003.235544	0.008631
1003.407065	0.007825
1003.578568	0.008416
1003.750052	0.007939
1003.921519	0.007952
1004.092967	0.008871
1004.264397	0.009627
1004.435809	0.007973
1004.607202	0.008098
1004.778577	0.006141
1004.949934	0.006267
1005.121273	0.005624
1005.292594	0.006951
1005.463896	0.007980
1005.635180	0.006424
1005.806446	0.005850
1005.977694	0.007911
1006.148923	0.008044
1006.320135	0.008801
1006.491328	0.007933
1006.662503	0.008025
1006.833659	0.006648
1007.004798	0.005097
1007.175918	0.005026
1007.347020	0.002442
1007.518103	0.001523
1007.689169	0.000197
1007.860216	0.000137
1008.031245	0.001936
1008.202256	0.001093
1008.373248	0.001324
1008.544223	0.000675
1008.715179	0.001010
1008.886117	0.003872
1009.057036	0.003461
1009.227938	0.004891
1009.398821	0.005489
1009.569686	0.004443
1009.740533	0.004807
1009.911361	0.003053
1010.082172	0.004578
1010.252964	0.003576
1010.423738	0.004487
1010.594493	0.005988
1010.765231	0.006212
1010.935950	0.006127
1011.106651	0.008516
1011.277334	0.009975
1011.447998	0.011418
1011.618645	0.011421
1011.789273	0.012799
1011.959882	0.009785
1012.130474	0.010395
1012.301048	0.009417
1012.471603	0.009861
1012.642140	0.007956
1012.812658	0.007195
1012.983159	0.008194
1013.153641	0.007403
1013.324105	0.006781
1013.494551	0.007233
1013.664979	0.006047
1013.835388	0.007748
1014.005779	0.007068
1014.176152	0.007397
1014.346507	0.007272
1014.516843	0.006936
1014.687162	0.007001
1014.857462	0.007937
1015.027744	0.007475
1015.198007	0.008584
1015.368252	0.006144
1015.538480	0.006756
1015.708689	0.006958
1015.878879	0.006565
1016.049052	0.006338
1016.219206	0.007685
1016.389342	0.006144
1016.559460	0.006997
1016.729559	0.005433
1016.899641	0.006544
1017.069704	0.006715
1017.239749	0.006877
1017.409775	0.007754
1017.579784	0.008241
1017.749774	0.006512
1017.919746	0.007231
1018.089700	0.008563
1018.259635	0.008716
1018.429553	0.008505
1018.599452	0.008969
1018.769333	0.007776
1018.939195	0.008747
1019.109040	0.008539
1019.278866	0.009672
1019.448674	0.010204
1019.618464	0.007625
1019.788235	0.008281
1019.957989	0.008246
1020.127724	0.006986
1020.297441	0.007401
1020.467139	0.005083
1020.636820	0.006060
1020.806482	0.005297
1020.976126	0.006964
1021.145752	0.009174
1021.315359	0.008535
1021.484948	0.009377
1021.654519	0.010138
1021.824072	0.010456
1021.993607	0.011362
1022.163123	0.010376
1022.332621	0.010882
1022.502101	0.008159
1022.671563	0.006802
1022.841007	0.006929
1023.010432	0.006954
1023.179839	0.007835
1023.349228	0.008027
1023.518598	0.006737
1023.687951	0.005738
1023.857285	0.006165
1024.026601	0.007086
1024.195899	0.008495
1024.365178	0.009086
1024.534439	0.008057
1024.703682	0.007165
1024.872907	0.008024
1025.042114	0.009417
1025.211302	0.011506
1025.380472	0.010586
1025.549624	0.009632
1025.718758	0.007464
1025.887873	0.006955
1026.056970	0.006062
1026.226049	0.005455
1026.395110	0.006043
1026.564153	0.006503
1026.733177	0.004091
1026.902183	0.005336
1027.071171	0.004694
1027.240141	0.007688
1027.409092	0.008317
1027.578026	0.008648
1027.746940	0.008604
1027.915837	0.005999
1028.084716	0.004981
1028.253576	0.006220
1028.422418	0.003743
1028.591242	0.003993
1028.760048	0.002007
1028.928835	0.001356
1029.097604	0.002221
1029.266355	0.002500
1029.435088	0.003328
1029.603803	0.004673
1029.772499	0.003826
1029.941177	0.005482
1030.109837	0.007446
1030.278478	0.009218
1030.447102	0.009166
1030.615707	0.010166
1030.784294	0.008611
1030.952863	0.006867
1031.121413	0.006049
1031.289945	0.007474
1031.458460	0.007492
1031.626955	0.007389
1031.795433	0.006847
1031.963892	0.007400
1032.132334	0.006597
1032.300756	0.009054
1032.469161	0.011387
1032.637548	0.011451
1032.805916	0.009517
1032.974266	0.009739
1033.142598	0.008281
1033.310911	0.008194
1033.479207	0.008990
1033.647484	0.008880
1033.815743	0.006910
1033.983983	0.006942
1034.152206	0.006152
1034.320410	0.007196
1034.488596	0.006027
1034.656764	0.007186
1034.824914	0.005493
1034.993045	0.003874
1035.161158	0.003896
1035.329253	0.005092
1035.497330	0.005510
1035.665388	0.006775
1035.833428	0.008235
1036.001450	0.008597
1036.169454	0.007311
1036.337440	0.007523
1036.505407	0.008999
1036.673356	0.009680
1036.841287	0.009356
1037.009200	0.007454
1037.177094	0.007611
1037.344970	0.007441
1037.512828	0.007810
1037.680668	0.007047
1037.848489	0.009683
1038.016293	0.008044
1038.184078	0.008261
1038.351845	0.008295
1038.519593	0.010907
1038.687324	0.009070
1038.855036	0.008109
1039.022730	0.007427
1039.190406	0.009692
1039.358063	0.006982
1039.525702	0.006817
1039.693323	0.005562
1039.860926	0.005750
1040.028511	0.006073
1040.196077	0.008266
1040.363625	0.008840
1040.531155	0.009156
1040.698667	0.008567
1040.866161	0.009664
1041.033636	0.010135
1041.201093	0.010438
1041.368532	0.010361
1041.535952	0.009959
1041.703355	0.008485
1041.870739	0.007046
1042.038105	0.007440
1042.205452	0.007129
1042.372782	0.006314
1042.540093	0.008458
1042.707386	0.008652
1042.874661	0.008719
1043.041918	0.007255
1043.209156	0.009298
1043.376376	0.010582
1043.543578	0.011091
1043.710762	0.012439
1043.877927	0.015176
1044.045074	0.014665
1044.212203	0.013858
1044.379314	0.012794
1044.546407	0.012439
1044.713481	0.010404
1044.880537	0.009705
1045.047575	0.008998
1045.214595	0.009482
1045.381596	0.008386
1045.548579	0.006966
1045.715544	0.007985
1045.882491	0.010136
1046.049420	0.009919
1046.216330	0.010170
1046.383222	0.009510
1046.550096	0.008692
1046.716951	0.006189
1046.883789	0.003835
1047.050608	0.004169
1047.217409	0.004863
1047.384192	0.002477
1047.550956	0.003436
1047.717703	0.001871
1047.884431	0.003101
1048.051140	0.003919
1048.217832	0.003829
1048.384505	0.005962
1048.551161	0.006821
1048.717798	0.006966
1048.884416	0.009361
1049.051017	0.009303
1049.217599	0.012447
1049.384163	0.012720
1049.550709	0.012183
1049.717237	0.012969
1049.883746	0.010973
1050.050237	0.008767
1050.216710	0.007435
1050.383165	0.006865
1050.549601	0.007335
1050.716019	0.006106
1050.882420	0.006712
1051.048801	0.007109
1051.215165	0.007903
1051.381510	0.008786
1051.547837	0.009758
1051.714146	0.009024
1051.880437	0.009232
1052.046709	0.008908
1052.212964	0.008619
1052.379200	0.006358
1052.545417	0.007829
1052.711617	0.007228
1052.877798	0.008351
1053.043961	0.007576
1053.210106	0.008377
1053.376233	0.008016
1053.542341	0.008182
1053.708432	0.008289
1053.874504	0.009820
1054.040557	0.009566
1054.206593	0.009441
1054.372610	0.010237
1054.538609	0.012511
1054.704590	0.011627
1054.870553	0.011162
1055.036497	0.010599
1055.202424	0.011948
1055.368331	0.011120
1055.534221	0.010061
1055.700093	0.010313
1055.865946	0.008506
1056.031781	0.007280
1056.197598	0.008203
1056.363397	0.007838
1056.529177	0.006477
1056.694939	0.004124
1056.860683	0.004184
1057.026409	0.003944
1057.192116	0.003607
1057.357806	0.002605
1057.523477	0.003341
1057.689130	0.003159
1057.854764	0.005180
1058.020381	0.007770
1058.185979	0.010420
1058.351559	0.011447
1058.517120	0.010750
1058.682664	0.010724
1058.848189	0.012816
1059.013696	0.010896
1059.179185	0.011033
1059.344656	0.009820
1059.510108	0.009335
1059.675542	0.006439
1059.840958	0.006517
1060.006356	0.007811
1060.171735	0.008277
1060.337096	0.007121
1060.502439	0.008727
1060.667764	0.007810
1060.833071	0.007503
1060.998359	0.007560
1061.163629	0.009828
1061.328881	0.009254
1061.494115	0.011200
1061.659330	0.010939
1061.824527	0.011615
1061.989706	0.011069
1062.154867	0.013167
1062.320010	0.012779
1062.485134	0.011989
1062.650240	0.011675
1062.815328	0.010780
1062.980398	0.007728
1063.145449	0.007435
1063.310482	0.007301
1063.475497	0.008443
1063.640494	0.006222
1063.805473	0.005838
1063.970433	0.006771
1064.135375	0.006806
1064.300299	0.006642
1064.465204	0.005908
1064.630092	0.006164
1064.794961	0.005526
1064.959812	0.004160
1065.124645	0.005242
1065.289459	0.004728
1065.454256	0.004513
1065.619034	0.003305
1065.783793	0.006476
1065.948535	0.006175
1066.113258	0.006565
1066.277964	0.005156
1066.442651	0.006090
1066.607319	0.005195
1066.771970	0.007389
1066.936602	0.006649
1067.101216	0.007207
1067.265812	0.002878
1067.430389	0.005771
1067.594949	0.004512
1067.759490	0.004016
1067.924013	0.002175
1068.088518	0.003272
1068.253004	0.002660
1068.417472	0.001381
1068.581922	-0.000035
1068.746354	0.002035
1068.910768	0.000999
1069.075163	0.000073
1069.239540	0.001650
1069.403899	0.001753
1069.568240	0.002950
1069.732562	0.003144
1069.896866	0.003859
1070.061152	0.006680
1070.225420	0.006507
1070.389670	0.007785
1070.553901	0.008467
1070.718114	0.008254
1070.882309	0.008000
1071.046486	0.008652
1071.210644	0.007649
1071.374784	0.006689
1071.538906	0.005357
1071.703010	0.006536
1071.867096	0.006026
1072.031163	0.007669
1072.195212	0.008531
1072.359243	0.011039
1072.523256	0.009958
1072.687250	0.009110
1072.851226	0.010437
1073.015184	0.009282
1073.179124	0.005851
1073.343045	0.002650
1073.506949	0.002586
1073.670834	0.000936
1073.834701	-0.000962
1073.998549	-0.001437
1074.162380	-0.001090
1074.326192	-0.000665
1074.489986	-0.000319
1074.653761	0.002396
1074.817519	0.004533
1074.981258	0.002840
1075.144979	0.005681
1075.308682	0.005537
1075.472367	0.005561
1075.636033	0.005837
1075.799681	0.006475
1075.963311	0.007375
1076.126923	0.005868
1076.290516	0.006382
1076.454092	0.006198
1076.617649	0.006149
1076.781187	0.008569
1076.944708	0.008090
1077.108210	0.009665
1077.271695	0.009363
1077.435160	0.010687
1077.598608	0.009850
1077.762038	0.010966
1077.925449	0.011728
1078.088842	0.010382
1078.252217	0.006917
1078.415573	0.006691
1078.578912	0.003663
1078.742232	0.001297
1078.905534	-0.001482
1079.068817	0.000085
1079.232083	-0.000920
1079.395330	-0.000318
1079.558559	-0.001234
1079.721770	0.001871
1079.884962	0.000433
1080.048136	0.002955
1080.211293	0.003411
1080.374430	0.005372
1080.537550	0.004719
1080.700651	0.004231
1080.863735	0.001662
1081.026800	0.001826
1081.189846	0.001822
1081.352875	0.004361
1081.515885	0.004797
1081.678877	0.006370
1081.841851	0.004058
1082.004807	0.005766
1082.167744	0.005671
1082.330663	0.006075
1082.493564	0.006771
1082.656447	0.003378
1082.819312	-0.000175
1082.982158	-0.001743
1083.144986	-0.001695
1083.307796	-0.000571
1083.470587	-0.003418
1083.633361	-0.005830
1083.796116	-0.004866
1083.958853	-0.005323
1084.121571	-0.002485
1084.284272	0.000363
1084.446954	0.000600
1084.609618	0.001635
1084.772264	0.001777
1084.934892	0.003493
1085.097501	0.007118
1085.260092	0.009295
1085.422665	0.009434
1085.585220	0.009850
1085.747756	0.008033
1085.910274	0.009350
1086.072774	0.010079
1086.235256	0.011686
1086.397720	0.014017
1086.560165	0.013687
1086.722592	0.010589
1086.885001	0.010573
1087.047392	0.010335
1087.209764	0.013173
1087.372119	0.012508
1087.534455	0.010062
1087.696772	0.007026
1087.859072	0.006158
1088.021353	0.006531
1088.183616	0.008612
1088.345861	0.007715
1088.508088	0.006020
1088.670296	0.004647
1088.832486	0.003535
1088.994658	0.002786
1089.156812	0.004193
1089.318948	0.003668
1089.481065	0.003606
1089.643164	0.004544
1089.805245	0.005681
1089.967308	0.003326
1090.129352	0.001392
1090.291378	0.002896
1090.453386	0.004408
1090.615376	0.002511
1090.777347	0.000687
1090.939301	0.001655
1091.101236	-0.000015
1091.263153	0.000566
1091.425051	0.002249
1091.586932	0.001059
1091.748794	-0.000693
1091.910638	-0.002091
1092.072463	-0.000494
1092.234271	-0.000901
1092.396060	-0.002708
1092.557831	-0.000861
1092.719584	-0.001474
1092.881319	0.001014
1093.043035	0.002194
1093.204733	0.004355
1093.366413	0.003712
1093.528075	0.002272
1093.689718	0.004365
1093.851343	0.005505
1094.012950	0.005132
1094.174539	0.004757
1094.336110	0.004885
1094.497662	0.007929
1094.659196	0.008273
1094.820712	0.011457
1094.982210	0.011292
1095.143689	0.008612
1095.305151	0.007822
1095.466594	0.005624
1095.628018	0.006205
1095.789425	0.005122
1095.950813	0.000367
1096.112183	-0.000185
1096.273535	-0.002886
1096.434869	0.000232
1096.596184	0.002798
1096.757482	0.000826
1096.918761	0.003424
1097.080021	0.003988
1097.241264	0.003039
1097.402488	0.005665
1097.563694	0.006164
1097.724882	0.006116
1097.886052	0.006118
1098.047203	0.003762
1098.208336	0.004761
1098.369451	0.003054
1098.530548	0.001706
1098.691627	0.004716
1098.852687	0.006832
1099.013729	0.004703
1099.174753	0.005232
1099.335758	0.002586
1099.496746	0.000505
1099.657715	-0.000195
1099.818666	0.001668
1099.979599	0.001397
1100.140513	-0.003169
1100.301409	-0.001820
1100.462287	-0.002572
1100.623147	-0.003554
1100.783989	-0.000531
1100.944812	0.003374
1101.105617	0.004141
1101.266404	0.002812
1101.427173	0.005356
1101.587923	0.008905
1101.748656	0.007898
1101.909370	0.008453
1102.070066	0.009733
1102.230743	0.009301
1102.391403	0.008879
1102.552044	0.010031
1102.712667	0.013028
1102.873271	0.010422
1103.033858	0.006934
1103.194426	0.007175
1103.354976	0.008982
1103.515508	0.009335
1103.676021	0.007139
1103.836517	0.006093
1103.996994	0.005421
1104.157453	0.004365
1104.317893	0.003303
1104.478316	0.000798
1104.638720	-0.001179
1104.799106	-0.003768
1104.959474	-0.006840
1105.119823	-0.007366
1105.280155	-0.007865
1105.440468	-0.008755
1105.600763	-0.011320
1105.761039	-0.009601
1105.921298	-0.004976
1106.081538	-0.006143
1106.241760	-0.004095
1106.401964	-0.003142
1106.562149	-0.001935
1106.722316	0.001494
1106.882465	0.000582
1107.042596	0.002024
1107.202709	0.004397
1107.362803	0.005390
1107.522879	0.008124
1107.682937	0.006296
1107.842977	0.005162
1108.002999	0.008252
1108.163002	0.003711
1108.322987	0.003870
1108.482954	-0.000724
1108.642902	-0.005363
1108.802833	-0.008359
1108.962745	-0.008349
1109.122639	-0.005949
1109.282515	-0.003679
1109.442372	-0.007431
1109.602211	-0.004854
1109.762032	-0.005154
1109.921835	-0.001588
1110.081620	-0.000121
1110.241386	0.001695
1110.401134	-0.001134
1110.560864	-0.001842
1110.720576	-0.002212
1110.880269	-0.001123
1111.039945	0.000301
1111.199602	-0.000219
1111.359240	-0.001433
1111.518861	-0.000182
1111.678463	-0.003292
1111.838047	-0.004277
1111.997613	-0.005318
1112.157161	-0.008323
1112.316690	-0.004961
1112.476202	-0.003533
1112.635695	-0.000079
1112.795169	0.001458
1112.954626	-0.000872
1113.114064	0.003578
1113.273484	0.006501
1113.432886	0.006553
1113.592270	0.010518
1113.751635	0.007912
1113.910983	0.004339
1114.070312	0.002349
1114.229622	0.002823
1114.388915	0.004894
1114.548189	0.003231
1114.707445	0.004307
1114.866683	0.004743
1115.025903	0.002590
1115.185104	-0.000592
1115.344287	-0.000550
1115.503452	-0.001796
1115.662599	-0.005031
1115.821727	-0.007040
1115.980838	-0.007173
1116.139930	-0.007027
1116.299004	-0.007316
1116.458059	-0.005672
1116.617097	-0.005462
1116.776116	-0.009711
1116.935117	-0.007598
1117.094099	-0.004825
1117.253064	-0.000108
1117.412010	0.000020
1117.570938	-0.002262
1117.729848	-0.000140
1117.888740	0.000027
1118.047613	0.002610
1118.206468	0.009670
1118.365305	0.011996
1118.524124	0.014631
1118.682924	0.013738
1118.841707	0.009785
1119.000471	0.011992
1119.159216	0.010770
1119.317944	0.013965
1119.476653	0.013336
1119.635344	0.008608
1119.794017	0.005429
1119.952672	0.003468
1120.111308	0.001930
1120.269927	0.002796
1120.428527	0.002531
1120.587108	-0.000772
1120.745672	-0.001302
1120.904217	-0.002716
1121.062744	-0.002772
1121.221253	-0.001769
1121.379744	-0.004271
1121.538216	-0.006677
1121.696671	-0.005509
1121.855107	-0.006483
1122.013524	-0.004702
1122.171924	-0.005984
1122.330305	-0.004181
1122.488668	0.000496
1122.647013	0.000107
1122.805340	0.000740
1122.963648	0.005590
1123.121938	0.009479
1123.280210	0.008951
1123.438464	0.011199
1123.596700	0.011981
1123.754917	0.011107
1123.913116	0.010575
1124.071297	0.013023
1124.229459	0.014592
1124.387604	0.010931
1124.545730	0.009674
1124.703838	0.007803
1124.861928	0.005156
1125.019999	-0.002665
1125.178052	-0.002340
1125.336088	-0.004968
1125.494104	-0.009007
1125.652103	-0.008337
1125.810083	-0.008730
1125.968045	-0.008183
1126.125989	-0.006359
1126.283915	-0.007236
1126.441823	-0.000794
1126.599712	-0.001335
1126.757583	-0.001671
1126.915436	0.003408
1127.073270	0.000358
1127.231087	0.000392
1127.388885	-0.000263
1127.546665	-0.002221
1127.704426	0.002587
1127.862170	0.000427
1128.019895	0.000399
1128.177602	0.003641
1128.335291	0.002822
1128.492961	0.004028
1128.650614	0.006870
1128.808248	0.008010
1128.965864	0.012075
1129.123461	0.008143
1129.281041	0.010432
1129.438602	0.007980
1129.596145	0.004164
1129.753670	0.000823
1129.911176	0.003503
1130.068665	0.000173
1130.226135	0.003155
1130.383587	-0.001200
1130.541020	0.001824
1130.698436	-0.002145
1130.855833	-0.000874
1131.013212	-0.000973
1131.170573	-0.001629
1131.327915	-0.006058
1131.485239	0.001332
1131.642545	-0.003383
1131.799833	-0.002245
1131.957103	-0.004596
1132.114354	-0.003145
1132.271588	-0.000700
1132.428803	0.002187
1132.585999	0.002660
1132.743178	0.002698
1132.900338	-0.008866
1133.057480	-0.007701
1133.214604	-0.013443
1133.371710	-0.013342
1133.528797	-0.012558
1133.685866	-0.019553
1133.842917	-0.021880
1133.999950	-0.020335
1134.156964	-0.021347
1134.313960	-0.015585
1134.470938	-0.011383
1134.627898	-0.008167
1134.784840	-0.005370
1134.941763	-0.004052
1135.098668	0.003210
1135.255555	0.003209
1135.412424	0.000717
1135.569274	0.004777
1135.726107	0.005940
1135.882921	-0.000398
1136.039716	0.002083
1136.196494	0.000746
1136.353253	-0.004319
1136.509995	-0.006239
1136.666717	-0.006168
1136.823422	-0.001558
1136.980109	-0.003791
1137.136777	-0.009387
1137.293427	-0.009093
1137.450059	-0.008456
1137.606672	-0.014342
1137.763267	-0.007597
1137.919844	-0.006454
1138.076403	-0.006271
1138.232944	-0.008355
1138.389466	-0.006411
1138.545971	-0.002626
1138.702457	-0.001724
1138.858924	-0.005612
1139.015374	0.001835
1139.171805	0.000600
1139.328218	-0.002641
1139.484613	-0.000394
1139.640990	-0.000827
1139.797348	0.006820
1139.953688	0.009318
1140.110010	0.008458
1140.266314	0.016720
1140.422600	0.013192
1140.578867	0.010886
1140.735116	0.017937
1140.891347	0.018302
1141.047559	0.015036
1141.203754	0.002019
1141.359930	0.000675
1141.516088	-0.001162
1141.672228	-0.008884
1141.828349	-0.005420
1141.984452	-0.009997
1142.140537	-0.015754
1142.296604	-0.016781
1142.452653	-0.019672
1142.608683	-0.016874
1142.764695	-0.017160
1142.920689	-0.013858
1143.076665	-0.013094
1143.232622	-0.011072
1143.388562	-0.002945
1143.544483	-0.004989
1143.700385	-0.004730
1143.856270	0.002442
1144.012136	0.008211
1144.167985	0.012069
1144.323814	0.005893
1144.479626	0.010475
1144.635420	0.007367
1144.791195	0.007308
1144.946952	0.009677
1145.102691	0.010010
1145.258411	0.010273
1145.414113	0.008586
1145.569798	0.004481
1145.725463	0.013047
1145.881111	0.009409
1146.036741	0.003627
1146.192352	0.001575
1146.347945	0.007380
1146.503519	0.012888
1146.659076	0.007915
1146.814614	0.000110
1146.970134	-0.002740
1147.125636	-0.005291
1147.281120	-0.004825
1147.436585	-0.005154
1147.592032	-0.007945
1147.747461	-0.007626
1147.902872	-0.014498
1148.058265	-0.014187
1148.213639	-0.007659
1148.368995	-0.009809
1148.524333	-0.009581
1148.679653	-0.006850
1148.834954	-0.000213
1148.990237	-0.002302
1149.145502	-0.004250
1149.300749	0.000393
1149.455977	0.003148
1149.611188	0.004473
1149.766380	0.010600
1149.921553	0.002128
1150.076709	0.004784
1150.231846	0.008285
1150.386966	0.003468
1150.542066	0.002417
1150.697149	-0.000859
1150.852214	-0.010072
1151.007260	-0.009320
1151.162288	-0.006967
1151.317298	-0.001645
1151.472289	-0.008648
1151.627263	-0.012706
1151.782218	-0.003564
1151.937155	-0.008558
1152.092073	-0.009296
1152.246974	0.000466
1152.401856	-0.005498
1152.556720	-0.011594
1152.711566	-0.001665
1152.866393	-0.001397
1153.021203	-0.004543
1153.175994	-0.003119
1153.330767	0.003528
1153.485521	-0.000450
1153.640258	-0.003275
1153.794976	0.003632
1153.949676	0.005429
1154.104358	-0.006046
1154.259021	0.000137
1154.413667	0.001933
1154.568294	0.001816
1154.722903	0.000392
1154.877493	0.000489
1155.032066	-0.001346
1155.186620	-0.006593
1155.341156	-0.006060
1155.495674	-0.002497
1155.650173	-0.002963
1155.804654	-0.006607
1155.959118	-0.009437
1156.113562	-0.014384
1156.267989	-0.015152
1156.422397	-0.006886
1156.576788	-0.003341
1156.731160	-0.001974
1156.885513	-0.008738
1157.039849	-0.009773
1157.194166	-0.004920
1157.348465	-0.001813
1157.502746	-0.001645
1157.657009	0.003219
1157.811253	-0.000278
1157.965479	-0.002885
1158.119687	-0.004150
1158.273877	-0.002498
1158.428048	-0.003046
1158.582201	-0.008677
1158.736337	-0.013785
1158.890453	-0.019364
1159.044552	-0.022197
1159.198632	-0.028439
1159.352694	-0.029104
1159.506738	-0.031602
1159.660764	-0.019460
1159.814771	-0.021409
1159.968761	-0.027233
1160.122732	-0.022844
1160.276685	-0.016559
1160.430619	-0.025225
1160.584535	-0.024348
1160.738434	-0.023279
1160.892313	-0.018366
1161.046175	-0.028573
1161.200019	-0.027391
1161.353844	-0.021151
1161.507651	-0.029142
1161.661440	-0.022181
1161.815210	-0.020902
1161.968962	-0.016335
1162.122697	-0.019490
1162.276412	-0.022074
1162.430110	-0.026738
1162.583789	-0.024814
1162.737451	-0.024301
1162.891094	-0.021925
1163.044718	-0.031425
1163.198325	-0.019622
1163.351913	-0.019904
1163.505483	-0.024222
1163.659035	-0.020688
1163.812569	-0.004931
1163.966084	-0.006623
1164.119581	-0.005514
1164.273060	0.002023
1164.426521	0.011988
1164.579964	0.009459
1164.733388	0.010113
1164.886794	0.018319
1165.040182	0.013110
1165.193551	0.001055
1165.346903	-0.000073
1165.500236	-0.005720
1165.653551	-0.010397
1165.806848	-0.018151
1165.960126	-0.013813
1166.113386	-0.010188
1166.266628	-0.018636
1166.419852	-0.013314
1166.573058	-0.017412
1166.726245	-0.011694
1166.879414	-0.002708
1167.032565	-0.002902
1167.185698	-0.002009
1167.338812	-0.002098
1167.491909	-0.014546
1167.644987	-0.005553
1167.798046	-0.012437
1167.951088	-0.010995
1168.104111	-0.020359
1168.257117	-0.009091
1168.410103	-0.008819
1168.563072	-0.006414
1168.716023	-0.015803
1168.868955	-0.010046
1169.021869	0.001110
1169.174765	0.008970
1169.327642	0.018811
1169.480501	0.014324
1169.633343	-0.011852
1169.786165	-0.006635
1169.938970	-0.010958
1170.091757	0.011540
1170.244525	0.019176
1170.397275	-0.003605
1170.550007	-0.013942
1170.702720	-0.020248
1170.855415	-0.016733
1171.008092	0.000968
1171.160751	0.003633
1171.313392	0.013623
1171.466014	-0.051854
1171.618619	0.040468
1171.771205	0.040468
1171.923772	0.040468
