sample name	sample
index	798
start time	 03-31-2021  02:41:18 PM


Wavelength (nm)	Absorbance
494.344910	-0.076071
494.563924	-0.076071
494.782919	-0.076071
495.001897	NaN
495.220856	NaN
495.439797	NaN
495.658719	NaN
495.877624	NaN
496.096510	NaN
496.315378	NaN
496.534227	NaN
496.753059	NaN
496.971872	NaN
497.190667	0.019796
497.409444	0.022395
497.628203	0.017387
497.846943	0.014457
498.065665	0.014311
498.284369	0.013302
498.503055	0.012164
498.721723	0.011714
498.940372	0.011094
499.159003	0.011971
499.377616	0.011066
499.596210	0.011647
499.814787	0.011695
500.033345	0.012496
500.251885	0.011923
500.470406	0.013332
500.688910	0.013357
500.907395	0.013494
501.125862	0.013131
501.344311	0.012610
501.562742	0.012132
501.781154	0.012419
501.999548	0.011834
502.217924	0.012271
502.436282	0.011644
502.654621	0.011123
502.872942	0.010962
503.091245	0.010984
503.309530	0.010895
503.527797	0.010624
503.746045	0.009887
503.964275	0.009360
504.182487	0.008566
504.400681	0.007908
504.618856	0.007843
504.837013	0.007111
505.055152	0.008094
505.273273	0.008365
505.491376	0.009163
505.709460	0.009092
505.927526	0.009595
506.145574	0.009969
506.363604	0.010765
506.581615	0.010717
506.799608	0.011281
507.017583	0.010420
507.235540	0.010310
507.453478	0.010086
507.671399	0.010648
507.889301	0.010276
508.107185	0.010382
508.325050	0.010217
508.542898	0.010584
508.760727	0.010383
508.978538	0.010214
509.196330	0.010479
509.414105	0.010343
509.631861	0.010428
509.849599	0.010171
510.067319	0.010145
510.285021	0.010074
510.502704	0.009848
510.720369	0.009913
510.938016	0.010222
511.155645	0.010216
511.373255	0.010009
511.590848	0.009526
511.808422	0.009806
512.025977	0.009353
512.243515	0.008946
512.461034	0.008731
512.678536	0.008531
512.896018	0.008652
513.113483	0.007887
513.330930	0.007339
513.548358	0.007216
513.765768	0.007102
513.983160	0.007909
514.200533	0.008526
514.417889	0.009052
514.635226	0.009011
514.852545	0.009007
515.069845	0.009682
515.287128	0.010529
515.504392	0.010902
515.721638	0.011667
515.938866	0.011820
516.156075	0.011381
516.373267	0.010641
516.590440	0.010946
516.807594	0.011138
517.024731	0.011497
517.241850	0.011744
517.458950	0.011661
517.676032	0.011331
517.893095	0.011338
518.110141	0.011747
518.327168	0.011865
518.544177	0.011970
518.761168	0.012109
518.978141	0.012155
519.195095	0.011487
519.412031	0.011681
519.628949	0.011064
519.845849	0.011001
520.062731	0.010646
520.279594	0.011224
520.496439	0.011076
520.713266	0.010553
520.930074	0.009749
521.146865	0.009882
521.363637	0.009769
521.580391	0.009401
521.797127	0.009540
522.013844	0.010152
522.230543	0.010285
522.447224	0.010930
522.663887	0.011476
522.880532	0.011660
523.097158	0.011938
523.313766	0.011831
523.530356	0.012490
523.746928	0.011883
523.963481	0.012744
524.180017	0.012667
524.396534	0.012604
524.613032	0.012350
524.829513	0.012730
525.045975	0.013001
525.262420	0.013380
525.478845	0.013419
525.695253	0.013762
525.911643	0.012754
526.128014	0.012881
526.344367	0.013090
526.560702	0.013330
526.777018	0.013011
526.993316	0.013695
527.209597	0.013649
527.425858	0.013782
527.642102	0.013750
527.858328	0.013383
528.074535	0.013542
528.290724	0.013020
528.506894	0.012579
528.723047	0.012729
528.939181	0.011645
529.155297	0.011646
529.371395	0.011909
529.587475	0.011742
529.803536	0.012404
530.019579	0.012582
530.235604	0.012444
530.451611	0.012930
530.667600	0.013160
530.883570	0.014051
531.099522	0.014510
531.315456	0.014632
531.531372	0.015541
531.747269	0.015684
531.963148	0.015233
532.179009	0.015515
532.394852	0.015969
532.610676	0.016408
532.826482	0.016337
533.042271	0.015908
533.258040	0.016007
533.473792	0.015691
533.689525	0.014948
533.905240	0.015768
534.120937	0.016152
534.336616	0.015461
534.552277	0.015133
534.767919	0.015052
534.983543	0.015127
535.199149	0.015178
535.414736	0.015180
535.630306	0.015776
535.845857	0.015523
536.061390	0.015624
536.276904	0.016038
536.492401	0.016493
536.707879	0.016551
536.923339	0.017144
537.138781	0.017509
537.354204	0.017460
537.569610	0.017825
537.784997	0.017458
538.000366	0.017583
538.215716	0.017256
538.431049	0.017358
538.646363	0.017247
538.861659	0.017698
539.076937	0.017645
539.292196	0.018034
539.507438	0.017969
539.722661	0.018434
539.937866	0.018305
540.153052	0.018789
540.368221	0.018367
540.583371	0.018592
540.798503	0.017984
541.013617	0.017794
541.228712	0.017870
541.443789	0.017586
541.658848	0.017379
541.873889	0.017772
542.088912	0.018138
542.303916	0.018378
542.518902	0.018136
542.733870	0.018315
542.948820	0.018511
543.163752	0.018506
543.378665	0.019241
543.593560	0.019628
543.808437	0.019260
544.023295	0.019431
544.238136	0.019493
544.452958	0.019814
544.667762	0.019475
544.882548	0.019448
545.097315	0.019116
545.312064	0.019104
545.526795	0.018954
545.741508	0.019285
545.956203	0.018982
546.170879	0.019048
546.385537	0.019228
546.600177	0.019512
546.814799	0.019921
547.029402	0.020398
547.243988	0.020209
547.458555	0.021091
547.673103	0.021007
547.887634	0.020922
548.102146	0.021238
548.316640	0.021098
548.531116	0.021444
548.745574	0.021155
548.960013	0.021203
549.174435	0.021408
549.388838	0.021074
549.603222	0.021285
549.817589	0.021830
550.031937	0.022037
550.246267	0.022130
550.460579	0.022138
550.674873	0.022340
550.889148	0.022322
551.103405	0.022300
551.317644	0.021932
551.531865	0.022064
551.746068	0.021774
551.960252	0.021543
552.174418	0.021934
552.388566	0.021901
552.602696	0.022363
552.816807	0.023078
553.030900	0.023493
553.244975	0.023788
553.459032	0.023809
553.673070	0.023827
553.887091	0.023642
554.101093	0.023352
554.315077	0.023637
554.529042	0.023287
554.742990	0.022733
554.956919	0.022287
555.170830	0.022077
555.384722	0.022075
555.598597	0.021899
555.812453	0.022415
556.026291	0.022359
556.240111	0.022149
556.453913	0.021930
556.667696	0.022162
556.881461	0.022427
557.095208	0.022829
557.308937	0.023035
557.522647	0.023173
557.736339	0.023307
557.950013	0.023667
558.163669	0.023720
558.377307	0.024106
558.590926	0.023903
558.804527	0.024034
559.018110	0.023831
559.231675	0.023675
559.445221	0.024034
559.658749	0.023925
559.872259	0.023759
560.085751	0.023789
560.299225	0.023790
560.512680	0.024124
560.726117	0.023957
560.939536	0.024439
561.152937	0.024462
561.366319	0.024532
561.579683	0.024578
561.793029	0.024716
562.006357	0.025031
562.219667	0.025145
562.432958	0.025521
562.646231	0.025609
562.859486	0.025462
563.072723	0.025520
563.285941	0.025580
563.499141	0.025543
563.712323	0.025417
563.925487	0.025485
564.138632	0.025341
564.351760	0.024742
564.564869	0.024704
564.777960	0.024305
564.991032	0.024189
565.204087	0.024102
565.417123	0.024285
565.630141	0.024436
565.843140	0.024580
566.056122	0.024469
566.269085	0.024908
566.482030	0.024936
566.694957	0.025395
566.907866	0.025540
567.120756	0.025716
567.333628	0.025424
567.546482	0.025543
567.759318	0.025403
567.972135	0.025519
568.184935	0.025385
568.397716	0.025495
568.610478	0.025534
568.823223	0.025308
569.035949	0.025221
569.248657	0.025615
569.461347	0.025615
569.674019	0.025535
569.886672	0.026222
570.099308	0.026167
570.311925	0.026468
570.524523	0.026452
570.737104	0.027203
570.949666	0.027482
571.162210	0.027461
571.374736	0.027595
571.587244	0.027738
571.799733	0.027640
572.012205	0.027913
572.224658	0.027864
572.437092	0.028046
572.649509	0.027828
572.861907	0.027837
573.074287	0.027554
573.286649	0.027472
573.498993	0.027667
573.711318	0.027486
573.923625	0.027465
574.135914	0.027695
574.348185	0.027456
574.560438	0.027766
574.772672	0.027914
574.984888	0.028306
575.197086	0.028912
575.409266	0.028766
575.621427	0.028756
575.833570	0.028813
576.045695	0.028768
576.257802	0.029186
576.469890	0.029123
576.681961	0.029268
576.894013	0.029253
577.106046	0.029417
577.318062	0.029561
577.530059	0.029537
577.742039	0.029628
577.954000	0.029544
578.165942	0.029242
578.377867	0.029401
578.589773	0.029126
578.801661	0.029135
579.013531	0.028629
579.225382	0.028650
579.437216	0.028983
579.649031	0.028882
579.860828	0.028664
580.072606	0.028937
580.284367	0.028398
580.496109	0.028156
580.707833	0.028185
580.919539	0.028373
581.131227	0.028184
581.342896	0.027927
581.554547	0.027869
581.766180	0.028058
581.977795	0.028050
582.189391	0.028658
582.400969	0.029038
582.612529	0.029505
582.824071	0.029316
583.035595	0.029578
583.247100	0.029651
583.458587	0.029898
583.670056	0.029965
583.881506	0.029953
584.092939	0.029788
584.304353	0.029960
584.515749	0.029767
584.727127	0.029915
584.938486	0.030133
585.149828	0.030166
585.361151	0.030517
585.572456	0.030668
585.783742	0.030848
585.995011	0.030980
586.206261	0.030915
586.417493	0.030917
586.628706	0.030997
586.839902	0.030756
587.051079	0.030616
587.262238	0.030205
587.473379	0.030206
587.684502	0.030178
587.895606	0.029900
588.106692	0.029878
588.317760	0.029903
588.528810	0.030234
588.739841	0.030235
588.950855	0.030442
589.161850	0.030595
589.372827	0.030818
589.583785	0.031023
589.794726	0.031417
590.005648	0.031527
590.216552	0.031671
590.427437	0.031718
590.638305	0.032068
590.849154	0.032195
591.059985	0.032362
591.270798	0.032244
591.481592	0.032400
591.692369	0.032602
591.903127	0.032731
592.113867	0.032514
592.324588	0.032303
592.535292	0.032322
592.745977	0.032221
592.956644	0.031957
593.167293	0.031617
593.377923	0.031464
593.588536	0.031237
593.799130	0.031364
594.009706	0.031584
594.220263	0.031595
594.430803	0.031535
594.641324	0.031724
594.851827	0.031865
595.062312	0.032313
595.272778	0.032505
595.483227	0.032421
595.693657	0.032273
595.904069	0.032199
596.114462	0.032184
596.324838	0.032033
596.535195	0.032282
596.745534	0.032426
596.955855	0.032568
597.166157	0.032274
597.376441	0.032556
597.586707	0.032243
597.796955	0.032388
598.007185	0.032391
598.217396	0.032718
598.427589	0.032412
598.637764	0.032348
598.847921	0.032195
599.058060	0.032366
599.268180	0.032455
599.478282	0.032729
599.688366	0.032755
599.898431	0.032506
600.108479	0.032156
600.318508	0.032141
600.528519	0.032153
600.738511	0.032333
600.948486	0.032276
601.158442	0.032066
601.368380	0.032223
601.578300	0.032185
601.788202	0.032276
601.998085	0.032601
602.207950	0.033198
602.417797	0.033243
602.627626	0.033077
602.837436	0.033059
603.047228	0.033148
603.257002	0.033187
603.466758	0.033104
603.676496	0.033231
603.886215	0.033141
604.095916	0.032703
604.305599	0.032708
604.515264	0.032929
604.724910	0.032879
604.934538	0.032831
605.144148	0.032800
605.353740	0.033173
605.563314	0.033408
605.772869	0.033501
605.982406	0.033650
606.191925	0.033823
606.401425	0.034107
606.610908	0.034345
606.820372	0.034533
607.029818	0.034498
607.239246	0.034244
607.448655	0.034283
607.658047	0.034361
607.867420	0.034299
608.076775	0.034337
608.286111	0.033990
608.495430	0.034177
608.704730	0.033975
608.914012	0.034178
609.123275	0.034219
609.332521	0.034127
609.541748	0.033869
609.750957	0.033938
609.960148	0.034075
610.169321	0.034426
610.378475	0.034383
610.587611	0.034620
610.796729	0.034631
611.005829	0.034527
611.214910	0.034864
611.423974	0.035156
611.633019	0.035359
611.842045	0.035349
612.051054	0.035388
612.260044	0.035022
612.469017	0.034926
612.677970	0.034871
612.886906	0.035222
613.095824	0.035087
613.304723	0.034995
613.513604	0.034861
613.722467	0.034649
613.931311	0.034647
614.140138	0.034979
614.348946	0.035313
614.557736	0.035114
614.766507	0.035197
614.975261	0.035181
615.183996	0.035483
615.392713	0.035545
615.601412	0.035858
615.810092	0.035609
616.018754	0.035633
616.227399	0.035521
616.436024	0.035926
616.644632	0.035849
616.853222	0.035995
617.061793	0.036035
617.270346	0.036165
617.478880	0.036492
617.687397	0.036800
617.895895	0.036986
618.104375	0.037137
618.312837	0.037121
618.521281	0.037463
618.729706	0.037595
618.938113	0.037598
619.146502	0.037694
619.354873	0.037514
619.563226	0.037419
619.771560	0.037332
619.979876	0.037264
620.188174	0.037395
620.396453	0.037199
620.604715	0.037094
620.812958	0.037399
621.021183	0.037274
621.229390	0.037310
621.437578	0.037337
621.645748	0.037710
621.853900	0.037910
622.062034	0.037892
622.270150	0.037974
622.478247	0.038214
622.686326	0.038109
622.894387	0.038436
623.102430	0.038746
623.310454	0.038644
623.518461	0.038532
623.726449	0.038500
623.934418	0.038509
624.142370	0.038549
624.350303	0.038546
624.558218	0.038381
624.766115	0.038108
624.973994	0.037757
625.181855	0.037989
625.389697	0.038038
625.597521	0.037957
625.805327	0.037872
626.013114	0.037872
626.220883	0.037734
626.428634	0.037902
626.636367	0.037985
626.844082	0.037971
627.051778	0.038052
627.259457	0.038089
627.467117	0.038109
627.674758	0.038176
627.882382	0.038133
628.089987	0.038315
628.297574	0.038416
628.505143	0.038595
628.712694	0.038529
628.920226	0.038453
629.127740	0.038612
629.335236	0.038721
629.542714	0.038949
629.750174	0.039050
629.957615	0.038921
630.165038	0.038726
630.372443	0.038610
630.579829	0.038773
630.787198	0.038906
630.994548	0.038971
631.201880	0.039142
631.409194	0.039272
631.616489	0.039306
631.823766	0.039392
632.031025	0.039634
632.238266	0.039984
632.445489	0.040198
632.652693	0.040328
632.859879	0.040364
633.067047	0.040326
633.274197	0.040279
633.481329	0.040387
633.688442	0.040537
633.895537	0.040738
634.102614	0.040668
634.309672	0.040458
634.516713	0.040396
634.723735	0.040295
634.930739	0.039866
635.137724	0.039659
635.344692	0.039752
635.551641	0.039647
635.758572	0.039649
635.965485	0.039671
636.172379	0.039927
636.379256	0.040104
636.586114	0.040060
636.792954	0.040642
636.999775	0.040981
637.206579	0.040871
637.413364	0.041107
637.620131	0.041007
637.826880	0.041106
638.033610	0.041055
638.240323	0.040926
638.447017	0.040909
638.653692	0.040755
638.860350	0.040631
639.066990	0.040660
639.273611	0.040529
639.480214	0.040551
639.686798	0.040730
639.893365	0.040965
640.099913	0.041026
640.306443	0.040960
640.512955	0.041140
640.719449	0.041386
640.925924	0.041570
641.132381	0.041908
641.338820	0.042070
641.545241	0.041979
641.751644	0.041955
641.958028	0.041940
642.164394	0.042294
642.370742	0.042318
642.577071	0.042148
642.783383	0.042132
642.989676	0.042156
643.195951	0.042092
643.402207	0.042023
643.608446	0.041960
643.814666	0.041905
644.020868	0.041952
644.227052	0.041823
644.433218	0.042013
644.639365	0.042092
644.845494	0.042098
645.051605	0.042253
645.257698	0.042293
645.463772	0.042376
645.669828	0.042565
645.875866	0.042512
646.081886	0.042912
646.287888	0.043069
646.493871	0.043084
646.699836	0.043102
646.905783	0.043226
647.111712	0.043293
647.317622	0.043488
647.523514	0.043607
647.729388	0.043679
647.935244	0.043520
648.141082	0.043498
648.346901	0.043491
648.552702	0.043580
648.758485	0.043322
648.964250	0.043355
649.169996	0.043466
649.375724	0.043560
649.581434	0.043630
649.787126	0.043883
649.992800	0.043900
650.198455	0.044012
650.404092	0.043774
650.609711	0.043773
650.815311	0.044062
651.020894	0.043914
651.226458	0.044023
651.432004	0.044200
651.637532	0.044256
651.843041	0.044254
652.048532	0.044358
652.254006	0.044640
652.459460	0.044826
652.664897	0.044657
652.870315	0.044675
653.075716	0.044518
653.281097	0.044330
653.486461	0.044252
653.691807	0.044370
653.897134	0.044317
654.102443	0.044388
654.307734	0.044571
654.513006	0.044491
654.718261	0.044604
654.923497	0.044880
655.128715	0.045143
655.333915	0.045361
655.539096	0.045265
655.744259	0.045374
655.949404	0.045296
656.154531	0.045259
656.359640	0.045714
656.564730	0.045857
656.769802	0.045786
656.974856	0.045682
657.179892	0.045687
657.384909	0.045992
657.589908	0.046020
657.794889	0.046336
657.999852	0.046422
658.204797	0.046310
658.409723	0.046308
658.614631	0.046465
658.819521	0.046719
659.024393	0.046639
659.229246	0.046486
659.434081	0.046532
659.638898	0.046550
659.843697	0.046671
660.048478	0.046668
660.253240	0.046989
660.457984	0.047022
660.662710	0.047185
660.867417	0.047455
661.072107	0.047755
661.276778	0.047817
661.481431	0.047938
661.686066	0.047872
661.890682	0.048147
662.095281	0.047978
662.299861	0.048060
662.504422	0.048167
662.708966	0.048047
662.913491	0.047930
663.117999	0.048135
663.322488	0.048177
663.526958	0.048556
663.731411	0.048533
663.935845	0.048616
664.140261	0.048668
664.344659	0.048579
664.549038	0.048509
664.753400	0.048528
664.957743	0.048583
665.162068	0.048611
665.366375	0.048367
665.570663	0.048528
665.774933	0.048772
665.979185	0.048827
666.183419	0.048882
666.387635	0.049300
666.591832	0.049394
666.796011	0.049412
667.000172	0.049663
667.204315	0.049884
667.408439	0.049865
667.612545	0.049735
667.816634	0.049957
668.020703	0.050037
668.224755	0.049835
668.428788	0.050064
668.632803	0.050211
668.836800	0.050193
669.040779	0.050260
669.244739	0.050342
669.448681	0.050380
669.652605	0.050271
669.856511	0.050289
670.060399	0.050357
670.264268	0.050335
670.468119	0.050378
670.671952	0.050319
670.875767	0.050300
671.079563	0.050317
671.283341	0.050457
671.487101	0.050690
671.690843	0.050814
671.894567	0.050950
672.098272	0.051130
672.301959	0.051410
672.505628	0.051437
672.709278	0.051550
672.912911	0.051719
673.116525	0.051869
673.320121	0.052111
673.523699	0.052311
673.727258	0.052455
673.930799	0.052554
674.134322	0.052527
674.337827	0.052740
674.541314	0.053012
674.744782	0.053038
674.948232	0.053131
675.151664	0.053087
675.355078	0.052971
675.558474	0.053124
675.761851	0.053149
675.965210	0.053192
676.168551	0.053013
676.371873	0.052976
676.575178	0.052998
676.778464	0.052894
676.981732	0.052899
677.184981	0.053063
677.388213	0.053027
677.591426	0.053063
677.794621	0.053223
677.997798	0.053586
678.200956	0.053607
678.404097	0.053798
678.607219	0.053909
678.810323	0.053961
679.013408	0.053970
679.216476	0.054146
679.419525	0.054292
679.622556	0.054221
679.825569	0.054237
680.028563	0.054393
680.231540	0.054427
680.434498	0.054612
680.637438	0.054629
680.840359	0.054812
681.043263	0.054782
681.246148	0.054784
681.449015	0.054875
681.651864	0.054841
681.854694	0.054883
682.057506	0.054863
682.260301	0.054809
682.463076	0.054823
682.665834	0.054847
682.868573	0.054954
683.071295	0.054875
683.273998	0.055123
683.476682	0.055174
683.679349	0.055213
683.881997	0.055269
684.084627	0.055291
684.287239	0.055398
684.489833	0.055494
684.692408	0.055531
684.894965	0.055752
685.097504	0.055651
685.300025	0.055718
685.502527	0.055726
685.705012	0.055880
685.907478	0.056157
686.109925	0.056252
686.312355	0.056170
686.514766	0.056297
686.717159	0.056284
686.919534	0.056257
687.121891	0.056476
687.324230	0.056604
687.526550	0.056535
687.728852	0.056427
687.931136	0.056334
688.133401	0.056408
688.335649	0.056545
688.537878	0.056588
688.740089	0.056753
688.942281	0.056602
689.144456	0.056680
689.346612	0.056783
689.548750	0.056953
689.750870	0.057128
689.952971	0.057120
690.155055	0.056951
690.357120	0.056998
690.559167	0.056881
690.761195	0.057065
690.963206	0.056989
691.165198	0.057010
691.367172	0.057096
691.569128	0.057099
691.771065	0.057212
691.972984	0.057349
692.174885	0.057575
692.376768	0.057782
692.578633	0.057668
692.780479	0.057777
692.982308	0.057785
693.184118	0.057691
693.385909	0.057951
693.587683	0.057937
693.789438	0.057832
693.991175	0.057828
694.192894	0.057821
694.394595	0.057926
694.596277	0.057880
694.797941	0.057845
694.999587	0.057930
695.201215	0.057894
695.402824	0.057967
695.604416	0.058211
695.805989	0.058063
696.007543	0.058229
696.209080	0.058234
696.410598	0.058298
696.612099	0.058575
696.813580	0.058777
697.015044	0.058806
697.216490	0.058937
697.417917	0.058955
697.619326	0.059127
697.820717	0.059079
698.022089	0.059311
698.223444	0.059402
698.424780	0.059413
698.626098	0.059175
698.827397	0.059065
699.028679	0.059099
699.229942	0.059125
699.431187	0.059422
699.632414	0.059486
699.833622	0.059510
700.034813	0.059823
700.235985	0.059722
700.437139	0.059908
700.638274	0.060114
700.839392	0.060197
701.040491	0.060198
701.241572	0.060107
701.442635	0.060208
701.643679	0.060215
701.844706	0.060165
702.045714	0.060489
702.246704	0.060636
702.447675	0.060642
702.648629	0.060704
702.849564	0.060840
703.050481	0.060826
703.251380	0.060831
703.452260	0.061073
703.653122	0.061236
703.853966	0.061301
704.054792	0.061231
704.255600	0.061270
704.456389	0.061362
704.657160	0.061331
704.857913	0.061455
705.058648	0.061663
705.259365	0.061523
705.460063	0.061314
705.660743	0.061214
705.861405	0.061318
706.062048	0.061445
706.262674	0.061193
706.463281	0.061145
706.663870	0.060954
706.864441	0.060707
707.064993	0.060653
707.265527	0.060716
707.466043	0.060776
707.666541	0.060775
707.867021	0.060826
708.067482	0.061103
708.267925	0.061157
708.468350	0.061352
708.668757	0.061376
708.869145	0.061347
709.069516	0.061350
709.269868	0.061178
709.470201	0.061035
709.670517	0.060921
709.870814	0.060595
710.071093	0.060560
710.271354	0.060345
710.471597	0.060325
710.671821	0.060334
710.872028	0.060224
711.072216	0.060094
711.272385	0.060069
711.472537	0.059819
711.672670	0.059979
711.872785	0.059909
712.072882	0.060037
712.272961	0.060139
712.473021	0.060148
712.673063	0.060195
712.873087	0.060421
713.073093	0.060401
713.273081	0.060476
713.473050	0.060425
713.673001	0.060565
713.872934	0.060430
714.072849	0.060524
714.272745	0.060446
714.472623	0.060312
714.672483	0.060210
714.872325	0.060194
715.072148	0.060304
715.271954	0.060467
715.471741	0.060298
715.671509	0.060209
715.871260	0.059971
716.070992	0.059901
716.270707	0.059799
716.470403	0.059849
716.670080	0.059922
716.869740	0.059787
717.069381	0.059527
717.269004	0.059331
717.468609	0.059324
717.668195	0.059452
717.867764	0.059426
718.067314	0.059467
718.266846	0.059263
718.466360	0.059129
718.665855	0.059081
718.865332	0.059030
719.064791	0.059156
719.264232	0.059080
719.463655	0.059031
719.663059	0.058888
719.862445	0.058947
720.061813	0.058950
720.261163	0.058823
720.460494	0.058748
720.659807	0.058760
720.859102	0.058775
721.058379	0.058746
721.257638	0.058680
721.456878	0.058904
721.656100	0.058789
721.855304	0.058634
722.054490	0.058666
722.253657	0.058668
722.452806	0.058661
722.651937	0.058679
722.851050	0.058682
723.050145	0.058516
723.249221	0.058419
723.448279	0.058315
723.647319	0.058527
723.846340	0.058449
724.045344	0.058504
724.244329	0.058431
724.443296	0.058353
724.642245	0.058300
724.841175	0.058322
725.040088	0.058163
725.238982	0.058107
725.437857	0.058065
725.636715	0.057995
725.835554	0.058051
726.034376	0.057803
726.233179	0.057721
726.431963	0.057684
726.630730	0.057590
726.829478	0.057649
727.028208	0.057788
727.226920	0.057540
727.425614	0.057692
727.624289	0.057540
727.822946	0.057666
728.021585	0.057693
728.220206	0.057721
728.418808	0.057551
728.617392	0.057549
728.815958	0.057255
729.014506	0.057443
729.213036	0.057410
729.411547	0.057185
729.610040	0.056978
729.808515	0.056847
730.006972	0.056682
730.205410	0.056574
730.403831	0.056441
730.602233	0.056537
730.800616	0.056300
730.998982	0.056045
731.197329	0.056182
731.395658	0.056423
731.593969	0.056302
731.792262	0.056376
731.990536	0.056593
732.188793	0.056624
732.387031	0.056529
732.585250	0.056471
732.783452	0.056496
732.981635	0.056471
733.179800	0.056374
733.377947	0.056299
733.576076	0.056330
733.774186	0.056216
733.972278	0.055944
734.170352	0.055997
734.368408	0.055943
734.566446	0.055771
734.764465	0.055586
734.962466	0.055552
735.160449	0.055608
735.358413	0.055415
735.556360	0.055143
735.754288	0.055322
735.952198	0.055206
736.150090	0.055226
736.347963	0.055234
736.545818	0.055225
736.743655	0.055248
736.941474	0.055187
737.139275	0.055078
737.337057	0.055040
737.534821	0.054635
737.732567	0.054452
737.930295	0.054113
738.128005	0.054025
738.325696	0.053918
738.523369	0.053706
738.721024	0.053559
738.918660	0.053363
739.116279	0.053387
739.313879	0.053475
739.511461	0.053452
739.709024	0.053607
739.906570	0.053578
740.104097	0.053403
740.301606	0.053421
740.499097	0.053608
740.696569	0.053644
740.894024	0.053536
741.091460	0.053430
741.288878	0.053411
741.486277	0.053347
741.683659	0.053322
741.881022	0.053681
742.078367	0.053461
742.275694	0.053325
742.473002	0.053419
742.670293	0.053609
742.867565	0.053681
743.064819	0.053540
743.262054	0.053632
743.459272	0.053567
743.656471	0.053114
743.853652	0.053174
744.050815	0.052956
744.247959	0.052753
744.445085	0.052486
744.642194	0.052477
744.839283	0.052490
745.036355	0.052223
745.233408	0.052247
745.430444	0.052119
745.627461	0.051968
745.824459	0.051794
746.021440	0.051885
746.218402	0.051754
746.415346	0.051579
746.612272	0.051427
746.809180	0.051418
747.006069	0.051403
747.202940	0.051409
747.399793	0.051309
747.596628	0.051379
747.793444	0.051230
747.990243	0.051207
748.187023	0.051093
748.383784	0.050983
748.580528	0.050867
748.777253	0.050642
748.973960	0.050456
749.170649	0.050437
749.367320	0.050310
749.563973	0.050276
749.760607	0.050247
749.957223	0.050171
750.153821	0.050124
750.350400	0.049903
750.546962	0.049684
750.743505	0.049758
750.940030	0.049498
751.136536	0.049406
751.333025	0.049303
751.529495	0.049032
751.725947	0.049144
751.922381	0.049186
752.118796	0.049357
752.315194	0.049405
752.511573	0.049382
752.707934	0.049425
752.904276	0.049403
753.100601	0.049311
753.296907	0.049413
753.493195	0.049120
753.689465	0.049165
753.885716	0.049178
754.081949	0.049402
754.278164	0.049441
754.474361	0.049534
754.670540	0.049537
754.866700	0.049546
755.062843	0.049589
755.258967	0.049751
755.455072	0.049630
755.651160	0.049607
755.847229	0.049172
756.043280	0.048971
756.239313	0.048965
756.435328	0.049038
756.631324	0.048879
756.827302	0.049027
757.023262	0.048933
757.219204	0.048872
757.415127	0.048670
757.611033	0.048643
757.806920	0.048637
758.002788	0.048240
758.198639	0.048038
758.394471	0.048116
758.590286	0.047671
758.786081	0.047460
758.981859	0.047231
759.177619	0.046991
759.373360	0.046988
759.569083	0.046756
759.764788	0.046912
759.960474	0.046864
760.156143	0.046694
760.351793	0.046455
760.547425	0.046301
760.743038	0.046269
760.938634	0.046294
761.134211	0.046066
761.329770	0.046168
761.525311	0.046023
761.720833	0.045797
761.916338	0.045732
762.111824	0.045726
762.307292	0.045698
762.502741	0.045820
762.698173	0.045713
762.893586	0.045920
763.088981	0.045810
763.284358	0.045562
763.479716	0.045436
763.675057	0.045384
763.870379	0.045396
764.065683	0.045020
764.260968	0.044711
764.456236	0.044746
764.651485	0.044608
764.846716	0.044572
765.041929	0.044636
765.237123	0.044887
765.432299	0.044578
765.627457	0.044594
765.822597	0.044976
766.017719	0.044953
766.212822	0.044932
766.407907	0.044817
766.602974	0.044611
766.798023	0.044626
766.993054	0.044499
767.188066	0.044689
767.383060	0.044627
767.578036	0.044476
767.772993	0.044413
767.967933	0.044350
768.162854	0.044258
768.357757	0.044225
768.552642	0.044120
768.747508	0.044054
768.942356	0.044038
769.137186	0.044104
769.331998	0.044205
769.526792	0.044126
769.721567	0.044061
769.916324	0.044150
770.111063	0.044369
770.305784	0.044555
770.500486	0.044389
770.695171	0.044419
770.889837	0.044432
771.084484	0.044474
771.279114	0.044504
771.473725	0.044284
771.668318	0.044241
771.862893	0.044001
772.057450	0.043680
772.251988	0.043673
772.446509	0.043478
772.641011	0.043234
772.835494	0.043015
773.029960	0.042863
773.224407	0.043030
773.418836	0.043001
773.613247	0.043064
773.807640	0.043291
774.002014	0.043554
774.196370	0.043787
774.390708	0.044031
774.585028	0.044088
774.779330	0.044369
774.973613	0.044309
775.167878	0.044419
775.362125	0.044358
775.556354	0.044234
775.750564	0.043900
775.944756	0.043875
776.138930	0.043790
776.333086	0.043737
776.527223	0.043628
776.721343	0.043795
776.915444	0.043516
777.109526	0.043777
777.303591	0.043873
777.497637	0.043782
777.691666	0.043594
777.885676	0.043562
778.079667	0.043616
778.273641	0.043720
778.467596	0.043568
778.661533	0.043691
778.855452	0.043512
779.049352	0.043499
779.243235	0.043645
779.437099	0.043624
779.630945	0.043451
779.824773	0.043474
780.018582	0.043498
780.212373	0.043303
780.406146	0.043110
780.599901	0.043022
780.793638	0.042916
780.987356	0.043043
781.181056	0.043020
781.374738	0.043099
781.568402	0.043010
781.762047	0.042967
781.955674	0.043076
782.149283	0.043279
782.342874	0.043193
782.536447	0.043139
782.730001	0.043085
782.923537	0.043048
783.117055	0.042995
783.310555	0.043052
783.504036	0.042925
783.697499	0.042945
783.890944	0.043143
784.084371	0.043076
784.277780	0.043184
784.471170	0.043108
784.664542	0.043251
784.857896	0.043285
785.051231	0.043200
785.244549	0.043401
785.437848	0.043641
785.631129	0.043569
785.824392	0.043846
786.017636	0.043608
786.210863	0.043677
786.404071	0.043600
786.597260	0.043757
786.790432	0.043742
786.983585	0.043630
787.176721	0.043402
787.369838	0.043226
787.562936	0.043139
787.756017	0.043304
787.949079	0.043246
788.142123	0.043173
788.335149	0.043314
788.528156	0.043275
788.721146	0.043285
788.914117	0.043362
789.107070	0.043424
789.300005	0.043605
789.492921	0.043734
789.685819	0.043743
789.878699	0.043639
790.071561	0.043386
790.264405	0.043498
790.457230	0.043554
790.650037	0.043401
790.842826	0.043389
791.035597	0.043184
791.228349	0.043217
791.421084	0.043208
791.613800	0.043553
791.806497	0.043548
791.999177	0.043424
792.191838	0.043452
792.384481	0.043577
792.577106	0.043723
792.769713	0.043738
792.962301	0.043624
793.154871	0.043746
793.347423	0.043618
793.539957	0.043582
793.732473	0.043805
793.924970	0.043927
794.117449	0.043962
794.309910	0.043929
794.502353	0.043958
794.694777	0.044187
794.887183	0.044302
795.079571	0.044431
795.271941	0.044587
795.464293	0.044696
795.656626	0.044689
795.848941	0.044958
796.041238	0.045060
796.233516	0.045327
796.425777	0.045614
796.618019	0.045758
796.810243	0.045807
797.002449	0.045874
797.194636	0.045775
797.386805	0.045779
797.578956	0.045663
797.771089	0.045774
797.963204	0.045564
798.155300	0.045331
798.347378	0.045363
798.539438	0.045460
798.731480	0.045520
798.923503	0.045714
799.115509	0.045687
799.307496	0.045705
799.499465	0.045741
799.691415	0.045812
799.883348	0.045697
800.075262	0.045488
800.267158	0.045631
800.459035	0.045849
800.650895	0.045768
800.842736	0.045827
801.034559	0.045940
801.226364	0.045879
801.418150	0.046012
801.609919	0.046181
801.801669	0.046410
801.993401	0.046479
802.185114	0.046270
802.376810	0.046638
802.568487	0.046867
802.760146	0.046870
802.951787	0.047091
803.143409	0.047231
803.335014	0.047510
803.526600	0.047764
803.718168	0.047579
803.909717	0.047865
804.101249	0.047738
804.292762	0.047836
804.484257	0.048064
804.675734	0.048058
804.867192	0.048204
805.058632	0.048331
805.250054	0.048100
805.441458	0.048270
805.632844	0.048205
805.824211	0.048217
806.015561	0.048247
806.206891	0.048223
806.398204	0.048260
806.589499	0.048337
806.780775	0.048221
806.972033	0.048453
807.163273	0.048625
807.354495	0.048736
807.545698	0.048955
807.736883	0.049066
807.928050	0.049230
808.119199	0.049375
808.310329	0.049359
808.501441	0.049576
808.692535	0.049634
808.883611	0.049742
809.074669	0.050047
809.265708	0.050141
809.456729	0.050256
809.647732	0.050447
809.838717	0.050575
810.029683	0.050765
810.220632	0.050820
810.411562	0.051075
810.602474	0.051257
810.793367	0.051342
810.984242	0.051263
811.175100	0.051453
811.365938	0.051368
811.556759	0.051365
811.747562	0.051407
811.938346	0.051288
812.129112	0.051400
812.319860	0.051302
812.510589	0.051341
812.701300	0.051714
812.891994	0.051663
813.082668	0.051816
813.273325	0.052084
813.463964	0.052201
813.654584	0.052601
813.845186	0.052515
814.035769	0.052592
814.226335	0.052660
814.416882	0.052584
814.607411	0.052473
814.797922	0.052665
814.988415	0.052635
815.178889	0.052555
815.369345	0.052471
815.559783	0.052390
815.750203	0.052577
815.940605	0.052500
816.130988	0.052592
816.321353	0.052776
816.511700	0.053088
816.702028	0.053378
816.892339	0.053762
817.082631	0.053858
817.272905	0.054063
817.463161	0.054203
817.653398	0.054377
817.843617	0.054708
818.033819	0.054578
818.224001	0.054548
818.414166	0.054420
818.604312	0.054467
818.794440	0.054700
818.984550	0.054908
819.174642	0.054867
819.364716	0.055170
819.554771	0.055284
819.744808	0.055877
819.934827	0.055824
820.124827	0.056110
820.314810	0.056354
820.504774	0.056215
820.694720	0.056403
820.884647	0.056765
821.074557	0.056791
821.264448	0.056853
821.454321	0.056948
821.644176	0.057305
821.834012	0.057286
822.023831	0.057396
822.213631	0.057732
822.403413	0.057775
822.593176	0.057773
822.782922	0.057974
822.972649	0.058031
823.162358	0.058073
823.352049	0.057914
823.541721	0.058027
823.731376	0.058147
823.921012	0.058318
824.110629	0.058409
824.300229	0.058499
824.489811	0.058448
824.679374	0.058523
824.868919	0.058438
825.058445	0.058648
825.247954	0.058678
825.437444	0.058608
825.626916	0.058807
825.816370	0.059113
826.005806	0.059322
826.195223	0.059265
826.384622	0.059432
826.574003	0.059778
826.763366	0.059874
826.952711	0.060228
827.142037	0.060475
827.331345	0.060515
827.520635	0.060428
827.709906	0.060733
827.899160	0.061035
828.088395	0.061463
828.277612	0.061614
828.466810	0.061823
828.655991	0.062040
828.845153	0.062189
829.034297	0.062210
829.223423	0.062544
829.412531	0.062802
829.601620	0.063312
829.790691	0.063332
829.979744	0.063439
830.168779	0.063800
830.357795	0.063941
830.546793	0.064036
830.735773	0.064281
830.924735	0.064388
831.113679	0.064321
831.302604	0.064479
831.491511	0.064645
831.680400	0.064875
831.869271	0.065042
832.058123	0.065481
832.246957	0.065855
832.435773	0.066094
832.624571	0.066435
832.813351	0.066588
833.002112	0.066599
833.190855	0.066699
833.379580	0.066884
833.568287	0.066992
833.756975	0.066820
833.945645	0.066606
834.134297	0.066680
834.322931	0.066652
834.511547	0.066786
834.700144	0.066798
834.888723	0.066830
835.077284	0.067104
835.265826	0.067375
835.454351	0.067391
835.642857	0.067794
835.831345	0.068034
836.019815	0.068049
836.208266	0.068302
836.396699	0.068784
836.585114	0.069069
836.773511	0.069179
836.961890	0.069149
837.150250	0.069465
837.338592	0.069330
837.526916	0.069404
837.715222	0.069833
837.903510	0.070153
838.091779	0.070255
838.280030	0.070372
838.468263	0.070420
838.656477	0.070596
838.844674	0.070825
839.032852	0.071304
839.221012	0.071657
839.409153	0.071979
839.597277	0.072130
839.785382	0.072165
839.973469	0.072284
840.161538	0.072502
840.349589	0.072727
840.537621	0.072838
840.725635	0.072880
840.913631	0.072788
841.101609	0.073023
841.289568	0.072846
841.477509	0.073031
841.665432	0.073219
841.853337	0.073541
842.041224	0.073470
842.229092	0.073633
842.416942	0.073714
842.604774	0.074284
842.792588	0.074163
842.980383	0.074571
843.168160	0.074853
843.355919	0.074937
843.543660	0.074926
843.731382	0.075465
843.919087	0.075628
844.106773	0.075912
844.294441	0.075954
844.482090	0.076304
844.669722	0.076534
844.857335	0.076724
845.044930	0.076858
845.232507	0.077105
845.420065	0.077066
845.607605	0.077384
845.795127	0.077886
845.982631	0.077889
846.170117	0.077932
846.357584	0.078156
846.545033	0.078582
846.732464	0.078814
846.919877	0.079020
847.107272	0.079206
847.294648	0.079331
847.482006	0.079403
847.669346	0.079653
847.856667	0.079764
848.043971	0.079700
848.231256	0.079503
848.418523	0.079949
848.605771	0.079815
848.793002	0.080019
848.980214	0.080018
849.167408	0.079990
849.354584	0.080170
849.541742	0.080159
849.728881	0.080262
849.916002	0.080295
850.103105	0.080159
850.290190	0.080452
850.477256	0.080551
850.664304	0.081031
850.851334	0.081339
851.038346	0.081576
851.225340	0.081888
851.412315	0.082393
851.599272	0.082787
851.786211	0.083133
851.973132	0.083471
852.160034	0.083588
852.346918	0.083843
852.533784	0.083868
852.720632	0.083838
852.907462	0.083896
853.094273	0.083918
853.281066	0.083942
853.467841	0.084237
853.654598	0.084580
853.841336	0.084914
854.028056	0.084932
854.214758	0.085144
854.401442	0.085606
854.588107	0.086047
854.774755	0.086161
854.961384	0.086597
855.147995	0.086688
855.334587	0.086846
855.521162	0.086954
855.707718	0.087095
855.894256	0.087707
856.080775	0.087622
856.267277	0.087824
856.453760	0.088030
856.640225	0.087907
856.826672	0.087903
857.013101	0.087993
857.199511	0.088300
857.385903	0.088722
857.572277	0.088347
857.758633	0.088931
857.944970	0.088982
858.131290	0.088964
858.317591	0.089229
858.503873	0.089530
858.690138	0.089459
858.876384	0.089478
859.062612	0.089158
859.248822	0.089354
859.435014	0.089362
859.621188	0.089558
859.807343	0.089786
859.993480	0.090130
860.179599	0.090193
860.365699	0.090462
860.551781	0.090628
860.737846	0.090605
860.923891	0.091090
861.109919	0.090888
861.295929	0.091031
861.481920	0.091146
861.667893	0.090832
861.853848	0.090931
862.039784	0.091271
862.225702	0.091088
862.411603	0.091724
862.597484	0.091722
862.783348	0.091968
862.969193	0.091852
863.155021	0.092036
863.340830	0.092362
863.526620	0.092324
863.712393	0.092205
863.898147	0.092353
864.083883	0.092310
864.269601	0.092155
864.455301	0.092398
864.640982	0.092897
864.826645	0.092998
865.012290	0.093024
865.197917	0.093492
865.383526	0.093528
865.569116	0.093989
865.754688	0.094054
865.940242	0.094417
866.125777	0.094411
866.311295	0.094505
866.496794	0.094863
866.682275	0.095020
866.867737	0.095036
867.053182	0.095065
867.238608	0.095409
867.424016	0.095413
867.609406	0.095538
867.794778	0.095616
867.980131	0.095735
868.165466	0.095745
868.350783	0.096004
868.536082	0.096112
868.721362	0.096229
868.906625	0.096169
869.091869	0.096447
869.277094	0.096315
869.462302	0.096595
869.647491	0.096423
869.832662	0.096434
870.017815	0.096726
870.202950	0.096927
870.388066	0.097360
870.573165	0.097395
870.758245	0.097512
870.943306	0.097969
871.128350	0.097922
871.313375	0.098432
871.498382	0.098840
871.683371	0.099159
871.868342	0.099491
872.053294	0.099423
872.238229	0.099607
872.423144	0.099975
872.608042	0.099778
872.792922	0.100010
872.977783	0.100109
873.162626	0.099696
873.347451	0.099639
873.532258	0.099558
873.717046	0.099930
873.901816	0.099842
874.086568	0.099787
874.271302	0.100118
874.456017	0.100167
874.640715	0.100301
874.825394	0.100788
875.010055	0.100830
875.194697	0.100723
875.379322	0.100633
875.563928	0.100874
875.748516	0.100776
875.933085	0.100972
876.117637	0.101044
876.302170	0.100809
876.486685	0.100492
876.671182	0.100260
876.855661	0.100609
877.040121	0.100775
877.224563	0.100966
877.408987	0.101093
877.593393	0.101146
877.777780	0.101071
877.962150	0.101195
878.146501	0.101549
878.330833	0.101858
878.515148	0.101661
878.699444	0.101358
878.883722	0.101257
879.067982	0.101246
879.252224	0.101218
879.436447	0.101288
879.620653	0.101569
879.804840	0.101840
879.989008	0.101678
880.173159	0.101747
880.357291	0.101894
880.541405	0.101915
880.725501	0.101825
880.909579	0.101933
881.093638	0.102008
881.277680	0.101936
881.461703	0.101888
881.645707	0.102067
881.829694	0.102245
882.013662	0.102460
882.197612	0.102692
882.381544	0.103069
882.565458	0.103109
882.749353	0.103631
882.933230	0.103611
883.117089	0.103525
883.300930	0.103670
883.484753	0.103815
883.668557	0.104058
883.852343	0.103826
884.036111	0.103927
884.219861	0.103865
884.403592	0.103996
884.587305	0.104207
884.771000	0.104396
884.954677	0.104311
885.138335	0.104246
885.321976	0.104462
885.505598	0.104992
885.689201	0.104905
885.872787	0.104827
886.056354	0.104503
886.239904	0.104550
886.423434	0.104579
886.606947	0.105034
886.790442	0.105462
886.973918	0.105422
887.157376	0.105261
887.340816	0.105342
887.524237	0.105693
887.707641	0.105714
887.891026	0.105324
888.074393	0.105148
888.257741	0.104670
888.441072	0.104464
888.624384	0.104278
888.807678	0.104447
888.990954	0.104429
889.174211	0.104476
889.357451	0.104372
889.540672	0.104975
889.723875	0.105346
889.907059	0.105808
890.090226	0.105598
890.273374	0.105505
890.456504	0.105677
890.639616	0.105875
890.822709	0.105463
891.005785	0.105403
891.188842	0.104938
891.371881	0.104631
891.554901	0.104293
891.737904	0.104448
891.920888	0.104633
892.103854	0.104220
892.286802	0.104271
892.469731	0.104640
892.652643	0.105112
892.835536	0.105134
893.018410	0.105373
893.201267	0.105440
893.384106	0.105292
893.566926	0.104978
893.749728	0.105436
893.932511	0.105314
894.115277	0.105440
894.298024	0.105303
894.480753	0.105077
894.663464	0.104534
894.846157	0.104298
895.028831	0.104203
895.211487	0.104595
895.394125	0.103681
895.576745	0.103644
895.759346	0.103181
895.941930	0.102973
896.124495	0.103434
896.307041	0.103802
896.489570	0.104196
896.672080	0.104447
896.854573	0.104176
897.037046	0.104683
897.219502	0.104243
897.401940	0.104247
897.584359	0.104235
897.766760	0.104163
897.949143	0.103852
898.131507	0.103286
898.313854	0.103239
898.496182	0.102997
898.678492	0.102768
898.860783	0.102919
899.043057	0.102588
899.225312	0.102605
899.407549	0.102434
899.589768	0.102642
899.771968	0.102729
899.954151	0.102775
900.136315	0.102739
900.318461	0.102661
900.500588	0.102259
900.682698	0.102382
900.864789	0.101799
901.046862	0.101707
901.228917	0.101124
901.410953	0.100986
901.592971	0.100463
901.774972	0.100202
901.956953	0.100061
902.138917	0.100555
902.320862	0.100434
902.502790	0.100903
902.684699	0.100863
902.866589	0.101184
903.048462	0.101330
903.230316	0.101052
903.412152	0.101015
903.593970	0.100933
903.775770	0.100557
903.957551	0.100597
904.139314	0.100195
904.321059	0.099975
904.502786	0.099592
904.684494	0.098857
904.866185	0.099054
905.047857	0.098849
905.229510	0.098472
905.411146	0.098315
905.592763	0.098165
905.774363	0.098009
905.955943	0.097431
906.137506	0.097461
906.319051	0.097519
906.500577	0.097142
906.682085	0.096925
906.863575	0.096788
907.045046	0.096594
907.226500	0.096534
907.407935	0.096643
907.589352	0.096869
907.770750	0.096789
907.952131	0.096632
908.133493	0.096580
908.314837	0.096708
908.496163	0.096834
908.677470	0.096504
908.858760	0.096724
909.040031	0.096375
909.221284	0.096275
909.402518	0.095893
909.583735	0.096232
909.764933	0.096344
909.946113	0.095982
910.127275	0.095846
910.308418	0.095481
910.489544	0.094735
910.670651	0.094346
910.851740	0.094147
911.032810	0.093977
911.213863	0.093307
911.394897	0.092772
911.575913	0.092723
911.756911	0.092171
911.937890	0.092384
912.118851	0.091987
912.299794	0.091693
912.480719	0.091522
912.661626	0.091477
912.842514	0.091536
913.023384	0.091523
913.204236	0.091468
913.385070	0.091695
913.565886	0.091782
913.746683	0.091587
913.927462	0.091802
914.108223	0.091335
914.288965	0.090915
914.469690	0.090514
914.650396	0.090173
914.831084	0.089594
915.011754	0.089186
915.192405	0.088741
915.373038	0.088732
915.553653	0.088452
915.734250	0.088537
915.914829	0.088204
916.095389	0.088353
916.275931	0.088387
916.456455	0.088528
916.636961	0.088220
916.817448	0.087757
916.997917	0.087206
917.178368	0.087302
917.358801	0.087068
917.539216	0.087049
917.719612	0.086580
917.899990	0.086170
918.080350	0.086022
918.260692	0.085744
918.441015	0.085503
918.621320	0.085810
918.801607	0.085095
918.981876	0.085071
919.162127	0.084806
919.342359	0.084411
919.522573	0.084131
919.702769	0.083621
919.882947	0.083228
920.063106	0.082882
920.243247	0.082475
920.423370	0.081763
920.603475	0.081058
920.783562	0.081003
920.963630	0.080726
921.143680	0.080258
921.323712	0.079531
921.503725	0.079424
921.683721	0.079367
921.863698	0.078455
922.043657	0.078294
922.223598	0.077615
922.403520	0.076924
922.583424	0.077026
922.763311	0.076559
922.943178	0.076888
923.123028	0.077053
923.302859	0.076574
923.482673	0.076451
923.662467	0.075711
923.842244	0.075820
924.022003	0.075820
924.201743	0.075212
924.381465	0.075130
924.561169	0.074731
924.740854	0.073806
924.920522	0.073494
925.100171	0.073556
925.279802	0.073683
925.459414	0.073755
925.639009	0.073373
925.818585	0.073001
925.998143	0.073110
926.177683	0.072460
926.357205	0.071819
926.536708	0.071417
926.716193	0.070785
926.895660	0.070990
927.075109	0.069869
927.254539	0.068989
927.433951	0.068185
927.613345	0.067066
927.792721	0.066992
927.972079	0.066964
928.151418	0.066478
928.330739	0.066589
928.510042	0.066260
928.689327	0.065605
928.868593	0.066206
929.047841	0.066412
929.227071	0.066548
929.406283	0.065644
929.585476	0.065832
929.764652	0.065703
929.943809	0.065065
930.122948	0.064883
930.302068	0.064921
930.481171	0.063901
930.660255	0.063197
930.839321	0.062760
931.018369	0.062798
931.197398	0.062183
931.376409	0.061767
931.555402	0.061188
931.734377	0.060404
931.913334	0.060469
932.092272	0.060345
932.271192	0.060160
932.450094	0.060300
932.628978	0.060083
932.807844	0.059469
932.986691	0.059007
933.165520	0.059097
933.344331	0.058303
933.523123	0.057169
933.701898	0.056951
933.880654	0.056227
934.059392	0.055280
934.238111	0.054843
934.416813	0.054132
934.595496	0.053963
934.774161	0.053457
934.952808	0.053397
935.131437	0.053279
935.310047	0.052443
935.488639	0.052542
935.667213	0.051597
935.845769	0.050401
936.024306	0.050128
936.202825	0.049704
936.381326	0.048993
936.559809	0.048099
936.738274	0.047323
936.916720	0.046988
937.095148	0.045657
937.273558	0.046126
937.451950	0.045829
937.630323	0.045223
937.808678	0.044895
937.987015	0.045066
938.165334	0.045492
938.343635	0.045737
938.521917	0.045217
938.700181	0.045955
938.878427	0.044657
939.056655	0.044774
939.234864	0.044743
939.413055	0.044356
939.591228	0.042649
939.769383	0.041313
939.947519	0.040981
940.125638	0.040678
940.303738	0.039593
940.481820	0.039052
940.659883	0.038092
940.837929	0.037993
941.015956	0.036477
941.193965	0.036180
941.371955	0.036289
941.549928	0.035522
941.727882	0.035077
941.905818	0.034368
942.083736	0.033900
942.261636	0.034066
942.439517	0.032601
942.617380	0.032784
942.795225	0.032822
942.973052	0.032131
943.150860	0.031201
943.328651	0.031271
943.506423	0.031781
943.684176	0.031958
943.861912	0.031202
944.039629	0.030739
944.217328	0.029928
944.395009	0.029590
944.572672	0.029636
944.750317	0.029743
944.927943	0.028433
945.105551	0.027535
945.283141	0.026906
945.460712	0.026935
945.638265	0.027286
945.815801	0.027234
945.993317	0.026936
946.170816	0.025522
946.348297	0.024769
946.525759	0.024650
946.703203	0.024578
946.880629	0.024361
947.058036	0.023872
947.235425	0.023414
947.412797	0.022939
947.590149	0.021558
947.767484	0.021935
947.944800	0.021374
948.122099	0.021040
948.299379	0.019042
948.476640	0.018221
948.653884	0.016605
948.831109	0.014439
949.008316	0.014269
949.185505	0.013600
949.362676	0.013671
949.539828	0.014449
949.716962	0.012779
949.894078	0.012100
950.071176	0.011999
950.248256	0.012003
950.425317	0.013426
950.602360	0.012458
950.779385	0.011887
950.956391	0.011416
951.133380	0.009663
951.310350	0.009423
951.487302	0.009794
951.664235	0.008861
951.841151	0.009262
952.018048	0.008737
952.194927	0.009551
952.371788	0.009740
952.548631	0.007826
952.725455	0.007942
952.902261	0.008199
953.079049	0.008367
953.255819	0.008402
953.432570	0.008785
953.609303	0.006777
953.786018	0.006056
953.962715	0.006285
954.139394	0.006304
954.316054	0.006203
954.492696	0.005853
954.669320	0.006140
954.845926	0.006011
955.022513	0.004191
955.199083	0.003936
955.375634	0.003205
955.552166	0.002905
955.728681	0.003785
955.905177	0.003467
956.081655	0.003280
956.258115	0.001267
956.434557	0.000799
956.610980	0.000579
956.787385	-0.000097
956.963772	0.000448
957.140141	-0.000017
957.316492	-0.000983
957.492824	0.000609
957.669138	0.001891
957.845434	0.002275
958.021712	0.003474
958.197971	0.002859
958.374212	0.006038
958.550435	0.003251
958.726640	0.004131
958.902826	0.004632
959.078995	0.003290
959.255145	0.001018
959.431277	0.002099
959.607390	0.000467
959.783486	0.000911
959.959563	0.000146
960.135622	0.000227
960.311662	0.000941
960.487685	-0.000459
960.663689	-0.000870
960.839675	0.001424
961.015643	-0.000967
961.191593	-0.000903
961.367524	0.000298
961.543437	-0.000371
961.719332	0.001675
961.895209	0.001570
962.071067	0.002914
962.246907	0.002515
962.422730	0.000550
962.598533	0.003507
962.774319	0.004377
962.950086	0.004038
963.125835	0.005052
963.301566	0.004184
963.477279	0.001805
963.652973	-0.000271
963.828650	0.000485
964.004308	0.002682
964.179947	-0.000014
964.355569	-0.000592
964.531172	-0.001451
964.706757	-0.002479
964.882324	-0.001644
965.057873	-0.001407
965.233403	-0.000421
965.408916	-0.000740
965.584410	-0.002469
965.759885	0.001618
965.935343	0.002676
966.110782	0.001702
966.286203	0.002056
966.461606	0.001757
966.636991	0.002563
966.812357	0.003304
966.987705	0.004673
967.163035	0.006104
967.338347	0.005513
967.513641	0.004230
967.688916	0.005664
967.864173	0.005235
968.039412	0.006144
968.214632	0.005534
968.389835	0.006162
968.565019	0.003525
968.740185	0.004005
968.915333	0.002994
969.090462	0.004141
969.265573	0.003235
969.440667	0.004497
969.615741	0.004170
969.790798	0.003876
969.965836	0.000678
970.140856	0.001000
970.315858	-0.001109
970.490842	-0.002005
970.665808	-0.003055
970.840755	-0.001082
971.015684	-0.002820
971.190595	-0.002422
971.365487	-0.001870
971.540362	0.000781
971.715218	0.002035
971.890056	0.002611
972.064875	0.002113
972.239677	0.003717
972.414460	0.002920
972.589225	0.004878
972.763972	0.003097
972.938700	0.003164
973.113411	0.003894
973.288103	0.004195
973.462777	0.006886
973.637432	0.007397
973.812070	0.005941
973.986689	0.004021
974.161290	0.002079
974.335873	0.003269
974.510437	0.005404
974.684984	0.006116
974.859512	0.004665
975.034022	0.003052
975.208513	0.003417
975.382987	0.002776
975.557442	0.004608
975.731879	0.003972
975.906298	0.002785
976.080698	0.003250
976.255080	0.000078
976.429445	-0.000006
976.603790	-0.001065
976.778118	-0.003815
976.952427	-0.002123
977.126719	-0.003193
977.300992	-0.000989
977.475246	-0.000508
977.649483	-0.000702
977.823701	0.000180
977.997901	0.000896
978.172083	-0.000147
978.346247	0.001613
978.520392	-0.000191
978.694519	-0.000003
978.868628	-0.001424
979.042719	-0.001649
979.216791	-0.002894
979.390845	-0.003301
979.564882	-0.003140
979.738899	-0.001996
979.912899	-0.001350
980.086880	-0.000291
980.260843	0.001257
980.434788	0.001027
980.608715	0.000797
980.782623	-0.001110
980.956514	-0.000332
981.130386	-0.001497
981.304240	-0.000120
981.478075	0.000141
981.651892	0.001084
981.825692	-0.000075
981.999472	-0.001148
982.173235	-0.002135
982.346980	-0.002639
982.520706	-0.002962
982.694414	-0.001652
982.868104	-0.003568
983.041775	-0.004803
983.215428	-0.006477
983.389064	-0.005711
983.562680	-0.004686
983.736279	-0.002323
983.909860	-0.001016
984.083422	-0.000447
984.256966	-0.000550
984.430491	-0.000617
984.603999	0.000713
984.777488	-0.000195
984.950959	-0.000321
985.124412	-0.000342
985.297847	-0.000806
985.471263	-0.001618
985.644661	-0.000952
985.818041	0.000124
985.991403	0.000867
986.164747	0.000237
986.338072	0.001108
986.511379	-0.000439
986.684668	0.000831
986.857938	0.001793
987.031191	0.003059
987.204425	0.002166
987.377641	0.000374
987.550839	0.000167
987.724018	-0.001504
987.897179	-0.001548
988.070322	-0.000212
988.243447	0.001406
988.416554	0.000534
988.589642	-0.001653
988.762712	-0.001603
988.935764	-0.000866
989.108798	0.000363
989.281813	0.000840
989.454811	0.001222
989.627790	0.000158
989.800751	-0.001391
989.973693	-0.001563
990.146617	0.000402
990.319524	0.000724
990.492412	0.000548
990.665281	-0.000645
990.838133	0.001429
991.010966	0.001627
991.183781	0.003260
991.356578	0.001911
991.529356	0.001075
991.702117	0.001606
991.874859	0.001203
992.047583	0.000352
992.220288	-0.002180
992.392976	-0.002516
992.565645	-0.002480
992.738296	-0.003188
992.910929	-0.002546
993.083543	-0.001859
993.256139	-0.002159
993.428718	-0.002101
993.601277	-0.001314
993.773819	0.000742
993.946342	0.001120
994.118848	-0.000650
994.291335	-0.000207
994.463803	-0.000565
994.636254	-0.000621
994.808686	-0.001229
994.981100	-0.002001
995.153496	-0.002350
995.325874	-0.000468
995.498233	-0.001017
995.670574	-0.000172
995.842897	-0.001835
996.015202	-0.002456
996.187488	-0.004143
996.359757	-0.002849
996.532007	-0.002904
996.704239	-0.003680
996.876452	-0.006034
997.048648	-0.007204
997.220825	-0.007018
997.392984	-0.005505
997.565124	-0.005119
997.737247	-0.002795
997.909351	-0.003185
998.081437	-0.004241
998.253505	-0.003871
998.425554	-0.003638
998.597586	-0.002937
998.769599	-0.001647
998.941594	-0.001056
999.113571	-0.001571
999.285529	-0.002144
999.457469	-0.002766
999.629391	-0.001214
999.801295	-0.002500
999.973181	-0.003632
1000.145048	-0.003549
1000.316897	-0.004792
1000.488728	-0.006545
1000.660541	-0.006849
1000.832335	-0.006828
1001.004111	-0.007389
1001.175869	-0.006908
1001.347609	-0.005233
1001.519331	-0.001614
1001.691034	-0.001444
1001.862719	-0.001587
1002.034386	-0.000757
1002.206035	0.000714
1002.377665	0.000792
1002.549277	0.002486
1002.720871	0.001802
1002.892447	0.001257
1003.064004	-0.002314
1003.235544	-0.002407
1003.407065	-0.001579
1003.578568	-0.002173
1003.750052	-0.002429
1003.921519	-0.003740
1004.092967	-0.004264
1004.264397	-0.004190
1004.435809	-0.003888
1004.607202	-0.003135
1004.778577	-0.002942
1004.949934	-0.003796
1005.121273	-0.003339
1005.292594	-0.004029
1005.463896	-0.002456
1005.635180	-0.003708
1005.806446	-0.005720
1005.977694	-0.006713
1006.148923	-0.006141
1006.320135	-0.006854
1006.491328	-0.008280
1006.662503	-0.007579
1006.833659	-0.006618
1007.004798	-0.007574
1007.175918	-0.008497
1007.347020	-0.006763
1007.518103	-0.006744
1007.689169	-0.005492
1007.860216	-0.004913
1008.031245	-0.002993
1008.202256	-0.003410
1008.373248	-0.003889
1008.544223	-0.004236
1008.715179	-0.002178
1008.886117	-0.002566
1009.057036	-0.002595
1009.227938	-0.005976
1009.398821	-0.006045
1009.569686	-0.005616
1009.740533	-0.006924
1009.911361	-0.006730
1010.082172	-0.006824
1010.252964	-0.007836
1010.423738	-0.008888
1010.594493	-0.008928
1010.765231	-0.007500
1010.935950	-0.007618
1011.106651	-0.009310
1011.277334	-0.009665
1011.447998	-0.009797
1011.618645	-0.010485
1011.789273	-0.010514
1011.959882	-0.009132
1012.130474	-0.008064
1012.301048	-0.007374
1012.471603	-0.008026
1012.642140	-0.006587
1012.812658	-0.005669
1012.983159	-0.006565
1013.153641	-0.005381
1013.324105	-0.005647
1013.494551	-0.006858
1013.664979	-0.007595
1013.835388	-0.009066
1014.005779	-0.008915
1014.176152	-0.009343
1014.346507	-0.009776
1014.516843	-0.009052
1014.687162	-0.010140
1014.857462	-0.011782
1015.027744	-0.012191
1015.198007	-0.009967
1015.368252	-0.009681
1015.538480	-0.008150
1015.708689	-0.007877
1015.878879	-0.006226
1016.049052	-0.006513
1016.219206	-0.005214
1016.389342	-0.002158
1016.559460	-0.000481
1016.729559	-0.001838
1016.899641	-0.001547
1017.069704	-0.003677
1017.239749	-0.005165
1017.409775	-0.005732
1017.579784	-0.007875
1017.749774	-0.009033
1017.919746	-0.009736
1018.089700	-0.008857
1018.259635	-0.009492
1018.429553	-0.008664
1018.599452	-0.007278
1018.769333	-0.006287
1018.939195	-0.007324
1019.109040	-0.005250
1019.278866	-0.005415
1019.448674	-0.006771
1019.618464	-0.007378
1019.788235	-0.009972
1019.957989	-0.010890
1020.127724	-0.013956
1020.297441	-0.014256
1020.467139	-0.014665
1020.636820	-0.013065
1020.806482	-0.012392
1020.976126	-0.010957
1021.145752	-0.012273
1021.315359	-0.009101
1021.484948	-0.007604
1021.654519	-0.006060
1021.824072	-0.006343
1021.993607	-0.005976
1022.163123	-0.007947
1022.332621	-0.007850
1022.502101	-0.009145
1022.671563	-0.007422
1022.841007	-0.008030
1023.010432	-0.009161
1023.179839	-0.008184
1023.349228	-0.007993
1023.518598	-0.007184
1023.687951	-0.007526
1023.857285	-0.007556
1024.026601	-0.005157
1024.195899	-0.006614
1024.365178	-0.005555
1024.534439	-0.006763
1024.703682	-0.006559
1024.872907	-0.006424
1025.042114	-0.006998
1025.211302	-0.006967
1025.380472	-0.006857
1025.549624	-0.009917
1025.718758	-0.009293
1025.887873	-0.011474
1026.056970	-0.010928
1026.226049	-0.013231
1026.395110	-0.013227
1026.564153	-0.012445
1026.733177	-0.010812
1026.902183	-0.010347
1027.071171	-0.009999
1027.240141	-0.010378
1027.409092	-0.010022
1027.578026	-0.010034
1027.746940	-0.009532
1027.915837	-0.010350
1028.084716	-0.011822
1028.253576	-0.013329
1028.422418	-0.013705
1028.591242	-0.013737
1028.760048	-0.013797
1028.928835	-0.014672
1029.097604	-0.015192
1029.266355	-0.013541
1029.435088	-0.012948
1029.603803	-0.013196
1029.772499	-0.012208
1029.941177	-0.012935
1030.109837	-0.012866
1030.278478	-0.014353
1030.447102	-0.012853
1030.615707	-0.012736
1030.784294	-0.011746
1030.952863	-0.012679
1031.121413	-0.012143
1031.289945	-0.013086
1031.458460	-0.011884
1031.626955	-0.010903
1031.795433	-0.009852
1031.963892	-0.009338
1032.132334	-0.008622
1032.300756	-0.009223
1032.469161	-0.009374
1032.637548	-0.011337
1032.805916	-0.010827
1032.974266	-0.010445
1033.142598	-0.011603
1033.310911	-0.010191
1033.479207	-0.009718
1033.647484	-0.009469
1033.815743	-0.010340
1033.983983	-0.008490
1034.152206	-0.004746
1034.320410	-0.006123
1034.488596	-0.007373
1034.656764	-0.007282
1034.824914	-0.007391
1034.993045	-0.007402
1035.161158	-0.006810
1035.329253	-0.005912
1035.497330	-0.006314
1035.665388	-0.008590
1035.833428	-0.007636
1036.001450	-0.008122
1036.169454	-0.007810
1036.337440	-0.008379
1036.505407	-0.008295
1036.673356	-0.009766
1036.841287	-0.010520
1037.009200	-0.009856
1037.177094	-0.009285
1037.344970	-0.009091
1037.512828	-0.009477
1037.680668	-0.009086
1037.848489	-0.008687
1038.016293	-0.009215
1038.184078	-0.008710
1038.351845	-0.008737
1038.519593	-0.011456
1038.687324	-0.011438
1038.855036	-0.011253
1039.022730	-0.010472
1039.190406	-0.012701
1039.358063	-0.014279
1039.525702	-0.014594
1039.693323	-0.013954
1039.860926	-0.015071
1040.028511	-0.011982
1040.196077	-0.011939
1040.363625	-0.011462
1040.531155	-0.011825
1040.698667	-0.010724
1040.866161	-0.009789
1041.033636	-0.011112
1041.201093	-0.010249
1041.368532	-0.009916
1041.535952	-0.012146
1041.703355	-0.013295
1041.870739	-0.014706
1042.038105	-0.014103
1042.205452	-0.012920
1042.372782	-0.013958
1042.540093	-0.012400
1042.707386	-0.014150
1042.874661	-0.013214
1043.041918	-0.012176
1043.209156	-0.011476
1043.376376	-0.011233
1043.543578	-0.011572
1043.710762	-0.011242
1043.877927	-0.009737
1044.045074	-0.011091
1044.212203	-0.010197
1044.379314	-0.011165
1044.546407	-0.011893
1044.713481	-0.010979
1044.880537	-0.010745
1045.047575	-0.010809
1045.214595	-0.011552
1045.381596	-0.012466
1045.548579	-0.011034
1045.715544	-0.011486
1045.882491	-0.010709
1046.049420	-0.009627
1046.216330	-0.010221
1046.383222	-0.009574
1046.550096	-0.007566
1046.716951	-0.006619
1046.883789	-0.006255
1047.050608	-0.007815
1047.217409	-0.006510
1047.384192	-0.007005
1047.550956	-0.007002
1047.717703	-0.006559
1047.884431	-0.007885
1048.051140	-0.010153
1048.217832	-0.011964
1048.384505	-0.011880
1048.551161	-0.011041
1048.717798	-0.012944
1048.884416	-0.011411
1049.051017	-0.011885
1049.217599	-0.012317
1049.384163	-0.010835
1049.550709	-0.010619
1049.717237	-0.009208
1049.883746	-0.008907
1050.050237	-0.010186
1050.216710	-0.009452
1050.383165	-0.011348
1050.549601	-0.012165
1050.716019	-0.011471
1050.882420	-0.012433
1051.048801	-0.011037
1051.215165	-0.011624
1051.381510	-0.012818
1051.547837	-0.010404
1051.714146	-0.009829
1051.880437	-0.010282
1052.046709	-0.009633
1052.212964	-0.009255
1052.379200	-0.008932
1052.545417	-0.010309
1052.711617	-0.011491
1052.877798	-0.010425
1053.043961	-0.010949
1053.210106	-0.012826
1053.376233	-0.011579
1053.542341	-0.010109
1053.708432	-0.012100
1053.874504	-0.011938
1054.040557	-0.012527
1054.206593	-0.011480
1054.372610	-0.011592
1054.538609	-0.012616
1054.704590	-0.013823
1054.870553	-0.012820
1055.036497	-0.014473
1055.202424	-0.013801
1055.368331	-0.013892
1055.534221	-0.012397
1055.700093	-0.011656
1055.865946	-0.012394
1056.031781	-0.010708
1056.197598	-0.006359
1056.363397	-0.006701
1056.529177	-0.006918
1056.694939	-0.007222
1056.860683	-0.006684
1057.026409	-0.007198
1057.192116	-0.007307
1057.357806	-0.007144
1057.523477	-0.007060
1057.689130	-0.009075
1057.854764	-0.010030
1058.020381	-0.010075
1058.185979	-0.009465
1058.351559	-0.010770
1058.517120	-0.009513
1058.682664	-0.011117
1058.848189	-0.008483
1059.013696	-0.009194
1059.179185	-0.008631
1059.344656	-0.009214
1059.510108	-0.008463
1059.675542	-0.007361
1059.840958	-0.005943
1060.006356	-0.006924
1060.171735	-0.004404
1060.337096	-0.007075
1060.502439	-0.007054
1060.667764	-0.005939
1060.833071	-0.005587
1060.998359	-0.006621
1061.163629	-0.007823
1061.328881	-0.008336
1061.494115	-0.007036
1061.659330	-0.009988
1061.824527	-0.008176
1061.989706	-0.009131
1062.154867	-0.011878
1062.320010	-0.012116
1062.485134	-0.012288
1062.650240	-0.011542
1062.815328	-0.010703
1062.980398	-0.011896
1063.145449	-0.009530
1063.310482	-0.011923
1063.475497	-0.012301
1063.640494	-0.011612
1063.805473	-0.010976
1063.970433	-0.008952
1064.135375	-0.010265
1064.300299	-0.011888
1064.465204	-0.010483
1064.630092	-0.011035
1064.794961	-0.009748
1064.959812	-0.009575
1065.124645	-0.008881
1065.289459	-0.007063
1065.454256	-0.007365
1065.619034	-0.005592
1065.783793	-0.005536
1065.948535	-0.007441
1066.113258	-0.007456
1066.277964	-0.007078
1066.442651	-0.005891
1066.607319	-0.006531
1066.771970	-0.008015
1066.936602	-0.007682
1067.101216	-0.009132
1067.265812	-0.007580
1067.430389	-0.008129
1067.594949	-0.005922
1067.759490	-0.007101
1067.924013	-0.006807
1068.088518	-0.006189
1068.253004	-0.006312
1068.417472	-0.005139
1068.581922	-0.005999
1068.746354	-0.006727
1068.910768	-0.006685
1069.075163	-0.007182
1069.239540	-0.005042
1069.403899	-0.004685
1069.568240	-0.003150
1069.732562	-0.002089
1069.896866	-0.002567
1070.061152	-0.000530
1070.225420	-0.001119
1070.389670	0.002182
1070.553901	0.002644
1070.718114	0.001030
1070.882309	0.000133
1071.046486	-0.002825
1071.210644	-0.004368
1071.374784	-0.005388
1071.538906	-0.004544
1071.703010	-0.003484
1071.867096	-0.007370
1072.031163	-0.007308
1072.195212	-0.006379
1072.359243	-0.006072
1072.523256	-0.005770
1072.687250	-0.004274
1072.851226	-0.003973
1073.015184	-0.004754
1073.179124	-0.004181
1073.343045	-0.002933
1073.506949	-0.002968
1073.670834	-0.002496
1073.834701	-0.002148
1073.998549	-0.000720
1074.162380	0.000281
1074.326192	0.000249
1074.489986	0.000824
1074.653761	0.000093
1074.817519	-0.001135
1074.981258	-0.002044
1075.144979	-0.001423
1075.308682	-0.003408
1075.472367	-0.000638
1075.636033	-0.002332
1075.799681	-0.002729
1075.963311	-0.002366
1076.126923	-0.001014
1076.290516	-0.000065
1076.454092	-0.000336
1076.617649	-0.000768
1076.781187	0.002963
1076.944708	0.001081
1077.108210	0.002406
1077.271695	0.001771
1077.435160	-0.001097
1077.598608	-0.001847
1077.762038	-0.001700
1077.925449	0.000413
1078.088842	0.000005
1078.252217	-0.001966
1078.415573	-0.003336
1078.578912	-0.005942
1078.742232	-0.006589
1078.905534	-0.006073
1079.068817	-0.006414
1079.232083	-0.005559
1079.395330	-0.007744
1079.558559	-0.008167
1079.721770	-0.009922
1079.884962	-0.008728
1080.048136	-0.006815
1080.211293	-0.007556
1080.374430	-0.007659
1080.537550	-0.006394
1080.700651	-0.005594
1080.863735	-0.006905
1081.026800	-0.008851
1081.189846	-0.008458
1081.352875	-0.008389
1081.515885	-0.008444
1081.678877	-0.007291
1081.841851	-0.005959
1082.004807	-0.007708
1082.167744	-0.009176
1082.330663	-0.009172
1082.493564	-0.006738
1082.656447	-0.004349
1082.819312	-0.005888
1082.982158	-0.005843
1083.144986	-0.005867
1083.307796	-0.006238
1083.470587	-0.005419
1083.633361	-0.006249
1083.796116	-0.003524
1083.958853	-0.003299
1084.121571	-0.002359
1084.284272	-0.000434
1084.446954	-0.001903
1084.609618	0.000598
1084.772264	0.000013
1084.934892	-0.000657
1085.097501	0.001937
1085.260092	0.001198
1085.422665	0.002093
1085.585220	-0.000172
1085.747756	-0.000971
1085.910274	-0.002059
1086.072774	-0.004128
1086.235256	-0.002070
1086.397720	-0.001623
1086.560165	-0.004127
1086.722592	-0.006954
1086.885001	-0.009116
1087.047392	-0.008934
1087.209764	-0.007112
1087.372119	-0.006074
1087.534455	-0.004034
1087.696772	-0.004090
1087.859072	-0.005835
1088.021353	-0.007269
1088.183616	-0.003502
1088.345861	-0.002767
1088.508088	-0.002675
1088.670296	-0.006256
1088.832486	-0.004200
1088.994658	-0.005426
1089.156812	-0.006972
1089.318948	-0.005767
1089.481065	-0.002167
1089.643164	-0.004101
1089.805245	-0.004256
1089.967308	-0.004186
1090.129352	-0.003224
1090.291378	-0.003074
1090.453386	-0.002901
1090.615376	-0.002669
1090.777347	-0.000606
1090.939301	0.000232
1091.101236	0.001492
1091.263153	0.003111
1091.425051	0.004047
1091.586932	0.005255
1091.748794	0.002631
1091.910638	0.001786
1092.072463	0.003728
1092.234271	0.003600
1092.396060	0.003591
1092.557831	0.001355
1092.719584	-0.001030
1092.881319	-0.002137
1093.043035	-0.002226
1093.204733	0.000060
1093.366413	0.000926
1093.528075	-0.000282
1093.689718	-0.003061
1093.851343	-0.004074
1094.012950	-0.000657
1094.174539	0.002090
1094.336110	0.003843
1094.497662	0.001522
1094.659196	0.001929
1094.820712	0.001300
1094.982210	0.000466
1095.143689	0.003642
1095.305151	0.005219
1095.466594	0.004688
1095.628018	0.000541
1095.789425	0.002146
1095.950813	0.003684
1096.112183	0.003692
1096.273535	0.004402
1096.434869	0.004192
1096.596184	0.004283
1096.757482	-0.000214
1096.918761	-0.000757
1097.080021	0.001759
1097.241264	-0.002903
1097.402488	-0.000599
1097.563694	-0.001407
1097.724882	-0.004169
1097.886052	-0.002180
1098.047203	-0.005866
1098.208336	-0.003717
1098.369451	-0.003779
1098.530548	-0.004930
1098.691627	-0.000837
1098.852687	-0.002339
1099.013729	-0.002434
1099.174753	0.000027
1099.335758	-0.001279
1099.496746	0.000182
1099.657715	-0.000180
1099.818666	-0.000854
1099.979599	0.002645
1100.140513	0.000656
1100.301409	0.003831
1100.462287	0.004675
1100.623147	0.004991
1100.783989	0.002992
1100.944812	0.002505
1101.105617	0.005839
1101.266404	0.004604
1101.427173	0.003735
1101.587923	0.002806
1101.748656	0.001417
1101.909370	0.000175
1102.070066	0.001358
1102.230743	0.004173
1102.391403	0.004843
1102.552044	0.000443
1102.712667	0.001687
1102.873271	0.000960
1103.033858	-0.000875
1103.194426	-0.004210
1103.354976	-0.003951
1103.515508	-0.004044
1103.676021	-0.004726
1103.836517	0.000482
1103.996994	0.003597
1104.157453	0.007729
1104.317893	0.008729
1104.478316	0.010341
1104.638720	0.011030
1104.799106	0.015385
1104.959474	0.013578
1105.119823	0.016747
1105.280155	0.009962
1105.440468	0.008865
1105.600763	0.002731
1105.761039	0.000778
1105.921298	0.001879
1106.081538	0.003591
1106.241760	-0.000849
1106.401964	-0.000977
1106.562149	-0.005992
1106.722316	-0.005243
1106.882465	-0.004273
1107.042596	-0.002923
1107.202709	-0.005623
1107.362803	-0.006781
1107.522879	-0.006012
1107.682937	-0.003812
1107.842977	-0.000790
1108.002999	0.002970
1108.163002	0.004521
1108.322987	0.002075
1108.482954	0.002267
1108.642902	0.006896
1108.802833	0.006969
1108.962745	0.006519
1109.122639	0.004044
1109.282515	0.002966
1109.442372	0.000336
1109.602211	0.002617
1109.762032	0.004063
1109.921835	0.006847
1110.081620	0.010949
1110.241386	0.013385
1110.401134	0.009987
1110.560864	0.010526
1110.720576	0.009831
1110.880269	0.010519
1111.039945	0.007548
1111.199602	0.007364
1111.359240	0.004336
1111.518861	-0.002485
1111.678463	-0.002469
1111.838047	-0.000033
1111.997613	0.002342
1112.157161	0.005237
1112.316690	0.004573
1112.476202	0.007959
1112.635695	0.006461
1112.795169	0.012628
1112.954626	0.013903
1113.114064	0.015755
1113.273484	0.013840
1113.432886	0.014524
1113.592270	0.011836
1113.751635	0.013351
1113.910983	0.012525
1114.070312	0.014848
1114.229622	0.008832
1114.388915	0.013653
1114.548189	0.011608
1114.707445	0.016152
1114.866683	0.011683
1115.025903	0.013073
1115.185104	0.013530
1115.344287	0.013653
1115.503452	0.017080
1115.662599	0.020138
1115.821727	0.016711
1115.980838	0.017039
1116.139930	0.017571
1116.299004	0.022929
1116.458059	0.020564
1116.617097	0.018333
1116.776116	0.015071
1116.935117	0.012124
1117.094099	0.009463
1117.253064	0.005719
1117.412010	0.008035
1117.570938	0.004454
1117.729848	-0.000301
1117.888740	0.001388
1118.047613	0.001354
1118.206468	0.000182
1118.365305	-0.000727
1118.524124	0.002540
1118.682924	0.004724
1118.841707	0.000880
1119.000471	0.004374
1119.159216	0.002279
1119.317944	-0.000010
1119.476653	0.003127
1119.635344	0.007950
1119.794017	0.007118
1119.952672	0.005455
1120.111308	0.010823
1120.269927	0.012827
1120.428527	0.007178
1120.587108	0.013835
1120.745672	0.014921
1120.904217	0.017803
1121.062744	0.017851
1121.221253	0.017329
1121.379744	0.022426
1121.538216	0.018406
1121.696671	0.019965
1121.855107	0.026499
1122.013524	0.022779
1122.171924	0.019566
1122.330305	0.015587
1122.488668	0.011864
1122.647013	0.013813
1122.805340	0.010550
1122.963648	0.009024
1123.121938	0.008428
1123.280210	0.006953
1123.438464	0.008168
1123.596700	0.010267
1123.754917	0.007844
1123.913116	0.012250
1124.071297	0.010285
1124.229459	0.008924
1124.387604	0.012141
1124.545730	0.013322
1124.703838	0.010896
1124.861928	0.010127
1125.019999	0.010941
1125.178052	0.013017
1125.336088	0.009788
1125.494104	0.011515
1125.652103	0.011110
1125.810083	0.006731
1125.968045	0.000785
1126.125989	0.002801
1126.283915	0.001287
1126.441823	0.002605
1126.599712	0.003374
1126.757583	-0.000668
1126.915436	-0.001475
1127.073270	-0.003641
1127.231087	-0.001986
1127.388885	-0.001252
1127.546665	-0.002256
1127.704426	0.001715
1127.862170	-0.001409
1128.019895	0.003353
1128.177602	0.012867
1128.335291	0.018327
1128.492961	0.020468
1128.650614	0.018051
1128.808248	0.020415
1128.965864	0.018420
1129.123461	0.015241
1129.281041	0.018065
1129.438602	0.011831
1129.596145	0.006328
1129.753670	0.003689
1129.911176	0.000963
1130.068665	0.004400
1130.226135	0.004116
1130.383587	0.004938
1130.541020	0.006665
1130.698436	0.004277
1130.855833	0.004057
1131.013212	0.006288
1131.170573	0.009765
1131.327915	0.007784
1131.485239	0.007403
1131.642545	0.012271
1131.799833	0.015312
1131.957103	0.012386
1132.114354	0.014458
1132.271588	0.012981
1132.428803	0.012606
1132.585999	0.007363
1132.743178	0.013210
1132.900338	0.005824
1133.057480	0.002907
1133.214604	-0.000299
1133.371710	0.002916
1133.528797	0.005634
1133.685866	0.006327
1133.842917	0.009026
1133.999950	0.010715
1134.156964	0.010716
1134.313960	0.018364
1134.470938	0.014562
1134.627898	0.016599
1134.784840	0.017424
1134.941763	0.010463
1135.098668	0.013222
1135.255555	0.005497
1135.412424	0.004611
1135.569274	0.003434
1135.726107	0.005470
1135.882921	0.005705
1136.039716	0.009027
1136.196494	0.009900
1136.353253	0.012945
1136.509995	0.012002
1136.666717	0.017655
1136.823422	0.021402
1136.980109	0.023334
1137.136777	0.021680
1137.293427	0.019211
1137.450059	0.017712
1137.606672	0.016908
1137.763267	0.019755
1137.919844	0.019438
1138.076403	0.017617
1138.232944	0.013368
1138.389466	0.013553
1138.545971	0.012550
1138.702457	0.013931
1138.858924	0.012208
1139.015374	0.012874
1139.171805	0.019366
1139.328218	0.020705
1139.484613	0.021044
1139.640990	0.026911
1139.797348	0.027726
1139.953688	0.031089
1140.110010	0.031501
1140.266314	0.034070
1140.422600	0.030287
1140.578867	0.021290
1140.735116	0.023673
1140.891347	0.028663
1141.047559	0.024754
1141.203754	0.024928
1141.359930	0.019597
1141.516088	0.023296
1141.672228	0.023802
1141.828349	0.025476
1141.984452	0.026690
1142.140537	0.021805
1142.296604	0.015178
1142.452653	0.014609
1142.608683	0.010744
1142.764695	0.009982
1142.920689	0.007767
1143.076665	0.004639
1143.232622	0.006070
1143.388562	0.005354
1143.544483	0.012206
1143.700385	0.012830
1143.856270	0.015756
1144.012136	0.015528
1144.167985	0.022118
1144.323814	0.026766
1144.479626	0.025596
1144.635420	0.027926
1144.791195	0.027388
1144.946952	0.025482
1145.102691	0.028432
1145.258411	0.028187
1145.414113	0.030794
1145.569798	0.027150
1145.725463	0.020582
1145.881111	0.018760
1146.036741	0.013332
1146.192352	0.015771
1146.347945	0.012696
1146.503519	0.006455
1146.659076	0.002449
1146.814614	-0.000634
1146.970134	-0.001629
1147.125636	-0.000561
1147.281120	0.005198
1147.436585	0.002262
1147.592032	0.003618
1147.747461	-0.000091
1147.902872	0.002913
1148.058265	0.009854
1148.213639	0.015946
1148.368995	0.018798
1148.524333	0.026396
1148.679653	0.024504
1148.834954	0.034087
1148.990237	0.029966
1149.145502	0.035378
1149.300749	0.042480
1149.455977	0.036934
1149.611188	0.026370
1149.766380	0.026771
1149.921553	0.021890
1150.076709	0.017760
1150.231846	0.008503
1150.386966	0.013678
1150.542066	0.016094
1150.697149	0.010462
1150.852214	0.008207
1151.007260	0.014255
1151.162288	0.022955
1151.317298	0.020515
1151.472289	0.020578
1151.627263	0.028414
1151.782218	0.025754
1151.937155	0.026015
1152.092073	0.023713
1152.246974	0.027524
1152.401856	0.031692
1152.556720	0.017091
1152.711566	0.021596
1152.866393	0.031543
1153.021203	0.030922
1153.175994	0.026743
1153.330767	0.023684
1153.485521	0.022199
1153.640258	0.021854
1153.794976	0.017011
1153.949676	0.021096
1154.104358	0.014143
1154.259021	0.008356
1154.413667	0.007795
1154.568294	0.009306
1154.722903	0.014261
1154.877493	0.017207
1155.032066	0.012657
1155.186620	0.016956
1155.341156	0.011905
1155.495674	0.019821
1155.650173	0.016284
1155.804654	0.015033
1155.959118	0.014756
1156.113562	0.006976
1156.267989	0.010348
1156.422397	0.011295
1156.576788	0.006747
1156.731160	0.017980
1156.885513	0.018142
1157.039849	0.019967
1157.194166	0.020764
1157.348465	0.023917
1157.502746	0.021898
1157.657009	0.020423
1157.811253	0.024017
1157.965479	0.019479
1158.119687	0.012938
1158.273877	0.006539
1158.428048	0.006788
1158.582201	0.002975
1158.736337	0.004202
1158.890453	0.008975
1159.044552	0.006152
1159.198632	-0.000359
1159.352694	0.001933
1159.506738	0.004181
1159.660764	0.004736
1159.814771	0.001910
1159.968761	0.008326
1160.122732	0.009344
1160.276685	0.012558
1160.430619	0.015652
1160.584535	0.026316
1160.738434	0.029052
1160.892313	0.033028
1161.046175	0.037819
1161.200019	0.042474
1161.353844	0.037438
1161.507651	0.037049
1161.661440	0.040189
1161.815210	0.037259
1161.968962	0.037904
1162.122697	0.040538
1162.276412	0.034567
1162.430110	0.038800
1162.583789	0.042263
1162.737451	0.041577
1162.891094	0.034033
1163.044718	0.030761
1163.198325	0.030097
1163.351913	0.028688
1163.505483	0.032488
1163.659035	0.041659
1163.812569	0.036430
1163.966084	0.030036
1164.119581	0.036103
1164.273060	0.043337
1164.426521	0.040764
1164.579964	0.047663
1164.733388	0.048275
1164.886794	0.043080
1165.040182	0.032637
1165.193551	0.030068
1165.346903	0.029942
1165.500236	0.033012
1165.653551	0.025678
1165.806848	0.027386
1165.960126	0.024345
1166.113386	0.012977
1166.266628	0.018784
1166.419852	0.019089
1166.573058	0.017793
1166.726245	0.024695
1166.879414	0.023042
1167.032565	0.035781
1167.185698	0.040505
1167.338812	0.034775
1167.491909	0.037456
1167.644987	0.031046
1167.798046	0.034567
1167.951088	0.038880
1168.104111	0.031887
1168.257117	0.030103
1168.410103	0.015281
1168.563072	0.015688
1168.716023	0.029384
1168.868955	0.037935
1169.021869	0.040000
1169.174765	0.033917
1169.327642	0.034459
1169.480501	0.042036
1169.633343	0.040079
1169.786165	0.043954
1169.938970	0.032792
1170.091757	0.021504
1170.244525	0.010722
1170.397275	0.006049
1170.550007	0.014358
1170.702720	0.014054
1170.855415	0.012627
1171.008092	0.013073
1171.160751	0.020222
1171.313392	0.026374
1171.466014	0.049403
1171.618619	0.042345
1171.771205	0.042345
1171.923772	0.042345
