sample name	sample
index	1130
start time	 04-22-2021  02:16:00 PM
880	0.048129
Peak Time (s)	101.037
Peak Height 	0.04813
calc peak height	100,103
Baseline Time (s)	10.537
Baseline Value 	-0.00432
subtract baseline	10,4
Abs	0.032568
Peak Time (s)	101.537
Peak Height 	0.03257
calc peak height	100,103
Baseline Time (s)	11.537
Baseline Value 	0.001122
subtract baseline	10,3
PK_550	0.018068
Peak Time (s)	101.537
Peak Height 	0.01807
calc peak height	100,103
Baseline Time (s)	9.036
Baseline Value 	6.3424E-4
subtract baseline	10,2
PK_880	0.026953
Peak Time (s)	102.04
Peak Height 	0.02695
calc peak height	100,103
Baseline Time (s)	10.537
Baseline Value 	0.001543
subtract baseline	10,1


Time (s)	A880-A510	A880-A775	A880-A975	A880	I510	I775	I975	I880	
0.036000	-0.004117	-0.000972	0.001684	0.005063	6228.241809	42822.166495	3917.816710	22550.967856
0.536000	-0.000185	-0.000068	-0.000423	0.004139	6265.002982	42989.960590	3915.109156	22592.658252
1.036500	-0.003034	-0.000041	-0.001836	0.003764	6246.220408	43027.005253	3912.743915	22609.628238
1.539000	-0.002191	-0.000181	-0.002735	0.004576	6246.453073	42939.373093	3908.852036	22572.909840
2.036500	-0.002530	-0.000828	0.001261	0.001215	6269.414761	43189.617243	3925.688137	22725.301007
2.537500	0.000077	-0.000553	-0.003441	0.000096	6297.941225	43318.722174	3917.453000	22776.259517
3.038000	0.000858	-0.000612	0.005380	-0.001868	6319.112895	43495.813479	3942.444794	22866.055814
3.535500	-0.002402	-0.000220	-0.001182	0.003918	6249.845358	42996.319028	3913.882847	22602.666681
4.036000	-0.001078	-0.000359	0.004795	0.000466	6286.241106	43302.351878	3935.618399	22759.396496
4.536000	-0.000274	-0.000873	0.000321	-0.000820	6302.295444	43374.091542	3928.218664	22818.120981
5.036000	-0.000342	0.000523	0.001668	0.000770	6289.549348	43356.082166	3927.657134	22745.562805
5.536500	-0.002364	-0.001022	0.000654	-0.000258	6281.936592	43308.033151	3927.687258	22792.437541
6.036500	-0.000614	0.000420	0.002444	0.000858	6286.792307	43338.300062	3929.247307	22741.551673
6.537000	-0.000981	0.000813	0.007598	0.000611	6285.873161	43397.720905	3941.831864	22752.798247
7.037000	-0.000140	-0.000132	-0.001761	-0.000001	6297.016002	43366.759708	3921.527964	22780.676344
7.535000	-0.000450	0.000115	0.001074	0.000224	6292.910506	43368.821472	3927.544727	22770.443514
8.035000	0.001113	0.000003	-0.003776	-0.000234	6308.458210	43400.911669	3917.440383	22791.304972
8.535000	0.000315	0.000328	0.004091	-0.000036	6300.791747	43412.789018	3935.148824	22782.285990
9.035500	-0.004294	0.000000	-0.005295	0.003283	6240.327956	43075.128536	3905.984085	22631.412147
9.535500	0.000648	-0.000020	-0.002361	0.000047	6302.713538	43372.727982	3920.041917	22778.514963
10.036000	0.001176	-0.000613	-0.001514	-0.000690	6312.467952	43386.110744	3923.682233	22812.151301
10.536500	0.000000	-0.000032	0.002922	0.000000	6298.088808	43375.948153	3932.345855	22780.645572
11.037000	-0.000515	0.000265	0.001706	-0.000010	6294.208762	43404.531287	3929.549787	22781.118319
11.537000	-0.000016	0.000305	0.000000	0.000681	6292.736144	43344.070196	3924.011842	22749.608771
12.037500	0.000279	0.000605	0.005937	0.000423	6296.977859	43395.888756	3938.384100	22761.346651
12.537500	0.000023	-0.000593	0.006303	-0.000907	6305.246463	43408.084053	3942.355386	22822.060670
13.035500	-0.002772	-0.001568	0.002775	0.003488	6250.295420	42911.919893	3923.936325	22622.107067
13.535500	-0.001078	0.000060	-0.002872	-0.000821	6296.118103	43460.941378	3920.861241	22818.160804
14.036000	-0.001188	0.000291	0.000972	0.001807	6275.141300	43238.394784	3923.656172	22698.364858
14.538500	-0.003321	-0.001025	-0.000042	0.000653	6267.672916	43223.351262	3923.979395	22750.881965
15.036500	-0.003521	-0.000326	-0.002526	0.004794	6234.753497	42906.085854	3908.833256	22563.087671
15.536500	0.000877	-0.000010	0.000717	-0.001474	6316.213311	43515.195040	3930.648009	22848.007799
16.037000	0.000454	-0.000195	0.000827	-0.000860	6308.209685	43440.774382	3929.481122	22819.941701
16.534500	-0.000672	-0.000571	0.001594	-0.001571	6305.008907	43471.893306	3932.909416	22852.447401
17.035000	-0.002224	0.000059	0.002522	0.002041	6265.449091	43195.196873	3926.691975	22687.729938
17.535000	-0.002849	0.000081	-0.000414	0.002048	6260.646046	43196.700656	3919.917719	22687.429343
18.035500	0.000940	-0.000580	0.003207	-0.000054	6305.742276	43330.175907	3933.133763	22783.122800
18.536000	0.000819	0.000051	-0.000726	0.000499	6300.552610	43337.397418	3922.760591	22757.904646
19.036000	-0.000715	-0.000758	-0.000394	0.000440	6289.217274	43267.832643	3923.658874	22760.570484
19.536000	-0.001996	0.000256	0.002306	0.000872	6276.112176	43321.804484	3928.895991	22740.903559
20.036500	-0.002302	-0.000343	0.001916	0.000593	6275.899719	43292.093760	3928.637079	22753.591354
20.537000	-0.003078	-0.000053	0.006102	0.000292	6272.276202	43346.930031	3939.077351	22767.334715
21.037000	-0.001091	0.000625	-0.001206	0.001224	6280.328841	43323.313101	3919.990603	22724.856986
21.537500	-0.000668	0.000219	-0.000768	0.001398	6282.240504	43269.642543	3920.596458	22716.971199
22.037500	-0.000143	-0.000196	0.001641	0.000556	6292.719147	43309.145781	3928.087564	22755.283150
22.535000	0.000481	-0.000063	-0.002519	0.000601	6297.166599	43317.369986	3918.410258	22753.261553
23.035500	-0.001480	-0.000588	0.000454	0.000934	6279.574325	43237.782091	3924.474359	22738.061451
23.536000	0.000356	0.000326	0.002871	0.000792	6294.736988	43335.597460	3930.388649	22744.517686
24.036500	-0.000889	0.000214	0.005497	0.001381	6280.680728	43270.699070	3935.122677	22717.746228
24.536500	-0.001954	0.000564	0.001444	0.001027	6275.243427	43335.962301	3926.543661	22733.824261
25.036500	0.000459	-0.000091	0.003410	0.001366	6291.121920	43243.805389	3930.309156	22718.415010
25.534000	0.000403	-0.000181	-0.001300	0.000390	6298.195234	43326.001145	3921.689567	22762.878271
26.037500	-0.001130	-0.000857	0.003068	-0.000049	6289.790066	43303.926157	3932.798146	22782.886278
26.538000	-0.000037	-0.000657	-0.000649	0.000108	6296.976130	43307.987008	3923.836262	22775.722156
27.035000	0.003267	-0.000052	0.005132	-0.001905	6338.098142	43551.433850	3941.950501	22867.774953
27.535000	-0.000417	-0.000882	0.003234	-0.002196	6311.798863	43501.232781	3938.189740	22881.127199
28.035500	0.001335	-0.000077	0.000983	-0.000792	6314.490043	43445.491963	3929.686155	22816.839577
28.535500	0.000902	-0.000219	0.002617	-0.000961	6312.444879	43447.930781	3933.870512	22824.530741
29.036500	0.001144	0.000218	0.001964	-0.001164	6315.889241	43507.515761	3932.825499	22833.843192
29.536000	-0.003510	-0.000153	-0.000051	0.004837	6234.521870	42918.109030	3914.366554	22561.167112
30.037000	0.000337	-0.000643	0.001870	-0.001306	6310.748439	43440.581845	3932.935495	22840.342113
30.541500	0.000484	0.000307	0.001372	0.001701	6288.746609	43249.644481	3924.822904	22703.192919
31.037500	-0.000202	-0.000157	0.000699	0.001586	6284.368872	43217.363798	3923.536932	22708.407635
31.537500	-0.001487	-0.000194	-0.003070	0.002293	6269.149635	43148.570708	3913.285013	22676.297525
32.038500	0.002403	0.001170	0.003139	-0.000463	6320.203142	43530.947716	3933.926939	22801.800949
32.536000	0.000262	-0.000300	0.005097	-0.001452	6311.291488	43486.113782	3940.804804	22847.006207
33.035500	0.004803	0.000220	0.004544	-0.002615	6355.618626	43643.234656	3942.235854	22900.340029
33.536000	-0.002739	-0.000489	-0.001542	0.001965	6262.110413	43151.661916	3917.523095	22691.189303
34.036000	-0.000056	0.000130	0.001313	0.000899	6290.748689	43307.545116	3926.535553	22739.650186
34.536500	-0.000118	0.000068	0.004370	0.000980	6289.649647	43294.286702	3933.431820	22735.958123
35.037000	0.001018	-0.000204	0.001969	0.000816	6299.642852	43284.232126	3928.243383	22743.427384
35.537000	-0.000823	-0.000448	-0.001383	0.002546	6272.281884	43101.769786	3916.557264	22664.797642
36.037500	-0.000240	-0.000984	0.000971	0.000137	6295.191299	43274.988108	3927.508820	22774.413470
36.535500	-0.000724	-0.000744	0.002660	0.000351	6289.838091	43277.373843	3930.923291	22764.651760
37.035000	-0.002436	-0.000169	-0.002513	0.000461	6275.883513	43320.473407	3918.742793	22759.618431
37.536000	-0.001381	0.000035	-0.001675	0.001285	6277.649866	43262.942867	3918.775035	22722.092125
38.036000	0.000332	0.000025	-0.002096	0.001023	6292.782044	43286.383099	3918.410189	22734.025864
38.536000	-0.001314	0.000111	-0.002511	0.000830	6281.641377	43312.144374	3917.902366	22742.798998
39.036500	-0.000058	0.000156	-0.002305	0.001074	6289.395292	43293.728519	3917.814989	22731.707125
39.536500	-0.002479	-0.000597	0.003884	0.000769	6273.203451	43252.259044	3932.795289	22745.591263
40.037000	-0.001994	-0.000128	0.003032	0.000515	6278.850689	43319.221983	3931.404588	22757.136811
40.534000	0.001341	0.000549	0.002293	0.001758	6294.882842	43266.851703	3926.815793	22700.596598
41.038000	-0.001313	0.000578	0.000414	0.001490	6276.603839	43294.279579	3923.102439	22712.767882
41.535000	-0.001877	-0.000062	0.001632	0.000976	6276.222999	43282.650449	3927.096344	22736.167547
42.035500	-0.001354	-0.000856	0.003111	0.000185	6286.273419	43282.310072	3932.354857	22772.192073
42.535500	-0.001637	-0.000402	0.001068	0.000819	6279.254257	43265.668650	3926.156127	22743.299331
43.036000	-0.000256	-0.000604	0.002469	0.001670	6283.311531	43168.226452	3927.426848	22704.590285
43.536500	0.006108	-0.000700	0.006521	-0.003960	6376.415088	43682.969945	3950.057601	22962.194437
44.037000	0.002514	0.000272	0.002257	-0.000863	6324.155225	43484.465235	3932.804688	22820.052668
44.536500	0.000158	-0.000339	-0.001947	-0.001018	6307.140733	43442.062007	3923.440466	22827.154192
45.037500	-0.003611	-0.000692	-0.002420	0.003857	6241.147593	42958.511451	3911.201665	22605.405040
45.540500	0.000007	-0.000327	0.000418	0.002475	6279.164482	43119.446878	3920.845008	22668.017652
46.035000	-0.000597	-0.000140	0.002854	-0.001044	6301.531194	43463.046081	3934.615456	22828.354621
46.536000	-0.000015	-0.000394	-0.000634	-0.001281	6307.835317	43461.365069	3927.074998	22839.172243
47.035500	-0.002002	-0.000962	0.002021	0.003338	6257.275599	42981.425598	3922.546606	22628.916841
47.536500	-0.001208	-0.000566	0.001757	0.000444	6285.406647	43285.271641	3928.615217	22760.398630
48.036500	-0.001808	0.000599	0.002983	-0.000614	6288.921811	43491.783739	3933.915148	22808.684388
48.536500	0.002538	0.000446	0.005196	-0.000179	6319.046095	43437.108035	3938.059380	22788.828104
49.037000	-0.000753	-0.000260	-0.000785	0.003956	6262.072912	42989.225618	3914.702618	22600.954668
49.537000	0.000599	0.000317	-0.000275	-0.000316	6305.132378	43437.791957	3925.674383	22795.057684
50.034000	0.001570	-0.000270	0.005040	0.001525	6298.435804	43212.582001	3933.725814	22711.196141
50.534500	0.025274	-0.025911	0.005614	0.674612	3707.272879	11073.658166	3138.280013	7155.276413
51.035500	0.003738	-0.018080	-0.019688	0.018070	6189.675152	40156.598219	3842.143481	21972.995813
51.535000	0.004077	-0.071362	-0.018015	-0.251996	8980.862464	64188.121702	4640.908785	38366.573885
52.035500	-0.000208	-0.092810	-0.012009	-0.281398	9339.424491	65318.426111	4786.787323	40846.344948
52.536000	0.002093	-0.060238	-0.001610	-0.233035	8697.310816	63094.449252	4630.831482	36854.131196
53.036000	0.001497	-0.050042	-0.010184	-0.220661	8528.447105	62793.903306	4550.435570	35902.105614
53.536000	-0.002734	-0.037100	-0.010824	-0.197388	8186.654701	61389.219204	4463.281100	34183.478517
54.037000	-0.008862	-0.031726	-0.012983	-0.191001	8038.129436	61253.194575	4433.276002	33727.654427
54.537000	-0.008867	-0.035936	-0.013024	-0.200227	8147.139798	61929.637124	4465.546949	34388.235305
55.037500	-0.006429	-0.035671	-0.008356	-0.197390	8142.369510	61581.727460	4472.061465	34183.573056
55.535000	-0.009815	-0.026098	-0.010285	-0.168583	7772.005582	59045.416239	4366.257220	32179.924189
56.035500	-0.007109	-0.017221	-0.005577	-0.131358	7404.224629	55505.988560	4262.183801	29779.949778
56.535500	-0.008409	-0.012235	-0.015116	-0.103257	7113.214380	52786.145547	4151.048675	28099.692686
57.036000	-0.005891	-0.009166	-0.009133	-0.082979	6946.742285	50853.400467	4111.305867	26953.041169
57.536000	-0.005117	-0.007470	-0.009783	-0.070645	6841.979815	49696.225357	4076.321807	26281.305919
58.036000	-0.000782	-0.003970	-0.008005	-0.055582	6747.233229	48470.226376	4041.591770	25486.411218
58.536000	-0.002078	-0.003535	-0.008650	-0.044209	6638.306416	47340.177621	4011.078556	24904.239141
59.036500	0.003198	-0.000610	-0.007398	-0.001086	6331.197264	43423.174084	3911.123376	22830.272713
59.535000	-0.001297	-0.001672	-0.005270	-0.005348	6329.389952	43721.958854	3925.763033	23026.214314
60.034500	-0.003097	-0.002023	-0.007986	-0.030911	6518.969540	46153.892213	3979.895605	24242.564112
60.534500	-0.001346	0.000119	-0.009387	-0.017631	6425.696017	45062.084650	3944.785402	23601.748105
61.035000	-0.000704	0.002450	-0.003076	0.002348	6274.704677	43388.454914	3913.145943	22673.806221
61.535500	-0.006884	0.002258	-0.007780	0.009560	6174.007238	42706.296779	3886.362608	22349.189050
62.036500	-0.003959	0.003838	-0.004698	0.002835	6246.253018	43472.253258	3908.349033	22651.691633
62.536500	-0.004327	0.003826	0.000611	0.000142	6263.899098	43722.650760	3926.662746	22774.151554
63.036500	-0.001363	0.004915	0.000490	-0.001555	6299.564787	43984.506517	3930.310895	22851.736384
63.536500	-0.000192	0.005377	0.003910	0.001428	6285.652553	43747.478172	3931.323598	22715.590950
64.034500	-0.000579	0.005943	-0.002774	0.003205	6269.120139	43634.106672	3911.882435	22634.951586
64.537000	-0.003661	0.005255	0.001210	0.004925	6232.711347	43409.599481	3917.045929	22557.173309
65.034500	-0.005713	0.006040	-0.000355	0.013928	6150.419693	42652.717463	3893.161427	22155.156879
65.537000	-0.000957	0.005309	0.002717	0.016306	6167.949119	42370.191789	3894.713593	22050.381300
66.035000	-0.003521	0.006393	-0.000203	0.018543	6132.660664	42265.811180	3883.249343	21952.303711
66.535500	-0.000854	0.007730	-0.002418	0.021220	6132.587589	42145.076280	3872.501255	21835.635155
67.038500	-0.002592	0.007728	-0.002575	0.028362	6068.342916	41506.892300	3856.684485	21527.788596
67.537000	-0.000916	0.007239	0.005232	0.026007	6097.340143	41672.501620	3878.776328	21628.730038
68.036500	0.000618	0.005695	0.000335	0.023519	6126.543552	41756.610861	3873.491804	21735.965011
68.536500	0.001435	0.006354	0.002869	0.022504	6139.946188	41906.234079	3881.288764	21779.923517
69.034000	-0.002555	0.006424	-0.000421	0.027192	6077.006589	41495.058420	3863.854692	21577.891523
69.535000	-0.000462	0.007546	0.011275	0.022897	6123.211891	41977.827733	3899.122143	21762.906392
70.034500	0.001503	0.008122	0.005818	0.023135	6135.820236	42008.067471	3886.412201	21752.581940
70.535000	0.002132	0.008710	0.006657	0.024055	6133.690929	41978.279476	3886.233987	21712.833068
71.035000	0.001771	0.008794	0.002666	0.029100	6094.416052	41535.985570	3866.410782	21496.280913
71.536000	0.002644	0.008237	0.004611	0.025388	6127.691558	41816.652216	3878.772265	21655.363637
72.036500	0.003113	0.008651	0.005669	0.025423	6130.868620	41850.596606	3881.026167	21653.877683
72.537000	0.006386	0.010044	0.004553	0.025706	6152.781219	41949.887652	3877.945884	21641.674244
73.037000	0.004725	0.009141	0.007489	0.029132	6115.579174	41563.932206	3876.869387	21494.914471
73.537000	0.007409	0.009663	0.013648	0.025125	6164.604909	41967.849476	3899.448671	21666.703222
74.037500	0.007935	0.010221	0.012157	0.023651	6179.397354	42150.425433	3899.410887	21730.290839
74.538000	0.010014	0.011061	0.011349	0.023147	6198.607657	42271.614402	3898.725520	21752.055470
75.035000	0.011272	0.011380	0.015208	0.022973	6209.319903	42316.225751	3907.826561	21759.617376
75.536000	0.011117	0.010977	0.009931	0.022138	6214.410061	42355.303064	3897.809730	21795.781211
76.036000	0.009828	0.012202	0.009610	0.022150	6204.666220	42465.263541	3897.061637	21795.236389
76.536000	0.009290	0.012671	0.013599	0.021920	6202.367640	42528.852993	3906.566668	21805.240122
77.036000	0.008296	0.012882	0.007118	0.021698	6196.608591	42568.235820	3892.500643	21814.868090
77.537000	0.011779	0.014664	0.016370	0.022637	6215.627139	42644.977008	3911.224576	21774.135040
78.036500	0.011269	0.014115	0.012609	0.021740	6218.526971	42676.754440	3904.731474	21813.015154
78.540000	0.012011	0.015574	0.013922	0.022194	6220.694174	42768.592929	3906.675907	21793.321367
79.037500	0.010381	0.015852	0.014267	0.022243	6208.109149	42789.517018	3907.346538	21791.207179
79.535000	0.012435	0.016101	0.008576	0.022723	6219.906307	42768.445162	3893.465268	21770.409105
80.035000	0.011620	0.015625	0.015831	0.022328	6216.757209	42761.041496	3910.703688	21787.552564
80.535500	0.010536	0.015707	0.014382	0.022382	6208.231583	42763.579795	3907.293347	21785.210308
81.035500	0.012251	0.015311	0.013402	0.025326	6199.044922	42459.197964	3898.443851	21658.044661
81.536000	0.013901	0.016081	0.016523	0.023899	6222.087492	42659.165532	3908.707114	21719.554314
82.036000	0.012972	0.015255	0.019382	0.022998	6221.873652	42665.989080	3917.271550	21758.505267
82.536500	0.014237	0.015346	0.016847	0.023874	6224.803178	42594.449204	3909.498861	21720.651773
83.037000	0.012784	0.014741	0.018710	0.023424	6217.264140	42580.327624	3914.764227	21740.095771
83.537500	0.013734	0.015977	0.024733	0.024905	6213.279299	42557.998759	3925.183308	21676.153501
84.037500	0.014103	0.014878	0.015434	0.024423	6219.665984	42501.914836	3905.053268	21696.931877
84.535000	0.017050	0.014396	0.019797	0.024607	6240.486607	42441.463669	3914.544389	21689.025515
85.035500	0.011520	0.014502	0.016113	0.030822	6152.910471	41890.945377	3892.211830	21422.934686
85.535500	0.018970	0.014881	0.017880	0.027686	6231.736765	42206.825893	3903.211463	21556.739185
86.036000	0.017532	0.014186	0.019190	0.027765	6220.322474	42136.986164	3905.990695	21553.346328
86.536500	0.016911	0.014789	0.021944	0.029002	6206.392601	42079.994031	3909.427786	21500.465792
87.036000	0.014226	0.014146	0.014275	0.032723	6158.838843	41689.527017	3883.907804	21342.311688
87.536500	0.018270	0.015153	0.017864	0.030932	6202.130875	41939.452103	3895.879430	21418.272522
88.039500	0.019980	0.015078	0.021302	0.031114	6213.558803	41916.349337	3903.195764	21410.516865
88.537500	0.017606	0.014817	0.024624	0.031658	6191.761968	41844.369603	3909.481734	21387.441021
89.035000	0.016535	0.014484	0.017952	0.035567	6154.901830	41467.126451	3885.752914	21222.353811
89.535000	0.020217	0.015166	0.017932	0.033349	6198.615315	41724.573930	3890.632466	21315.820432
90.036000	0.020543	0.014736	0.019491	0.033197	6202.186114	41699.818314	3894.451307	21322.252480
90.535500	0.019847	0.015368	0.020652	0.033999	6191.020100	41684.732860	3895.254777	21288.404885
91.036000	0.020734	0.015044	0.025225	0.035017	6190.040231	41565.449026	3903.241363	21245.485785
91.536500	0.020126	0.016179	0.022763	0.035986	6178.331812	41580.193114	3895.532917	21204.735047
92.036500	0.022733	0.015017	0.021150	0.035518	6201.207579	41518.723379	3892.973901	21224.422517
92.537000	0.021462	0.015921	0.025549	0.036402	6185.164012	41520.451687	3900.851628	21187.295981
93.034500	0.022384	0.015754	0.026684	0.037059	6187.128245	41447.471695	3901.926472	21159.725374
93.534500	0.023199	0.015782	0.024043	0.036760	6195.418984	41476.489104	3896.665996	21172.271673
94.035000	0.023209	0.015839	0.023413	0.037279	6191.629158	41435.550949	3894.095326	21150.527289
94.535500	0.023463	0.016545	0.026360	0.037734	6190.133712	41457.773448	3899.680007	21131.465165
95.035500	0.023025	0.016246	0.028411	0.038775	6179.143296	41339.362593	3901.951191	21087.962893
95.536000	0.023984	0.016668	0.023784	0.039117	6183.728697	41346.423045	3890.821130	21073.714418
96.036000	0.023931	0.017024	0.028096	0.039060	6183.749992	41382.902530	3900.601511	21076.072712
96.536000	0.024023	0.017044	0.021292	0.039188	6183.487139	41373.329103	3885.129311	21070.734603
97.036000	0.023365	0.016682	0.027606	0.040652	6167.765320	41212.516449	3895.928042	21009.806203
97.540000	0.023055	0.017073	0.024840	0.040427	6167.139513	41266.704082	3890.255606	21019.164976
98.037500	0.024976	0.018186	0.027775	0.040836	6178.334381	41328.714586	3895.895732	21002.167464
98.535000	0.023989	0.017255	0.026468	0.040934	6170.296070	41238.036481	3892.754287	20998.073403
99.035500	0.020761	0.016968	0.025660	0.046886	6103.120586	40693.161485	3877.784797	20752.617401
99.535500	0.023860	0.017361	0.027434	0.041877	6162.378415	41164.451724	3892.805980	20958.961066
100.036000	0.023253	0.017069	0.023999	0.041848	6158.115405	41141.403029	3885.233815	20960.163841
100.536000	0.021265	0.016211	0.024205	0.042228	6140.714291	41032.992955	3884.848313	20944.429448
101.036500	0.022273	0.017309	0.020717	0.048129	6105.062486	40615.008140	3864.289564	20701.759638
101.536500	0.023903	0.018068	0.032568	0.044051	6146.697754	41035.958222	3899.435674	20869.131348
102.040000	0.026953	0.017960	0.025718	0.044943	6162.577680	40948.541176	3882.191626	20832.363344
102.537000	0.025034	0.016678	0.023253	0.044118	6154.512639	40908.665206	3878.578645	20866.348920
103.079000	0.024299	0.017620	0.025402	0.051198	6097.521225	40377.132780	3867.796972	20576.869683
103.535000	0.025339	0.017271	0.027442	0.046102	6142.188146	40787.596960	3883.440846	20784.765263
104.038000	0.024801	0.017392	0.028280	0.046587	6134.693773	40755.924759	3884.219752	20764.870568
104.535500	0.027169	0.018387	0.025573	0.047681	6144.024559	40747.298342	3875.847887	20720.053677
105.035500	0.024532	0.017404	0.027900	0.050487	6104.345125	40419.648345	3874.799259	20605.704249
105.536000	0.025259	0.018102	0.027371	0.049007	6120.382812	40607.710804	3876.885085	20665.959659
