sample name	sample
index	797
start time	 03-31-2021  02:37:21 PM
880	0.101351
Peak Time (s)	92.536
Peak Height 	0.1014
calc peak height	90,93
Baseline Time (s)	10.535
Baseline Value 	-6.9795E-4
subtract baseline	10,4
Abs	0.097716
Peak Time (s)	90.037
Peak Height 	0.09772
calc peak height	90,93
Baseline Time (s)	8.537
Baseline Value 	0.004029
subtract baseline	10,3
PK_550	0.059449
Peak Time (s)	92.536
Peak Height 	0.05945
calc peak height	90,93
Baseline Time (s)	10.535
Baseline Value 	3.109E-4
subtract baseline	10,2
PK_880	0.093907
Peak Time (s)	90.537
Peak Height 	0.09391
calc peak height	90,93
Baseline Time (s)	10.535
Baseline Value 	3.952E-4
subtract baseline	10,1


Time (s)	A880-A510	A880-A775	A880-A975	A880	I510	I775	I975	I880	
0.034500	-0.000908	-0.000736	-0.010380	0.000194	6762.390457	40583.315560	4070.785291	22235.533639
0.538000	-0.000643	-0.000059	-0.003750	0.002305	6747.036632	40459.976057	4080.759362	22142.890988
1.035500	-0.001924	-0.000549	-0.009792	0.002272	6736.705523	40420.795179	4067.517394	22144.348607
1.537500	0.000042	-0.000701	-0.007066	0.000370	6768.844041	40571.209272	4077.701318	22227.789561
2.036000	-0.003439	-0.000848	-0.004260	0.002431	6722.877035	40381.493413	4079.349502	22137.379077
2.536000	-0.001703	-0.001181	-0.001964	0.000081	6756.720639	40554.784411	4089.700813	22240.511168
3.036500	0.001015	-0.000751	-0.004765	-0.002592	6801.837473	40822.722004	4089.412156	22358.422328
3.536500	0.000169	-0.000223	-0.007294	-0.000511	6777.265020	40688.301776	4079.145140	22266.530220
4.036500	0.001105	-0.000663	-0.006437	-0.000441	6784.516402	40644.348860	4080.891822	22263.467652
4.534500	-0.000526	-0.000637	-0.004201	-0.000794	6773.826735	40677.061089	4086.655095	22279.018734
5.037500	0.000754	0.000272	-0.008099	0.000333	6775.099299	40658.194754	4075.499936	22229.396527
5.534500	-0.000385	-0.000619	-0.004177	-0.000321	6771.050079	40637.778732	4085.651928	22258.165249
6.035500	-0.001744	-0.000527	-0.004644	0.001957	6740.795505	40449.685438	4079.549199	22158.130317
6.536000	0.002514	-0.000158	-0.003256	-0.000207	6794.385048	40667.697117	4087.453521	22253.160736
7.038500	0.000298	-0.000521	-0.000766	-0.000672	6779.696805	40676.577705	4094.081494	22273.660500
7.536500	0.000715	-0.000107	-0.002528	-0.000698	6783.401747	40714.495275	4090.181060	22274.778358
8.036500	-0.001887	0.000106	-0.002470	0.002674	6733.686222	40442.493681	4082.785388	22126.784857
8.537000	0.000941	0.000205	0.000000	-0.000006	6779.497096	40681.724269	4094.303810	22244.303015
9.037000	0.000495	-0.000225	-0.003839	-0.000593	6780.681021	40695.270472	4087.013021	22270.151870
9.538000	-0.000078	0.000866	0.000394	0.000193	6769.320141	40721.636073	4094.744396	22235.571300
10.035000	-0.000313	-0.000267	-0.003044	0.000078	6768.317594	40633.744395	4087.291385	22240.617835
10.535000	0.000000	0.000000	0.000650	0.000000	6771.584332	40663.511717	4095.755981	22244.056022
11.036000	-0.000986	-0.000547	0.000651	-0.000983	6771.563581	40701.224024	4097.976144	22287.374983
11.535500	0.002359	0.001271	-0.000912	0.001114	6782.000573	40677.093974	4089.743486	22195.119591
12.036500	-0.001999	-0.000764	-0.003864	-0.000966	6762.965967	40680.987136	4087.791393	22286.610815
12.535500	0.000487	0.000217	-0.001585	0.000081	6774.980818	40675.265068	4090.549366	22240.503591
13.036500	0.000572	-0.000468	-0.007550	-0.000070	6776.946483	40629.163430	4077.603113	22247.116726
13.537500	-0.001156	0.000004	-0.002001	0.000380	6758.779095	40631.097788	4088.948589	22227.351948
14.037500	-0.000661	-0.000415	-0.010719	0.001642	6752.397104	40486.312471	4066.867350	22171.928180
14.537500	-0.001032	0.000065	-0.010239	0.002112	6745.416628	40487.271786	4066.890641	22151.364009
15.035500	0.001383	0.000074	-0.003699	0.000371	6780.046913	40637.904765	4085.174831	22227.732195
15.535500	-0.000678	-0.000581	-0.004516	0.000149	6764.681577	40600.531956	4083.851144	22237.506416
16.035000	0.000532	0.000502	0.000503	0.000540	6771.517532	40660.278565	4094.208394	22220.321324
16.537000	0.000326	-0.000329	-0.004993	-0.000014	6774.427838	40636.409917	4083.152868	22244.690693
17.036500	0.000839	0.000643	0.000574	-0.001737	6793.163968	40869.524849	4099.506293	22320.637146
17.536500	-0.000693	0.000087	-0.008255	0.000799	6759.138491	40602.090707	4074.126208	22208.915139
18.036500	-0.000509	0.000181	-0.003000	0.001392	6755.739289	40559.164782	4084.457912	22182.916212
18.537000	-0.001490	-0.000872	-0.004402	0.001029	6750.602094	40499.811231	4082.146154	22198.843936
19.037500	-0.001368	-0.000841	-0.003975	0.000453	6756.409267	40551.997141	4084.378195	22224.144211
19.537000	-0.000210	0.000060	0.001089	0.001345	6758.622618	40552.787027	4093.716045	22184.993038
20.035000	-0.000025	-0.000039	-0.005719	0.001322	6760.349937	40546.266246	4078.574280	22185.992047
20.535500	-0.002100	-0.000027	-0.004770	0.001071	6745.196859	40568.845547	4081.234651	22196.993315
21.036000	0.000184	0.000027	-0.000709	0.001207	6763.050752	40561.805182	4089.987905	22191.013737
21.536500	0.002605	0.000476	-0.001783	0.002110	6775.716361	40522.716608	4085.570404	22151.442883
22.036500	-0.002223	-0.000373	-0.004310	0.001315	6742.158832	40518.148753	4081.716550	22186.302509
22.537000	-0.000369	-0.000359	-0.001573	0.001092	6759.402382	40538.483769	4088.311163	22196.065870
23.036500	-0.001776	-0.000003	-0.002670	0.001071	6747.888187	40570.933184	4085.909549	22197.004711
23.540000	-0.000420	-0.000777	-0.002696	0.000454	6764.293670	40557.390624	4087.227677	22224.092473
24.034500	0.000213	0.000339	-0.003064	0.001059	6764.522432	40601.450108	4085.057399	22197.519785
24.535000	0.001040	0.000717	-0.003643	0.001626	6766.696107	40585.116763	4082.507850	22172.662928
25.035000	-0.002435	-0.000404	-0.008799	0.000807	6744.601537	40559.067260	4072.912293	22208.564342
25.536000	0.000190	-0.000170	-0.003233	0.001074	6764.208046	40556.214090	4084.644991	22196.840807
26.036000	0.000720	-0.000444	-0.005485	0.001148	6768.012447	40526.364699	4079.479552	22193.628434
26.536000	-0.002391	0.000323	-0.003197	0.001278	6741.064633	40581.128295	4084.273312	22187.907672
27.036500	-0.001302	-0.000197	-0.005098	0.000496	6756.595735	40603.780453	4081.784321	22222.247718
27.536500	0.000049	0.000521	-0.004848	0.000055	6771.537987	40703.784407	4083.319875	22241.651046
28.040000	-0.001592	-0.000501	-0.004506	0.000048	6757.911581	40616.121375	4084.097129	22241.946707
28.537500	-0.003275	-0.000746	-0.003327	-0.000408	6747.718518	40634.374081	4087.743539	22262.008078
29.035000	-0.001176	0.000281	-0.005915	0.000356	6758.806220	40657.014320	4080.279338	22228.378690
29.535500	0.001196	-0.000190	-0.007416	0.000700	6775.731826	40586.802774	4076.197833	22213.282757
30.035500	0.000051	0.000368	0.000132	0.000886	6764.617247	40618.866676	4092.597857	22205.132588
30.535500	-0.001778	-0.000916	-0.005461	0.000128	6755.699811	40573.550512	4081.796268	22238.443516
31.036500	-0.001604	-0.000182	-0.005664	0.002370	6738.546333	40443.889906	4076.379886	22140.076314
31.537000	0.000313	-0.000115	-0.004902	0.000825	6767.307635	40582.419216	4081.487246	22207.776017
32.036500	0.002127	0.000141	-0.005325	0.000132	6788.279201	40664.285105	4082.087404	22238.234245
32.537000	-0.001061	0.000277	-0.003633	0.000459	6758.908989	40647.778706	4085.126065	22223.851797
33.037500	0.000904	0.000075	-0.005426	0.000639	6773.794027	40614.856802	4080.737053	22215.954668
33.535000	0.000915	-0.000257	-0.003349	-0.001113	6788.562806	40737.459319	4089.272191	22293.075833
34.035000	0.001731	0.000712	-0.002621	0.002208	6767.606458	40534.654200	4083.485472	22147.177089
34.535500	-0.000405	-0.000313	0.000356	0.001100	6759.036759	40541.729245	4092.618737	22195.735405
35.036000	-0.001246	0.000587	-0.001303	0.001847	6745.838033	40554.859612	4087.227453	22162.957537
35.536000	-0.001681	-0.000431	-0.008085	0.001145	6748.058399	40527.722583	4073.741532	22193.761031
36.036500	-0.001033	-0.000268	-0.003911	0.001421	6751.143117	40517.983975	4082.367128	22181.640644
36.536500	-0.000873	0.000267	-0.008207	0.001935	6748.205389	40519.781296	4071.732857	22159.099273
37.037000	0.000792	-0.000448	-0.002894	0.001346	6766.964692	40508.987078	4084.797437	22184.934204
37.537000	-0.001130	-0.000243	-0.001195	0.001459	6750.021298	40516.886781	4088.337311	22179.981063
38.035000	0.000686	-0.000537	-0.004469	0.001588	6764.058239	40480.555374	4080.755386	22174.317362
38.546500	0.000416	0.000567	-0.002017	0.002230	6756.461393	40520.230220	4084.780756	22146.199076
39.035000	0.001150	0.000510	-0.002785	0.001640	6767.494153	40566.107661	4084.384289	22172.045854
39.535500	-0.000672	-0.000153	-0.001798	0.001638	6752.346015	40509.249928	4086.591077	22172.134473
40.035500	0.000322	-0.000716	-0.011375	0.001231	6763.998554	40495.794216	4066.330453	22189.963233
40.536000	-0.000445	0.000222	-0.007270	0.001778	6753.058683	40529.412073	4074.139583	22165.968666
41.036500	0.001340	-0.000626	-0.005330	0.001507	6770.191459	40479.831900	4079.027106	22177.879301
41.537000	-0.002311	-0.000346	-0.007156	0.001538	6739.574622	40501.218425	4074.922689	22176.506391
42.039500	-0.001885	0.000447	0.000810	0.002091	6738.526125	40521.898963	4091.413687	22152.296632
42.537500	-0.002633	-0.000513	-0.000580	0.000685	6743.974889	40560.269228	4091.449905	22213.946636
43.035000	0.001139	-0.000110	-0.003036	0.001619	6767.572366	40514.530069	4083.871353	22172.950317
43.538000	-0.000062	0.000267	-0.001103	-0.000924	6778.791543	40766.502710	4093.887960	22284.758330
44.035500	0.002113	-0.000135	-0.004264	-0.001670	6803.323630	40796.250952	4088.472026	22317.689187
44.535500	0.000156	-0.000277	0.001290	-0.000224	6774.755614	40658.943917	4097.704390	22253.898944
45.036000	0.001220	-0.000864	-0.002666	-0.000288	6784.200188	40613.744392	4088.953994	22256.709439
45.536000	0.000637	0.000354	-0.007211	0.000333	6774.128670	40665.356134	4077.462701	22229.422517
46.036500	-0.001780	0.000646	-0.007817	0.000992	6748.504310	40633.713066	4074.669491	22200.476588
46.539500	-0.000407	0.000388	-0.001947	0.000408	6764.786421	40661.791905	4089.005308	22226.108625
47.037000	-0.000405	0.000158	-0.007565	0.001728	6753.815027	40528.279594	4073.602840	22168.200680
47.540000	-0.000457	-0.000473	-0.003340	0.001760	6753.112192	40471.276859	4082.882301	22166.784273
48.034500	0.001117	-0.000058	-0.002685	0.000319	6778.259809	40630.994809	4087.554807	22230.028281
48.535500	0.002644	0.000042	-0.004270	0.000579	6788.873190	40617.202693	4083.441525	22218.613825
49.035500	-0.000293	0.000305	-0.002753	0.000455	6765.341525	40650.613657	4087.099348	22224.067445
49.535500	0.003376	0.001295	0.002637	-0.001742	6814.579666	40926.560213	4104.193809	22320.839351
50.036000	0.004060	0.001406	-0.005549	0.003359	6777.441309	40495.344488	4074.449052	22096.843353
50.536500	0.005921	0.005134	0.003069	0.019677	6658.486656	39428.926310	4057.624158	21397.650534
51.036500	-0.045217	0.003435	-0.019524	0.090005	5801.037162	33888.524905	3876.445032	18667.491392
51.537000	-0.054861	-0.020176	-0.022643	-0.151674	7677.455098	53920.170851	4432.387634	30230.931456
52.037000	-0.043659	-0.135716	-0.011823	-0.356726	10603.002123	65535.000000	5279.345158	46580.854078
52.537500	-0.044153	-0.150705	-0.010846	-0.371715	10856.157049	65535.000000	5360.317784	48106.438024
53.035000	-0.043343	-0.121788	-0.013472	-0.342798	10372.845152	65535.000000	5203.159888	45209.621680
53.535000	-0.029560	-0.101816	-0.004585	-0.322826	10270.565655	65535.000000	5150.585800	43318.641092
54.035500	-0.023132	-0.065642	-0.005453	-0.280769	9709.249423	64696.004825	4959.203745	39609.862031
54.536000	-0.008870	-0.057991	-0.017853	-0.273228	9811.643598	64711.551213	4876.532585	38981.995492
55.036000	-0.004402	-0.068546	-0.004309	-0.287136	10099.811428	65188.373566	4991.340959	40148.471766
55.536000	-0.001246	-0.054752	-0.000276	-0.268678	9858.994435	64526.057193	4930.107224	38608.411660
56.036500	0.004768	-0.021087	-0.000610	-0.212744	9129.860123	61459.587507	4709.781697	34321.866666
56.536500	0.010546	-0.008347	0.008401	-0.174608	8700.087176	58149.049021	4606.469815	31700.187506
57.037000	0.010494	-0.002688	0.010552	-0.149831	8391.354363	55781.428313	4530.856094	30116.182283
57.537500	0.015977	0.003412	0.013896	-0.114381	8041.481799	52343.722880	4430.104658	28001.380560
58.035500	0.019858	0.008810	0.014222	-0.089686	7812.311663	50206.945920	4358.453426	26626.953204
58.535500	0.022159	0.011448	0.026771	-0.072370	7653.664928	48643.965783	4344.901008	25708.772000
59.035500	0.027362	0.013829	0.029871	-0.053035	7509.294617	46903.236347	4299.850318	24725.920124
59.539000	0.032109	0.018262	0.034307	-0.038351	7410.552023	45883.100039	4272.265166	24008.143824
60.036500	0.037407	0.021030	0.036556	-0.029768	7378.394038	45315.018071	4255.535551	23599.667820
60.539000	0.042816	0.024802	0.041908	-0.020311	7339.110564	44767.015263	4244.825470	23158.890125
61.036500	0.053876	0.031313	0.040491	-0.000405	7254.524925	43503.828997	4190.790793	22261.889083
61.534500	0.052238	0.032711	0.033846	0.017835	7070.627951	41969.805092	4130.991052	21475.246011
62.037000	0.057276	0.031900	0.043965	0.004726	7238.176656	43084.089800	4186.702006	22037.256671
62.535000	0.058056	0.033511	0.050751	0.008320	7211.734784	42902.264709	4194.593177	21881.482484
63.036500	0.061067	0.034676	0.048538	0.012105	7204.498175	42663.383305	4179.813400	21718.831924
63.535500	0.062411	0.036848	0.051387	0.018289	7159.495524	42300.183564	4171.680823	21456.096742
64.036000	0.065718	0.038202	0.054175	0.024521	7132.540842	41863.227056	4163.353060	21195.102114
64.535500	0.064661	0.038059	0.052152	0.028852	7083.356359	41466.712886	4148.153663	21015.881825
65.039500	0.066563	0.039092	0.059077	0.033817	7055.676854	41121.587487	4152.818870	20812.643177
65.536500	0.067164	0.040753	0.056101	0.038540	7018.725607	40855.078053	4134.619130	20621.483101
66.036500	0.066948	0.041381	0.061599	0.042172	6984.549781	40595.339670	4139.000705	20475.868950
66.537000	0.069578	0.041878	0.065914	0.046234	6971.904132	40289.415548	4139.595458	20314.434072
67.034500	0.070690	0.042661	0.064383	0.050541	6943.847691	39989.449246	4125.942064	20144.925795
67.535000	0.072093	0.044613	0.064455	0.055685	6911.257135	39719.889142	4114.228146	19944.658989
68.035500	0.072745	0.043959	0.064137	0.057966	6897.152801	39473.732559	4108.278551	19856.611068
68.535500	0.075178	0.045482	0.070282	0.061867	6884.486054	39275.474988	4113.411748	19707.063514
69.036000	0.075411	0.046069	0.070423	0.064626	6862.794064	39095.419752	4107.424145	19602.133739
69.539000	0.075354	0.046401	0.071004	0.066524	6846.089808	38966.098077	4104.424921	19530.330741
70.036500	0.077373	0.047359	0.073151	0.069091	6841.422290	38833.735602	4103.469608	19433.715162
70.537000	0.081409	0.048469	0.074789	0.071074	6858.942132	38762.178057	4102.687484	19359.484681
71.037000	0.079511	0.048675	0.075395	0.072066	6834.301939	38697.826533	4101.811286	19322.463344
71.534500	0.082742	0.049571	0.073667	0.074528	6840.845545	38569.935142	4092.354350	19230.959634
72.035000	0.082714	0.050332	0.078545	0.075230	6834.634557	38574.762166	4101.778149	19204.953702
72.534500	0.082919	0.050378	0.077914	0.077152	6820.077542	38422.233666	4096.007371	19134.029567
73.035000	0.086239	0.051341	0.079468	0.078602	6835.943930	38382.720851	4096.242012	19080.704223
73.536000	0.084043	0.051222	0.079440	0.083056	6779.832332	38013.916468	4086.187845	18917.990828
74.036000	0.087221	0.052236	0.079378	0.080324	6829.652011	38315.765530	4092.164414	19017.607699
74.536000	0.088611	0.052830	0.081149	0.082246	6825.143144	38208.449098	4091.826163	18947.475410
75.036500	0.088569	0.053926	0.086386	0.083063	6817.868342	38230.910733	4101.797687	18917.741009
75.537000	0.090728	0.053956	0.086516	0.083504	6832.429952	38197.800467	4101.091664	18901.730806
76.037000	0.089653	0.053867	0.080529	0.084344	6816.194433	38122.917703	4085.742610	18871.255639
76.534500	0.089699	0.055112	0.087112	0.087470	6790.248721	37971.887107	4093.484417	18758.411894
77.035000	0.093320	0.055218	0.084076	0.087549	6820.109806	37974.062672	4086.508365	18755.582419
77.535000	0.091038	0.056277	0.087940	0.088933	6789.207339	37948.020274	4092.058480	18705.879383
78.035500	0.092356	0.056411	0.086802	0.090186	6789.752215	37858.546901	4086.705049	18661.017979
78.536000	0.095021	0.056638	0.090624	0.091857	6798.104418	37743.410198	4091.518570	18601.395110
79.035500	0.091782	0.056571	0.083851	0.092149	6768.526344	37714.863447	4075.796408	18591.028544
79.536500	0.092678	0.057286	0.082835	0.092882	6769.880383	37713.491373	4071.942710	18564.965843
80.036500	0.092642	0.056050	0.087933	0.092203	6775.251971	37669.168600	4084.730871	18589.103953
80.536500	0.091636	0.056028	0.085259	0.092634	6763.259749	37633.236603	4077.835655	18573.772460
81.037000	0.093576	0.057572	0.082193	0.093696	6770.584157	37671.447693	4068.745063	18536.055833
81.535000	0.093099	0.056586	0.085964	0.093454	6768.619529	37612.423258	4077.582234	18544.646680
82.035000	0.093564	0.057030	0.092071	0.094583	6763.086424	37558.142955	4088.654147	18504.647477
82.535500	0.093729	0.057320	0.089431	0.095040	6760.651378	37544.937880	4081.750961	18488.484704
83.036000	0.095078	0.057340	0.083624	0.095599	6767.235450	37502.316077	4067.711014	18468.721041
83.538000	0.090469	0.056299	0.090479	0.100428	6689.342630	37041.441098	4072.157211	18299.182230
84.036500	0.093878	0.057344	0.094645	0.096741	6747.747027	37412.419801	4089.585860	18428.456285
84.536500	0.091849	0.056952	0.092258	0.096243	6735.063779	37420.826105	4085.363563	18445.996657
85.036500	0.091483	0.056814	0.089223	0.096878	6726.804415	37359.965530	4077.216785	18423.654032
85.537000	0.092465	0.057576	0.088638	0.097758	6727.641295	37350.652755	4073.982180	18392.694631
86.034500	0.092680	0.057465	0.089482	0.097993	6727.482496	37323.457773	4075.326971	18384.457079
86.537000	0.092110	0.057638	0.091413	0.098513	6718.492431	37296.155727	4078.445057	18366.202558
87.035500	0.092454	0.057234	0.091072	0.098353	6722.643778	37277.014348	4078.045198	18371.821861
87.536000	0.092368	0.057330	0.086266	0.099231	6714.714611	37215.660666	4065.548621	18341.057953
88.038000	0.093994	0.057803	0.093131	0.099120	6729.021273	37261.468893	4080.907452	18344.939948
88.536000	0.094341	0.058162	0.091851	0.099906	6725.398893	37227.951911	4076.331498	18317.424568
89.036500	0.092362	0.057869	0.090576	0.099632	6711.364076	37226.481399	4074.123660	18327.012225
89.536500	0.094456	0.059030	0.091392	0.100789	6719.071942	37226.793706	4073.372331	18286.606754
90.037000	0.093022	0.058785	0.097716	0.100471	6709.895607	37232.493801	4088.110932	18297.700941
90.537000	0.093907	0.058466	0.090562	0.100546	6716.560165	37201.673615	4072.082004	18295.088710
91.037500	0.092982	0.058021	0.095717	0.100460	6709.658546	37173.503900	4083.678111	18298.088017
91.535000	0.092918	0.058758	0.095368	0.101019	6704.551144	37187.480074	4081.658850	18278.581482
92.035500	0.092757	0.059016	0.095619	0.100709	6705.772966	37231.980205	4082.904025	18289.387677
92.536000	0.093201	0.059449	0.091706	0.101351	6704.145007	37215.585886	4072.827016	18267.005405
93.036000	0.095009	0.059910	0.093404	0.101997	6713.682518	37201.066104	4075.144557	18244.525158
93.536000	0.093759	0.059905	0.094114	0.101702	6705.843719	37223.775556	4077.364875	18254.771492
94.036500	0.093977	0.059755	0.096907	0.101633	6708.197982	37217.452494	4083.712677	18257.174032
94.537000	0.094207	0.059126	0.096812	0.101421	6711.823278	37184.777510	4083.974136	18264.563005
95.037500	0.093296	0.059147	0.092057	0.101083	6707.122558	37212.858162	4074.189468	18276.329587
95.537500	0.093784	0.058607	0.093359	0.101491	6707.774255	37138.636633	4076.161323	18262.119138
96.035000	0.092135	0.059635	0.093621	0.101863	6691.229193	37190.007241	4075.918196	18249.161033
