sample name	sample
index	486
start time	 03-11-2021  02:00:06 PM


Wavelength (nm)	Absorbance
494.344910	NaN
494.563924	NaN
494.782919	NaN
495.001897	0.204335
495.220856	NaN
495.439797	NaN
495.658719	NaN
495.877624	NaN
496.096510	NaN
496.315378	NaN
496.534227	NaN
496.753059	NaN
496.971872	2.399541
497.190667	0.047105
497.409444	0.032952
497.628203	0.025984
497.846943	0.025309
498.065665	0.023787
498.284369	0.023281
498.503055	0.022319
498.721723	0.022269
498.940372	0.022105
499.159003	0.021475
499.377616	0.021368
499.596210	0.021524
499.814787	0.020073
500.033345	0.020072
500.251885	0.020050
500.470406	0.020474
500.688910	0.020463
500.907395	0.021074
501.125862	0.021525
501.344311	0.021291
501.562742	0.022547
501.781154	0.023117
501.999548	0.022791
502.217924	0.022544
502.436282	0.022577
502.654621	0.023267
502.872942	0.022549
503.091245	0.021816
503.309530	0.022404
503.527797	0.020986
503.746045	0.021476
503.964275	0.022201
504.182487	0.021298
504.400681	0.021871
504.618856	0.020901
504.837013	0.021578
505.055152	0.022263
505.273273	0.021665
505.491376	0.021680
505.709460	0.021858
505.927526	0.021551
506.145574	0.021337
506.363604	0.020496
506.581615	0.020944
506.799608	0.020402
507.017583	0.019818
507.235540	0.019543
507.453478	0.020216
507.671399	0.018996
507.889301	0.018685
508.107185	0.019031
508.325050	0.019183
508.542898	0.019560
508.760727	0.020573
508.978538	0.021038
509.196330	0.020692
509.414105	0.020105
509.631861	0.020971
509.849599	0.021219
510.067319	0.020675
510.285021	0.020321
510.502704	0.019883
510.720369	0.019051
510.938016	0.018824
511.155645	0.019439
511.373255	0.018994
511.590848	0.018318
511.808422	0.018517
512.025977	0.018994
512.243515	0.018867
512.461034	0.019348
512.678536	0.019560
512.896018	0.019046
513.113483	0.018390
513.330930	0.019102
513.548358	0.019458
513.765768	0.018753
513.983160	0.018659
514.200533	0.018768
514.417889	0.017817
514.635226	0.018360
514.852545	0.018737
515.069845	0.019124
515.287128	0.018712
515.504392	0.018053
515.721638	0.018292
515.938866	0.018618
516.156075	0.018848
516.373267	0.019274
516.590440	0.018519
516.807594	0.018621
517.024731	0.018320
517.241850	0.018259
517.458950	0.018724
517.676032	0.018791
517.893095	0.019019
518.110141	0.018492
518.327168	0.018522
518.544177	0.018236
518.761168	0.017879
518.978141	0.017868
519.195095	0.018405
519.412031	0.018110
519.628949	0.018398
519.845849	0.018076
520.062731	0.018725
520.279594	0.018569
520.496439	0.018790
520.713266	0.019138
520.930074	0.019321
521.146865	0.018799
521.363637	0.018737
521.580391	0.018209
521.797127	0.018100
522.013844	0.017703
522.230543	0.017492
522.447224	0.016732
522.663887	0.016716
522.880532	0.017087
523.097158	0.017221
523.313766	0.017838
523.530356	0.017702
523.746928	0.018101
523.963481	0.018173
524.180017	0.018068
524.396534	0.018828
524.613032	0.018476
524.829513	0.017853
525.045975	0.017974
525.262420	0.017394
525.478845	0.018296
525.695253	0.018249
525.911643	0.018149
526.128014	0.018051
526.344367	0.017672
526.560702	0.017801
526.777018	0.018068
526.993316	0.017765
527.209597	0.017935
527.425858	0.017114
527.642102	0.016441
527.858328	0.016257
528.074535	0.016855
528.290724	0.017395
528.506894	0.017443
528.723047	0.017231
528.939181	0.017663
529.155297	0.017999
529.371395	0.018545
529.587475	0.019205
529.803536	0.019669
530.019579	0.019446
530.235604	0.019378
530.451611	0.019668
530.667600	0.020242
530.883570	0.020166
531.099522	0.020065
531.315456	0.019788
531.531372	0.019762
531.747269	0.019376
531.963148	0.019306
532.179009	0.019223
532.394852	0.018782
532.610676	0.018557
532.826482	0.018343
533.042271	0.017871
533.258040	0.017731
533.473792	0.017433
533.689525	0.017559
533.905240	0.017723
534.120937	0.017917
534.336616	0.018075
534.552277	0.018045
534.767919	0.018423
534.983543	0.018547
535.199149	0.018783
535.414736	0.019373
535.630306	0.019444
535.845857	0.019133
536.061390	0.019180
536.276904	0.019326
536.492401	0.019242
536.707879	0.018951
536.923339	0.019087
537.138781	0.019082
537.354204	0.018712
537.569610	0.018973
537.784997	0.019582
538.000366	0.019282
538.215716	0.019457
538.431049	0.019703
538.646363	0.019716
538.861659	0.020041
539.076937	0.020247
539.292196	0.020082
539.507438	0.020100
539.722661	0.020035
539.937866	0.020131
540.153052	0.019526
540.368221	0.019486
540.583371	0.019652
540.798503	0.019576
541.013617	0.019246
541.228712	0.019106
541.443789	0.018858
541.658848	0.018243
541.873889	0.018153
542.088912	0.018417
542.303916	0.018430
542.518902	0.018337
542.733870	0.018217
542.948820	0.018383
543.163752	0.018835
543.378665	0.019279
543.593560	0.019666
543.808437	0.019991
544.023295	0.019867
544.238136	0.019592
544.452958	0.019456
544.667762	0.019715
544.882548	0.019751
545.097315	0.019543
545.312064	0.019460
545.526795	0.018907
545.741508	0.018633
545.956203	0.018741
546.170879	0.018678
546.385537	0.018735
546.600177	0.018184
546.814799	0.017943
547.029402	0.018107
547.243988	0.017643
547.458555	0.018228
547.673103	0.018743
547.887634	0.019025
548.102146	0.019103
548.316640	0.018542
548.531116	0.018712
548.745574	0.018706
548.960013	0.018567
549.174435	0.018824
549.388838	0.018700
549.603222	0.017849
549.817589	0.017726
550.031937	0.017853
550.246267	0.018380
550.460579	0.018391
550.674873	0.018611
550.889148	0.018591
551.103405	0.018872
551.317644	0.019159
551.531865	0.019227
551.746068	0.019361
551.960252	0.019378
552.174418	0.019724
552.388566	0.019938
552.602696	0.020024
552.816807	0.020080
553.030900	0.019741
553.244975	0.019538
553.459032	0.019782
553.673070	0.019422
553.887091	0.019390
554.101093	0.019199
554.315077	0.018926
554.529042	0.018924
554.742990	0.018837
554.956919	0.018933
555.170830	0.018777
555.384722	0.018677
555.598597	0.018903
555.812453	0.018896
556.026291	0.019054
556.240111	0.019240
556.453913	0.019264
556.667696	0.019440
556.881461	0.019278
557.095208	0.019299
557.308937	0.019503
557.522647	0.019473
557.736339	0.019544
557.950013	0.019371
558.163669	0.019641
558.377307	0.019490
558.590926	0.019663
558.804527	0.019921
559.018110	0.019966
559.231675	0.019998
559.445221	0.019855
559.658749	0.019819
559.872259	0.019970
560.085751	0.019851
560.299225	0.019926
560.512680	0.019688
560.726117	0.019605
560.939536	0.019703
561.152937	0.019500
561.366319	0.019470
561.579683	0.019528
561.793029	0.019482
562.006357	0.019414
562.219667	0.019814
562.432958	0.019940
562.646231	0.019956
562.859486	0.019918
563.072723	0.020149
563.285941	0.020235
563.499141	0.020172
563.712323	0.019916
563.925487	0.020065
564.138632	0.019765
564.351760	0.019618
564.564869	0.019725
564.777960	0.019912
564.991032	0.019882
565.204087	0.020089
565.417123	0.020117
565.630141	0.020254
565.843140	0.019999
566.056122	0.019626
566.269085	0.019860
566.482030	0.019878
566.694957	0.019967
566.907866	0.020006
567.120756	0.020022
567.333628	0.020272
567.546482	0.020505
567.759318	0.020741
567.972135	0.021000
568.184935	0.020829
568.397716	0.020907
568.610478	0.020751
568.823223	0.020663
569.035949	0.020713
569.248657	0.020581
569.461347	0.020582
569.674019	0.020441
569.886672	0.020387
570.099308	0.020560
570.311925	0.020566
570.524523	0.020755
570.737104	0.020920
570.949666	0.021008
571.162210	0.021214
571.374736	0.020964
571.587244	0.021513
571.799733	0.021926
572.012205	0.021835
572.224658	0.021912
572.437092	0.021697
572.649509	0.021730
572.861907	0.021394
573.074287	0.021223
573.286649	0.021226
573.498993	0.020827
573.711318	0.020620
573.923625	0.020719
574.135914	0.020213
574.348185	0.020087
574.560438	0.020001
574.772672	0.020291
574.984888	0.020445
575.197086	0.020691
575.409266	0.020614
575.621427	0.020469
575.833570	0.020470
576.045695	0.020700
576.257802	0.021026
576.469890	0.021129
576.681961	0.020880
576.894013	0.020489
577.106046	0.020596
577.318062	0.020413
577.530059	0.020681
577.742039	0.020275
577.954000	0.020631
578.165942	0.020671
578.377867	0.020891
578.589773	0.021189
578.801661	0.021559
579.013531	0.021619
579.225382	0.022061
579.437216	0.022065
579.649031	0.022454
579.860828	0.022341
580.072606	0.022228
580.284367	0.022243
580.496109	0.022434
580.707833	0.022498
580.919539	0.022395
581.131227	0.022312
581.342896	0.022257
581.554547	0.022327
581.766180	0.022291
581.977795	0.022695
582.189391	0.022494
582.400969	0.022217
582.612529	0.022289
582.824071	0.022633
583.035595	0.022943
583.247100	0.022924
583.458587	0.022987
583.670056	0.023087
583.881506	0.022706
584.092939	0.022782
584.304353	0.022966
584.515749	0.022909
584.727127	0.022447
584.938486	0.022095
585.149828	0.022377
585.361151	0.022371
585.572456	0.022107
585.783742	0.022035
585.995011	0.022075
586.206261	0.022077
586.417493	0.022147
586.628706	0.022333
586.839902	0.022495
587.051079	0.022347
587.262238	0.022326
587.473379	0.022589
587.684502	0.022653
587.895606	0.022615
588.106692	0.022489
588.317760	0.022376
588.528810	0.022478
588.739841	0.022486
588.950855	0.022814
589.161850	0.023017
589.372827	0.022894
589.583785	0.023126
589.794726	0.023551
590.005648	0.023504
590.216552	0.023526
590.427437	0.023634
590.638305	0.023660
590.849154	0.023518
591.059985	0.023478
591.270798	0.023714
591.481592	0.023893
591.692369	0.023242
591.903127	0.023561
592.113867	0.023655
592.324588	0.023713
592.535292	0.023791
592.745977	0.023926
592.956644	0.023990
593.167293	0.023825
593.377923	0.023560
593.588536	0.023936
593.799130	0.023875
594.009706	0.023864
594.220263	0.023706
594.430803	0.023825
594.641324	0.023815
594.851827	0.023868
595.062312	0.024032
595.272778	0.024240
595.483227	0.024417
595.693657	0.024481
595.904069	0.024769
596.114462	0.024982
596.324838	0.024848
596.535195	0.024864
596.745534	0.025029
596.955855	0.025082
597.166157	0.025196
597.376441	0.025249
597.586707	0.025404
597.796955	0.025415
598.007185	0.025291
598.217396	0.025572
598.427589	0.025684
598.637764	0.025556
598.847921	0.025449
599.058060	0.025586
599.268180	0.025582
599.478282	0.025579
599.688366	0.025211
599.898431	0.025435
600.108479	0.025276
600.318508	0.025158
600.528519	0.025609
600.738511	0.025862
600.948486	0.025764
601.158442	0.025674
601.368380	0.025710
601.578300	0.026001
601.788202	0.025689
601.998085	0.025655
602.207950	0.025804
602.417797	0.025740
602.627626	0.025781
602.837436	0.025669
603.047228	0.025926
603.257002	0.026082
603.466758	0.026156
603.676496	0.026525
603.886215	0.026547
604.095916	0.026609
604.305599	0.026266
604.515264	0.026262
604.724910	0.026396
604.934538	0.026245
605.144148	0.026107
605.353740	0.026127
605.563314	0.026007
605.772869	0.026168
605.982406	0.025958
606.191925	0.025867
606.401425	0.026074
606.610908	0.026229
606.820372	0.026226
607.029818	0.026221
607.239246	0.026352
607.448655	0.026477
607.658047	0.026602
607.867420	0.026918
608.076775	0.027136
608.286111	0.026973
608.495430	0.026960
608.704730	0.027265
608.914012	0.027104
609.123275	0.026975
609.332521	0.026760
609.541748	0.026618
609.750957	0.026362
609.960148	0.026337
610.169321	0.026431
610.378475	0.026471
610.587611	0.026325
610.796729	0.026725
611.005829	0.026699
611.214910	0.027070
611.423974	0.026910
611.633019	0.027061
611.842045	0.027232
612.051054	0.027562
612.260044	0.027535
612.469017	0.027531
612.677970	0.027687
612.886906	0.027846
613.095824	0.027730
613.304723	0.028124
613.513604	0.028101
613.722467	0.028051
613.931311	0.027763
614.140138	0.027732
614.348946	0.027666
614.557736	0.027555
614.766507	0.027623
614.975261	0.027758
615.183996	0.027628
615.392713	0.027913
615.601412	0.027925
615.810092	0.027897
616.018754	0.028360
616.227399	0.028728
616.436024	0.028803
616.644632	0.028880
616.853222	0.028930
617.061793	0.029140
617.270346	0.028946
617.478880	0.029026
617.687397	0.029174
617.895895	0.028723
618.104375	0.028657
618.312837	0.028717
618.521281	0.028443
618.729706	0.028460
618.938113	0.028706
619.146502	0.028758
619.354873	0.028755
619.563226	0.028688
619.771560	0.028738
619.979876	0.028877
620.188174	0.028666
620.396453	0.028778
620.604715	0.028713
620.812958	0.028447
621.021183	0.028529
621.229390	0.028644
621.437578	0.028767
621.645748	0.028903
621.853900	0.028711
622.062034	0.028851
622.270150	0.029228
622.478247	0.029414
622.686326	0.029564
622.894387	0.029562
623.102430	0.029517
623.310454	0.029672
623.518461	0.029720
623.726449	0.029756
623.934418	0.029780
624.142370	0.029553
624.350303	0.029427
624.558218	0.029398
624.766115	0.029505
624.973994	0.029479
625.181855	0.029102
625.389697	0.029100
625.597521	0.029022
625.805327	0.029225
626.013114	0.029174
626.220883	0.029167
626.428634	0.029240
626.636367	0.029055
626.844082	0.029138
627.051778	0.029491
627.259457	0.029443
627.467117	0.029620
627.674758	0.029356
627.882382	0.029595
628.089987	0.029613
628.297574	0.029837
628.505143	0.029991
628.712694	0.029964
628.920226	0.029900
629.127740	0.030276
629.335236	0.030498
629.542714	0.030707
629.750174	0.030742
629.957615	0.030979
630.165038	0.030829
630.372443	0.030993
630.579829	0.031034
630.787198	0.031029
630.994548	0.030873
631.201880	0.030622
631.409194	0.030620
631.616489	0.030731
631.823766	0.030351
632.031025	0.030339
632.238266	0.030244
632.445489	0.030397
632.652693	0.030339
632.859879	0.030407
633.067047	0.030308
633.274197	0.030344
633.481329	0.030348
633.688442	0.030754
633.895537	0.030630
634.102614	0.030788
634.309672	0.030757
634.516713	0.031020
634.723735	0.031092
634.930739	0.031530
635.137724	0.031799
635.344692	0.031787
635.551641	0.031938
635.758572	0.031907
635.965485	0.031784
636.172379	0.031689
636.379256	0.031822
636.586114	0.031721
636.792954	0.031526
636.999775	0.031230
637.206579	0.031185
637.413364	0.030962
637.620131	0.030989
637.826880	0.031138
638.033610	0.031474
638.240323	0.031402
638.447017	0.031555
638.653692	0.031598
638.860350	0.031615
639.066990	0.031694
639.273611	0.031766
639.480214	0.032156
639.686798	0.032177
639.893365	0.032167
640.099913	0.032212
640.306443	0.032139
640.512955	0.032165
640.719449	0.032173
640.925924	0.031998
641.132381	0.031944
641.338820	0.031783
641.545241	0.031616
641.751644	0.031628
641.958028	0.031571
642.164394	0.031681
642.370742	0.031699
642.577071	0.031804
642.783383	0.031896
642.989676	0.032129
643.195951	0.032085
643.402207	0.032336
643.608446	0.032344
643.814666	0.032294
644.020868	0.032223
644.227052	0.032322
644.433218	0.032430
644.639365	0.032452
644.845494	0.032288
645.051605	0.032235
645.257698	0.032136
645.463772	0.032023
645.669828	0.032122
645.875866	0.031994
646.081886	0.032142
646.287888	0.032284
646.493871	0.032328
646.699836	0.032496
646.905783	0.032715
647.111712	0.032778
647.317622	0.032728
647.523514	0.032842
647.729388	0.032863
647.935244	0.032733
648.141082	0.032561
648.346901	0.032715
648.552702	0.032593
648.758485	0.032535
648.964250	0.032533
649.169996	0.032808
649.375724	0.032714
649.581434	0.032667
649.787126	0.032585
649.992800	0.032693
650.198455	0.032677
650.404092	0.032757
650.609711	0.032854
650.815311	0.033017
651.020894	0.032848
651.226458	0.032744
651.432004	0.032999
651.637532	0.033033
651.843041	0.033134
652.048532	0.032975
652.254006	0.033038
652.459460	0.032905
652.664897	0.032724
652.870315	0.032816
653.075716	0.032866
653.281097	0.032808
653.486461	0.032964
653.691807	0.032834
653.897134	0.033071
654.102443	0.033043
654.307734	0.033320
654.513006	0.033567
654.718261	0.033482
654.923497	0.033646
655.128715	0.033700
655.333915	0.033618
655.539096	0.033682
655.744259	0.033717
655.949404	0.033855
656.154531	0.033523
656.359640	0.033655
656.564730	0.033893
656.769802	0.033806
656.974856	0.033852
657.179892	0.033961
657.384909	0.033978
657.589908	0.033934
657.794889	0.033750
657.999852	0.033943
658.204797	0.033801
658.409723	0.033764
658.614631	0.033877
658.819521	0.033811
659.024393	0.033757
659.229246	0.033701
659.434081	0.033779
659.638898	0.034009
659.843697	0.034061
660.048478	0.034139
660.253240	0.034259
660.457984	0.034289
660.662710	0.034401
660.867417	0.034520
661.072107	0.034602
661.276778	0.034580
661.481431	0.034505
661.686066	0.034583
661.890682	0.034525
662.095281	0.034415
662.299861	0.034369
662.504422	0.034295
662.708966	0.034316
662.913491	0.034381
663.117999	0.034410
663.322488	0.034435
663.526958	0.034521
663.731411	0.034635
663.935845	0.034575
664.140261	0.034697
664.344659	0.034841
664.549038	0.034648
664.753400	0.034789
664.957743	0.034815
665.162068	0.034873
665.366375	0.034792
665.570663	0.034875
665.774933	0.034891
665.979185	0.034809
666.183419	0.034867
666.387635	0.035011
666.591832	0.034897
666.796011	0.035044
667.000172	0.035250
667.204315	0.035280
667.408439	0.034963
667.612545	0.035171
667.816634	0.035398
668.020703	0.035451
668.224755	0.035585
668.428788	0.035566
668.632803	0.035434
668.836800	0.035266
669.040779	0.035331
669.244739	0.035331
669.448681	0.035295
669.652605	0.035246
669.856511	0.035253
670.060399	0.035367
670.264268	0.035335
670.468119	0.035450
670.671952	0.035569
670.875767	0.035565
671.079563	0.035660
671.283341	0.035657
671.487101	0.035709
671.690843	0.035803
671.894567	0.035756
672.098272	0.035812
672.301959	0.035863
672.505628	0.035891
672.709278	0.035973
672.912911	0.036209
673.116525	0.036409
673.320121	0.036421
673.523699	0.036500
673.727258	0.036594
673.930799	0.036691
674.134322	0.036767
674.337827	0.036901
674.541314	0.036930
674.744782	0.037065
674.948232	0.036994
675.151664	0.037065
675.355078	0.037014
675.558474	0.037037
675.761851	0.037089
675.965210	0.037102
676.168551	0.037051
676.371873	0.036960
676.575178	0.036992
676.778464	0.037021
676.981732	0.036942
677.184981	0.036843
677.388213	0.036817
677.591426	0.036770
677.794621	0.036738
677.997798	0.036696
678.200956	0.036857
678.404097	0.036644
678.607219	0.036699
678.810323	0.036719
679.013408	0.036924
679.216476	0.036935
679.419525	0.037184
679.622556	0.037484
679.825569	0.037523
680.028563	0.037600
680.231540	0.037883
680.434498	0.037839
680.637438	0.038081
680.840359	0.038060
681.043263	0.038188
681.246148	0.038205
681.449015	0.038046
681.651864	0.038171
681.854694	0.038106
682.057506	0.038021
682.260301	0.038061
682.463076	0.037889
682.665834	0.037896
682.868573	0.038070
683.071295	0.037920
683.273998	0.038036
683.476682	0.037969
683.679349	0.038020
683.881997	0.038132
684.084627	0.038360
684.287239	0.038483
684.489833	0.038528
684.692408	0.038358
684.894965	0.038640
685.097504	0.038491
685.300025	0.038599
685.502527	0.038723
685.705012	0.038659
685.907478	0.038632
686.109925	0.038761
686.312355	0.038808
686.514766	0.038773
686.717159	0.038751
686.919534	0.039014
687.121891	0.038983
687.324230	0.039004
687.526550	0.039182
687.728852	0.039353
687.931136	0.039299
688.133401	0.039425
688.335649	0.039512
688.537878	0.039334
688.740089	0.039219
688.942281	0.039284
689.144456	0.039265
689.346612	0.039261
689.548750	0.039109
689.750870	0.039022
689.952971	0.038978
690.155055	0.039122
690.357120	0.039350
690.559167	0.039438
690.761195	0.039481
690.963206	0.039550
691.165198	0.039479
691.367172	0.039553
691.569128	0.039744
691.771065	0.039839
691.972984	0.039821
692.174885	0.039878
692.376768	0.039872
692.578633	0.039849
692.780479	0.039928
692.982308	0.039956
693.184118	0.039963
693.385909	0.040077
693.587683	0.039997
693.789438	0.039946
693.991175	0.039855
694.192894	0.039715
694.394595	0.039820
694.596277	0.039625
694.797941	0.039545
694.999587	0.039543
695.201215	0.039460
695.402824	0.039324
695.604416	0.039408
695.805989	0.039505
696.007543	0.039582
696.209080	0.039426
696.410598	0.039581
696.612099	0.039869
696.813580	0.039872
697.015044	0.039944
697.216490	0.040183
697.417917	0.040132
697.619326	0.040118
697.820717	0.040214
698.022089	0.040462
698.223444	0.040540
698.424780	0.040330
698.626098	0.040313
698.827397	0.040427
699.028679	0.040495
699.229942	0.040503
699.431187	0.040619
699.632414	0.040712
699.833622	0.040654
700.034813	0.040765
700.235985	0.040853
700.437139	0.041014
700.638274	0.040886
700.839392	0.040978
701.040491	0.041192
701.241572	0.041218
701.442635	0.041154
701.643679	0.041376
701.844706	0.041321
702.045714	0.041327
702.246704	0.041344
702.447675	0.041408
702.648629	0.041316
702.849564	0.041203
703.050481	0.041166
703.251380	0.041357
703.452260	0.041165
703.653122	0.041259
703.853966	0.041276
704.054792	0.041205
704.255600	0.041259
704.456389	0.041055
704.657160	0.041095
704.857913	0.041001
705.058648	0.040834
705.259365	0.040766
705.460063	0.040548
705.660743	0.040558
705.861405	0.040653
706.062048	0.040650
706.262674	0.040647
706.463281	0.040557
706.663870	0.040584
706.864441	0.040624
707.064993	0.040635
707.265527	0.040765
707.466043	0.040749
707.666541	0.040497
707.867021	0.040341
708.067482	0.040471
708.267925	0.040592
708.468350	0.040549
708.668757	0.040595
708.869145	0.040754
709.069516	0.040778
709.269868	0.040820
709.470201	0.041031
709.670517	0.041213
709.870814	0.041406
710.071093	0.041258
710.271354	0.041326
710.471597	0.041202
710.671821	0.041073
710.872028	0.040975
711.072216	0.041119
711.272385	0.041196
711.472537	0.041002
711.672670	0.040905
711.872785	0.041010
712.072882	0.041029
712.272961	0.041041
712.473021	0.041132
712.673063	0.041191
712.873087	0.040984
713.073093	0.040854
713.273081	0.040891
713.473050	0.040834
713.673001	0.040837
713.872934	0.040745
714.072849	0.040931
714.272745	0.040767
714.472623	0.040912
714.672483	0.041056
714.872325	0.040937
715.072148	0.041193
715.271954	0.041123
715.471741	0.041102
715.671509	0.041132
715.871260	0.041080
716.070992	0.041164
716.270707	0.040983
716.470403	0.040997
716.670080	0.041143
716.869740	0.041036
717.069381	0.041136
717.269004	0.041085
717.468609	0.041082
717.668195	0.040978
717.867764	0.041001
718.067314	0.041065
718.266846	0.040985
718.466360	0.041005
718.665855	0.040815
718.865332	0.040850
719.064791	0.040664
719.264232	0.040524
719.463655	0.040411
719.663059	0.040408
719.862445	0.040238
720.061813	0.040081
720.261163	0.039986
720.460494	0.039919
720.659807	0.039700
720.859102	0.039794
721.058379	0.040030
721.257638	0.040066
721.456878	0.039950
721.656100	0.040154
721.855304	0.040309
722.054490	0.040397
722.253657	0.040555
722.452806	0.040821
722.651937	0.040898
722.851050	0.040772
723.050145	0.040730
723.249221	0.040870
723.448279	0.040675
723.647319	0.040519
723.846340	0.040406
724.045344	0.040190
724.244329	0.040043
724.443296	0.040133
724.642245	0.040121
724.841175	0.040144
725.040088	0.040138
725.238982	0.040321
725.437857	0.040337
725.636715	0.040500
725.835554	0.040808
726.034376	0.040822
726.233179	0.040806
726.431963	0.040867
726.630730	0.040775
726.829478	0.040778
727.028208	0.040636
727.226920	0.040702
727.425614	0.040663
727.624289	0.040504
727.822946	0.040425
728.021585	0.040547
728.220206	0.040446
728.418808	0.040464
728.617392	0.040409
728.815958	0.040259
729.014506	0.040349
729.213036	0.040195
729.411547	0.040277
729.610040	0.040363
729.808515	0.040236
730.006972	0.040273
730.205410	0.040409
730.403831	0.040512
730.602233	0.040788
730.800616	0.040658
730.998982	0.040489
731.197329	0.040318
731.395658	0.040113
731.593969	0.039994
731.792262	0.039943
731.990536	0.039826
732.188793	0.039475
732.387031	0.038991
732.585250	0.038964
732.783452	0.038879
732.981635	0.038766
733.179800	0.038672
733.377947	0.038728
733.576076	0.038649
733.774186	0.038544
733.972278	0.038526
734.170352	0.038904
734.368408	0.038867
734.566446	0.038994
734.764465	0.038981
734.962466	0.038859
735.160449	0.038536
735.358413	0.038583
735.556360	0.038566
735.754288	0.038695
735.952198	0.038461
736.150090	0.038326
736.347963	0.038414
736.545818	0.038333
736.743655	0.038509
736.941474	0.038686
737.139275	0.038696
737.337057	0.038902
737.534821	0.038948
737.732567	0.038880
737.930295	0.039006
738.128005	0.038935
738.325696	0.038974
738.523369	0.039070
738.721024	0.038917
738.918660	0.038772
739.116279	0.038488
739.313879	0.038365
739.511461	0.038601
739.709024	0.038532
739.906570	0.038600
740.104097	0.038764
740.301606	0.038682
740.499097	0.038861
740.696569	0.038913
740.894024	0.039138
741.091460	0.039068
741.288878	0.039142
741.486277	0.039104
741.683659	0.038959
741.881022	0.039016
742.078367	0.039004
742.275694	0.038821
742.473002	0.038958
742.670293	0.038677
742.867565	0.038887
743.064819	0.038616
743.262054	0.038651
743.459272	0.038749
743.656471	0.038523
743.853652	0.038531
744.050815	0.038518
744.247959	0.038185
744.445085	0.038350
744.642194	0.038290
744.839283	0.038276
745.036355	0.038101
745.233408	0.037991
745.430444	0.037946
745.627461	0.038029
745.824459	0.038019
746.021440	0.038199
746.218402	0.038185
746.415346	0.038151
746.612272	0.038385
746.809180	0.038667
747.006069	0.038697
747.202940	0.038723
747.399793	0.038433
747.596628	0.038513
747.793444	0.038454
747.990243	0.038183
748.187023	0.038177
748.383784	0.037991
748.580528	0.037647
748.777253	0.037609
748.973960	0.037534
749.170649	0.037668
749.367320	0.037684
749.563973	0.037665
749.760607	0.037806
749.957223	0.037787
750.153821	0.037701
750.350400	0.037599
750.546962	0.037449
750.743505	0.037112
750.940030	0.036977
751.136536	0.036938
751.333025	0.036924
751.529495	0.036796
751.725947	0.036752
751.922381	0.036729
752.118796	0.037061
752.315194	0.037163
752.511573	0.037462
752.707934	0.037458
752.904276	0.037370
753.100601	0.037338
753.296907	0.037492
753.493195	0.037457
753.689465	0.037552
753.885716	0.037639
754.081949	0.037655
754.278164	0.037713
754.474361	0.038010
754.670540	0.038061
754.866700	0.038069
755.062843	0.038119
755.258967	0.037999
755.455072	0.037935
755.651160	0.037907
755.847229	0.037693
756.043280	0.037736
756.239313	0.037485
756.435328	0.037392
756.631324	0.037262
756.827302	0.037312
757.023262	0.037224
757.219204	0.037214
757.415127	0.036905
757.611033	0.037128
757.806920	0.037092
758.002788	0.036987
758.198639	0.037073
758.394471	0.037079
758.590286	0.036963
758.786081	0.037288
758.981859	0.037141
759.177619	0.037105
759.373360	0.037042
759.569083	0.037099
759.764788	0.037123
759.960474	0.037009
760.156143	0.037048
760.351793	0.037080
760.547425	0.036807
760.743038	0.036816
760.938634	0.036917
761.134211	0.036763
761.329770	0.036663
761.525311	0.036740
761.720833	0.036674
761.916338	0.036566
762.111824	0.036371
762.307292	0.036226
762.502741	0.036150
762.698173	0.036122
762.893586	0.036282
763.088981	0.036347
763.284358	0.036103
763.479716	0.036084
763.675057	0.035932
763.870379	0.035956
764.065683	0.036064
764.260968	0.036107
764.456236	0.036094
764.651485	0.035730
764.846716	0.035475
765.041929	0.035601
765.237123	0.035637
765.432299	0.035561
765.627457	0.035559
765.822597	0.035509
766.017719	0.035489
766.212822	0.035381
766.407907	0.035791
766.602974	0.035974
766.798023	0.035996
766.993054	0.036090
767.188066	0.036416
767.383060	0.036363
767.578036	0.036248
767.772993	0.036305
767.967933	0.036228
768.162854	0.035979
768.357757	0.035749
768.552642	0.035651
768.747508	0.035654
768.942356	0.035707
769.137186	0.035719
769.331998	0.035857
769.526792	0.035746
769.721567	0.035780
769.916324	0.035689
770.111063	0.035877
770.305784	0.035949
770.500486	0.035789
770.695171	0.035622
770.889837	0.035527
771.084484	0.035465
771.279114	0.035480
771.473725	0.035738
771.668318	0.036013
771.862893	0.035989
772.057450	0.035954
772.251988	0.035946
772.446509	0.035983
772.641011	0.035984
772.835494	0.036016
773.029960	0.036022
773.224407	0.035903
773.418836	0.035602
773.613247	0.035634
773.807640	0.035766
774.002014	0.035796
774.196370	0.035733
774.390708	0.035874
774.585028	0.035935
774.779330	0.036087
774.973613	0.036092
775.167878	0.036359
775.362125	0.036301
775.556354	0.036384
775.750564	0.036588
775.944756	0.036835
776.138930	0.036746
776.333086	0.036763
776.527223	0.036883
776.721343	0.036962
776.915444	0.036877
777.109526	0.036909
777.303591	0.036854
777.497637	0.036652
777.691666	0.036500
777.885676	0.036421
778.079667	0.036359
778.273641	0.036179
778.467596	0.036163
778.661533	0.035915
778.855452	0.035825
779.049352	0.035453
779.243235	0.035368
779.437099	0.035171
779.630945	0.035285
779.824773	0.035145
780.018582	0.034945
780.212373	0.034675
780.406146	0.034767
780.599901	0.034835
780.793638	0.034901
780.987356	0.035095
781.181056	0.035334
781.374738	0.035284
781.568402	0.035332
781.762047	0.035301
781.955674	0.035474
782.149283	0.035667
782.342874	0.035435
782.536447	0.035606
782.730001	0.035265
782.923537	0.035149
783.117055	0.035046
783.310555	0.035164
783.504036	0.035176
783.697499	0.035063
783.890944	0.034884
784.084371	0.034947
784.277780	0.034939
784.471170	0.035087
784.664542	0.034881
784.857896	0.035149
785.051231	0.035067
785.244549	0.035083
785.437848	0.034932
785.631129	0.034991
785.824392	0.034976
786.017636	0.034801
786.210863	0.034902
786.404071	0.035052
786.597260	0.034982
786.790432	0.034898
786.983585	0.034957
787.176721	0.035176
787.369838	0.035334
787.562936	0.035343
787.756017	0.035583
787.949079	0.035690
788.142123	0.035626
788.335149	0.035696
788.528156	0.035760
788.721146	0.035790
788.914117	0.035820
789.107070	0.035515
789.300005	0.035504
789.492921	0.035265
789.685819	0.035014
789.878699	0.035290
790.071561	0.035366
790.264405	0.035464
790.457230	0.035525
790.650037	0.035301
790.842826	0.035509
791.035597	0.035596
791.228349	0.035754
791.421084	0.035763
791.613800	0.035492
791.806497	0.035277
791.999177	0.035270
792.191838	0.035202
792.384481	0.035272
792.577106	0.035374
792.769713	0.035456
792.962301	0.035287
793.154871	0.035385
793.347423	0.035618
793.539957	0.035710
793.732473	0.035652
793.924970	0.035506
794.117449	0.035729
794.309910	0.035617
794.502353	0.035788
794.694777	0.036014
794.887183	0.036014
795.079571	0.036168
795.271941	0.036117
795.464293	0.036353
795.656626	0.036372
795.848941	0.036338
796.041238	0.036439
796.233516	0.036231
796.425777	0.036193
796.618019	0.036292
796.810243	0.036122
797.002449	0.036182
797.194636	0.036150
797.386805	0.036412
797.578956	0.036551
797.771089	0.036611
797.963204	0.036507
798.155300	0.036642
798.347378	0.036618
798.539438	0.036740
798.731480	0.036642
798.923503	0.036532
799.115509	0.036582
799.307496	0.036335
799.499465	0.036175
799.691415	0.036513
799.883348	0.036450
800.075262	0.036420
800.267158	0.036126
800.459035	0.036175
800.650895	0.036287
800.842736	0.036259
801.034559	0.036282
801.226364	0.036183
801.418150	0.035907
801.609919	0.036010
801.801669	0.036075
801.993401	0.036375
802.185114	0.036491
802.376810	0.036292
802.568487	0.036301
802.760146	0.036224
802.951787	0.036515
803.143409	0.036539
803.335014	0.036506
803.526600	0.036504
803.718168	0.036561
803.909717	0.036471
804.101249	0.036689
804.292762	0.036737
804.484257	0.037003
804.675734	0.036938
804.867192	0.037248
805.058632	0.037307
805.250054	0.037368
805.441458	0.037305
805.632844	0.037329
805.824211	0.037300
806.015561	0.037239
806.206891	0.037091
806.398204	0.037008
806.589499	0.036811
806.780775	0.036595
806.972033	0.036391
807.163273	0.036339
807.354495	0.036356
807.545698	0.036394
807.736883	0.036358
807.928050	0.036560
808.119199	0.036635
808.310329	0.036711
808.501441	0.036893
808.692535	0.037168
808.883611	0.037278
809.074669	0.037373
809.265708	0.037201
809.456729	0.037461
809.647732	0.037418
809.838717	0.037471
810.029683	0.037479
810.220632	0.037388
810.411562	0.037308
810.602474	0.037326
810.793367	0.037328
810.984242	0.037509
811.175100	0.037368
811.365938	0.037629
811.556759	0.037879
811.747562	0.038020
811.938346	0.038247
812.129112	0.038363
812.319860	0.038359
812.510589	0.038474
812.701300	0.038706
812.891994	0.038793
813.082668	0.038628
813.273325	0.038369
813.463964	0.038293
813.654584	0.038234
813.845186	0.038164
814.035769	0.038034
814.226335	0.038002
814.416882	0.037778
814.607411	0.037896
814.797922	0.037796
814.988415	0.037947
815.178889	0.037864
815.369345	0.037887
815.559783	0.038038
815.750203	0.038150
815.940605	0.038200
816.130988	0.038252
816.321353	0.038173
816.511700	0.038276
816.702028	0.038171
816.892339	0.038174
817.082631	0.038328
817.272905	0.038078
817.463161	0.038219
817.653398	0.038325
817.843617	0.038241
818.033819	0.038299
818.224001	0.038441
818.414166	0.038585
818.604312	0.038563
818.794440	0.038570
818.984550	0.038774
819.174642	0.038616
819.364716	0.038412
819.554771	0.038467
819.744808	0.038533
819.934827	0.038513
820.124827	0.038555
820.314810	0.038692
820.504774	0.038575
820.694720	0.038672
820.884647	0.038837
821.074557	0.039176
821.264448	0.039179
821.454321	0.039023
821.644176	0.038903
821.834012	0.038877
822.023831	0.038979
822.213631	0.039041
822.403413	0.039111
822.593176	0.039181
822.782922	0.039061
822.972649	0.039263
823.162358	0.039252
823.352049	0.039516
823.541721	0.039636
823.731376	0.039730
823.921012	0.039728
824.110629	0.039730
824.300229	0.039618
824.489811	0.039599
824.679374	0.039526
824.868919	0.039683
825.058445	0.039589
825.247954	0.039597
825.437444	0.039774
825.626916	0.040040
825.816370	0.040146
826.005806	0.040459
826.195223	0.040609
826.384622	0.040632
826.574003	0.040808
826.763366	0.040806
826.952711	0.040938
827.142037	0.040720
827.331345	0.040614
827.520635	0.040503
827.709906	0.040444
827.899160	0.040518
828.088395	0.040673
828.277612	0.040557
828.466810	0.040654
828.655991	0.040465
828.845153	0.040453
829.034297	0.040446
829.223423	0.040417
829.412531	0.040268
829.601620	0.040180
829.790691	0.040159
829.979744	0.040144
830.168779	0.040132
830.357795	0.040300
830.546793	0.040514
830.735773	0.040475
830.924735	0.040636
831.113679	0.040736
831.302604	0.040761
831.491511	0.040753
831.680400	0.040980
831.869271	0.041261
832.058123	0.041236
832.246957	0.041277
832.435773	0.041385
832.624571	0.041557
832.813351	0.041561
833.002112	0.041435
833.190855	0.041540
833.379580	0.041517
833.568287	0.041194
833.756975	0.041318
833.945645	0.041240
834.134297	0.041416
834.322931	0.041083
834.511547	0.041147
834.700144	0.041357
834.888723	0.041218
835.077284	0.041165
835.265826	0.041365
835.454351	0.041196
835.642857	0.041146
835.831345	0.041138
836.019815	0.041465
836.208266	0.041487
836.396699	0.041662
836.585114	0.042024
836.773511	0.042110
836.961890	0.042062
837.150250	0.042267
837.338592	0.042306
837.526916	0.042417
837.715222	0.042436
837.903510	0.042651
838.091779	0.042621
838.280030	0.042524
838.468263	0.042567
838.656477	0.042720
838.844674	0.042787
839.032852	0.042918
839.221012	0.042878
839.409153	0.042950
839.597277	0.042729
839.785382	0.042677
839.973469	0.042855
840.161538	0.043035
840.349589	0.043078
840.537621	0.043150
840.725635	0.043262
840.913631	0.043429
841.101609	0.043504
841.289568	0.043812
841.477509	0.043984
841.665432	0.044091
841.853337	0.043885
842.041224	0.043980
842.229092	0.043885
842.416942	0.044101
842.604774	0.044114
842.792588	0.044154
842.980383	0.044212
843.168160	0.044235
843.355919	0.044069
843.543660	0.044491
843.731382	0.044558
843.919087	0.044646
844.106773	0.044747
844.294441	0.044761
844.482090	0.045008
844.669722	0.045012
844.857335	0.044932
845.044930	0.044996
845.232507	0.044614
845.420065	0.044642
845.607605	0.044844
845.795127	0.044600
845.982631	0.044551
846.170117	0.044304
846.357584	0.044116
846.545033	0.044238
846.732464	0.044106
846.919877	0.044538
847.107272	0.044529
847.294648	0.044480
847.482006	0.044548
847.669346	0.044716
847.856667	0.044909
848.043971	0.045300
848.231256	0.045593
848.418523	0.046106
848.605771	0.046187
848.793002	0.046364
848.980214	0.046246
849.167408	0.046339
849.354584	0.046663
849.541742	0.046708
849.728881	0.046704
849.916002	0.046531
850.103105	0.046415
850.290190	0.046478
850.477256	0.046655
850.664304	0.046994
850.851334	0.047299
851.038346	0.047242
851.225340	0.047337
851.412315	0.047583
851.599272	0.047952
851.786211	0.048222
851.973132	0.048159
852.160034	0.048091
852.346918	0.048143
852.533784	0.048156
852.720632	0.048146
852.907462	0.048266
853.094273	0.048248
853.281066	0.048030
853.467841	0.047949
853.654598	0.047895
853.841336	0.047927
854.028056	0.048026
854.214758	0.047997
854.401442	0.048145
854.588107	0.048295
854.774755	0.048252
854.961384	0.048585
855.147995	0.048514
855.334587	0.048838
855.521162	0.048918
855.707718	0.048952
855.894256	0.049084
856.080775	0.048980
856.267277	0.048915
856.453760	0.048885
856.640225	0.048677
856.826672	0.048672
857.013101	0.048632
857.199511	0.048763
857.385903	0.048980
857.572277	0.048994
857.758633	0.049257
857.944970	0.049101
858.131290	0.049350
858.317591	0.049567
858.503873	0.049859
858.690138	0.049868
858.876384	0.050018
859.062612	0.050060
859.248822	0.050324
859.435014	0.050213
859.621188	0.050881
859.807343	0.051041
859.993480	0.051228
860.179599	0.051391
860.365699	0.051747
860.551781	0.051559
860.737846	0.051639
860.923891	0.051841
861.109919	0.051908
861.295929	0.051533
861.481920	0.051603
861.667893	0.051629
861.853848	0.051595
862.039784	0.051512
862.225702	0.051817
862.411603	0.051603
862.597484	0.051604
862.783348	0.051911
862.969193	0.052315
863.155021	0.052321
863.340830	0.052275
863.526620	0.052605
863.712393	0.052516
863.898147	0.052665
864.083883	0.052950
864.269601	0.052706
864.455301	0.052809
864.640982	0.052630
864.826645	0.052729
865.012290	0.052868
865.197917	0.052635
865.383526	0.052945
865.569116	0.052902
865.754688	0.052869
865.940242	0.052977
866.125777	0.052641
866.311295	0.052642
866.496794	0.052645
866.682275	0.052782
866.867737	0.052750
867.053182	0.052810
867.238608	0.052955
867.424016	0.053078
867.609406	0.053154
867.794778	0.053508
867.980131	0.053716
868.165466	0.054123
868.350783	0.054065
868.536082	0.054310
868.721362	0.054127
868.906625	0.053925
869.091869	0.054033
869.277094	0.054011
869.462302	0.054179
869.647491	0.054149
869.832662	0.053992
870.017815	0.053971
870.202950	0.053903
870.388066	0.054112
870.573165	0.054488
870.758245	0.054599
870.943306	0.054881
871.128350	0.054753
871.313375	0.054914
871.498382	0.054716
871.683371	0.054974
871.868342	0.055275
872.053294	0.055502
872.238229	0.055387
872.423144	0.055367
872.608042	0.055555
872.792922	0.055297
872.977783	0.055286
873.162626	0.055461
873.347451	0.055156
873.532258	0.055077
873.717046	0.054884
873.901816	0.054826
874.086568	0.054979
874.271302	0.054852
874.456017	0.055171
874.640715	0.055277
874.825394	0.055133
875.010055	0.055198
875.194697	0.055357
875.379322	0.055638
875.563928	0.055624
875.748516	0.055563
875.933085	0.055342
876.117637	0.055541
876.302170	0.055607
876.486685	0.055606
876.671182	0.055861
876.855661	0.055598
877.040121	0.055225
877.224563	0.055511
877.408987	0.055882
877.593393	0.056067
877.777780	0.055851
877.962150	0.055887
878.146501	0.056321
878.330833	0.056442
878.515148	0.056648
878.699444	0.057009
878.883722	0.056818
879.067982	0.056670
879.252224	0.056601
879.436447	0.056861
879.620653	0.056813
879.804840	0.056738
879.989008	0.056744
880.173159	0.056732
880.357291	0.056788
880.541405	0.057104
880.725501	0.057003
880.909579	0.057236
881.093638	0.057373
881.277680	0.057670
881.461703	0.057620
881.645707	0.057493
881.829694	0.057592
882.013662	0.057576
882.197612	0.057450
882.381544	0.057524
882.565458	0.057530
882.749353	0.057582
882.933230	0.057275
883.117089	0.057455
883.300930	0.057571
883.484753	0.057518
883.668557	0.057305
883.852343	0.057118
884.036111	0.057319
884.219861	0.057222
884.403592	0.056870
884.587305	0.056993
884.771000	0.056850
884.954677	0.056984
885.138335	0.056847
885.321976	0.057063
885.505598	0.057508
885.689201	0.057329
885.872787	0.057194
886.056354	0.057376
886.239904	0.057549
886.423434	0.057889
886.606947	0.057625
886.790442	0.057651
886.973918	0.057713
887.157376	0.057462
887.340816	0.057545
887.524237	0.057598
887.707641	0.057617
887.891026	0.057173
888.074393	0.056977
888.257741	0.057161
888.441072	0.057250
888.624384	0.057003
888.807678	0.057155
888.990954	0.056995
889.174211	0.057313
889.357451	0.057379
889.540672	0.057567
889.723875	0.057459
889.907059	0.057286
890.090226	0.057330
890.273374	0.057541
890.456504	0.057210
890.639616	0.057179
890.822709	0.057340
891.005785	0.057074
891.188842	0.057189
891.371881	0.057113
891.554901	0.057276
891.737904	0.057390
891.920888	0.057388
892.103854	0.057504
892.286802	0.057724
892.469731	0.057419
892.652643	0.057433
892.835536	0.057162
893.018410	0.057316
893.201267	0.057203
893.384106	0.057028
893.566926	0.056752
893.749728	0.056959
893.932511	0.056761
894.115277	0.056864
894.298024	0.056856
894.480753	0.056919
894.663464	0.056662
894.846157	0.056533
895.028831	0.056705
895.211487	0.057010
895.394125	0.056761
895.576745	0.056543
895.759346	0.056713
895.941930	0.056992
896.124495	0.057343
896.307041	0.057425
896.489570	0.057253
896.672080	0.057418
896.854573	0.057475
897.037046	0.057787
897.219502	0.058317
897.401940	0.058003
897.584359	0.057773
897.766760	0.057132
897.949143	0.057079
898.131507	0.057134
898.313854	0.056720
898.496182	0.056505
898.678492	0.056137
898.860783	0.055813
899.043057	0.055865
899.225312	0.055838
899.407549	0.056099
899.589768	0.055999
899.771968	0.056307
899.954151	0.056535
900.136315	0.056499
900.318461	0.056469
900.500588	0.056311
900.682698	0.056232
900.864789	0.056315
901.046862	0.056420
901.228917	0.056346
901.410953	0.056238
901.592971	0.056029
901.774972	0.056008
901.956953	0.056061
902.138917	0.056095
902.320862	0.055552
902.502790	0.055150
902.684699	0.054847
902.866589	0.054879
903.048462	0.054942
903.230316	0.055105
903.412152	0.055013
903.593970	0.054909
903.775770	0.054669
903.957551	0.054997
904.139314	0.055150
904.321059	0.055232
904.502786	0.055370
904.684494	0.055083
904.866185	0.054804
905.047857	0.054801
905.229510	0.054522
905.411146	0.054217
905.592763	0.054228
905.774363	0.054097
905.955943	0.053679
906.137506	0.053287
906.319051	0.053176
906.500577	0.053042
906.682085	0.052896
906.863575	0.053091
907.045046	0.053304
907.226500	0.053096
907.407935	0.053442
907.589352	0.053605
907.770750	0.053446
907.952131	0.053358
908.133493	0.052758
908.314837	0.052883
908.496163	0.052514
908.677470	0.052246
908.858760	0.052206
909.040031	0.051670
909.221284	0.051606
909.402518	0.051935
909.583735	0.051582
909.764933	0.051817
909.946113	0.051459
910.127275	0.051547
910.308418	0.051637
910.489544	0.051830
910.670651	0.051692
910.851740	0.051707
911.032810	0.051429
911.213863	0.051408
911.394897	0.051478
911.575913	0.051383
911.756911	0.051108
911.937890	0.051157
912.118851	0.050619
912.299794	0.050859
912.480719	0.050633
912.661626	0.050785
912.842514	0.051226
913.023384	0.051128
913.204236	0.051028
913.385070	0.051448
913.565886	0.051355
913.746683	0.051612
913.927462	0.051217
914.108223	0.050931
914.288965	0.050426
914.469690	0.050136
914.650396	0.050019
914.831084	0.049802
915.011754	0.049252
915.192405	0.049253
915.373038	0.048929
915.553653	0.048981
915.734250	0.049161
915.914829	0.049255
916.095389	0.048873
916.275931	0.048876
916.456455	0.048777
916.636961	0.048585
916.817448	0.048434
916.997917	0.048169
917.178368	0.048194
917.358801	0.047708
917.539216	0.047672
917.719612	0.047949
917.899990	0.047248
918.080350	0.047259
918.260692	0.047270
918.441015	0.046807
918.621320	0.047092
918.801607	0.046498
918.981876	0.046334
919.162127	0.046141
919.342359	0.045883
919.522573	0.046060
919.702769	0.045496
919.882947	0.045282
920.063106	0.044960
920.243247	0.044199
920.423370	0.044105
920.603475	0.044127
920.783562	0.043751
920.963630	0.043811
921.143680	0.043705
921.323712	0.043698
921.503725	0.043406
921.683721	0.043436
921.863698	0.043639
922.043657	0.043720
922.223598	0.043729
922.403520	0.043468
922.583424	0.042866
922.763311	0.042748
922.943178	0.042654
923.123028	0.042913
923.302859	0.042667
923.482673	0.042651
923.662467	0.042416
923.842244	0.042585
924.022003	0.042585
924.201743	0.042499
924.381465	0.042199
924.561169	0.042157
924.740854	0.041860
924.920522	0.041359
925.100171	0.040870
925.279802	0.040545
925.459414	0.039779
925.639009	0.039112
925.818585	0.038821
925.998143	0.038684
926.177683	0.038242
926.357205	0.038122
926.536708	0.038339
926.716193	0.038599
926.895660	0.038450
927.075109	0.039032
927.254539	0.038994
927.433951	0.038838
927.613345	0.038846
927.792721	0.038496
927.972079	0.038051
928.151418	0.037907
928.330739	0.037162
928.510042	0.036726
928.689327	0.036032
928.868593	0.036009
929.047841	0.035999
929.227071	0.035540
929.406283	0.035765
929.585476	0.035480
929.764652	0.035633
929.943809	0.035566
930.122948	0.035325
930.302068	0.035054
930.481171	0.034941
930.660255	0.034300
930.839321	0.034077
931.018369	0.034195
931.197398	0.034483
931.376409	0.034250
931.555402	0.033645
931.734377	0.033362
931.913334	0.032780
932.092272	0.033107
932.271192	0.033839
932.450094	0.033789
932.628978	0.032893
932.807844	0.032358
932.986691	0.031809
933.165520	0.032070
933.344331	0.031928
933.523123	0.031886
933.701898	0.031166
933.880654	0.030124
934.059392	0.030256
934.238111	0.030277
934.416813	0.029949
934.595496	0.029626
934.774161	0.029675
934.952808	0.029365
935.131437	0.029800
935.310047	0.029158
935.488639	0.028729
935.667213	0.028109
935.845769	0.027652
936.024306	0.027519
936.202825	0.027889
936.381326	0.027571
936.559809	0.027553
936.738274	0.026207
936.916720	0.026352
937.095148	0.026051
937.273558	0.025794
937.451950	0.025379
937.630323	0.025394
937.808678	0.024623
937.987015	0.024654
938.165334	0.025010
938.343635	0.024842
938.521917	0.024564
938.700181	0.024422
938.878427	0.024209
939.056655	0.024280
939.234864	0.024183
939.413055	0.024245
939.591228	0.023427
939.769383	0.022834
939.947519	0.023258
940.125638	0.023451
940.303738	0.024013
940.481820	0.023740
940.659883	0.023466
940.837929	0.022284
941.015956	0.021291
941.193965	0.020716
941.371955	0.021003
941.549928	0.020490
941.727882	0.019402
941.905818	0.018173
942.083736	0.018033
942.261636	0.018409
942.439517	0.018506
942.617380	0.018297
942.795225	0.018788
942.973052	0.018172
943.150860	0.018127
943.328651	0.017811
943.506423	0.018219
943.684176	0.017009
943.861912	0.016638
944.039629	0.016872
944.217328	0.016704
944.395009	0.016343
944.572672	0.016213
944.750317	0.015765
944.927943	0.016771
945.105551	0.016303
945.283141	0.017519
945.460712	0.017317
945.638265	0.017805
945.815801	0.018773
945.993317	0.019349
946.170816	0.018716
946.348297	0.018985
946.525759	0.017921
946.703203	0.018357
946.880629	0.018021
947.058036	0.017360
947.235425	0.016664
947.412797	0.015939
947.590149	0.013594
947.767484	0.013035
947.944800	0.012978
948.122099	0.013500
948.299379	0.013861
948.476640	0.013222
948.653884	0.014097
948.831109	0.013486
949.008316	0.012885
949.185505	0.014234
949.362676	0.014691
949.539828	0.013693
949.716962	0.012923
949.894078	0.013420
950.071176	0.014539
950.248256	0.012821
950.425317	0.013839
950.602360	0.013911
950.779385	0.013543
950.956391	0.013142
951.133380	0.014537
951.310350	0.014095
951.487302	0.011978
951.664235	0.010295
951.841151	0.012080
952.018048	0.010853
952.194927	0.010788
952.371788	0.012861
952.548631	0.013476
952.725455	0.013468
952.902261	0.014337
953.079049	0.016124
953.255819	0.016980
953.432570	0.015762
953.609303	0.016152
953.786018	0.016723
953.962715	0.015059
954.139394	0.014695
954.316054	0.014067
954.492696	0.014571
954.669320	0.013093
954.845926	0.013892
955.022513	0.013712
955.199083	0.012882
955.375634	0.013450
955.552166	0.013545
955.728681	0.012792
955.905177	0.012474
956.081655	0.012548
956.258115	0.012540
956.434557	0.012675
956.610980	0.014650
956.787385	0.015024
956.963772	0.014372
957.140141	0.014506
957.316492	0.017034
957.492824	0.016802
957.669138	0.015326
957.845434	0.015939
958.021712	0.014726
958.197971	0.013315
958.374212	0.015083
958.550435	0.015464
958.726640	0.015298
958.902826	0.014307
959.078995	0.017133
959.255145	0.018613
959.431277	0.019083
959.607390	0.019101
959.783486	0.019502
959.959563	0.018387
960.135622	0.018661
960.311662	0.017311
960.487685	0.016670
960.663689	0.014873
960.839675	0.014789
961.015643	0.015580
961.191593	0.017268
961.367524	0.018845
961.543437	0.019490
961.719332	0.019760
961.895209	0.020998
962.071067	0.022784
962.246907	0.021359
962.422730	0.021672
962.598533	0.022332
962.774319	0.020962
962.950086	0.021199
963.125835	0.020467
963.301566	0.018730
963.477279	0.019562
963.652973	0.019171
963.828650	0.019763
964.004308	0.018286
964.179947	0.016805
964.355569	0.016616
964.531172	0.014228
964.706757	0.015231
964.882324	0.016502
965.057873	0.016216
965.233403	0.015655
965.408916	0.016342
965.584410	0.017611
965.759885	0.018338
965.935343	0.019585
966.110782	0.021384
966.286203	0.021558
966.461606	0.022744
966.636991	0.023029
966.812357	0.024625
966.987705	0.025022
967.163035	0.025698
967.338347	0.027091
967.513641	0.026952
967.688916	0.025719
967.864173	0.025734
968.039412	0.024034
968.214632	0.023466
968.389835	0.020702
968.565019	0.021264
968.740185	0.020822
968.915333	0.018991
969.090462	0.017875
969.265573	0.018423
969.440667	0.017402
969.615741	0.019157
969.790798	0.019402
969.965836	0.021726
970.140856	0.022758
970.315858	0.023092
970.490842	0.024261
970.665808	0.025902
970.840755	0.025237
971.015684	0.027411
971.190595	0.027612
971.365487	0.028531
971.540362	0.028816
971.715218	0.027464
971.890056	0.026741
972.064875	0.026311
972.239677	0.026464
972.414460	0.027531
972.589225	0.027166
972.763972	0.027004
972.938700	0.027581
973.113411	0.027110
973.288103	0.028743
973.462777	0.029724
973.637432	0.028495
973.812070	0.027973
973.986689	0.027905
974.161290	0.026162
974.335873	0.026806
974.510437	0.026359
974.684984	0.025591
974.859512	0.023695
975.034022	0.022492
975.208513	0.023752
975.382987	0.023465
975.557442	0.024237
975.731879	0.025295
975.906298	0.023838
976.080698	0.024410
976.255080	0.025275
976.429445	0.026744
976.603790	0.027207
976.778118	0.026439
976.952427	0.026401
977.126719	0.025939
977.300992	0.025958
977.475246	0.025928
977.649483	0.024501
977.823701	0.025494
977.997901	0.023927
978.172083	0.023950
978.346247	0.023922
978.520392	0.025053
978.694519	0.026341
978.868628	0.024736
979.042719	0.024096
979.216791	0.025081
979.390845	0.023152
979.564882	0.022926
979.738899	0.023361
979.912899	0.024626
980.086880	0.024841
980.260843	0.023719
980.434788	0.023537
980.608715	0.022616
980.782623	0.023081
980.956514	0.023743
981.130386	0.023110
981.304240	0.023706
981.478075	0.022072
981.651892	0.019436
981.825692	0.017901
981.999472	0.019086
982.173235	0.020786
982.346980	0.018897
982.520706	0.018637
982.694414	0.020345
982.868104	0.020179
983.041775	0.019669
983.215428	0.022058
983.389064	0.023417
983.562680	0.024006
983.736279	0.023171
983.909860	0.024294
984.083422	0.023581
984.256966	0.023524
984.430491	0.021947
984.603999	0.023566
984.777488	0.023183
984.950959	0.024301
985.124412	0.024171
985.297847	0.023658
985.471263	0.023250
985.644661	0.023682
985.818041	0.023160
985.991403	0.023708
986.164747	0.022705
986.338072	0.021625
986.511379	0.019862
986.684668	0.018994
986.857938	0.020278
987.031191	0.020078
987.204425	0.018814
987.377641	0.018775
987.550839	0.019668
987.724018	0.019161
987.897179	0.019673
988.070322	0.020415
988.243447	0.021360
988.416554	0.021085
988.589642	0.019070
988.762712	0.019362
988.935764	0.020442
989.108798	0.021330
989.281813	0.021844
989.454811	0.021305
989.627790	0.019731
989.800751	0.018716
989.973693	0.019646
990.146617	0.022451
990.319524	0.023117
990.492412	0.023173
990.665281	0.022791
990.838133	0.023495
991.010966	0.023217
991.183781	0.024862
991.356578	0.025104
991.529356	0.023926
991.702117	0.024328
991.874859	0.024409
992.047583	0.023106
992.220288	0.022444
992.392976	0.022626
992.565645	0.022890
992.738296	0.021806
992.910929	0.022513
993.083543	0.022066
993.256139	0.020918
993.428718	0.020940
993.601277	0.021257
993.773819	0.021219
993.946342	0.021345
994.118848	0.019959
994.291335	0.019374
994.463803	0.018022
994.636254	0.016966
994.808686	0.017114
994.981100	0.016308
995.153496	0.015656
995.325874	0.015358
995.498233	0.014643
995.670574	0.013725
995.842897	0.014356
996.015202	0.015939
996.187488	0.017581
996.359757	0.017031
996.532007	0.017020
996.704239	0.016820
996.876452	0.016716
997.048648	0.017568
997.220825	0.019152
997.392984	0.020047
997.565124	0.018876
997.737247	0.019602
997.909351	0.019805
998.081437	0.020979
998.253505	0.021622
998.425554	0.022310
998.597586	0.021786
998.769599	0.022517
998.941594	0.022134
999.113571	0.021798
999.285529	0.021232
999.457469	0.020954
999.629391	0.021260
999.801295	0.022562
999.973181	0.021211
1000.145048	0.020947
1000.316897	0.020713
1000.488728	0.022430
1000.660541	0.023240
1000.832335	0.021959
1001.004111	0.021579
1001.175869	0.020600
1001.347609	0.019553
1001.519331	0.020234
1001.691034	0.020443
1001.862719	0.021165
1002.034386	0.018966
1002.206035	0.018263
1002.377665	0.018928
1002.549277	0.018797
1002.720871	0.018971
1002.892447	0.017850
1003.064004	0.018513
1003.235544	0.018100
1003.407065	0.016812
1003.578568	0.015004
1003.750052	0.017220
1003.921519	0.017340
1004.092967	0.019845
1004.264397	0.020387
1004.435809	0.021453
1004.607202	0.020188
1004.778577	0.020516
1004.949934	0.020253
1005.121273	0.022255
1005.292594	0.020642
1005.463896	0.020818
1005.635180	0.019624
1005.806446	0.018520
1005.977694	0.018683
1006.148923	0.019392
1006.320135	0.019769
1006.491328	0.020487
1006.662503	0.021711
1006.833659	0.020877
1007.004798	0.021011
1007.175918	0.019371
1007.347020	0.021251
1007.518103	0.022403
1007.689169	0.022943
1007.860216	0.022113
1008.031245	0.022451
1008.202256	0.022595
1008.373248	0.022926
1008.544223	0.023216
1008.715179	0.022851
1008.886117	0.020894
1009.057036	0.019483
1009.227938	0.018698
1009.398821	0.018298
1009.569686	0.018237
1009.740533	0.016684
1009.911361	0.018511
1010.082172	0.017353
1010.252964	0.017780
1010.423738	0.019384
1010.594493	0.018958
1010.765231	0.019578
1010.935950	0.019139
1011.106651	0.018264
1011.277334	0.018784
1011.447998	0.016753
1011.618645	0.015506
1011.789273	0.016841
1011.959882	0.015032
1012.130474	0.014487
1012.301048	0.015181
1012.471603	0.015696
1012.642140	0.014541
1012.812658	0.012996
1012.983159	0.013101
1013.153641	0.015366
1013.324105	0.015486
1013.494551	0.016669
1013.664979	0.017226
1013.835388	0.016947
1014.005779	0.016567
1014.176152	0.018068
1014.346507	0.017752
1014.516843	0.017350
1014.687162	0.017666
1014.857462	0.016915
1015.027744	0.018473
1015.198007	0.020246
1015.368252	0.018765
1015.538480	0.019976
1015.708689	0.020422
1015.878879	0.021163
1016.049052	0.021420
1016.219206	0.019926
1016.389342	0.020205
1016.559460	0.017820
1016.729559	0.017243
1016.899641	0.018422
1017.069704	0.017657
1017.239749	0.017207
1017.409775	0.018322
1017.579784	0.018335
1017.749774	0.018141
1017.919746	0.018834
1018.089700	0.019443
1018.259635	0.018250
1018.429553	0.019162
1018.599452	0.018850
1018.769333	0.020129
1018.939195	0.019408
1019.109040	0.019785
1019.278866	0.020267
1019.448674	0.018489
1019.618464	0.017999
1019.788235	0.017582
1019.957989	0.014769
1020.127724	0.015192
1020.297441	0.015863
1020.467139	0.015152
1020.636820	0.014193
1020.806482	0.013956
1020.976126	0.015529
1021.145752	0.016709
1021.315359	0.017707
1021.484948	0.018686
1021.654519	0.017879
1021.824072	0.015876
1021.993607	0.016453
1022.163123	0.017847
1022.332621	0.018738
1022.502101	0.018350
1022.671563	0.016112
1022.841007	0.014981
1023.010432	0.015276
1023.179839	0.017081
1023.349228	0.017258
1023.518598	0.017860
1023.687951	0.016466
1023.857285	0.016363
1024.026601	0.015878
1024.195899	0.017104
1024.365178	0.018119
1024.534439	0.018148
1024.703682	0.016697
1024.872907	0.015645
1025.042114	0.015935
1025.211302	0.016216
1025.380472	0.015892
1025.549624	0.016489
1025.718758	0.015935
1025.887873	0.015116
1026.056970	0.015698
1026.226049	0.016965
1026.395110	0.017898
1026.564153	0.016596
1026.733177	0.017484
1026.902183	0.018005
1027.071171	0.016649
1027.240141	0.017546
1027.409092	0.017911
1027.578026	0.017475
1027.746940	0.015605
1027.915837	0.014342
1028.084716	0.015853
1028.253576	0.015757
1028.422418	0.014506
1028.591242	0.014109
1028.760048	0.012073
1028.928835	0.011810
1029.097604	0.011756
1029.266355	0.014136
1029.435088	0.015467
1029.603803	0.015212
1029.772499	0.013631
1029.941177	0.014568
1030.109837	0.015168
1030.278478	0.017448
1030.447102	0.017111
1030.615707	0.015620
1030.784294	0.012515
1030.952863	0.011046
1031.121413	0.009870
1031.289945	0.011174
1031.458460	0.011434
1031.626955	0.014517
1031.795433	0.014355
1031.963892	0.016648
1032.132334	0.018150
1032.300756	0.019658
1032.469161	0.020187
1032.637548	0.019334
1032.805916	0.019213
1032.974266	0.017023
1033.142598	0.013772
1033.310911	0.013353
1033.479207	0.011216
1033.647484	0.009574
1033.815743	0.009197
1033.983983	0.011013
1034.152206	0.011191
1034.320410	0.010763
1034.488596	0.010618
1034.656764	0.011696
1034.824914	0.012191
1034.993045	0.012248
1035.161158	0.013138
1035.329253	0.014504
1035.497330	0.012677
1035.665388	0.014451
1035.833428	0.014068
1036.001450	0.015344
1036.169454	0.016173
1036.337440	0.015759
1036.505407	0.016351
1036.673356	0.017523
1036.841287	0.016808
1037.009200	0.016668
1037.177094	0.017531
1037.344970	0.018641
1037.512828	0.017459
1037.680668	0.015694
1037.848489	0.015469
1038.016293	0.014672
1038.184078	0.014131
1038.351845	0.013984
1038.519593	0.014820
1038.687324	0.012968
1038.855036	0.013625
1039.022730	0.014715
1039.190406	0.016127
1039.358063	0.016427
1039.525702	0.017701
1039.693323	0.016761
1039.860926	0.015290
1040.028511	0.016080
1040.196077	0.016846
1040.363625	0.015473
1040.531155	0.016318
1040.698667	0.015810
1040.866161	0.015909
1041.033636	0.016210
1041.201093	0.016433
1041.368532	0.016153
1041.535952	0.016146
1041.703355	0.015595
1041.870739	0.016621
1042.038105	0.016615
1042.205452	0.015369
1042.372782	0.015472
1042.540093	0.014378
1042.707386	0.014529
1042.874661	0.015862
1043.041918	0.014250
1043.209156	0.013493
1043.376376	0.012404
1043.543578	0.012212
1043.710762	0.013259
1043.877927	0.012628
1044.045074	0.012583
1044.212203	0.012840
1044.379314	0.013701
1044.546407	0.012930
1044.713481	0.014886
1044.880537	0.014568
1045.047575	0.014526
1045.214595	0.014085
1045.381596	0.013954
1045.548579	0.014224
1045.715544	0.014853
1045.882491	0.014195
1046.049420	0.016946
1046.216330	0.016270
1046.383222	0.018038
1046.550096	0.019453
1046.716951	0.021026
1046.883789	0.020915
1047.050608	0.020729
1047.217409	0.019127
1047.384192	0.018375
1047.550956	0.018069
1047.717703	0.017740
1047.884431	0.016563
1048.051140	0.015452
1048.217832	0.013409
1048.384505	0.012703
1048.551161	0.012597
1048.717798	0.015548
1048.884416	0.016980
1049.051017	0.016573
1049.217599	0.016041
1049.384163	0.015443
1049.550709	0.014290
1049.717237	0.015093
1049.883746	0.017033
1050.050237	0.016849
1050.216710	0.015335
1050.383165	0.015363
1050.549601	0.013503
1050.716019	0.013250
1050.882420	0.014412
1051.048801	0.014361
1051.215165	0.015314
1051.381510	0.014097
1051.547837	0.013332
1051.714146	0.010793
1051.880437	0.010016
1052.046709	0.011019
1052.212964	0.012082
1052.379200	0.011212
1052.545417	0.011624
1052.711617	0.011319
1052.877798	0.011547
1053.043961	0.013682
1053.210106	0.015783
1053.376233	0.016317
1053.542341	0.016650
1053.708432	0.016291
1053.874504	0.019373
1054.040557	0.019033
1054.206593	0.018478
1054.372610	0.020118
1054.538609	0.018383
1054.704590	0.018294
1054.870553	0.018751
1055.036497	0.018344
1055.202424	0.018800
1055.368331	0.016780
1055.534221	0.018879
1055.700093	0.018303
1055.865946	0.016523
1056.031781	0.017241
1056.197598	0.017874
1056.363397	0.015595
1056.529177	0.016334
1056.694939	0.016002
1056.860683	0.014530
1057.026409	0.012439
1057.192116	0.012609
1057.357806	0.012052
1057.523477	0.012539
1057.689130	0.013247
1057.854764	0.015141
1058.020381	0.014796
1058.185979	0.014710
1058.351559	0.014867
1058.517120	0.016231
1058.682664	0.015285
1058.848189	0.016462
1059.013696	0.016484
1059.179185	0.014406
1059.344656	0.013534
1059.510108	0.013291
1059.675542	0.011140
1059.840958	0.011649
1060.006356	0.011527
1060.171735	0.010931
1060.337096	0.009622
1060.502439	0.008669
1060.667764	0.009288
1060.833071	0.009101
1060.998359	0.009883
1061.163629	0.011117
1061.328881	0.010534
1061.494115	0.008048
1061.659330	0.009117
1061.824527	0.011065
1061.989706	0.012274
1062.154867	0.012154
1062.320010	0.013307
1062.485134	0.013482
1062.650240	0.015739
1062.815328	0.016756
1062.980398	0.017795
1063.145449	0.017019
1063.310482	0.015957
1063.475497	0.016796
1063.640494	0.016769
1063.805473	0.016426
1063.970433	0.014853
1064.135375	0.012608
1064.300299	0.011918
1064.465204	0.011459
1064.630092	0.012965
1064.794961	0.013075
1064.959812	0.010363
1065.124645	0.011548
1065.289459	0.011320
1065.454256	0.013585
1065.619034	0.014125
1065.783793	0.013342
1065.948535	0.014327
1066.113258	0.013661
1066.277964	0.013372
1066.442651	0.014329
1066.607319	0.012527
1066.771970	0.013068
1066.936602	0.011564
1067.101216	0.012273
1067.265812	0.014706
1067.430389	0.015625
1067.594949	0.016759
1067.759490	0.016667
1067.924013	0.015695
1068.088518	0.016552
1068.253004	0.016492
1068.417472	0.015424
1068.581922	0.014425
1068.746354	0.014717
1068.910768	0.014087
1069.075163	0.015093
1069.239540	0.015394
1069.403899	0.014334
1069.568240	0.016342
1069.732562	0.015586
1069.896866	0.017112
1070.061152	0.018040
1070.225420	0.016554
1070.389670	0.015744
1070.553901	0.013968
1070.718114	0.014831
1070.882309	0.017317
1071.046486	0.013709
1071.210644	0.015621
1071.374784	0.015902
1071.538906	0.015868
1071.703010	0.015981
1071.867096	0.017981
1072.031163	0.017984
1072.195212	0.016316
1072.359243	0.015383
1072.523256	0.018498
1072.687250	0.017849
1072.851226	0.015519
1073.015184	0.014006
1073.179124	0.014025
1073.343045	0.012146
1073.506949	0.012410
1073.670834	0.013567
1073.834701	0.013688
1073.998549	0.012890
1074.162380	0.010945
1074.326192	0.013066
1074.489986	0.013895
1074.653761	0.015468
1074.817519	0.017097
1074.981258	0.016904
1075.144979	0.016167
1075.308682	0.014835
1075.472367	0.013073
1075.636033	0.013587
1075.799681	0.012868
1075.963311	0.013822
1076.126923	0.013132
1076.290516	0.009657
1076.454092	0.009463
1076.617649	0.009453
1076.781187	0.012762
1076.944708	0.014927
1077.108210	0.015562
1077.271695	0.017041
1077.435160	0.017158
1077.598608	0.015872
1077.762038	0.016656
1077.925449	0.016869
1078.088842	0.019017
1078.252217	0.017670
1078.415573	0.015792
1078.578912	0.014970
1078.742232	0.013164
1078.905534	0.011227
1079.068817	0.011945
1079.232083	0.013986
1079.395330	0.012589
1079.558559	0.010623
1079.721770	0.010381
1079.884962	0.010466
1080.048136	0.010157
1080.211293	0.011509
1080.374430	0.012660
1080.537550	0.010576
1080.700651	0.007800
1080.863735	0.009336
1081.026800	0.011157
1081.189846	0.011783
1081.352875	0.011622
1081.515885	0.011677
1081.678877	0.010582
1081.841851	0.012318
1082.004807	0.012856
1082.167744	0.014807
1082.330663	0.015926
1082.493564	0.014392
1082.656447	0.012818
1082.819312	0.013164
1082.982158	0.012664
1083.144986	0.011640
1083.307796	0.010792
1083.470587	0.009969
1083.633361	0.012735
1083.796116	0.009190
1083.958853	0.007909
1084.121571	0.007706
1084.284272	0.007530
1084.446954	0.008715
1084.609618	0.009344
1084.772264	0.010081
1084.934892	0.012244
1085.097501	0.009326
1085.260092	0.013298
1085.422665	0.013965
1085.585220	0.014346
1085.747756	0.014442
1085.910274	0.016143
1086.072774	0.017494
1086.235256	0.017097
1086.397720	0.018118
1086.560165	0.017372
1086.722592	0.016616
1086.885001	0.017475
1087.047392	0.018592
1087.209764	0.017540
1087.372119	0.015918
1087.534455	0.016763
1087.696772	0.014017
1087.859072	0.012311
1088.021353	0.014763
1088.183616	0.014137
1088.345861	0.013278
1088.508088	0.012527
1088.670296	0.013943
1088.832486	0.014792
1088.994658	0.013639
1089.156812	0.015036
1089.318948	0.016982
1089.481065	0.017777
1089.643164	0.015947
1089.805245	0.017243
1089.967308	0.019828
1090.129352	0.018461
1090.291378	0.016105
1090.453386	0.015588
1090.615376	0.015586
1090.777347	0.011720
1090.939301	0.010710
1091.101236	0.012047
1091.263153	0.009160
1091.425051	0.007795
1091.586932	0.009389
1091.748794	0.010392
1091.910638	0.010359
1092.072463	0.011462
1092.234271	0.015428
1092.396060	0.013799
1092.557831	0.015258
1092.719584	0.017158
1092.881319	0.016376
1093.043035	0.015438
1093.204733	0.016971
1093.366413	0.017000
1093.528075	0.013765
1093.689718	0.011516
1093.851343	0.010508
1094.012950	0.007750
1094.174539	0.008497
1094.336110	0.008517
1094.497662	0.008421
1094.659196	0.006422
1094.820712	0.008309
1094.982210	0.009740
1095.143689	0.007857
1095.305151	0.009902
1095.466594	0.010699
1095.628018	0.009152
1095.789425	0.010303
1095.950813	0.011341
1096.112183	0.009691
1096.273535	0.009266
1096.434869	0.009701
1096.596184	0.012232
1096.757482	0.009904
1096.918761	0.011184
1097.080021	0.014936
1097.241264	0.012003
1097.402488	0.012273
1097.563694	0.016418
1097.724882	0.015011
1097.886052	0.016177
1098.047203	0.016445
1098.208336	0.018616
1098.369451	0.017590
1098.530548	0.014033
1098.691627	0.016044
1098.852687	0.018388
1099.013729	0.015407
1099.174753	0.014028
1099.335758	0.012460
1099.496746	0.010939
1099.657715	0.015083
1099.818666	0.015021
1099.979599	0.016251
1100.140513	0.019768
1100.301409	0.018166
1100.462287	0.016086
1100.623147	0.015991
1100.783989	0.015348
1100.944812	0.017473
1101.105617	0.012269
1101.266404	0.014451
1101.427173	0.011229
1101.587923	0.008473
1101.748656	0.010000
1101.909370	0.014269
1102.070066	0.014543
1102.230743	0.015752
1102.391403	0.015427
1102.552044	0.016497
1102.712667	0.016387
1102.873271	0.019670
1103.033858	0.016057
1103.194426	0.013150
1103.354976	0.010626
1103.515508	0.011925
1103.676021	0.012039
1103.836517	0.009044
1103.996994	0.008102
1104.157453	0.006646
1104.317893	0.005101
1104.478316	0.008778
1104.638720	0.012284
1104.799106	0.012874
1104.959474	0.017236
1105.119823	0.018553
1105.280155	0.019768
1105.440468	0.019813
1105.600763	0.017212
1105.761039	0.016762
1105.921298	0.014583
1106.081538	0.013025
1106.241760	0.014274
1106.401964	0.009004
1106.562149	0.008050
1106.722316	0.008713
1106.882465	0.010253
1107.042596	0.011666
1107.202709	0.014216
1107.362803	0.015137
1107.522879	0.013743
1107.682937	0.014770
1107.842977	0.016361
1108.002999	0.014283
1108.163002	0.019881
1108.322987	0.019697
1108.482954	0.019932
1108.642902	0.018823
1108.802833	0.016816
1108.962745	0.012127
1109.122639	0.010721
1109.282515	0.009476
1109.442372	0.011721
1109.602211	0.008374
1109.762032	0.007957
1109.921835	0.009035
1110.081620	0.008578
1110.241386	0.010754
1110.401134	0.014690
1110.560864	0.015186
1110.720576	0.014766
1110.880269	0.013275
1111.039945	0.011279
1111.199602	0.009627
1111.359240	0.005147
1111.518861	0.005578
1111.678463	0.006147
1111.838047	0.006230
1111.997613	0.006634
1112.157161	0.007935
1112.316690	0.010330
1112.476202	0.011794
1112.635695	0.010977
1112.795169	0.014733
1112.954626	0.012870
1113.114064	0.011254
1113.273484	0.012619
1113.432886	0.011711
1113.592270	0.016286
1113.751635	0.016829
1113.910983	0.016134
1114.070312	0.018970
1114.229622	0.021145
1114.388915	0.022380
1114.548189	0.020656
1114.707445	0.018491
1114.866683	0.019716
1115.025903	0.016134
1115.185104	0.013545
1115.344287	0.011492
1115.503452	0.012724
1115.662599	0.014482
1115.821727	0.013395
1115.980838	0.016746
1116.139930	0.019989
1116.299004	0.019515
1116.458059	0.018099
1116.617097	0.018294
1116.776116	0.021006
1116.935117	0.021500
1117.094099	0.016925
1117.253064	0.017302
1117.412010	0.015970
1117.570938	0.015485
1117.729848	0.014569
1117.888740	0.014389
1118.047613	0.012416
1118.206468	0.013058
1118.365305	0.011624
1118.524124	0.011932
1118.682924	0.012940
1118.841707	0.016237
1119.000471	0.012667
1119.159216	0.016284
1119.317944	0.014992
1119.476653	0.020248
1119.635344	0.021309
1119.794017	0.022070
1119.952672	0.022813
1120.111308	0.025586
1120.269927	0.023495
1120.428527	0.026917
1120.587108	0.026596
1120.745672	0.028735
1120.904217	0.025863
1121.062744	0.022363
1121.221253	0.018741
1121.379744	0.020706
1121.538216	0.015682
1121.696671	0.011858
1121.855107	0.009952
1122.013524	0.005831
1122.171924	0.010714
1122.330305	0.009037
1122.488668	0.009859
1122.647013	0.012812
1122.805340	0.015133
1122.963648	0.018872
1123.121938	0.020434
1123.280210	0.023025
1123.438464	0.025577
1123.596700	0.021012
1123.754917	0.022671
1123.913116	0.023566
1124.071297	0.021669
1124.229459	0.019967
1124.387604	0.015329
1124.545730	0.019325
1124.703838	0.015426
1124.861928	0.016886
1125.019999	0.017558
1125.178052	0.019778
1125.336088	0.016352
1125.494104	0.015482
1125.652103	0.011310
1125.810083	0.016761
1125.968045	0.015095
1126.125989	0.014413
1126.283915	0.011771
1126.441823	0.013496
1126.599712	0.012825
1126.757583	0.015675
1126.915436	0.017283
1127.073270	0.019298
1127.231087	0.022507
1127.388885	0.024249
1127.546665	0.030739
1127.704426	0.032643
1127.862170	0.029140
1128.019895	0.029349
1128.177602	0.030565
1128.335291	0.030102
1128.492961	0.028112
1128.650614	0.024220
1128.808248	0.019966
1128.965864	0.016062
1129.123461	0.012992
1129.281041	0.011911
1129.438602	0.011217
1129.596145	0.008361
1129.753670	0.005456
1129.911176	0.008514
1130.068665	0.006327
1130.226135	0.007669
1130.383587	0.009847
1130.541020	0.011648
1130.698436	0.013339
1130.855833	0.011027
1131.013212	0.012803
1131.170573	0.015802
1131.327915	0.010852
1131.485239	0.011096
1131.642545	0.010794
1131.799833	0.003225
1131.957103	0.002783
1132.114354	0.000412
1132.271588	0.002618
1132.428803	-0.001189
1132.585999	0.003089
1132.743178	0.008938
1132.900338	0.010735
1133.057480	0.012957
1133.214604	0.021258
1133.371710	0.017557
1133.528797	0.015013
1133.685866	0.016529
1133.842917	0.020069
1133.999950	0.020692
1134.156964	0.013345
1134.313960	0.011341
1134.470938	0.014596
1134.627898	0.014761
1134.784840	0.021357
1134.941763	0.026553
1135.098668	0.029816
1135.255555	0.026826
1135.412424	0.022074
1135.569274	0.021002
1135.726107	0.017138
1135.882921	0.011607
1136.039716	0.010155
1136.196494	0.009789
1136.353253	0.009007
1136.509995	0.003551
1136.666717	0.007723
1136.823422	0.008818
1136.980109	0.015773
1137.136777	0.019859
1137.293427	0.018563
1137.450059	0.016083
1137.606672	0.013694
1137.763267	0.014113
1137.919844	0.013183
1138.076403	0.012017
1138.232944	0.009740
1138.389466	0.014258
1138.545971	0.016662
1138.702457	0.014959
1138.858924	0.013913
1139.015374	0.014340
1139.171805	0.016487
1139.328218	0.014221
1139.484613	0.014251
1139.640990	0.021322
1139.797348	0.012435
1139.953688	0.009319
1140.110010	0.009293
1140.266314	0.011670
1140.422600	0.013501
1140.578867	0.008172
1140.735116	0.015885
1140.891347	0.016227
1141.047559	0.011377
1141.203754	0.017769
1141.359930	0.018099
1141.516088	0.022019
1141.672228	0.023536
1141.828349	0.021519
1141.984452	0.020531
1142.140537	0.013557
1142.296604	0.008015
1142.452653	0.010202
1142.608683	0.008536
1142.764695	0.005885
1142.920689	0.008020
1143.076665	0.004663
1143.232622	0.004734
1143.388562	0.008478
1143.544483	0.012155
1143.700385	0.018398
1143.856270	0.010404
1144.012136	0.008836
1144.167985	0.010809
1144.323814	0.010802
1144.479626	0.012814
1144.635420	0.011292
1144.791195	0.010602
1144.946952	0.009764
1145.102691	0.009554
1145.258411	0.011359
1145.414113	0.006025
1145.569798	0.011963
1145.725463	0.011246
1145.881111	0.015178
1146.036741	0.017736
1146.192352	0.023277
1146.347945	0.019240
1146.503519	0.014961
1146.659076	0.014481
1146.814614	0.022174
1146.970134	0.018703
1147.125636	0.015523
1147.281120	0.012070
1147.436585	0.012371
1147.592032	0.010159
1147.747461	0.016420
1147.902872	0.015124
1148.058265	0.020665
1148.213639	0.017333
1148.368995	0.018580
1148.524333	0.020801
1148.679653	0.018059
1148.834954	0.011977
1148.990237	0.007596
1149.145502	0.010295
1149.300749	0.017577
1149.455977	0.014743
1149.611188	0.016391
1149.766380	0.019765
1149.921553	0.017018
1150.076709	0.021189
1150.231846	0.027646
1150.386966	0.030507
1150.542066	0.026181
1150.697149	0.021919
1150.852214	0.021874
1151.007260	0.014497
1151.162288	0.017427
1151.317298	0.016063
1151.472289	0.011915
1151.627263	0.008914
1151.782218	0.010199
1151.937155	0.008651
1152.092073	0.019031
1152.246974	0.026689
1152.401856	0.036488
1152.556720	0.025337
1152.711566	0.030329
1152.866393	0.037332
1153.021203	0.032990
1153.175994	0.028059
1153.330767	0.031303
1153.485521	0.024986
1153.640258	0.020960
1153.794976	0.020094
1153.949676	0.023408
1154.104358	0.020149
1154.259021	0.010946
1154.413667	0.011362
1154.568294	0.017639
1154.722903	0.017574
1154.877493	0.019793
1155.032066	0.014372
1155.186620	0.015863
1155.341156	0.016800
1155.495674	0.016984
1155.650173	0.013024
1155.804654	0.028227
1155.959118	0.022512
1156.113562	0.015984
1156.267989	0.014870
1156.422397	0.018291
1156.576788	0.013849
1156.731160	0.009876
1156.885513	0.008490
1157.039849	0.019530
1157.194166	0.012342
1157.348465	0.020809
1157.502746	0.026266
1157.657009	0.022892
1157.811253	0.022187
1157.965479	0.018507
1158.119687	0.022010
1158.273877	0.021079
1158.428048	0.015881
1158.582201	0.013729
1158.736337	0.009827
1158.890453	0.009995
1159.044552	0.006714
1159.198632	0.000962
1159.352694	0.011779
1159.506738	0.003215
1159.660764	0.003735
1159.814771	0.005594
1159.968761	-0.001084
1160.122732	-0.009049
1160.276685	-0.013457
1160.430619	-0.005783
1160.584535	-0.000645
1160.738434	-0.004107
1160.892313	0.009059
1161.046175	0.015395
1161.200019	0.012870
1161.353844	0.024342
1161.507651	0.031049
1161.661440	0.025050
1161.815210	0.010249
1161.968962	0.011711
1162.122697	0.010629
1162.276412	0.003755
1162.430110	0.011394
1162.583789	0.014121
1162.737451	0.001151
1162.891094	-0.000890
1163.044718	0.003200
1163.198325	0.009342
1163.351913	0.021354
1163.505483	0.023263
1163.659035	0.024347
1163.812569	0.010174
1163.966084	0.011924
1164.119581	0.015608
1164.273060	0.021053
1164.426521	0.025569
1164.579964	0.028331
1164.733388	0.010144
1164.886794	0.010763
1165.040182	0.007144
1165.193551	0.005768
1165.346903	0.001093
1165.500236	0.005087
1165.653551	-0.001724
1165.806848	0.002005
1165.960126	-0.006429
1166.113386	-0.000177
1166.266628	-0.000991
1166.419852	0.001347
1166.573058	0.007059
1166.726245	0.005635
1166.879414	0.013936
1167.032565	0.015374
1167.185698	0.013298
1167.338812	0.026187
1167.491909	0.032745
1167.644987	0.031255
1167.798046	0.036783
1167.951088	0.037531
1168.104111	0.052461
1168.257117	0.041030
1168.410103	0.046007
1168.563072	0.043817
1168.716023	0.036478
1168.868955	0.033760
1169.021869	0.018574
1169.174765	0.006064
1169.327642	0.004803
1169.480501	-0.006547
1169.633343	-0.008488
1169.786165	-0.000563
1169.938970	-0.001092
1170.091757	0.005018
1170.244525	-0.003847
1170.397275	0.015142
1170.550007	0.022364
1170.702720	0.014037
1170.855415	0.019686
1171.008092	0.027532
1171.160751	0.020424
1171.313392	0.025502
1171.466014	0.041586
1171.618619	0.056121
1171.771205	0.056121
1171.923772	0.056121
