sample name	sample
index	264
start time	 02-25-2021  11:12:24 AM
880	-0.013574
Peak Time (s)	91.035
Peak Height 	-0.01357
calc peak height	90,93
Baseline Time (s)	9.537
Baseline Value 	-0.005372
subtract baseline	10,4
Abs	-0.009141
Peak Time (s)	91.535
Peak Height 	-0.009141
calc peak height	90,93
Baseline Time (s)	10.536
Baseline Value 	0.004562
subtract baseline	10,3
PK_550	-0.006970
Peak Time (s)	91.035
Peak Height 	-0.00697
calc peak height	90,93
Baseline Time (s)	9.537
Baseline Value 	7.3039E-5
subtract baseline	10,2
PK_880	-0.009939
Peak Time (s)	91.535
Peak Height 	-0.009939
calc peak height	90,93
Baseline Time (s)	11.537
Baseline Value 	0.003097
subtract baseline	10,1


Time (s)	A880-A510	A880-A775	A880-A975	A880	I510	I775	I975	I880	
0.037500	-0.001132	0.001000	-0.002349	0.003148	6862.627903	46025.252629	3961.395261	24200.670402
0.535500	-0.003487	0.000125	-0.006385	0.004891	6825.275262	45766.131883	3946.775142	24115.253119
1.035500	-0.004002	-0.000385	-0.005117	0.003312	6834.944249	45871.833515	3953.955177	24192.652141
1.538000	-0.005666	-0.001051	-0.006563	0.006380	6792.148970	45503.926685	3942.594537	24042.545810
2.036000	-0.000304	0.000106	-0.005031	0.000908	6890.821700	46159.141389	3960.271202	24310.978292
2.536000	-0.001609	0.000194	-0.004829	0.001266	6875.518173	46132.331444	3959.872617	24293.311274
3.036500	-0.002104	-0.000118	-0.011007	0.005713	6830.371546	45661.189686	3933.179070	24075.094671
3.537500	-0.001604	-0.000311	-0.001265	0.002355	6865.564495	45973.892128	3966.186163	24239.669816
4.037500	-0.001239	0.000570	-0.004629	0.001035	6881.042681	46192.817931	3960.971131	24304.725401
4.535000	-0.001811	-0.000744	-0.006619	0.000041	6884.921887	46160.827913	3958.437436	24353.810186
5.035000	-0.002736	0.000108	-0.004327	-0.000138	6878.063351	46263.696077	3964.730326	24362.676002
5.535500	0.001521	0.000874	0.001524	0.000847	6908.249247	46241.817710	3977.230277	24314.002206
6.036000	-0.000921	-0.000417	-0.003896	-0.000219	6895.533883	46219.475294	3966.040483	24366.717242
6.536000	-0.000385	-0.000561	-0.004261	-0.000255	6900.812188	46208.551181	3965.197422	24368.453527
7.036500	-0.000622	0.000404	0.000074	0.000596	6890.766363	46219.932109	3974.139097	24326.388207
7.536500	-0.000435	-0.000157	-0.007073	0.000066	6897.383439	46216.876204	3957.221645	24352.578205
8.037000	0.000018	-0.000186	-0.001486	-0.000398	6905.860151	46260.280440	3972.680023	24375.536400
8.537000	0.000220	0.000033	0.003450	-0.000045	6904.466091	46246.919156	3984.536696	24358.105552
9.035000	-0.002207	0.000041	-0.003811	-0.000473	6886.008428	46290.473705	3966.906387	24379.264717
9.537500	0.001085	0.000000	-0.002008	0.000000	6912.062789	46239.137979	3970.316951	24355.856514
10.035000	-0.001193	-0.000472	0.001694	-0.000639	6896.896914	46255.780737	3981.518089	24387.492006
10.536000	0.000513	0.000378	0.000000	0.000311	6903.888013	46245.872903	3974.682828	24340.492202
11.036000	-0.002031	-0.000626	-0.008569	0.004602	6841.141897	45720.651014	3942.025105	24129.417970
11.536500	0.000000	-0.000013	0.004242	0.000183	6900.321710	46219.557638	3986.001329	24346.804591
12.036500	-0.000867	0.000467	-0.003130	0.000572	6888.732019	46228.636695	3965.977154	24327.573835
12.537000	0.001746	0.000846	-0.001790	0.000215	6916.200994	46302.143906	3970.325369	24345.245330
13.040000	-0.000146	0.000923	-0.003384	0.000286	6898.026638	46302.789632	3966.058524	24341.725803
13.537500	-0.001079	-0.000994	-0.001417	-0.000521	6896.850865	46191.920489	3973.173267	24381.625235
14.035000	-0.000668	0.000089	-0.002019	0.002733	6870.692746	45976.167028	3963.296040	24221.104718
14.535000	-0.001329	0.000444	-0.004111	0.002256	6868.990329	46058.616058	3959.180503	24244.524379
15.035000	-0.003819	-0.000883	-0.000628	0.004849	6822.646732	45670.904783	3961.445526	24117.310941
15.536000	0.000510	0.000364	0.000498	-0.000160	6908.216489	46291.489728	3977.181889	24363.789798
16.036000	-0.000705	-0.000091	-0.005607	-0.000280	6898.091512	46258.029435	3961.828170	24369.719472
16.536500	-0.001323	0.000262	-0.004593	0.000069	6889.163701	46258.438953	3963.525792	24352.463029
17.036500	-0.004444	-0.000510	-0.007074	0.004936	6816.201993	45699.091765	3944.931909	24113.046828
17.537000	-0.001264	0.000425	-0.006895	0.001127	6879.959104	46169.092840	3954.982392	24300.153897
18.034500	-0.000089	0.000868	0.000904	0.002016	6882.595638	46124.796782	3972.621944	24256.381711
18.535000	-0.002051	-0.000375	-0.001765	0.001171	6872.322781	46085.165571	3967.935615	24297.996456
19.037500	-0.001142	-0.000006	-0.000838	0.003302	6861.122922	45910.288265	3964.855574	24193.128920
19.535500	-0.001721	0.000223	0.001002	0.001346	6873.752019	46127.180979	3974.595830	24289.357149
20.035500	-0.000421	0.000600	-0.000997	0.001922	6880.397554	46107.400375	3967.980698	24260.967742
20.536000	-0.001473	0.000333	-0.001727	0.001629	6873.437633	46110.055679	3966.862957	24275.442873
21.036500	-0.002654	0.000511	-0.003452	0.003352	6846.853860	45956.573650	3958.070490	24190.659902
21.536000	-0.001904	0.000163	-0.002871	0.001676	6869.045271	46088.378766	3963.817015	24273.093277
22.036500	-0.002398	0.000702	0.004018	0.001615	6865.071497	46148.078773	3981.696682	24276.095142
22.537000	-0.000666	-0.000582	-0.002912	0.000887	6887.680113	46092.888521	3965.730033	24312.046758
23.037500	-0.001687	0.000723	-0.001668	0.002950	6859.362598	46017.486429	3963.636167	24210.419296
23.535000	-0.002624	-0.000225	-0.001249	0.001130	6867.452787	46104.117618	3969.363670	24300.030991
24.035000	-0.002317	-0.000479	0.000333	0.001052	6870.974869	46086.590435	3973.630981	24303.861065
24.535500	-0.002116	-0.000017	-0.004005	0.001340	6870.174798	46103.859382	3961.782348	24289.647577
25.035500	-0.000745	-0.000171	-0.004671	0.002642	6870.816366	45959.302362	3956.780542	24225.553730
25.536000	-0.002329	0.000084	-0.008998	0.001192	6869.583922	46128.722336	3949.510118	24296.981293
26.036000	-0.000636	0.000635	-0.002784	0.002228	6875.621832	46080.517424	3962.631417	24245.937417
26.537000	-0.002598	0.000395	-0.001302	0.001428	6864.951830	46136.103059	3968.463958	24285.313947
27.037000	-0.001152	-0.000059	-0.002166	0.001392	6878.564254	46094.615383	3966.345063	24287.127815
27.537500	0.000325	0.001249	0.000669	-0.000019	6905.196941	46365.834195	3977.259953	24356.812654
28.037000	0.000845	-0.000087	-0.005812	-0.000266	6912.301383	46257.063254	3961.271666	24369.026862
28.538000	-0.000722	-0.000201	-0.003283	0.000114	6894.293435	46207.760013	3966.758900	24350.241303
29.035000	0.001518	0.000761	-0.003916	0.000361	6912.728123	46279.076663	3964.508526	24338.010247
29.535500	0.000049	0.000557	0.001711	0.000684	6896.144868	46226.473398	3978.134723	24322.037705
30.036000	-0.001088	0.000005	0.003527	0.000363	6888.614625	46203.394033	3983.673425	24337.889711
30.536000	0.000375	0.000649	0.002092	0.000583	6900.088305	46245.645685	3979.381017	24327.015509
31.036500	-0.003759	-0.000623	-0.004103	0.002676	6842.950049	45911.262631	3958.136385	24223.894333
31.537000	-0.001162	0.000002	-0.003523	0.000691	6884.910325	46170.394052	3964.666153	24321.680586
32.037000	-0.001083	-0.000124	-0.003519	0.000043	6891.616929	46222.486009	3966.334477	24353.716518
32.537500	0.000129	-0.000241	-0.002203	-0.000020	6903.392050	46217.073922	3969.866002	24356.834192
33.040000	-0.000090	-0.000314	0.000104	0.000649	6895.190939	46143.228055	3974.080949	24323.791527
33.535000	0.001500	0.001349	0.001694	-0.000526	6920.792472	46426.685084	3981.225455	24381.893278
34.035500	-0.002995	0.000138	-0.000414	0.001684	6858.971629	46085.092255	3970.084566	24272.700275
34.535500	-0.001880	0.000284	-0.002606	0.002340	6863.179450	46034.499979	3962.800542	24240.413378
35.036000	-0.003075	0.000435	-0.002776	0.003304	6843.453274	45953.808939	3959.911245	24193.021351
35.536500	-0.001484	-0.000289	-0.002886	0.002198	6868.113378	45991.675660	3962.449071	24247.405080
36.036500	-0.002402	0.000685	0.004437	0.002555	6856.436580	46052.982851	3980.349549	24229.856162
36.536500	-0.002866	-0.000900	-0.004921	0.001575	6861.154939	45992.865836	3958.855180	24278.079681
37.037000	-0.002382	0.000058	-0.004942	0.002138	6860.427152	46032.005369	3957.370785	24250.333157
37.537500	-0.001497	-0.000175	0.000366	0.002211	6867.869004	46001.712768	3970.736038	24246.775823
38.038000	-0.001040	-0.000137	-0.001013	0.002548	6868.971998	45972.050202	3966.335527	24230.173513
38.535000	-0.002282	0.000147	0.000651	0.002553	6857.554347	45999.758927	3970.589376	24229.947966
39.035500	-0.002376	-0.000582	-0.005681	0.002474	6857.416152	45935.300249	3954.648135	24233.815616
39.536000	-0.002808	0.000175	-0.000117	0.002163	6856.307871	46041.257993	3969.620620	24249.140793
40.035500	-0.002821	0.000690	-0.000856	0.002817	6850.221639	46027.450166	3966.051982	24216.979366
40.536500	-0.003081	-0.000234	-0.002719	0.002294	6852.620617	45987.701968	3962.631417	24242.698786
41.036500	-0.002054	-0.000293	-0.003713	0.002784	6857.520799	45933.188094	3958.851944	24218.588111
41.537000	-0.003308	0.000805	0.000491	0.003129	6842.929791	46007.837910	3968.700028	24201.621493
42.037000	-0.001499	0.000051	-0.003385	0.002226	6867.718110	46022.672764	3961.105777	24246.023989
42.537500	-0.002957	-0.000758	-0.000044	0.001970	6856.717121	45967.802344	3970.302595	24258.649339
43.035000	-0.000557	0.001181	-0.001763	0.004137	6858.833236	45945.147988	3960.369476	24152.164878
43.535500	-0.000712	0.000090	-0.000601	0.001911	6877.837110	46057.840051	3969.026109	24261.554228
44.035500	0.003016	0.000939	0.005263	-0.001867	6947.428025	46520.013916	3994.025941	24448.415204
44.536000	-0.002436	-0.000113	-0.004610	-0.000082	6880.300566	46236.041203	3963.866298	24359.896431
45.036000	-0.005694	0.000112	-0.003687	0.005545	6799.419276	45700.351833	3951.923677	24083.298503
45.536500	0.001748	0.000421	-0.002204	0.000622	6912.437355	46219.129113	3968.219178	24325.115014
46.037000	-0.002072	-0.000003	-0.002596	0.000041	6882.523155	46234.779342	3968.702059	24353.823124
46.537000	-0.000146	-0.000004	-0.004896	0.000171	6899.082547	46221.668658	3962.490694	24347.392215
47.037500	-0.003823	0.001073	-0.003934	0.005568	6816.103867	45792.956624	3951.243579	24082.177757
47.538000	-0.003568	0.000195	-0.000338	0.002859	6843.017491	45974.126669	3967.268376	24214.876642
48.035500	-0.001355	0.000721	-0.004174	0.001120	6879.184478	46199.301065	3961.912621	24300.500546
48.535000	0.002146	0.000553	0.001481	0.000586	6916.468096	46235.873734	3977.794906	24326.893078
49.036000	-0.003942	-0.000408	-0.005171	0.004228	6827.173930	45779.020879	3951.504057	24147.729010
49.536000	0.001251	0.000389	0.001508	-0.001818	6930.498170	46459.915926	3984.093785	24445.973171
50.036500	0.002291	0.000045	0.000440	-0.000431	6927.260384	46286.640859	3977.733143	24377.178384
50.537000	-0.001890	-0.001852	-0.000214	0.001535	6870.470112	45902.559785	3970.982401	24280.071797
51.037000	-0.034422	-0.018221	-0.007383	0.297604	4755.653480	23845.962007	3410.353110	13699.114703
51.537000	-0.016611	-0.015362	-0.016401	-0.036732	7092.453097	48424.778467	4029.165889	26251.957095
52.037500	-0.040330	-0.175527	-0.021855	-0.335477	10810.013211	65535.000000	5161.487986	49386.298383
52.535000	-0.051227	-0.217628	-0.025959	-0.377578	11400.305820	65535.000000	5372.340879	54121.212683
53.035500	-0.045088	-0.135445	-0.013200	-0.295394	10032.684809	65535.000000	5000.502539	45285.526652
53.535500	-0.035740	-0.137518	-0.009690	-0.297468	10223.134479	65535.000000	5028.259296	45488.489344
54.035500	-0.036521	-0.122453	-0.007994	-0.282403	9960.255723	65535.000000	4962.391391	44035.585340
54.536500	-0.026192	-0.113090	-0.012198	-0.273040	9976.006002	65535.000000	4897.589777	43157.630085
55.036500	-0.019904	-0.112456	-0.009432	-0.272406	10068.912419	65535.000000	4907.638229	43098.869353
55.536500	-0.009676	-0.091433	-0.004685	-0.251382	9892.560018	65535.000000	4832.146898	41197.913398
56.037000	-0.009676	-0.059510	-0.006268	-0.211692	9280.603828	64424.752486	4652.934514	37850.575666
56.537500	-0.006863	-0.036956	-0.001971	-0.176038	8814.877487	62596.782188	4527.722758	35093.732929
57.034500	-0.014142	-0.023081	-0.012635	-0.134742	8187.475820	58944.285685	4339.144947	32171.000861
57.535000	-0.010838	-0.017437	-0.009183	-0.105981	7885.647393	56039.346176	4255.148912	30293.577460
58.035500	-0.012787	-0.014847	-0.007719	-0.081788	7593.578519	53461.056279	4183.776647	28807.814997
58.538500	-0.013515	-0.010181	-0.017609	-0.065230	7409.876857	52095.333418	4105.291720	27837.582788
59.036000	-0.015449	-0.010992	-0.011637	-0.037036	7106.677938	48917.306803	4042.943860	26268.325618
59.536500	-0.009108	-0.008262	-0.015397	-0.022028	7023.285464	47634.718140	3992.715853	25473.629572
60.036000	-0.014084	-0.008778	-0.007136	-0.022505	6980.653282	47630.763235	4015.832190	25498.503751
60.536500	-0.011994	-0.008245	-0.007023	-0.016162	6940.741629	47036.424267	3999.305198	25170.432155
61.037500	-0.011762	-0.007473	-0.013368	-0.007002	6858.235937	46192.222743	3959.185529	24705.057618
61.540500	-0.012182	-0.004386	-0.011978	-0.006566	6850.419421	46457.204737	3961.612843	24683.138585
62.034500	-0.011211	-0.004879	-0.020084	-0.020272	6986.681805	47802.585771	3975.967303	25382.426370
62.535500	-0.013234	-0.005401	-0.016915	-0.021133	6975.726518	47837.669946	3986.417490	25427.125313
63.035500	-0.015916	-0.005855	-0.020464	-0.018980	6930.443178	47568.766592	3971.662276	25315.553556
63.536500	-0.013074	-0.005463	-0.016139	-0.023700	7001.485615	48097.647448	3995.154579	25560.827684
64.036500	-0.014327	-0.005328	-0.019899	-0.024558	6997.744604	48201.063304	3987.565665	25605.690477
64.536000	-0.013133	-0.005337	-0.024287	-0.025597	7018.947352	48308.644930	3978.868391	25660.159364
65.037000	-0.017556	-0.005577	-0.020075	-0.022241	6945.572342	47934.230063	3981.082925	25484.715847
65.537000	-0.013412	-0.005932	-0.015284	-0.027273	7032.253790	48421.752261	4006.834466	25748.248436
66.040000	-0.013275	-0.005677	-0.015178	-0.028359	7043.952179	48562.510676	4010.000853	25805.529531
66.538000	-0.012270	-0.005253	-0.015111	-0.027808	7048.294688	48549.167831	4008.713986	25776.444512
67.035500	-0.016424	-0.005391	-0.020705	-0.022642	6959.933057	47995.168550	3980.492458	25505.641286
67.537500	-0.012157	-0.005271	-0.019732	-0.028276	7053.875126	48596.572126	3997.737264	25801.153879
68.035000	-0.011663	-0.005146	-0.015377	-0.027391	7050.125914	48516.616462	4006.902082	25754.491460
68.536000	-0.011735	-0.005378	-0.014367	-0.027036	7046.032028	48455.076542	4008.641929	25735.795330
69.036500	-0.012957	-0.005607	-0.019017	-0.021408	6980.930068	47844.795949	3981.666558	25441.385063
69.537000	-0.011417	-0.005094	-0.017921	-0.027452	7053.058256	48528.480298	4000.335872	25757.661420
70.037000	-0.009371	-0.004830	-0.016303	-0.027015	7068.538418	48510.312791	4003.454560	25734.681077
70.537000	-0.010537	-0.003959	-0.019501	-0.026198	7049.479354	48516.018398	3992.890831	25691.717433
71.037500	-0.014085	-0.004989	-0.022537	-0.020975	6966.236835	47863.948827	3971.461822	25418.887792
71.535000	-0.011906	-0.005081	-0.014844	-0.024781	7022.856796	48250.084707	4001.406810	25617.365156
72.034500	-0.013029	-0.005539	-0.014428	-0.025191	7016.070545	48245.144357	4003.590239	25638.847026
72.535500	-0.011576	-0.003709	-0.017807	-0.023408	7012.935875	48250.029555	3990.023103	25545.586583
73.035500	-0.015434	-0.004496	-0.016981	-0.017928	6925.146345	47600.347367	3977.929982	25261.289364
73.536000	-0.011022	-0.004846	-0.013371	-0.023614	7020.161170	48152.935352	4002.217045	25556.357973
74.036500	-0.011907	-0.004688	-0.015464	-0.023310	7008.861704	48137.760432	3995.903430	25540.464756
74.539500	-0.011700	-0.004531	-0.013894	-0.022801	7005.990727	48101.085132	3998.693180	25513.924405
75.037000	-0.014861	-0.003912	-0.018545	-0.017977	6930.935780	47665.605160	3974.020012	25263.818696
75.540000	-0.011932	-0.003583	-0.015412	-0.021951	6995.734619	48111.270886	3992.475583	25469.621900
76.035000	-0.008995	-0.004308	-0.016046	-0.022043	7024.504321	48045.341146	3991.056480	25474.404570
76.535500	-0.012248	-0.004055	-0.014474	-0.021877	6992.051318	48054.462299	3994.742550	25465.794737
77.035500	-0.013462	-0.003832	-0.016745	-0.016403	6929.305697	47511.882180	3974.603869	25182.805669
77.535500	-0.010666	-0.004524	-0.015001	-0.021877	7007.038878	48005.749248	3993.360939	25465.805658
78.036000	-0.010777	-0.003233	-0.014753	-0.020689	6994.728614	48016.475094	3990.900351	25404.078133
78.538500	-0.009807	-0.004175	-0.012879	-0.020936	7006.260843	47944.368485	3996.460313	25416.909721
79.036500	-0.014016	-0.004223	-0.013779	-0.015650	6917.150970	47394.542721	3980.319581	25144.163795
79.537000	-0.012299	-0.004076	-0.016593	-0.020692	6980.384698	47929.337084	3986.105765	25404.245863
80.037500	-0.010235	-0.003795	-0.016668	-0.020181	6995.043197	47905.345719	3984.579903	25377.715295
80.537500	-0.011955	-0.004915	-0.015973	-0.020799	6984.640692	47853.492972	3988.000605	25409.794717
81.035000	-0.015422	-0.004976	-0.019921	-0.014667	6895.032091	47217.023806	3962.015181	25093.783919
81.535000	-0.010914	-0.005611	-0.018504	-0.020507	6991.712771	47751.235157	3980.662479	25394.628732
82.035500	-0.011746	-0.005093	-0.011336	-0.019931	6978.425554	47745.293122	3997.873253	25364.778393
82.535500	-0.011726	-0.005406	-0.017184	-0.020207	6981.202852	47741.443815	3983.307598	25379.047894
83.036500	-0.015110	-0.005886	-0.016332	-0.014685	6898.086373	47126.092153	3971.245290	25094.723547
83.536500	-0.012810	-0.005688	-0.014055	-0.019479	6964.155701	47637.326075	3989.561412	25341.369111
84.036500	-0.010995	-0.005782	-0.011632	-0.019117	6977.836408	47590.459546	3994.957361	25322.679986
84.537000	-0.011408	-0.006231	-0.011290	-0.019729	6979.701675	47607.204478	3997.463790	25354.333319
85.040000	-0.011094	-0.005805	-0.016777	-0.018762	6973.553535	47551.492261	3980.615382	25304.326893
85.540000	-0.012061	-0.006475	-0.014009	-0.019209	6968.666989	47528.550299	3988.976953	25327.423612
86.041000	-0.010337	-0.006536	-0.012147	-0.018895	6981.939483	47490.128509	3993.024496	25311.202244
86.535500	-0.011858	-0.005961	-0.010269	-0.018177	6960.868656	47475.382315	3996.064964	25274.092342
87.035500	-0.011983	-0.006970	-0.008576	-0.018828	6965.812465	47438.631502	4002.240938	25307.732712
87.535500	-0.009697	-0.006238	-0.015473	-0.017504	6974.856435	47377.960333	3980.735207	25239.420327
88.036500	-0.011736	-0.006425	-0.019719	-0.018090	6961.204831	47418.901727	3971.290597	25269.654878
88.538000	-0.011375	-0.006468	-0.012597	-0.017516	6959.206407	47355.633353	3988.242304	25240.039753
89.037000	-0.010204	-0.005944	-0.014630	-0.017052	6965.837071	47361.764574	3981.746946	25216.138464
89.537500	-0.010790	-0.005899	-0.009936	-0.016546	6955.593809	47314.643874	3992.661681	25190.125460
90.037500	-0.012255	-0.007152	-0.013502	-0.017599	6951.742569	47294.215218	3986.100050	25244.331713
90.534500	-0.011741	-0.007554	-0.016145	-0.017347	6954.189917	47227.404020	3978.590182	25231.359562
91.035000	-0.013394	-0.006970	-0.016226	-0.013574	6903.681535	46903.170373	3968.665531	25037.941427
91.535000	-0.009939	-0.007046	-0.009141	-0.016625	6964.312276	47205.498131	3994.951870	25194.182464
92.036000	-0.012764	-0.007446	-0.016907	-0.017012	6941.488833	47204.247274	3975.753542	25214.093282
92.536000	-0.012157	-0.007166	-0.012229	-0.016806	6945.234142	47211.807003	3987.350115	25203.516781
93.036500	-0.016123	-0.007341	-0.015596	-0.012923	6872.536373	46799.738112	3968.611291	25004.740808
93.536500	-0.010740	-0.007006	-0.010148	-0.015982	6950.780981	47144.135257	3990.632729	25161.175864
94.037000	-0.012588	-0.007064	-0.011789	-0.016724	6940.439002	47213.793290	3988.282498	25199.276917
94.539500	-0.011849	-0.007672	-0.013817	-0.017025	6950.163919	47182.571478	3983.788224	25214.780081
95.037000	-0.014209	-0.007641	-0.014172	-0.011430	6876.397001	46618.825149	3968.432853	24928.776905
95.534500	-0.011548	-0.006727	-0.013040	-0.016715	6950.081457	47247.358924	3985.003946	25198.838220
96.035500	-0.011895	-0.008023	-0.009490	-0.016730	6946.981373	47116.757992	3994.313325	25199.621015
