sample name	sample
index	1257
start time	 04-29-2021  01:06:01 PM
880	0.057988
Peak Time (s)	102.535
Peak Height 	0.05799
calc peak height	100,103
Baseline Time (s)	8.537
Baseline Value 	-0.005284
subtract baseline	10,4
Abs	0.024221
Peak Time (s)	101.534
Peak Height 	0.02422
calc peak height	100,103
Baseline Time (s)	9.537
Baseline Value 	0.003639
subtract baseline	10,3
PK_550	0.022157
Peak Time (s)	101.534
Peak Height 	0.02216
calc peak height	100,103
Baseline Time (s)	9.037
Baseline Value 	7.5444E-4
subtract baseline	10,2
PK_880	0.023210
Peak Time (s)	102.535
Peak Height 	0.02321
calc peak height	100,103
Baseline Time (s)	10.537
Baseline Value 	0.002951
subtract baseline	10,1


Time (s)	A880-A510	A880-A775	A880-A975	A880	I510	I775	I975	I880	
0.034000	-0.002343	0.000138	-0.000248	0.005017	6180.682221	43748.341008	3913.097933	22612.704554
0.537500	-0.004127	-0.000036	-0.003169	0.004280	6172.888038	43801.209301	3908.100415	22646.113420
1.038000	-0.001814	0.000210	0.000405	0.003750	6194.091181	43874.270849	3917.513335	22670.192934
1.535000	-0.000136	0.000067	-0.001778	0.000950	6227.774207	44125.229848	3918.934383	22797.811082
2.035500	-0.003945	-0.001484	-0.004422	0.002638	6186.475066	43819.438515	3908.987957	22720.767042
2.538500	-0.002154	-0.000392	-0.000933	0.000722	6214.271223	44103.344541	3921.411427	22808.235403
3.036000	0.000451	0.000167	-0.003564	-0.000597	6243.955920	44281.626351	3918.384420	22868.701643
3.536000	0.001512	0.000042	0.000451	0.000597	6242.944529	44156.387408	3924.910281	22813.961580
4.036500	0.000216	0.000023	-0.004125	0.000958	6230.381936	44120.320755	3913.516349	22797.447164
4.536000	-0.000459	0.000617	0.001699	0.001137	6223.928550	44159.707592	3926.554936	22789.273867
5.037000	-0.000411	-0.000660	-0.009865	0.000003	6232.860659	44146.111986	3902.595227	22841.163641
5.537000	-0.001939	-0.000532	-0.000792	0.000083	6220.711467	44150.664516	3923.220319	22837.515075
6.035000	-0.002171	-0.000441	-0.001287	0.000292	6217.376890	44139.433130	3921.588522	22827.914663
6.535000	-0.001668	0.000434	0.000997	0.000922	6216.423208	44162.719479	3925.422012	22799.095762
7.038500	0.000260	-0.000127	-0.002914	0.000031	6237.740287	44194.073623	3918.434082	22839.891295
7.536000	-0.000249	0.000311	0.000310	0.000083	6233.481328	44230.692086	3925.775203	22837.487579
8.036000	0.000347	-0.000021	0.001964	-0.000203	6240.168070	44226.273006	3930.291425	22850.584537
8.536500	-0.000452	-0.000447	0.003282	0.000000	6232.575078	44166.541412	3932.897401	22841.301232
9.037000	-0.001418	0.000000	-0.000232	-0.000160	6226.480496	44224.234716	3925.080611	22848.649536
9.537000	0.000878	0.000677	0.000000	0.000683	6237.478077	44208.457759	3923.663608	22810.027306
10.037000	0.000509	-0.000160	-0.002322	-0.000197	6241.360889	44212.521704	3920.327269	22850.349092
10.537500	0.000000	0.000529	0.000970	0.000391	6233.036948	44222.135158	3926.593099	22823.388579
11.034500	-0.001079	-0.000298	-0.001806	-0.000794	6233.836328	44256.078066	3922.900108	22877.706463
11.538000	0.001538	0.000927	0.003359	0.000370	6244.865381	44261.947169	3932.212034	22824.348271
12.035500	-0.000446	0.000656	-0.003309	0.000368	6229.831476	44236.314600	3916.745704	22824.425816
12.535500	-0.004095	-0.000559	-0.004251	-0.000537	6209.139316	44206.944418	3916.660203	22865.922017
13.036500	-0.002005	-0.000081	0.000305	-0.002241	6237.784063	44414.548766	3931.175284	22944.255641
13.536500	-0.001149	0.000264	0.003615	-0.000675	6232.407485	44298.244976	3935.256186	22872.255822
14.038500	-0.000943	-0.000205	-0.003350	-0.001260	6238.405819	44309.324566	3920.407658	22899.127929
14.537000	-0.001424	-0.000460	-0.002991	0.001341	6215.105337	44038.286554	3915.238845	22779.918249
15.035000	-0.002417	-0.000327	0.004027	-0.000255	6219.648790	44202.104741	3935.237028	22852.971221
15.543500	-0.001105	0.000272	0.000448	-0.000797	6233.669475	44310.675455	3928.143457	22877.877860
16.040500	-0.001877	-0.000086	0.002559	-0.001115	6230.229906	44306.871155	3933.814241	22892.471687
16.535500	-0.000422	0.000190	0.001951	-0.000876	6239.443298	44310.404787	3931.832918	22881.510310
17.035500	-0.000815	-0.000285	0.001795	-0.000106	6230.629670	44191.937004	3929.670077	22846.142017
17.536000	0.000838	0.000182	0.003315	-0.003056	6265.646280	44517.597419	3940.147772	22981.852901
18.036000	-0.000358	0.000585	0.004416	-0.000694	6238.545102	44330.563946	3937.182511	22873.122143
18.537000	-0.001866	0.000236	-0.003089	0.000758	6216.163270	44159.452909	3916.354934	22806.577174
19.037000	-0.002660	0.000038	-0.000415	0.000691	6210.692322	44147.019537	3922.683576	22809.649671
19.537000	-0.003211	0.000313	-0.003579	0.000704	6206.455300	44171.840412	3915.351991	22809.049146
20.035000	-0.002367	-0.000769	-0.000539	0.000497	6214.355563	44088.947623	3922.845713	22818.522644
20.538000	-0.000979	0.000310	0.002526	0.001100	6220.276821	44134.070060	3928.565108	22790.960790
21.035000	-0.001905	-0.000266	-0.004794	0.000475	6218.007836	44138.655311	3913.087124	22819.527520
21.535500	-0.002351	-0.000163	-0.005585	0.000816	6212.079810	44116.208470	3910.495418	22803.954869
22.036000	-0.003485	-0.000324	-0.004683	0.000857	6203.248099	44096.998590	3912.467496	22802.063158
22.536000	-0.001857	0.000382	-0.005497	0.001181	6213.047870	44133.182853	3909.861452	22787.225706
23.036000	-0.000855	0.000135	0.002642	0.001200	6220.458001	44108.055768	3928.603047	22786.396114
23.537000	-0.002136	0.000282	-0.001716	0.001205	6210.772710	44121.463195	3918.488477	22786.163021
24.037000	-0.000769	0.000047	-0.000644	0.001416	6219.471809	44079.192664	3920.475962	22776.487104
24.537500	0.000229	0.000377	-0.004482	0.001370	6227.360659	44114.810761	3911.752764	22778.622799
25.037500	-0.000901	0.000529	0.000511	0.001627	6216.889525	44104.828877	3922.660733	22766.861395
25.535000	-0.001407	-0.000366	0.005154	0.000598	6220.836223	44117.570583	3935.881287	22813.906352
26.035500	-0.002857	-0.000651	-0.000268	0.001867	6200.385274	43970.642678	3920.303153	22755.912346
26.535500	0.001474	-0.000344	0.001658	0.000521	6243.227738	44126.980715	3927.891912	22817.435053
27.036000	0.000778	-0.000407	0.001284	0.000717	6236.465154	44102.478720	3926.565901	22808.476500
27.536500	-0.003371	-0.000754	-0.004675	0.000655	6205.622521	44075.426158	3912.948277	22811.299208
28.036500	0.000053	-0.000282	0.008099	-0.003003	6259.246353	44468.195117	3951.355967	22979.426059
28.537500	-0.000429	-0.000160	-0.004049	-0.001072	6240.878416	44295.695379	3918.359099	22890.491271
29.048000	0.000827	0.000495	-0.001864	-0.000275	6244.364973	44282.125134	3921.565456	22853.898819
29.540000	0.000054	0.000736	0.001774	-0.000073	6236.961215	44285.846102	3929.544761	22844.640573
30.035000	-0.004755	0.000567	0.001011	0.005642	6158.122470	43729.892322	3914.552807	22584.380298
30.535000	0.002044	-0.000190	0.001271	-0.000890	6258.320637	44275.599483	3930.279100	22882.151206
31.038500	-0.001339	-0.000146	-0.003753	-0.000548	6230.008210	44247.229467	3917.835869	22866.447884
31.536000	-0.002227	0.000548	0.001261	0.001747	6206.013589	44095.332630	3924.120186	22761.387200
32.036500	-0.003177	0.000406	-0.006162	0.003284	6187.381266	43936.563136	3903.552416	22691.339314
32.594000	0.000774	-0.000001	0.002798	-0.000338	6244.438690	44241.051609	3932.553969	22856.793176
33.037000	0.001618	0.000694	0.000315	-0.000145	6249.392826	44288.741570	3926.315406	22847.935875
33.534500	-0.000258	-0.000076	-0.001662	-0.000239	6235.852440	44224.488904	3921.948479	22852.245165
34.041000	-0.003810	0.000419	-0.000663	0.005757	6164.274070	43705.263965	3910.451919	22579.203968
34.537500	-0.001107	0.000069	0.000487	0.001481	6216.441539	44075.141207	3922.943384	22773.543323
35.035000	-0.002028	0.000260	0.001471	0.001784	6207.232841	44064.554339	3924.522368	22759.704942
35.535500	-0.002664	-0.000031	-0.001567	0.001976	6201.013058	44018.888404	3917.053589	22750.927203
36.035500	-0.001973	0.000170	-0.005977	0.004059	6190.591729	43841.376173	3902.215664	22656.151659
36.535500	-0.002080	0.000224	0.000412	0.001826	6206.525608	44057.145545	3921.969893	22757.787782
37.036000	-0.001957	-0.000538	0.000168	0.001503	6209.875304	44015.660635	3922.153289	22772.517306
37.536500	-0.003330	0.000618	0.001810	0.002572	6191.556280	44023.852704	3923.478629	22723.754318
38.036500	-0.001336	0.000122	0.000425	0.002045	6210.469243	44026.777230	3921.493554	22747.782844
38.540000	-0.000084	0.000392	0.000732	0.002092	6219.545131	44047.965963	3922.094917	22745.662613
39.035000	-0.002426	0.000558	0.001452	0.002110	6201.793662	44061.848258	3923.720861	22744.820863
39.535000	-0.000671	0.000151	0.001674	0.002084	6215.183698	44025.869424	3924.295474	22746.019489
40.034500	-0.002067	0.000078	-0.002287	0.001472	6209.277857	44076.867190	3916.558625	22773.940900
40.535500	-0.002644	-0.000163	0.000268	0.001147	6207.391689	44084.855058	3923.208596	22788.813272
41.036000	-0.003036	-0.000521	0.002157	0.001009	6205.483337	44064.014632	3927.917836	22795.124400
41.536000	-0.000577	-0.000484	0.004230	0.001056	6223.642277	44063.011939	3932.643154	22792.951073
42.036500	-0.000509	0.000420	-0.000164	0.001895	6217.827644	44069.192800	3920.480541	22754.655337
42.536500	-0.001736	0.000625	-0.001299	0.002151	6206.659258	44064.298026	3917.268692	22742.938843
43.039500	-0.000367	0.000116	0.002718	0.001697	6220.387248	44059.171018	3927.620537	22763.675763
43.536500	-0.000734	0.000143	-0.002152	0.001828	6216.641890	44049.330841	3916.049149	22757.711918
44.035000	-0.001148	0.000543	0.000194	0.001681	6214.626668	44101.099084	3921.802042	22764.416590
44.535500	-0.000739	0.000585	0.004241	-0.001617	6242.655242	44418.631095	3938.939107	22915.529873
45.035000	0.000489	0.000481	0.003710	0.000595	6235.196790	44198.225935	3932.506562	22814.047068
45.535500	0.000604	0.000724	-0.003175	-0.000053	6240.980098	44282.847344	3918.024755	22843.713999
46.036000	-0.000595	0.000623	0.007514	-0.000156	6232.674241	44282.978998	3943.213096	22848.439394
46.539000	-0.000890	-0.000000	0.000221	-0.000198	6230.759021	44227.776880	3926.219922	22850.373097
47.036500	-0.000888	0.000699	-0.002588	0.001028	6221.512131	44177.762250	3916.887253	22794.254107
47.539500	-0.000698	0.000192	0.002008	-0.000338	6233.272726	44259.379316	3930.708859	22856.786135
48.062000	0.001085	0.000401	0.005691	0.001840	6230.287269	44072.620962	3934.229867	22757.168149
48.534500	-0.003069	-0.000826	0.001487	0.001088	6204.635389	44027.671817	3926.173186	22791.478599
49.037500	-0.003053	-0.000157	-0.000612	0.001928	6198.458987	44011.522806	3919.367447	22753.124863
49.566500	-0.000384	0.000013	-0.001133	-0.000647	6237.990986	44271.689988	3924.119204	22870.965001
50.035000	-0.001654	0.000401	0.001147	0.002423	6205.241186	44017.476999	3922.290930	22730.564244
50.535000	-0.001828	0.000819	-0.007590	0.000030	6221.949099	44284.049659	3907.710557	22839.940443
51.036000	-0.002397	-0.000810	-0.000078	-0.001777	6231.306022	44300.928589	3929.201777	22922.928776
51.536500	0.001136	0.000040	-0.000242	0.000660	6239.613312	44150.175272	3923.155784	22811.092702
52.039500	-0.002729	-0.001223	-0.000467	0.004005	6185.347219	43715.542023	3914.918772	22658.591677
52.537000	0.004562	-0.027869	-0.014671	0.491670	4016.284405	15437.994231	3231.159351	9353.006368
53.037000	-0.012247	-0.030360	-0.038425	-0.029177	6366.872439	44096.855273	3904.003813	24224.502411
53.537500	-0.009828	-0.159980	-0.036693	-0.341007	10001.481642	65535.000000	4948.885864	46584.306043
54.034500	-0.008193	-0.119348	-0.021707	-0.300375	9395.365630	65535.000000	4832.366803	42685.910488
54.535000	-0.008905	-0.095577	-0.015219	-0.275173	9021.673845	65329.192149	4751.582152	40444.937796
55.035500	-0.012191	-0.069364	-0.017486	-0.242497	8538.662401	64408.071714	4609.748074	37726.361741
55.536000	-0.011544	-0.049421	-0.019726	-0.216325	8219.325546	63533.151354	4502.546966	35691.781382
56.036000	-0.014416	-0.061642	-0.020855	-0.235403	8419.901133	64497.025411	4569.451621	37162.733109
56.539500	-0.012243	-0.050066	-0.018779	-0.218692	8239.604949	63773.742315	4514.691848	35870.722346
57.036500	-0.004840	-0.030798	-0.009876	-0.180381	7875.823264	61165.343877	4410.084011	33089.994511
57.539500	-0.002519	-0.017478	-0.006870	-0.128132	7340.196463	56175.880500	4250.023736	29671.996119
58.037500	-0.006590	-0.009884	-0.014358	-0.063208	6694.424240	49596.346832	4045.290854	25959.685831
58.537500	-0.005713	-0.004629	-0.007308	-0.042613	6527.939101	47978.166188	4010.640155	24893.349559
59.035000	-0.002034	-0.005037	-0.008525	-0.036723	6509.749676	47330.200388	3992.888886	24597.617614
59.535500	-0.002376	-0.000499	-0.008424	-0.030217	6453.965508	47129.640726	3977.136737	24275.538679
60.035500	0.001930	0.002280	-0.005861	-0.008773	6318.136189	45271.984497	3932.031720	23247.454502
60.538500	0.001644	0.005261	-0.007097	0.000996	6240.919573	44616.036560	3906.632700	22795.714430
61.039500	0.008101	0.001619	-0.002846	0.034362	6042.829181	41214.265192	3842.457684	21327.126710
61.539000	0.003689	0.001781	-0.002351	0.022203	6098.607964	42314.752199	3869.820744	21849.284359
62.037000	0.002562	0.005054	-0.002431	0.032570	6016.206870	41677.258698	3847.172397	21403.142747
62.537000	0.005118	0.006392	0.001895	0.037942	5996.343042	41319.446837	3844.934504	21176.122774
63.035000	0.001886	0.004875	0.001687	0.043108	5937.889384	40733.877860	3833.522395	20960.476495
63.535500	0.006711	0.006950	-0.001502	0.041344	5983.658953	41069.118458	3830.518815	21033.816108
64.035500	0.008442	0.007616	0.002995	0.031457	6066.074326	42006.203608	3861.283729	21450.536881
64.535500	0.007410	0.005684	0.001892	0.033538	6043.778515	41647.135581	3854.387016	21362.029565
65.035500	0.005686	0.004523	0.005371	0.036670	6009.313749	41266.767235	3855.136090	21229.647399
65.538500	0.000708	0.007495	0.002176	0.032779	6001.646891	41876.777965	3856.640763	21394.270523
66.036000	0.002726	0.010161	-0.000703	0.031984	6021.521342	42188.088283	3852.142650	21428.104254
66.539500	0.003343	0.010850	-0.000277	0.029833	6041.187882	42445.324494	3857.706898	21519.880669
67.060500	0.002236	0.012059	0.000839	0.027908	6047.032309	42731.235447	3864.318638	21602.450367
67.540000	0.005525	0.013861	-0.001526	0.027409	6074.220051	42942.473054	3860.258167	21623.928900
68.038000	0.003070	0.015236	-0.008141	0.027524	6055.753444	43058.658612	3845.752175	21618.985779
68.535000	0.001908	0.015147	0.003462	0.027792	6045.513839	43025.610181	3870.311061	21607.420740
69.036000	0.004682	0.016612	0.004903	0.030584	6045.388440	42903.354982	3867.350086	21487.778563
69.535500	0.004489	0.015624	0.004959	0.029746	6050.003832	42889.673206	3869.309323	21523.633648
70.039000	0.005776	0.015271	-0.000365	0.031041	6049.943010	42738.405267	3854.904375	21468.268660
70.537000	0.006113	0.016441	-0.002846	0.027158	6080.273475	43203.863372	3857.938836	21634.729949
71.037000	0.003288	0.015886	0.001924	0.024240	6080.938810	43423.337691	3874.743211	21760.749280
71.537500	0.006087	0.017914	-0.000001	0.023890	6103.776187	43645.453580	3871.276443	21775.956661
72.038000	0.003436	0.017325	0.001909	0.022955	6091.314239	43677.882634	3877.548504	21816.542075
72.537500	0.006537	0.017616	0.001674	0.022221	6119.222998	43774.003094	3878.653112	21848.470860
73.037500	0.007331	0.016833	0.000596	0.022159	6125.489324	43706.341200	3876.406043	21851.174566
73.535000	0.007377	0.017657	0.003167	0.023391	6116.818437	43668.061006	3879.368671	21797.591522
74.035500	0.006081	0.016577	0.003689	0.023294	6108.065137	43576.118805	3880.741417	21801.802179
74.539000	0.006105	0.016667	0.009920	0.021745	6119.547167	43729.626945	3898.162630	21869.212835
75.036000	0.009145	0.016993	0.006761	0.020978	6147.512400	43832.299185	3892.773670	21902.686919
75.536500	0.008543	0.017301	0.007170	0.019502	6153.964848	44000.469564	3897.016933	21967.239375
76.036500	0.007074	0.018706	0.002429	0.018398	6151.265713	44238.279317	3888.844541	22015.697370
76.536500	0.006493	0.018481	0.001305	0.016262	6162.773189	44420.234415	3891.113471	22109.774865
77.036500	0.011550	0.019982	0.005134	0.016776	6196.616546	44514.494327	3898.577293	22087.072659
77.535000	0.011033	0.019973	0.007685	0.015018	6205.931373	44682.287231	3908.367056	22164.780815
78.035000	0.011047	0.020516	0.004417	0.014314	6211.329543	44802.184876	3902.528662	22195.959836
78.535500	0.011959	0.021008	0.006959	0.013567	6223.831215	44921.643065	3910.021936	22229.103120
79.041000	0.012416	0.021868	0.006734	0.013961	6224.312009	44966.705077	3908.607188	22211.630516
79.536000	0.010477	0.021853	0.007216	0.013371	6214.140044	45022.352840	3911.059513	22237.838599
80.036000	0.009780	0.021355	0.004363	0.013109	6210.862929	44999.490621	3905.145757	22249.479588
80.536500	0.012259	0.022480	0.010775	0.014232	6221.076991	44999.673764	3917.255093	22199.609998
81.034500	0.012045	0.023020	0.008826	0.014679	6216.090591	45008.677931	3911.748632	22179.756516
81.537000	0.012961	0.023584	0.009413	0.016060	6212.592225	44929.713313	3909.932528	22118.682642
82.037000	0.012550	0.024526	0.003593	0.017249	6200.569222	44905.803504	3894.034768	22066.233756
82.534500	0.012322	0.025296	0.009897	0.017874	6194.182784	44919.867405	3906.896570	22038.743161
83.035000	0.014682	0.025449	0.008469	0.019225	6201.743859	44804.319461	3900.583024	21979.420314
83.538500	0.013523	0.024220	0.009598	0.019352	6192.109507	44673.893525	3902.854811	21973.844330
84.036000	0.014078	0.024968	0.008413	0.022080	6175.899829	44484.177392	3894.011409	21854.627853
84.536000	0.015806	0.023560	0.010857	0.021265	6194.876479	44427.497620	3901.369745	21890.171452
85.036500	0.012354	0.023416	0.011756	0.022149	6162.575753	44329.427128	3901.404224	21851.608720
85.537000	0.012742	0.023427	0.009540	0.022433	6163.347167	44303.488056	3895.753735	21839.241126
86.036500	0.012688	0.023090	0.012687	0.023197	6157.292952	44198.880853	3901.140061	21806.035366
86.537500	0.014851	0.022378	0.011402	0.023175	6173.499665	44133.424206	3898.280510	21806.982967
87.035000	0.016296	0.022577	0.015810	0.024858	6171.734647	43992.989634	3904.457688	21734.008686
87.535000	0.016695	0.023081	0.012096	0.026256	6164.314140	43908.602639	3892.902601	21673.583743
88.038500	0.014536	0.022503	0.012566	0.027625	6138.257357	43725.468169	3890.882067	21614.602039
88.535500	0.015115	0.021827	0.012641	0.028341	6137.249771	43595.084767	3889.447557	21583.860570
89.036000	0.014481	0.020904	0.011244	0.029495	6124.130888	43401.228901	3883.752278	21534.364040
89.536000	0.015423	0.021618	0.018960	0.030924	6120.565920	43334.775274	3897.848427	21473.270736
90.037000	0.017820	0.021567	0.016899	0.032849	6124.021942	43151.530665	3888.887661	21391.291610
90.534000	0.016740	0.021787	0.014344	0.033776	6109.356871	43086.183516	3881.124733	21351.938146
91.037000	0.015423	0.019880	0.008221	0.034199	6096.697092	42871.533366	3866.701471	21334.008468
91.537500	0.016151	0.021202	0.012765	0.035514	6092.446038	42872.252976	3873.789619	21278.410234
92.038000	0.017741	0.020333	0.010592	0.036583	6096.225538	42694.506807	3866.673963	21233.307283
92.538000	0.017548	0.019937	0.017051	0.037500	6088.171021	42574.534455	3878.868818	21194.692989
93.035500	0.016157	0.019606	0.013427	0.038763	6069.021046	42429.517288	3868.106752	21141.694383
93.536000	0.020615	0.021172	0.010860	0.040416	6089.272879	42421.589991	3858.908866	21072.539139
94.036000	0.018433	0.020365	0.021027	0.041272	6067.339627	42270.828141	3879.321333	21036.804347
94.536500	0.018520	0.020219	0.018093	0.042254	6060.916627	42168.972832	3870.684548	20995.963607
95.036500	0.016676	0.020368	0.012335	0.043757	6036.986286	42046.878913	3854.872065	20933.567872
95.537000	0.018154	0.020955	0.017296	0.044691	6040.860699	42015.652504	3863.606073	20894.876033
96.037000	0.017651	0.019742	0.015796	0.045551	6031.157522	41829.807816	3858.478573	20859.382996
96.534500	0.019413	0.020635	0.018539	0.047267	6031.484655	41756.173418	3860.706259	20788.691113
97.038000	0.019511	0.020267	0.018013	0.047908	6027.621902	41666.201886	3858.173322	20762.351738
97.535500	0.020650	0.020464	0.019429	0.049405	6025.084828	41550.550084	3857.998929	20701.016825
98.036000	0.021079	0.021581	0.020909	0.051402	6013.975881	41472.371856	3856.878261	20619.509995
98.536000	0.019671	0.021247	0.020316	0.051554	6002.967925	41429.381276	3855.268842	20613.339583
99.036000	0.019004	0.021119	0.017905	0.052689	5990.302018	41317.692509	3847.636429	20567.198669
99.536500	0.021961	0.022043	0.013216	0.054484	5998.466271	41240.913052	3833.845686	20494.497311
100.036500	0.020190	0.020865	0.017306	0.054287	5987.412958	41154.500181	3842.940409	20502.451140
100.537000	0.020376	0.021063	0.021108	0.055124	5982.855522	41098.422960	3849.285440	20468.640665
101.037500	0.020790	0.021991	0.019347	0.056638	5975.167814	41046.873071	3842.278643	20407.593355
101.534000	0.022397	0.022157	0.024221	0.057413	5980.978199	40993.599910	3851.054206	20376.443242
102.035000	0.021839	0.021459	0.023673	0.057174	5978.753633	40953.466767	3850.389961	20386.062755
102.535500	0.023210	0.021888	0.017566	0.057988	5982.643857	40919.737124	3835.632648	20353.378075
103.036000	0.021579	0.021600	0.016545	0.058216	5969.669000	40874.762106	3832.994741	20344.255946
103.535500	0.022983	0.021646	0.018216	0.060043	5966.714078	40719.514213	3832.663411	20271.150122
104.036500	0.022305	0.022808	0.019056	0.060401	5959.520553	40789.533460	3833.683257	20256.896597
104.536500	0.024037	0.021661	0.018971	0.059669	5976.676156	40753.410410	3835.049618	20286.104437
105.037500	0.022348	0.021370	0.023109	0.060093	5961.954907	40691.269864	3842.934488	20269.181736
105.537500	0.020254	0.020317	0.020034	0.061501	5937.717838	40478.082444	3833.425705	20213.070810
106.037500	0.023725	0.021737	0.025192	0.061692	5960.412771	40584.409385	3843.965593	20205.457672
106.535000	0.024737	0.021848	0.021432	0.062007	5965.257072	40566.744652	3835.308978	20192.944161
107.108500	0.024254	0.020450	0.026249	0.062440	5958.897018	40408.622936	3844.627737	20175.773237
107.535500	0.022830	0.020177	0.026370	0.064105	5937.519315	40241.858322	3841.334003	20109.787197
108.038500	0.023827	0.020272	0.022069	0.063042	5951.756015	40341.395408	3834.466208	20151.861514
108.536000	0.024178	0.020106	0.028170	0.063442	5951.415986	40292.703743	3846.592156	20136.024907
109.036000	0.025637	0.019603	0.023461	0.064041	5957.378943	40198.118176	3835.297323	20112.306898
109.537000	0.023259	0.020391	0.025161	0.064973	5934.501694	40185.831272	3836.923491	20075.506533
110.040500	0.023955	0.019827	0.022266	0.065072	5938.617616	40129.060258	3830.603645	20071.618070
110.534500	0.025910	0.020015	0.023878	0.066055	5945.318686	40061.062437	3831.926506	20032.850366
