sample name	sample
index	7
start time	 02-11-2021  11:24:09 AM


Wavelength (nm)	Absorbance
494.344910	-0.016947
494.563924	-0.016947
494.782919	-0.016947
495.001897	-0.197124
495.220856	-0.107954
495.439797	-0.096010
495.658719	-0.132907
495.877624	-0.132761
496.096510	-0.114053
496.315378	-0.100541
496.534227	-0.082896
496.753059	-0.054782
496.971872	-0.036124
497.190667	0.013408
497.409444	0.032447
497.628203	0.044349
497.846943	0.047161
498.065665	0.046427
498.284369	0.048506
498.503055	0.047467
498.721723	0.048667
498.940372	0.049968
499.159003	0.049745
499.377616	0.049245
499.596210	0.051459
499.814787	0.051676
500.033345	0.054723
500.251885	0.055334
500.470406	0.056104
500.688910	0.056715
500.907395	0.056172
501.125862	0.057851
501.344311	0.056173
501.562742	0.054360
501.781154	0.055402
501.999548	0.053693
502.217924	0.052877
502.436282	0.054317
502.654621	0.052557
502.872942	0.051287
503.091245	0.050448
503.309530	0.052214
503.527797	0.054428
503.746045	0.053297
503.964275	0.053422
504.182487	0.053926
504.400681	0.053675
504.618856	0.056907
504.837013	0.056360
505.055152	0.055506
505.273273	0.055211
505.491376	0.054017
505.709460	0.054757
505.927526	0.054176
506.145574	0.055108
506.363604	0.055953
506.581615	0.054266
506.799608	0.054497
507.017583	0.054188
507.235540	0.054096
507.453478	0.054509
507.671399	0.053915
507.889301	0.053847
508.107185	0.052102
508.325050	0.051329
508.542898	0.051141
508.760727	0.051482
508.978538	0.053042
509.196330	0.054437
509.414105	0.052820
509.631861	0.052625
509.849599	0.053469
510.067319	0.054416
510.285021	0.054372
510.502704	0.055373
510.720369	0.055947
510.938016	0.056023
511.155645	0.055503
511.373255	0.056325
511.590848	0.056768
511.808422	0.056099
512.025977	0.057398
512.243515	0.057488
512.461034	0.056687
512.678536	0.056731
512.896018	0.056129
513.113483	0.056157
513.330930	0.056926
513.548358	0.056373
513.765768	0.055902
513.983160	0.054236
514.200533	0.053846
514.417889	0.054478
514.635226	0.054785
514.852545	0.053506
515.069845	0.052011
515.287128	0.050150
515.504392	0.050200
515.721638	0.052087
515.938866	0.052934
516.156075	0.052703
516.373267	0.052442
516.590440	0.052222
516.807594	0.053615
517.024731	0.054370
517.241850	0.055817
517.458950	0.055296
517.676032	0.055495
517.893095	0.054958
518.110141	0.056926
518.327168	0.056478
518.544177	0.056478
518.761168	0.055790
518.978141	0.055954
519.195095	0.054956
519.412031	0.056250
519.628949	0.055529
519.845849	0.056641
520.062731	0.055478
520.279594	0.057035
520.496439	0.057409
520.713266	0.058282
520.930074	0.058060
521.146865	0.059803
521.363637	0.060204
521.580391	0.060875
521.797127	0.060353
522.013844	0.060071
522.230543	0.059109
522.447224	0.058575
522.663887	0.058932
522.880532	0.059128
523.097158	0.059154
523.313766	0.058550
523.530356	0.058012
523.746928	0.057290
523.963481	0.056810
524.180017	0.056035
524.396534	0.055886
524.613032	0.055793
524.829513	0.056135
525.045975	0.056219
525.262420	0.056678
525.478845	0.056023
525.695253	0.056277
525.911643	0.056837
526.128014	0.056986
526.344367	0.056993
526.560702	0.057415
526.777018	0.056363
526.993316	0.056323
527.209597	0.055365
527.425858	0.055664
527.642102	0.056588
527.858328	0.056589
528.074535	0.057038
528.290724	0.057285
528.506894	0.056921
528.723047	0.057492
528.939181	0.057198
529.155297	0.057560
529.371395	0.057689
529.587475	0.056548
529.803536	0.056948
530.019579	0.057161
530.235604	0.057521
530.451611	0.057318
530.667600	0.057253
530.883570	0.057496
531.099522	0.057505
531.315456	0.057212
531.531372	0.058056
531.747269	0.057262
531.963148	0.056679
532.179009	0.056339
532.394852	0.055429
532.610676	0.056976
532.826482	0.057069
533.042271	0.057202
533.258040	0.057539
533.473792	0.057138
533.689525	0.057668
533.905240	0.058577
534.120937	0.059445
534.336616	0.061223
534.552277	0.060372
534.767919	0.059971
534.983543	0.059830
535.199149	0.060877
535.414736	0.061333
535.630306	0.061180
535.845857	0.060559
536.061390	0.060464
536.276904	0.059708
536.492401	0.059869
536.707879	0.059983
536.923339	0.061228
537.138781	0.060277
537.354204	0.059209
537.569610	0.060205
537.784997	0.061022
538.000366	0.061265
538.215716	0.062237
538.431049	0.061794
538.646363	0.062644
538.861659	0.062543
539.076937	0.062908
539.292196	0.064447
539.507438	0.064471
539.722661	0.064282
539.937866	0.063907
540.153052	0.063672
540.368221	0.063371
540.583371	0.062677
540.798503	0.062717
541.013617	0.063201
541.228712	0.062397
541.443789	0.061771
541.658848	0.062219
541.873889	0.061978
542.088912	0.062092
542.303916	0.062663
542.518902	0.063059
542.733870	0.062264
542.948820	0.062400
543.163752	0.063116
543.378665	0.062537
543.593560	0.062583
543.808437	0.063433
544.023295	0.063242
544.238136	0.063633
544.452958	0.063941
544.667762	0.064198
544.882548	0.064128
545.097315	0.063649
545.312064	0.064750
545.526795	0.063977
545.741508	0.062784
545.956203	0.061961
546.170879	0.062538
546.385537	0.061768
546.600177	0.061715
546.814799	0.062092
547.029402	0.062636
547.243988	0.062045
547.458555	0.062394
547.673103	0.063331
547.887634	0.063782
548.102146	0.062845
548.316640	0.062610
548.531116	0.062710
548.745574	0.062226
548.960013	0.061580
549.174435	0.061886
549.388838	0.061718
549.603222	0.061227
549.817589	0.061125
550.031937	0.061443
550.246267	0.061655
550.460579	0.061302
550.674873	0.060847
550.889148	0.061473
551.103405	0.062151
551.317644	0.062227
551.531865	0.062268
551.746068	0.061782
551.960252	0.062176
552.174418	0.063123
552.388566	0.063048
552.602696	0.063239
552.816807	0.062893
553.030900	0.062858
553.244975	0.063199
553.459032	0.063257
553.673070	0.064351
553.887091	0.063228
554.101093	0.062430
554.315077	0.062768
554.529042	0.062551
554.742990	0.062553
554.956919	0.062014
555.170830	0.061787
555.384722	0.061855
555.598597	0.061838
555.812453	0.062884
556.026291	0.062941
556.240111	0.063288
556.453913	0.064187
556.667696	0.063863
556.881461	0.063438
557.095208	0.063742
557.308937	0.064254
557.522647	0.063529
557.736339	0.062659
557.950013	0.062474
558.163669	0.062648
558.377307	0.062110
558.590926	0.061752
558.804527	0.062163
559.018110	0.062178
559.231675	0.062000
559.445221	0.062208
559.658749	0.062659
559.872259	0.062868
560.085751	0.062603
560.299225	0.062482
560.512680	0.063290
560.726117	0.063606
560.939536	0.062985
561.152937	0.062741
561.366319	0.062900
561.579683	0.062701
561.793029	0.063185
562.006357	0.062837
562.219667	0.062490
562.432958	0.062811
562.646231	0.062390
562.859486	0.062829
563.072723	0.063118
563.285941	0.063259
563.499141	0.063594
563.712323	0.063219
563.925487	0.063376
564.138632	0.063748
564.351760	0.063635
564.564869	0.063643
564.777960	0.063615
564.991032	0.063742
565.204087	0.063685
565.417123	0.063599
565.630141	0.063434
565.843140	0.063635
566.056122	0.063128
566.269085	0.062827
566.482030	0.063457
566.694957	0.063275
566.907866	0.062922
567.120756	0.063387
567.333628	0.063819
567.546482	0.064463
567.759318	0.064570
567.972135	0.065310
568.184935	0.065192
568.397716	0.064765
568.610478	0.064954
568.823223	0.064958
569.035949	0.065046
569.248657	0.064510
569.461347	0.063859
569.674019	0.063939
569.886672	0.063465
570.099308	0.063762
570.311925	0.063707
570.524523	0.063862
570.737104	0.063596
570.949666	0.063376
571.162210	0.063593
571.374736	0.064230
571.587244	0.064145
571.799733	0.064432
572.012205	0.064761
572.224658	0.065204
572.437092	0.065150
572.649509	0.065448
572.861907	0.065115
573.074287	0.065542
573.286649	0.065031
573.498993	0.064998
573.711318	0.065432
573.923625	0.064761
574.135914	0.064417
574.348185	0.064342
574.560438	0.064538
574.772672	0.064043
574.984888	0.063413
575.197086	0.063425
575.409266	0.063407
575.621427	0.062663
575.833570	0.062537
576.045695	0.062395
576.257802	0.062357
576.469890	0.062295
576.681961	0.062238
576.894013	0.062098
577.106046	0.062502
577.318062	0.061788
577.530059	0.061890
577.742039	0.062091
577.954000	0.061899
578.165942	0.062050
578.377867	0.061909
578.589773	0.062028
578.801661	0.061947
579.013531	0.061431
579.225382	0.061738
579.437216	0.062129
579.649031	0.061985
579.860828	0.061753
580.072606	0.060990
580.284367	0.060778
580.496109	0.061214
580.707833	0.061639
580.919539	0.061379
581.131227	0.060939
581.342896	0.061226
581.554547	0.061271
581.766180	0.061666
581.977795	0.062545
582.189391	0.062047
582.400969	0.061936
582.612529	0.061970
582.824071	0.062835
583.035595	0.063304
583.247100	0.062897
583.458587	0.063084
583.670056	0.062916
583.881506	0.062397
584.092939	0.062946
584.304353	0.063177
584.515749	0.062979
584.727127	0.062650
584.938486	0.063112
585.149828	0.063174
585.361151	0.062941
585.572456	0.062773
585.783742	0.063574
585.995011	0.063659
586.206261	0.063321
586.417493	0.063365
586.628706	0.063256
586.839902	0.062948
587.051079	0.062961
587.262238	0.063183
587.473379	0.062915
587.684502	0.061931
587.895606	0.062110
588.106692	0.062516
588.317760	0.062799
588.528810	0.062684
588.739841	0.063222
588.950855	0.063528
589.161850	0.063547
589.372827	0.063778
589.583785	0.064044
589.794726	0.064402
590.005648	0.064950
590.216552	0.065073
590.427437	0.065767
590.638305	0.065523
590.849154	0.065360
591.059985	0.066071
591.270798	0.066921
591.481592	0.067390
591.692369	0.067720
591.903127	0.066911
592.113867	0.066386
592.324588	0.066265
592.535292	0.066166
592.745977	0.066161
592.956644	0.065625
593.167293	0.064938
593.377923	0.064406
593.588536	0.063188
593.799130	0.063576
594.009706	0.063449
594.220263	0.062983
594.430803	0.062444
594.641324	0.062265
594.851827	0.062261
595.062312	0.062624
595.272778	0.062632
595.483227	0.063171
595.693657	0.062845
595.904069	0.063697
596.114462	0.064210
596.324838	0.064497
596.535195	0.064654
596.745534	0.064353
596.955855	0.064292
597.166157	0.064871
597.376441	0.065400
597.586707	0.065723
597.796955	0.065250
598.007185	0.064690
598.217396	0.065107
598.427589	0.065098
598.637764	0.065185
598.847921	0.065027
599.058060	0.065105
599.268180	0.064943
599.478282	0.064801
599.688366	0.064812
599.898431	0.065169
600.108479	0.065039
600.318508	0.065101
600.528519	0.065472
600.738511	0.065938
600.948486	0.066078
601.158442	0.066255
601.368380	0.066525
601.578300	0.066878
601.788202	0.067073
601.998085	0.067064
602.207950	0.066881
602.417797	0.066820
602.627626	0.066835
602.837436	0.066318
603.047228	0.066380
603.257002	0.066043
603.466758	0.065388
603.676496	0.065451
603.886215	0.065486
604.095916	0.065668
604.305599	0.065509
604.515264	0.064885
604.724910	0.064935
604.934538	0.064470
605.144148	0.064634
605.353740	0.065544
605.563314	0.065246
605.772869	0.065694
605.982406	0.065529
606.191925	0.065930
606.401425	0.066005
606.610908	0.066069
606.820372	0.066311
607.029818	0.066472
607.239246	0.065714
607.448655	0.065898
607.658047	0.064950
607.867420	0.065040
608.076775	0.064624
608.286111	0.064508
608.495430	0.064558
608.704730	0.064254
608.914012	0.063739
609.123275	0.063893
609.332521	0.063584
609.541748	0.064337
609.750957	0.064374
609.960148	0.064619
610.169321	0.065180
610.378475	0.065223
610.587611	0.065335
610.796729	0.065566
611.005829	0.066016
611.214910	0.066254
611.423974	0.066060
611.633019	0.066215
611.842045	0.065967
612.051054	0.065632
612.260044	0.065517
612.469017	0.065376
612.677970	0.065271
612.886906	0.065093
613.095824	0.065039
613.304723	0.064973
613.513604	0.064914
613.722467	0.065241
613.931311	0.065249
614.140138	0.065678
614.348946	0.065517
614.557736	0.065617
614.766507	0.065783
614.975261	0.065543
615.183996	0.065819
615.392713	0.065884
615.601412	0.065588
615.810092	0.065786
616.018754	0.065509
616.227399	0.065849
616.436024	0.065778
616.644632	0.065504
616.853222	0.065727
617.061793	0.065317
617.270346	0.065543
617.478880	0.065736
617.687397	0.065394
617.895895	0.065650
618.104375	0.065512
618.312837	0.065833
618.521281	0.065664
618.729706	0.065320
618.938113	0.065362
619.146502	0.064774
619.354873	0.064557
619.563226	0.064648
619.771560	0.064357
619.979876	0.064091
620.188174	0.064215
620.396453	0.064526
620.604715	0.065083
620.812958	0.064902
621.021183	0.065077
621.229390	0.064931
621.437578	0.064995
621.645748	0.064845
621.853900	0.065047
622.062034	0.064780
622.270150	0.064880
622.478247	0.064797
622.686326	0.064902
622.894387	0.064956
623.102430	0.065078
623.310454	0.065386
623.518461	0.065717
623.726449	0.065996
623.934418	0.066351
624.142370	0.065876
624.350303	0.065856
624.558218	0.065997
624.766115	0.066393
624.973994	0.066844
625.181855	0.066521
625.389697	0.066644
625.597521	0.066540
625.805327	0.066201
626.013114	0.066428
626.220883	0.066487
626.428634	0.066490
626.636367	0.065946
626.844082	0.065911
627.051778	0.066136
627.259457	0.065827
627.467117	0.066004
627.674758	0.066163
627.882382	0.066234
628.089987	0.066003
628.297574	0.066086
628.505143	0.066521
628.712694	0.066456
628.920226	0.066408
629.127740	0.066581
629.335236	0.066479
629.542714	0.066366
629.750174	0.066559
629.957615	0.066830
630.165038	0.067112
630.372443	0.067032
630.579829	0.067296
630.787198	0.067220
630.994548	0.067498
631.201880	0.067448
631.409194	0.067976
631.616489	0.067823
631.823766	0.067645
632.031025	0.067665
632.238266	0.067778
632.445489	0.067738
632.652693	0.067679
632.859879	0.067550
633.067047	0.067615
633.274197	0.067240
633.481329	0.067813
633.688442	0.068065
633.895537	0.068186
634.102614	0.067890
634.309672	0.067638
634.516713	0.067962
634.723735	0.068209
634.930739	0.068316
635.137724	0.068310
635.344692	0.067768
635.551641	0.067693
635.758572	0.067590
635.965485	0.067802
636.172379	0.067504
636.379256	0.067402
636.586114	0.067179
636.792954	0.067443
636.999775	0.067547
637.206579	0.067904
637.413364	0.068071
637.620131	0.068183
637.826880	0.068275
638.033610	0.068882
638.240323	0.068974
638.447017	0.069182
638.653692	0.068849
638.860350	0.068925
639.066990	0.068791
639.273611	0.068725
639.480214	0.068735
639.686798	0.068673
639.893365	0.068438
640.099913	0.068519
640.306443	0.068283
640.512955	0.068023
640.719449	0.067990
640.925924	0.068092
641.132381	0.067970
641.338820	0.067529
641.545241	0.067611
641.751644	0.067560
641.958028	0.067616
642.164394	0.067402
642.370742	0.067558
642.577071	0.067491
642.783383	0.067520
642.989676	0.067697
643.195951	0.068073
643.402207	0.067683
643.608446	0.067740
643.814666	0.067582
644.020868	0.067735
644.227052	0.067659
644.433218	0.067537
644.639365	0.067098
644.845494	0.067074
645.051605	0.066778
645.257698	0.067303
645.463772	0.067522
645.669828	0.067743
645.875866	0.067571
646.081886	0.067716
646.287888	0.068121
646.493871	0.068487
646.699836	0.068256
646.905783	0.068402
647.111712	0.067987
647.317622	0.067650
647.523514	0.067305
647.729388	0.067401
647.935244	0.067448
648.141082	0.066941
648.346901	0.067003
648.552702	0.067271
648.758485	0.067255
648.964250	0.067258
649.169996	0.067477
649.375724	0.067734
649.581434	0.067815
649.787126	0.067775
649.992800	0.067973
650.198455	0.067588
650.404092	0.067435
650.609711	0.067540
650.815311	0.067660
651.020894	0.067613
651.226458	0.067681
651.432004	0.067866
651.637532	0.068101
651.843041	0.068211
652.048532	0.068515
652.254006	0.068799
652.459460	0.068762
652.664897	0.069216
652.870315	0.069260
653.075716	0.069416
653.281097	0.069490
653.486461	0.069508
653.691807	0.069679
653.897134	0.069939
654.102443	0.069748
654.307734	0.069744
654.513006	0.069653
654.718261	0.069723
654.923497	0.069668
655.128715	0.069905
655.333915	0.070265
655.539096	0.070134
655.744259	0.070140
655.949404	0.070362
656.154531	0.070728
656.359640	0.071052
656.564730	0.071452
656.769802	0.071935
656.974856	0.071303
657.179892	0.071162
657.384909	0.071514
657.589908	0.071374
657.794889	0.071650
657.999852	0.071506
658.204797	0.071577
658.409723	0.071445
658.614631	0.070888
658.819521	0.071344
659.024393	0.071237
659.229246	0.071403
659.434081	0.071496
659.638898	0.071309
659.843697	0.071191
660.048478	0.070946
660.253240	0.071043
660.457984	0.071111
660.662710	0.071102
660.867417	0.071180
661.072107	0.070847
661.276778	0.071044
661.481431	0.071204
661.686066	0.071170
661.890682	0.071141
662.095281	0.071016
662.299861	0.070861
662.504422	0.070717
662.708966	0.070832
662.913491	0.070931
663.117999	0.070884
663.322488	0.071013
663.526958	0.071302
663.731411	0.070799
663.935845	0.070601
664.140261	0.071015
664.344659	0.071330
664.549038	0.071165
664.753400	0.071209
664.957743	0.071046
665.162068	0.070892
665.366375	0.070979
665.570663	0.071573
665.774933	0.071864
665.979185	0.071903
666.183419	0.071862
666.387635	0.071776
666.591832	0.071789
666.796011	0.072105
667.000172	0.071819
667.204315	0.071800
667.408439	0.071693
667.612545	0.071682
667.816634	0.071866
668.020703	0.071710
668.224755	0.072131
668.428788	0.071979
668.632803	0.071852
668.836800	0.072014
669.040779	0.072049
669.244739	0.072144
669.448681	0.071804
669.652605	0.071779
669.856511	0.072148
670.060399	0.072136
670.264268	0.072185
670.468119	0.072088
670.671952	0.072522
670.875767	0.072468
671.079563	0.072779
671.283341	0.073227
671.487101	0.073097
671.690843	0.073316
671.894567	0.073099
672.098272	0.073088
672.301959	0.073480
672.505628	0.073113
672.709278	0.073067
672.912911	0.072924
673.116525	0.072903
673.320121	0.072849
673.523699	0.072539
673.727258	0.072655
673.930799	0.072848
674.134322	0.072642
674.337827	0.072937
674.541314	0.073204
674.744782	0.073240
674.948232	0.073040
675.151664	0.073268
675.355078	0.073507
675.558474	0.073718
675.761851	0.073748
675.965210	0.073822
676.168551	0.073792
676.371873	0.073558
676.575178	0.073662
676.778464	0.073792
676.981732	0.073507
677.184981	0.073295
677.388213	0.073265
677.591426	0.073144
677.794621	0.073202
677.997798	0.073357
678.200956	0.073385
678.404097	0.073247
678.607219	0.073326
678.810323	0.073755
679.013408	0.073719
679.216476	0.073551
679.419525	0.073711
679.622556	0.073565
679.825569	0.073261
680.028563	0.073517
680.231540	0.073445
680.434498	0.073408
680.637438	0.073376
680.840359	0.073535
681.043263	0.073940
681.246148	0.073885
681.449015	0.073971
681.651864	0.074035
681.854694	0.074120
682.057506	0.074276
682.260301	0.074439
682.463076	0.074537
682.665834	0.074614
682.868573	0.074626
683.071295	0.074759
683.273998	0.074832
683.476682	0.075096
683.679349	0.075026
683.881997	0.075198
684.084627	0.075346
684.287239	0.075368
684.489833	0.075403
684.692408	0.075157
684.894965	0.075334
685.097504	0.075352
685.300025	0.075324
685.502527	0.075262
685.705012	0.075096
685.907478	0.074940
686.109925	0.074928
686.312355	0.074924
686.514766	0.075025
686.717159	0.075046
686.919534	0.075138
687.121891	0.075078
687.324230	0.075195
687.526550	0.075350
687.728852	0.075324
687.931136	0.075340
688.133401	0.075672
688.335649	0.075991
688.537878	0.075659
688.740089	0.075536
688.942281	0.075642
689.144456	0.075707
689.346612	0.075687
689.548750	0.075885
689.750870	0.075962
689.952971	0.075749
690.155055	0.075550
690.357120	0.076063
690.559167	0.076026
690.761195	0.075748
690.963206	0.075680
691.165198	0.075771
691.367172	0.075755
691.569128	0.075523
691.771065	0.075424
691.972984	0.075385
692.174885	0.075122
692.376768	0.075059
692.578633	0.075092
692.780479	0.074988
692.982308	0.074928
693.184118	0.075034
693.385909	0.075205
693.587683	0.075108
693.789438	0.075018
693.991175	0.075024
694.192894	0.075287
694.394595	0.075393
694.596277	0.075725
694.797941	0.075810
694.999587	0.075710
695.201215	0.075779
695.402824	0.075786
695.604416	0.075884
695.805989	0.076190
696.007543	0.076372
696.209080	0.076540
696.410598	0.076540
696.612099	0.076436
696.813580	0.076526
697.015044	0.076692
697.216490	0.076803
697.417917	0.076719
697.619326	0.076456
697.820717	0.076209
698.022089	0.076260
698.223444	0.076251
698.424780	0.076309
698.626098	0.076371
698.827397	0.076163
699.028679	0.076274
699.229942	0.076270
699.431187	0.076666
699.632414	0.076719
699.833622	0.076703
700.034813	0.076536
700.235985	0.076444
700.437139	0.076460
700.638274	0.076306
700.839392	0.076413
701.040491	0.076634
701.241572	0.075965
701.442635	0.076154
701.643679	0.076280
701.844706	0.076457
702.045714	0.076604
702.246704	0.076700
702.447675	0.076880
702.648629	0.076633
702.849564	0.076504
703.050481	0.076661
703.251380	0.076337
703.452260	0.076581
703.653122	0.076743
703.853966	0.076661
704.054792	0.076593
704.255600	0.076716
704.456389	0.077049
704.657160	0.077138
704.857913	0.077428
705.058648	0.077661
705.259365	0.077111
705.460063	0.077266
705.660743	0.077499
705.861405	0.077666
706.062048	0.077988
706.262674	0.078157
706.463281	0.078400
706.663870	0.078396
706.864441	0.078193
707.064993	0.078153
707.265527	0.077888
707.466043	0.077710
707.666541	0.077399
707.867021	0.076734
708.067482	0.076269
708.267925	0.076098
708.468350	0.076003
708.668757	0.076105
708.869145	0.076347
709.069516	0.076254
709.269868	0.076189
709.470201	0.076400
709.670517	0.076620
709.870814	0.076711
710.071093	0.076532
710.271354	0.076619
710.471597	0.076485
710.671821	0.076366
710.872028	0.076281
711.072216	0.076289
711.272385	0.076092
711.472537	0.076137
711.672670	0.075997
711.872785	0.076101
712.072882	0.075910
712.272961	0.076286
712.473021	0.076315
712.673063	0.076093
712.873087	0.076011
713.073093	0.075966
713.273081	0.075800
713.473050	0.076055
713.673001	0.076006
713.872934	0.075951
714.072849	0.075798
714.272745	0.075769
714.472623	0.076142
714.672483	0.076131
714.872325	0.075787
715.072148	0.075775
715.271954	0.075613
715.471741	0.075605
715.671509	0.075623
715.871260	0.075672
716.070992	0.075829
716.270707	0.075652
716.470403	0.075757
716.670080	0.076249
716.869740	0.076189
717.069381	0.076261
717.269004	0.076163
717.468609	0.076367
717.668195	0.075967
717.867764	0.075718
718.067314	0.075623
718.266846	0.075358
718.466360	0.075154
718.665855	0.074842
718.865332	0.074874
719.064791	0.074772
719.264232	0.074724
719.463655	0.074994
719.663059	0.075114
719.862445	0.075345
720.061813	0.075330
720.261163	0.075134
720.460494	0.075232
720.659807	0.075076
720.859102	0.074906
721.058379	0.074628
721.257638	0.074397
721.456878	0.074122
721.656100	0.073820
721.855304	0.073748
722.054490	0.073525
722.253657	0.073672
722.452806	0.073704
722.651937	0.073817
722.851050	0.073942
723.050145	0.073908
723.249221	0.073801
723.448279	0.073912
723.647319	0.073972
723.846340	0.074371
724.045344	0.074351
724.244329	0.073781
724.443296	0.073525
724.642245	0.073109
724.841175	0.072898
725.040088	0.072803
725.238982	0.072435
725.437857	0.072247
725.636715	0.071983
725.835554	0.071354
726.034376	0.071275
726.233179	0.071469
726.431963	0.071292
726.630730	0.071154
726.829478	0.071297
727.028208	0.071207
727.226920	0.071519
727.425614	0.071621
727.624289	0.071862
727.822946	0.072229
728.021585	0.072033
728.220206	0.072100
728.418808	0.072448
728.617392	0.072361
728.815958	0.072546
729.014506	0.072416
729.213036	0.072207
729.411547	0.072302
729.610040	0.072311
729.808515	0.072245
730.006972	0.072359
730.205410	0.071906
730.403831	0.071728
730.602233	0.071531
730.800616	0.071325
730.998982	0.071105
731.197329	0.070953
731.395658	0.070623
731.593969	0.070322
731.792262	0.070364
731.990536	0.070576
732.188793	0.070582
732.387031	0.070485
732.585250	0.070223
732.783452	0.070252
732.981635	0.070367
733.179800	0.070315
733.377947	0.070523
733.576076	0.070605
733.774186	0.070307
733.972278	0.070293
734.170352	0.070327
734.368408	0.070606
734.566446	0.070701
734.764465	0.070883
734.962466	0.070743
735.160449	0.070644
735.358413	0.070541
735.556360	0.070625
735.754288	0.070530
735.952198	0.070555
736.150090	0.070710
736.347963	0.070815
736.545818	0.070537
736.743655	0.071136
736.941474	0.071250
737.139275	0.071083
737.337057	0.071152
737.534821	0.071311
737.732567	0.071010
737.930295	0.070717
738.128005	0.070596
738.325696	0.070525
738.523369	0.070192
738.721024	0.070055
738.918660	0.070304
739.116279	0.070376
739.313879	0.070356
739.511461	0.070336
739.709024	0.070300
739.906570	0.070581
740.104097	0.070658
740.301606	0.070828
740.499097	0.071255
740.696569	0.071093
740.894024	0.070982
741.091460	0.071071
741.288878	0.071311
741.486277	0.071399
741.683659	0.071192
741.881022	0.071268
742.078367	0.071240
742.275694	0.071044
742.473002	0.071317
742.670293	0.071326
742.867565	0.070945
743.064819	0.070832
743.262054	0.070481
743.459272	0.070106
743.656471	0.069829
743.853652	0.069289
744.050815	0.069007
744.247959	0.068346
744.445085	0.068187
744.642194	0.068412
744.839283	0.068315
745.036355	0.068238
745.233408	0.068491
745.430444	0.068354
745.627461	0.068431
745.824459	0.068132
746.021440	0.068059
746.218402	0.067936
746.415346	0.067217
746.612272	0.066835
746.809180	0.066996
747.006069	0.066398
747.202940	0.066537
747.399793	0.066540
747.596628	0.066329
747.793444	0.066245
747.990243	0.065976
748.187023	0.066091
748.383784	0.066179
748.580528	0.065921
748.777253	0.065929
748.973960	0.065608
749.170649	0.065515
749.367320	0.066028
749.563973	0.066062
749.760607	0.065855
749.957223	0.066235
750.153821	0.066248
750.350400	0.066099
750.546962	0.066027
750.743505	0.065984
750.940030	0.065787
751.136536	0.065447
751.333025	0.065358
751.529495	0.065539
751.725947	0.065448
751.922381	0.065417
752.118796	0.065551
752.315194	0.065947
752.511573	0.066072
752.707934	0.066183
752.904276	0.066330
753.100601	0.066713
753.296907	0.066827
753.493195	0.066610
753.689465	0.066582
753.885716	0.066973
754.081949	0.066873
754.278164	0.066683
754.474361	0.066561
754.670540	0.066648
754.866700	0.066419
755.062843	0.066436
755.258967	0.066543
755.455072	0.066722
755.651160	0.066311
755.847229	0.066298
756.043280	0.066336
756.239313	0.066413
756.435328	0.066317
756.631324	0.066427
756.827302	0.066015
757.023262	0.065890
757.219204	0.065643
757.415127	0.065635
757.611033	0.065632
757.806920	0.066019
758.002788	0.066084
758.198639	0.066147
758.394471	0.065804
758.590286	0.066255
758.786081	0.066023
758.981859	0.066197
759.177619	0.066220
759.373360	0.065857
759.569083	0.065524
759.764788	0.065364
759.960474	0.065488
760.156143	0.065333
760.351793	0.065368
760.547425	0.065582
760.743038	0.065699
760.938634	0.066024
761.134211	0.066167
761.329770	0.066364
761.525311	0.066334
761.720833	0.066106
761.916338	0.066494
762.111824	0.066579
762.307292	0.066656
762.502741	0.066404
762.698173	0.065966
762.893586	0.066055
763.088981	0.065839
763.284358	0.065969
763.479716	0.066137
763.675057	0.066199
763.870379	0.065992
764.065683	0.066005
764.260968	0.066026
764.456236	0.066144
764.651485	0.066286
764.846716	0.065959
765.041929	0.065717
765.237123	0.065572
765.432299	0.065310
765.627457	0.065318
765.822597	0.065085
766.017719	0.065302
766.212822	0.065252
766.407907	0.064793
766.602974	0.065174
766.798023	0.065227
766.993054	0.065075
767.188066	0.065069
767.383060	0.065102
767.578036	0.065318
767.772993	0.065048
767.967933	0.064983
768.162854	0.065164
768.357757	0.064951
768.552642	0.065448
768.747508	0.065319
768.942356	0.065192
769.137186	0.064800
769.331998	0.064689
769.526792	0.064367
769.721567	0.063941
769.916324	0.063989
770.111063	0.063844
770.305784	0.063493
770.500486	0.063630
770.695171	0.063441
770.889837	0.063498
771.084484	0.063629
771.279114	0.063789
771.473725	0.063916
771.668318	0.063910
771.862893	0.064306
772.057450	0.063854
772.251988	0.063565
772.446509	0.063808
772.641011	0.063826
772.835494	0.063606
773.029960	0.063787
773.224407	0.064278
773.418836	0.064011
773.613247	0.063835
773.807640	0.064137
774.002014	0.064233
774.196370	0.063949
774.390708	0.064200
774.585028	0.064232
774.779330	0.064276
774.973613	0.063671
775.167878	0.063879
775.362125	0.063711
775.556354	0.063874
775.750564	0.063889
775.944756	0.064105
776.138930	0.063811
776.333086	0.063643
776.527223	0.063491
776.721343	0.063790
776.915444	0.063454
777.109526	0.063470
777.303591	0.063329
777.497637	0.063294
777.691666	0.063346
777.885676	0.063567
778.079667	0.063921
778.273641	0.063980
778.467596	0.064089
778.661533	0.064681
778.855452	0.064804
779.049352	0.064587
779.243235	0.064771
779.437099	0.064597
779.630945	0.064462
779.824773	0.064225
780.018582	0.064325
780.212373	0.064348
780.406146	0.064096
780.599901	0.064097
780.793638	0.064011
780.987356	0.063833
781.181056	0.064007
781.374738	0.064577
781.568402	0.064664
781.762047	0.064378
781.955674	0.064465
782.149283	0.064379
782.342874	0.064229
782.536447	0.064445
782.730001	0.064388
782.923537	0.064480
783.117055	0.063973
783.310555	0.064048
783.504036	0.064163
783.697499	0.064114
783.890944	0.064412
784.084371	0.064370
784.277780	0.064436
784.471170	0.064565
784.664542	0.063988
784.857896	0.063953
785.051231	0.063729
785.244549	0.063637
785.437848	0.063359
785.631129	0.062915
785.824392	0.062975
786.017636	0.062899
786.210863	0.062753
786.404071	0.062819
786.597260	0.062312
786.790432	0.062258
786.983585	0.061952
787.176721	0.061890
787.369838	0.062017
787.562936	0.061874
787.756017	0.061667
787.949079	0.061804
788.142123	0.061873
788.335149	0.061980
788.528156	0.062071
788.721146	0.062259
788.914117	0.062271
789.107070	0.062207
789.300005	0.062413
789.492921	0.062517
789.685819	0.062671
789.878699	0.062921
790.071561	0.063301
790.264405	0.063063
790.457230	0.063375
790.650037	0.063387
790.842826	0.063390
791.035597	0.063560
791.228349	0.063431
791.421084	0.063332
791.613800	0.063575
791.806497	0.063675
791.999177	0.063865
792.191838	0.063935
792.384481	0.064017
792.577106	0.063984
792.769713	0.063813
792.962301	0.064021
793.154871	0.063956
793.347423	0.064125
793.539957	0.064143
793.732473	0.064231
793.924970	0.064128
794.117449	0.064190
794.309910	0.064286
794.502353	0.064539
794.694777	0.064424
794.887183	0.064471
795.079571	0.064280
795.271941	0.064246
795.464293	0.064095
795.656626	0.064084
795.848941	0.063959
796.041238	0.064375
796.233516	0.064455
796.425777	0.064630
796.618019	0.064759
796.810243	0.064710
797.002449	0.064838
797.194636	0.065317
797.386805	0.065518
797.578956	0.065897
797.771089	0.065557
797.963204	0.065389
798.155300	0.065470
798.347378	0.065350
798.539438	0.065490
798.731480	0.065339
798.923503	0.065175
799.115509	0.065059
799.307496	0.064693
799.499465	0.064686
799.691415	0.064665
799.883348	0.064370
800.075262	0.064546
800.267158	0.064552
800.459035	0.064613
800.650895	0.065005
800.842736	0.065208
801.034559	0.065495
801.226364	0.065526
801.418150	0.065465
801.609919	0.065627
801.801669	0.065567
801.993401	0.065535
802.185114	0.065910
802.376810	0.065594
802.568487	0.065746
802.760146	0.065996
802.951787	0.066429
803.143409	0.066471
803.335014	0.066614
803.526600	0.066502
803.718168	0.066054
803.909717	0.066058
804.101249	0.066031
804.292762	0.065567
804.484257	0.065490
804.675734	0.065149
804.867192	0.065164
805.058632	0.065383
805.250054	0.065572
805.441458	0.065793
805.632844	0.065228
805.824211	0.065282
806.015561	0.065277
806.206891	0.065494
806.398204	0.065532
806.589499	0.065769
806.780775	0.065709
806.972033	0.065978
807.163273	0.066461
807.354495	0.066675
807.545698	0.066811
807.736883	0.067265
807.928050	0.066902
808.119199	0.066921
808.310329	0.066944
808.501441	0.066908
808.692535	0.066724
808.883611	0.066609
809.074669	0.066974
809.265708	0.067149
809.456729	0.067138
809.647732	0.067346
809.838717	0.067629
810.029683	0.067757
810.220632	0.068011
810.411562	0.068081
810.602474	0.068243
810.793367	0.067962
810.984242	0.067598
811.175100	0.067706
811.365938	0.067876
811.556759	0.068040
811.747562	0.067783
811.938346	0.067651
812.129112	0.067596
812.319860	0.067292
812.510589	0.067343
812.701300	0.067426
812.891994	0.067251
813.082668	0.066949
813.273325	0.066736
813.463964	0.067153
813.654584	0.067293
813.845186	0.067469
814.035769	0.067953
814.226335	0.068233
814.416882	0.068095
814.607411	0.068396
814.797922	0.068853
814.988415	0.068890
815.178889	0.068711
815.369345	0.068652
815.559783	0.068783
815.750203	0.068798
815.940605	0.068711
816.130988	0.069249
816.321353	0.069153
816.511700	0.068986
816.702028	0.068968
816.892339	0.068940
817.082631	0.068737
817.272905	0.068964
817.463161	0.068691
817.653398	0.068785
817.843617	0.068570
818.033819	0.068379
818.224001	0.068242
818.414166	0.068456
818.604312	0.068483
818.794440	0.068831
818.984550	0.068351
819.174642	0.068774
819.364716	0.068846
819.554771	0.068929
819.744808	0.068956
819.934827	0.068962
820.124827	0.068704
820.314810	0.068665
820.504774	0.068750
820.694720	0.068931
820.884647	0.068163
821.074557	0.067927
821.264448	0.068209
821.454321	0.068491
821.644176	0.068468
821.834012	0.068787
822.023831	0.068854
822.213631	0.068566
822.403413	0.068938
822.593176	0.069438
822.782922	0.069841
822.972649	0.069637
823.162358	0.069609
823.352049	0.070085
823.541721	0.069763
823.731376	0.069554
823.921012	0.069508
824.110629	0.069279
824.300229	0.069242
824.489811	0.069379
824.679374	0.069071
824.868919	0.068916
825.058445	0.068503
825.247954	0.068826
825.437444	0.069556
825.626916	0.069978
825.816370	0.069600
826.005806	0.069807
826.195223	0.069664
826.384622	0.070335
826.574003	0.070234
826.763366	0.070222
826.952711	0.070459
827.142037	0.070020
827.331345	0.070018
827.520635	0.069891
827.709906	0.069558
827.899160	0.069404
828.088395	0.069129
828.277612	0.069552
828.466810	0.069897
828.655991	0.069636
828.845153	0.069431
829.034297	0.069200
829.223423	0.069842
829.412531	0.070445
829.601620	0.070680
829.790691	0.070391
829.979744	0.070562
830.168779	0.070420
830.357795	0.070408
830.546793	0.070566
830.735773	0.070894
830.924735	0.070647
831.113679	0.070337
831.302604	0.070392
831.491511	0.070904
831.680400	0.070940
831.869271	0.070960
832.058123	0.071091
832.246957	0.071229
832.435773	0.071364
832.624571	0.071813
832.813351	0.071733
833.002112	0.071891
833.190855	0.071956
833.379580	0.071972
833.568287	0.071818
833.756975	0.072065
833.945645	0.072666
834.134297	0.072630
834.322931	0.072623
834.511547	0.072977
834.700144	0.073201
834.888723	0.073302
835.077284	0.073453
835.265826	0.074244
835.454351	0.074528
835.642857	0.074046
835.831345	0.074186
836.019815	0.074183
836.208266	0.074412
836.396699	0.074623
836.585114	0.074559
836.773511	0.074520
836.961890	0.074529
837.150250	0.074596
837.338592	0.074767
837.526916	0.074965
837.715222	0.074850
837.903510	0.074561
838.091779	0.074322
838.280030	0.074379
838.468263	0.074925
838.656477	0.075088
838.844674	0.075056
839.032852	0.075291
839.221012	0.075190
839.409153	0.075743
839.597277	0.075835
839.785382	0.075941
839.973469	0.076063
840.161538	0.075747
840.349589	0.075298
840.537621	0.075169
840.725635	0.074801
840.913631	0.075047
841.101609	0.074845
841.289568	0.075371
841.477509	0.075842
841.665432	0.075964
841.853337	0.076416
842.041224	0.076488
842.229092	0.076474
842.416942	0.076922
842.604774	0.076849
842.792588	0.076656
842.980383	0.076768
843.168160	0.076571
843.355919	0.076624
843.543660	0.076034
843.731382	0.076370
843.919087	0.076905
844.106773	0.077208
844.294441	0.077174
844.482090	0.077926
844.669722	0.077831
844.857335	0.077814
845.044930	0.077998
845.232507	0.078292
845.420065	0.079182
845.607605	0.079317
845.795127	0.079111
845.982631	0.079184
846.170117	0.079145
846.357584	0.079161
846.545033	0.079525
846.732464	0.079744
846.919877	0.080134
847.107272	0.079676
847.294648	0.079660
847.482006	0.080154
847.669346	0.080499
847.856667	0.080937
848.043971	0.081223
848.231256	0.081395
848.418523	0.081153
848.605771	0.081244
848.793002	0.081290
848.980214	0.081236
849.167408	0.081138
849.354584	0.081351
849.541742	0.081119
849.728881	0.081598
849.916002	0.081318
850.103105	0.081485
850.290190	0.081627
850.477256	0.081680
850.664304	0.081953
850.851334	0.082098
851.038346	0.082294
851.225340	0.082496
851.412315	0.082287
851.599272	0.082359
851.786211	0.082988
851.973132	0.083330
852.160034	0.083556
852.346918	0.083469
852.533784	0.083691
852.720632	0.083471
852.907462	0.083291
853.094273	0.083233
853.281066	0.083770
853.467841	0.083989
853.654598	0.083546
853.841336	0.083767
854.028056	0.083520
854.214758	0.083422
854.401442	0.083526
854.588107	0.084092
854.774755	0.084119
854.961384	0.083983
855.147995	0.083655
855.334587	0.083865
855.521162	0.083522
855.707718	0.084057
855.894256	0.084096
856.080775	0.083899
856.267277	0.084218
856.453760	0.084322
856.640225	0.084576
856.826672	0.084308
857.013101	0.084159
857.199511	0.084393
857.385903	0.084666
857.572277	0.084996
857.758633	0.085041
857.944970	0.084204
858.131290	0.084002
858.317591	0.083750
858.503873	0.084353
858.690138	0.084661
858.876384	0.084862
859.062612	0.085038
859.248822	0.084949
859.435014	0.085599
859.621188	0.085527
859.807343	0.085861
859.993480	0.086143
860.179599	0.086006
860.365699	0.085963
860.551781	0.086100
860.737846	0.085894
860.923891	0.086116
861.109919	0.086395
861.295929	0.086607
861.481920	0.086524
861.667893	0.086089
861.853848	0.086206
862.039784	0.086347
862.225702	0.086015
862.411603	0.085567
862.597484	0.085589
862.783348	0.084991
862.969193	0.085481
863.155021	0.086010
863.340830	0.086058
863.526620	0.086237
863.712393	0.085784
863.898147	0.085827
864.083883	0.086203
864.269601	0.086055
864.455301	0.086513
864.640982	0.086755
864.826645	0.087148
865.012290	0.087723
865.197917	0.087826
865.383526	0.088569
865.569116	0.088956
865.754688	0.089692
865.940242	0.089936
866.125777	0.089881
866.311295	0.089714
866.496794	0.089216
866.682275	0.089170
866.867737	0.089119
867.053182	0.088981
867.238608	0.088872
867.424016	0.088709
867.609406	0.088727
867.794778	0.088961
867.980131	0.088960
868.165466	0.089429
868.350783	0.089327
868.536082	0.089480
868.721362	0.089573
868.906625	0.089691
869.091869	0.089422
869.277094	0.089670
869.462302	0.089731
869.647491	0.089688
869.832662	0.089662
870.017815	0.090190
870.202950	0.089995
870.388066	0.090443
870.573165	0.090796
870.758245	0.090736
870.943306	0.089987
871.128350	0.090068
871.313375	0.089910
871.498382	0.090009
871.683371	0.089823
871.868342	0.090060
872.053294	0.089605
872.238229	0.089071
872.423144	0.088979
872.608042	0.090111
872.792922	0.089857
872.977783	0.090444
873.162626	0.090472
873.347451	0.090826
873.532258	0.090638
873.717046	0.091099
873.901816	0.091841
874.086568	0.091892
874.271302	0.091598
874.456017	0.092044
874.640715	0.091767
874.825394	0.091640
875.010055	0.091956
875.194697	0.092457
875.379322	0.092667
875.563928	0.092141
875.748516	0.092986
875.933085	0.092649
876.117637	0.092959
876.302170	0.092912
876.486685	0.092533
876.671182	0.092136
876.855661	0.092306
877.040121	0.091780
877.224563	0.092290
877.408987	0.091597
877.593393	0.091656
877.777780	0.091625
877.962150	0.091478
878.146501	0.091976
878.330833	0.091320
878.515148	0.091087
878.699444	0.091156
878.883722	0.090820
879.067982	0.090636
879.252224	0.091518
879.436447	0.091289
879.620653	0.091003
879.804840	0.090765
879.989008	0.091211
880.173159	0.091152
880.357291	0.091261
880.541405	0.091962
880.725501	0.091974
880.909579	0.091554
881.093638	0.091561
881.277680	0.092667
881.461703	0.093169
881.645707	0.093202
881.829694	0.092628
882.013662	0.093130
882.197612	0.092373
882.381544	0.092947
882.565458	0.093022
882.749353	0.092324
882.933230	0.092168
883.117089	0.092310
883.300930	0.091916
883.484753	0.092714
883.668557	0.091857
883.852343	0.092804
884.036111	0.093005
884.219861	0.092438
884.403592	0.093700
884.587305	0.093722
884.771000	0.093190
884.954677	0.093703
885.138335	0.093628
885.321976	0.093856
885.505598	0.093489
885.689201	0.093080
885.872787	0.093741
886.056354	0.093568
886.239904	0.093509
886.423434	0.093819
886.606947	0.094451
886.790442	0.094351
886.973918	0.094754
887.157376	0.094232
887.340816	0.094125
887.524237	0.094168
887.707641	0.094042
887.891026	0.094360
888.074393	0.094314
888.257741	0.093324
888.441072	0.093480
888.624384	0.093133
888.807678	0.093422
888.990954	0.093653
889.174211	0.093351
889.357451	0.092722
889.540672	0.091934
889.723875	0.091508
889.907059	0.092223
890.090226	0.092133
890.273374	0.092426
890.456504	0.092456
890.639616	0.092577
890.822709	0.092979
891.005785	0.093547
891.188842	0.093882
891.371881	0.094088
891.554901	0.093838
891.737904	0.093593
891.920888	0.093426
892.103854	0.093243
892.286802	0.093172
892.469731	0.092538
892.652643	0.092530
892.835536	0.092294
893.018410	0.092450
893.201267	0.092535
893.384106	0.093097
893.566926	0.093101
893.749728	0.093227
893.932511	0.092923
894.115277	0.092853
894.298024	0.092877
894.480753	0.093453
894.663464	0.093337
894.846157	0.093162
895.028831	0.092478
895.211487	0.092684
895.394125	0.092685
895.576745	0.092174
895.759346	0.092300
895.941930	0.092129
896.124495	0.091543
896.307041	0.091214
896.489570	0.090527
896.672080	0.090455
896.854573	0.089917
897.037046	0.089235
897.219502	0.090354
897.401940	0.090720
897.584359	0.090465
897.766760	0.090364
897.949143	0.090327
898.131507	0.090993
898.313854	0.090777
898.496182	0.091202
898.678492	0.091484
898.860783	0.091296
899.043057	0.091055
899.225312	0.091083
899.407549	0.091314
899.589768	0.091336
899.771968	0.091508
899.954151	0.091604
900.136315	0.091455
900.318461	0.091561
900.500588	0.091555
900.682698	0.091172
900.864789	0.091018
901.046862	0.090709
901.228917	0.090930
901.410953	0.090874
901.592971	0.091212
901.774972	0.090054
901.956953	0.089581
902.138917	0.089242
902.320862	0.089635
902.502790	0.089615
902.684699	0.090003
902.866589	0.089730
903.048462	0.089386
903.230316	0.088476
903.412152	0.089081
903.593970	0.088790
903.775770	0.088914
903.957551	0.088829
904.139314	0.088929
904.321059	0.088363
904.502786	0.088424
904.684494	0.088419
904.866185	0.089025
905.047857	0.089149
905.229510	0.089263
905.411146	0.089284
905.592763	0.089753
905.774363	0.089300
905.955943	0.089669
906.137506	0.089713
906.319051	0.089090
906.500577	0.089483
906.682085	0.089253
906.863575	0.088969
907.045046	0.088206
907.226500	0.087681
907.407935	0.088205
907.589352	0.086568
907.770750	0.086274
907.952131	0.086811
908.133493	0.086039
908.314837	0.086265
908.496163	0.087244
908.677470	0.087002
908.858760	0.086582
909.040031	0.085853
909.221284	0.086796
909.402518	0.085994
909.583735	0.085297
909.764933	0.085474
909.946113	0.084764
910.127275	0.084228
910.308418	0.084704
910.489544	0.084556
910.670651	0.084483
910.851740	0.084474
911.032810	0.084621
911.213863	0.084467
911.394897	0.084136
911.575913	0.084579
911.756911	0.084505
911.937890	0.084544
912.118851	0.083846
912.299794	0.084613
912.480719	0.084268
912.661626	0.084682
912.842514	0.084993
913.023384	0.084520
913.204236	0.084060
913.385070	0.083351
913.565886	0.083102
913.746683	0.083854
913.927462	0.082293
914.108223	0.081957
914.288965	0.081755
914.469690	0.081074
914.650396	0.081237
914.831084	0.081403
915.011754	0.081571
915.192405	0.080765
915.373038	0.080836
915.553653	0.081390
915.734250	0.081419
915.914829	0.080195
916.095389	0.080457
916.275931	0.080334
916.456455	0.079584
916.636961	0.079888
916.817448	0.080152
916.997917	0.078422
917.178368	0.078002
917.358801	0.078135
917.539216	0.079042
917.719612	0.079177
917.899990	0.078739
918.080350	0.078887
918.260692	0.078102
918.441015	0.078226
918.621320	0.079390
918.801607	0.079291
918.981876	0.079554
919.162127	0.079356
919.342359	0.078034
919.522573	0.078145
919.702769	0.078083
919.882947	0.077847
920.063106	0.077176
920.243247	0.077081
920.423370	0.076170
920.603475	0.075871
920.783562	0.075511
920.963630	0.075971
921.143680	0.075165
921.323712	0.074985
921.503725	0.075051
921.683721	0.074659
921.863698	0.073914
922.043657	0.074643
922.223598	0.073928
922.403520	0.074251
922.583424	0.073347
922.763311	0.074156
922.943178	0.074189
923.123028	0.073422
923.302859	0.073107
923.482673	0.072100
923.662467	0.071724
923.842244	0.072056
924.022003	0.071349
924.201743	0.071552
924.381465	0.070589
924.561169	0.069796
924.740854	0.069541
924.920522	0.069680
925.100171	0.070117
925.279802	0.069258
925.459414	0.068715
925.639009	0.068004
925.818585	0.067942
925.998143	0.067796
926.177683	0.067786
926.357205	0.067955
926.536708	0.067253
926.716193	0.066524
926.895660	0.066732
927.075109	0.066320
927.254539	0.066239
927.433951	0.066979
927.613345	0.066874
927.792721	0.065722
927.972079	0.065755
928.151418	0.065815
928.330739	0.065996
928.510042	0.066162
928.689327	0.066222
928.868593	0.066539
929.047841	0.065326
929.227071	0.064454
929.406283	0.065112
929.585476	0.063765
929.764652	0.063682
929.943809	0.063576
930.122948	0.062600
930.302068	0.061831
930.481171	0.060794
930.660255	0.059607
930.839321	0.060066
931.018369	0.059026
931.197398	0.059647
931.376409	0.059215
931.555402	0.058279
931.734377	0.058555
931.913334	0.058470
932.092272	0.057516
932.271192	0.058744
932.450094	0.057646
932.628978	0.056564
932.807844	0.055087
932.986691	0.055038
933.165520	0.055067
933.344331	0.054702
933.523123	0.053428
933.701898	0.052931
933.880654	0.051643
934.059392	0.051726
934.238111	0.052931
934.416813	0.054022
934.595496	0.053116
934.774161	0.053019
934.952808	0.051748
935.131437	0.051952
935.310047	0.053131
935.488639	0.053356
935.667213	0.053332
935.845769	0.052177
936.024306	0.052048
936.202825	0.050966
936.381326	0.051504
936.559809	0.052633
936.738274	0.051142
936.916720	0.050659
937.095148	0.050326
937.273558	0.049280
937.451950	0.050145
937.630323	0.048560
937.808678	0.050395
937.987015	0.049089
938.165334	0.047536
938.343635	0.046795
938.521917	0.045974
938.700181	0.045873
938.878427	0.045837
939.056655	0.044843
939.234864	0.045888
939.413055	0.046704
939.591228	0.046582
939.769383	0.046292
939.947519	0.048834
940.125638	0.049620
940.303738	0.047800
940.481820	0.047327
940.659883	0.046849
940.837929	0.046604
941.015956	0.044376
941.193965	0.044027
941.371955	0.045762
941.549928	0.045497
941.727882	0.045854
941.905818	0.047246
942.083736	0.047897
942.261636	0.049000
942.439517	0.048404
942.617380	0.048188
942.795225	0.048933
942.973052	0.048814
943.150860	0.047368
943.328651	0.046950
943.506423	0.046470
943.684176	0.047194
943.861912	0.048691
944.039629	0.048578
944.217328	0.048707
944.395009	0.047521
944.572672	0.046703
944.750317	0.048416
944.927943	0.046369
945.105551	0.045820
945.283141	0.046199
945.460712	0.044431
945.638265	0.045594
945.815801	0.046560
945.993317	0.046173
946.170816	0.045057
946.348297	0.042772
946.525759	0.042880
946.703203	0.041146
946.880629	0.037103
947.058036	0.037371
947.235425	0.035471
947.412797	0.033079
947.590149	0.033307
947.767484	0.033051
947.944800	0.035188
948.122099	0.034046
948.299379	0.036200
948.476640	0.037421
948.653884	0.037217
948.831109	0.039997
949.008316	0.041612
949.185505	0.043563
949.362676	0.046588
949.539828	0.046535
949.716962	0.047152
949.894078	0.046865
950.071176	0.046986
950.248256	0.044752
950.425317	0.042251
950.602360	0.038991
950.779385	0.036706
950.956391	0.035231
951.133380	0.035209
951.310350	0.035135
951.487302	0.034257
951.664235	0.038329
951.841151	0.038738
952.018048	0.036366
952.194927	0.040036
952.371788	0.040538
952.548631	0.034127
952.725455	0.032095
952.902261	0.031974
953.079049	0.033310
953.255819	0.029565
953.432570	0.027856
953.609303	0.027673
953.786018	0.026708
953.962715	0.028066
954.139394	0.030618
954.316054	0.030359
954.492696	0.032857
954.669320	0.036672
954.845926	0.037144
955.022513	0.039463
955.199083	0.041852
955.375634	0.038697
955.552166	0.035195
955.728681	0.032463
955.905177	0.031749
956.081655	0.027897
956.258115	0.022912
956.434557	0.022346
956.610980	0.022350
956.787385	0.024831
956.963772	0.027515
957.140141	0.031227
957.316492	0.033521
957.492824	0.033379
957.669138	0.033220
957.845434	0.033299
958.021712	0.031511
958.197971	0.032946
958.374212	0.030708
958.550435	0.027457
958.726640	0.022998
958.902826	0.026877
959.078995	0.029794
959.255145	0.027037
959.431277	0.027061
959.607390	0.029900
959.783486	0.026303
959.959563	0.028637
960.135622	0.031778
960.311662	0.036042
960.487685	0.034022
960.663689	0.031618
960.839675	0.036225
961.015643	0.036689
961.191593	0.035945
961.367524	0.033494
961.543437	0.029278
961.719332	0.026716
961.895209	0.022308
962.071067	0.021508
962.246907	0.025124
962.422730	0.023900
962.598533	0.022092
962.774319	0.020512
962.950086	0.025785
963.125835	0.026142
963.301566	0.031091
963.477279	0.031696
963.652973	0.037557
963.828650	0.032931
964.004308	0.034321
964.179947	0.037067
964.355569	0.038473
964.531172	0.037865
964.706757	0.040425
964.882324	0.035823
965.057873	0.036317
965.233403	0.031475
965.408916	0.034757
965.584410	0.035791
965.759885	0.033523
965.935343	0.035372
966.110782	0.035047
966.286203	0.036487
966.461606	0.041551
966.636991	0.040997
966.812357	0.041431
966.987705	0.038216
967.163035	0.033767
967.338347	0.033862
967.513641	0.032756
967.688916	0.037122
967.864173	0.034884
968.039412	0.030312
968.214632	0.033468
968.389835	0.031966
968.565019	0.035154
968.740185	0.037898
968.915333	0.036745
969.090462	0.040128
969.265573	0.036178
969.440667	0.040109
969.615741	0.043638
969.790798	0.043141
969.965836	0.041663
970.140856	0.038831
970.315858	0.038549
970.490842	0.035239
970.665808	0.030288
970.840755	0.033473
971.015684	0.030206
971.190595	0.027757
971.365487	0.028068
971.540362	0.026149
971.715218	0.024453
971.890056	0.028161
972.064875	0.034354
972.239677	0.037332
972.414460	0.035350
972.589225	0.034861
972.763972	0.039611
972.938700	0.039392
973.113411	0.050655
973.288103	0.054745
973.462777	0.050908
973.637432	0.048957
973.812070	0.051047
973.986689	0.048038
974.161290	0.046779
974.335873	0.042493
974.510437	0.041152
974.684984	0.033959
974.859512	0.032474
975.034022	0.037732
975.208513	0.037022
975.382987	0.032675
975.557442	0.029536
975.731879	0.031962
975.906298	0.032398
976.080698	0.035126
976.255080	0.036622
976.429445	0.040150
976.603790	0.035998
976.778118	0.039852
976.952427	0.038415
977.126719	0.046648
977.300992	0.047072
977.475246	0.046303
977.649483	0.042861
977.823701	0.042727
977.997901	0.040275
978.172083	0.043512
978.346247	0.038540
978.520392	0.040716
978.694519	0.038606
978.868628	0.035090
979.042719	0.032751
979.216791	0.034674
979.390845	0.034968
979.564882	0.031339
979.738899	0.031614
979.912899	0.039053
980.086880	0.040728
980.260843	0.036736
980.434788	0.036521
980.608715	0.039224
980.782623	0.039242
980.956514	0.036207
981.130386	0.036429
981.304240	0.030591
981.478075	0.026555
981.651892	0.028885
981.825692	0.033980
981.999472	0.035266
982.173235	0.034428
982.346980	0.034257
982.520706	0.037115
982.694414	0.038343
982.868104	0.043305
983.041775	0.043812
983.215428	0.041746
983.389064	0.043274
983.562680	0.045399
983.736279	0.047459
983.909860	0.046039
984.083422	0.047893
984.256966	0.052000
984.430491	0.049744
984.603999	0.047519
984.777488	0.044188
984.950959	0.042016
985.124412	0.044647
985.297847	0.044094
985.471263	0.047639
985.644661	0.046117
985.818041	0.041258
985.991403	0.042108
986.164747	0.040775
986.338072	0.043870
986.511379	0.046367
986.684668	0.040613
986.857938	0.040147
987.031191	0.039181
987.204425	0.040778
987.377641	0.044442
987.550839	0.045614
987.724018	0.047745
987.897179	0.041708
988.070322	0.035984
988.243447	0.038589
988.416554	0.040172
988.589642	0.041394
988.762712	0.037106
988.935764	0.034510
989.108798	0.033219
989.281813	0.033871
989.454811	0.039706
989.627790	0.046703
989.800751	0.045682
989.973693	0.045404
990.146617	0.042114
990.319524	0.043127
990.492412	0.046113
990.665281	0.045546
990.838133	0.045292
991.010966	0.041616
991.183781	0.040590
991.356578	0.041385
991.529356	0.037877
991.702117	0.037645
991.874859	0.037982
992.047583	0.039232
992.220288	0.037420
992.392976	0.039715
992.565645	0.045355
992.738296	0.044134
992.910929	0.044620
993.083543	0.044331
993.256139	0.042129
993.428718	0.043182
993.601277	0.040847
993.773819	0.044128
993.946342	0.041430
994.118848	0.041230
994.291335	0.040292
994.463803	0.039490
994.636254	0.041215
994.808686	0.041802
994.981100	0.038459
995.153496	0.041827
995.325874	0.037425
995.498233	0.037806
995.670574	0.036826
995.842897	0.038111
996.015202	0.036828
996.187488	0.038445
996.359757	0.039972
996.532007	0.044528
996.704239	0.041151
996.876452	0.044672
997.048648	0.043125
997.220825	0.039278
997.392984	0.038577
997.565124	0.037070
997.737247	0.038616
997.909351	0.035315
998.081437	0.033731
998.253505	0.035492
998.425554	0.037168
998.597586	0.038816
998.769599	0.042697
998.941594	0.043797
999.113571	0.042746
999.285529	0.041228
999.457469	0.043383
999.629391	0.041710
999.801295	0.039064
999.973181	0.034873
1000.145048	0.033186
1000.316897	0.032441
1000.488728	0.028541
1000.660541	0.028734
1000.832335	0.027407
1001.004111	0.030020
1001.175869	0.029893
1001.347609	0.032318
1001.519331	0.034402
1001.691034	0.032639
1001.862719	0.030182
1002.034386	0.033141
1002.206035	0.037130
1002.377665	0.036279
1002.549277	0.028998
1002.720871	0.031657
1002.892447	0.031103
1003.064004	0.032212
1003.235544	0.036213
1003.407065	0.037368
1003.578568	0.034911
1003.750052	0.035031
1003.921519	0.035516
1004.092967	0.040536
1004.264397	0.040939
1004.435809	0.038324
1004.607202	0.036264
1004.778577	0.032510
1004.949934	0.032303
1005.121273	0.036042
1005.292594	0.036676
1005.463896	0.036214
1005.635180	0.038372
1005.806446	0.036630
1005.977694	0.038924
1006.148923	0.040255
1006.320135	0.046313
1006.491328	0.046888
1006.662503	0.043171
1006.833659	0.042393
1007.004798	0.042442
1007.175918	0.041722
1007.347020	0.041029
1007.518103	0.042316
1007.689169	0.046765
1007.860216	0.041999
1008.031245	0.044003
1008.202256	0.045961
1008.373248	0.046166
1008.544223	0.046597
1008.715179	0.046371
1008.886117	0.047549
1009.057036	0.044753
1009.227938	0.040723
1009.398821	0.040065
1009.569686	0.035255
1009.740533	0.034462
1009.911361	0.034317
1010.082172	0.036864
1010.252964	0.037878
1010.423738	0.039772
1010.594493	0.040454
1010.765231	0.038708
1010.935950	0.045870
1011.106651	0.047212
1011.277334	0.043918
1011.447998	0.037045
1011.618645	0.034797
1011.789273	0.031832
1011.959882	0.032872
1012.130474	0.030419
1012.301048	0.031493
1012.471603	0.025075
1012.642140	0.028903
1012.812658	0.030513
1012.983159	0.035183
1013.153641	0.033368
1013.324105	0.036677
1013.494551	0.036130
1013.664979	0.037187
1013.835388	0.037322
1014.005779	0.037848
1014.176152	0.037361
1014.346507	0.039052
1014.516843	0.038248
1014.687162	0.037672
1014.857462	0.034701
1015.027744	0.031966
1015.198007	0.036705
1015.368252	0.038442
1015.538480	0.040657
1015.708689	0.036898
1015.878879	0.035721
1016.049052	0.038613
1016.219206	0.038614
1016.389342	0.039302
1016.559460	0.040730
1016.729559	0.035658
1016.899641	0.031886
1017.069704	0.032452
1017.239749	0.034087
1017.409775	0.035201
1017.579784	0.031846
1017.749774	0.033699
1017.919746	0.037343
1018.089700	0.034744
1018.259635	0.036588
1018.429553	0.041182
1018.599452	0.037865
1018.769333	0.036578
1018.939195	0.035198
1019.109040	0.034839
1019.278866	0.036697
1019.448674	0.034000
1019.618464	0.038195
1019.788235	0.038168
1019.957989	0.034337
1020.127724	0.038625
1020.297441	0.035791
1020.467139	0.036802
1020.636820	0.038405
1020.806482	0.036364
1020.976126	0.037167
1021.145752	0.035936
1021.315359	0.030715
1021.484948	0.030623
1021.654519	0.029196
1021.824072	0.033412
1021.993607	0.033231
1022.163123	0.037313
1022.332621	0.037671
1022.502101	0.038306
1022.671563	0.039663
1022.841007	0.044967
1023.010432	0.046205
1023.179839	0.046927
1023.349228	0.043091
1023.518598	0.040324
1023.687951	0.039868
1023.857285	0.039564
1024.026601	0.038372
1024.195899	0.036585
1024.365178	0.034013
1024.534439	0.033637
1024.703682	0.033436
1024.872907	0.035144
1025.042114	0.036292
1025.211302	0.033143
1025.380472	0.035532
1025.549624	0.033973
1025.718758	0.029715
1025.887873	0.028232
1026.056970	0.029202
1026.226049	0.026420
1026.395110	0.029288
1026.564153	0.030714
1026.733177	0.030850
1026.902183	0.027436
1027.071171	0.029380
1027.240141	0.032404
1027.409092	0.038688
1027.578026	0.036872
1027.746940	0.038417
1027.915837	0.035774
1028.084716	0.037739
1028.253576	0.039577
1028.422418	0.041677
1028.591242	0.038315
1028.760048	0.039880
1028.928835	0.038641
1029.097604	0.040109
1029.266355	0.041976
1029.435088	0.040398
1029.603803	0.034144
1029.772499	0.035745
1029.941177	0.034612
1030.109837	0.036203
1030.278478	0.033060
1030.447102	0.033564
1030.615707	0.030490
1030.784294	0.029999
1030.952863	0.033131
1031.121413	0.039559
1031.289945	0.036166
1031.458460	0.037875
1031.626955	0.039064
1031.795433	0.042304
1031.963892	0.038553
1032.132334	0.043370
1032.300756	0.042360
1032.469161	0.040338
1032.637548	0.040138
1032.805916	0.036310
1032.974266	0.036488
1033.142598	0.035062
1033.310911	0.033038
1033.479207	0.031629
1033.647484	0.031854
1033.815743	0.030520
1033.983983	0.029888
1034.152206	0.026624
1034.320410	0.030407
1034.488596	0.030088
1034.656764	0.028845
1034.824914	0.028938
1034.993045	0.031006
1035.161158	0.030667
1035.329253	0.028618
1035.497330	0.028893
1035.665388	0.028759
1035.833428	0.030855
1036.001450	0.033348
1036.169454	0.035800
1036.337440	0.036082
1036.505407	0.036009
1036.673356	0.038460
1036.841287	0.041683
1037.009200	0.041688
1037.177094	0.044930
1037.344970	0.040567
1037.512828	0.032892
1037.680668	0.033062
1037.848489	0.032437
1038.016293	0.034964
1038.184078	0.030357
1038.351845	0.029277
1038.519593	0.031387
1038.687324	0.027851
1038.855036	0.030192
1039.022730	0.037383
1039.190406	0.040437
1039.358063	0.042147
1039.525702	0.040833
1039.693323	0.039335
1039.860926	0.042135
1040.028511	0.043580
1040.196077	0.044261
1040.363625	0.043971
1040.531155	0.040827
1040.698667	0.037674
1040.866161	0.037611
1041.033636	0.034956
1041.201093	0.037715
1041.368532	0.035134
1041.535952	0.034128
1041.703355	0.033069
1041.870739	0.034769
1042.038105	0.034774
1042.205452	0.034604
1042.372782	0.033504
1042.540093	0.034604
1042.707386	0.031743
1042.874661	0.031662
1043.041918	0.031573
1043.209156	0.034949
1043.376376	0.036907
1043.543578	0.036155
1043.710762	0.034152
1043.877927	0.035205
1044.045074	0.036008
1044.212203	0.040270
1044.379314	0.040993
1044.546407	0.038501
1044.713481	0.036171
1044.880537	0.033414
1045.047575	0.037528
1045.214595	0.040971
1045.381596	0.042050
1045.548579	0.042381
1045.715544	0.039881
1045.882491	0.039219
1046.049420	0.043931
1046.216330	0.043371
1046.383222	0.042512
1046.550096	0.039566
1046.716951	0.036892
1046.883789	0.034762
1047.050608	0.031406
1047.217409	0.033388
1047.384192	0.038022
1047.550956	0.035197
1047.717703	0.037100
1047.884431	0.035657
1048.051140	0.033222
1048.217832	0.033770
1048.384505	0.034483
1048.551161	0.033437
1048.717798	0.028007
1048.884416	0.024527
1049.051017	0.020927
1049.217599	0.018780
1049.384163	0.021102
1049.550709	0.021794
1049.717237	0.023057
1049.883746	0.025178
1050.050237	0.029140
1050.216710	0.030942
1050.383165	0.027558
1050.549601	0.028674
1050.716019	0.032099
1050.882420	0.033440
1051.048801	0.033495
1051.215165	0.029718
1051.381510	0.025356
1051.547837	0.022880
1051.714146	0.025060
1051.880437	0.026373
1052.046709	0.026455
1052.212964	0.026063
1052.379200	0.021221
1052.545417	0.021279
1052.711617	0.024612
1052.877798	0.024231
1053.043961	0.026816
1053.210106	0.028061
1053.376233	0.027420
1053.542341	0.031054
1053.708432	0.026885
1053.874504	0.030179
1054.040557	0.031115
1054.206593	0.030665
1054.372610	0.034328
1054.538609	0.035034
1054.704590	0.035314
1054.870553	0.037584
1055.036497	0.036192
1055.202424	0.038525
1055.368331	0.036300
1055.534221	0.034539
1055.700093	0.037036
1055.865946	0.037622
1056.031781	0.038806
1056.197598	0.036456
1056.363397	0.037572
1056.529177	0.036128
1056.694939	0.037247
1056.860683	0.042288
1057.026409	0.043117
1057.192116	0.036527
1057.357806	0.033695
1057.523477	0.031762
1057.689130	0.033045
1057.854764	0.030053
1058.020381	0.032491
1058.185979	0.033466
1058.351559	0.027194
1058.517120	0.028111
1058.682664	0.031918
1058.848189	0.032273
1059.013696	0.028921
1059.179185	0.029538
1059.344656	0.028091
1059.510108	0.028880
1059.675542	0.024827
1059.840958	0.027525
1060.006356	0.022712
1060.171735	0.020738
1060.337096	0.025609
1060.502439	0.032268
1060.667764	0.031330
1060.833071	0.030955
1060.998359	0.027031
1061.163629	0.030000
1061.328881	0.031999
1061.494115	0.040924
1061.659330	0.041271
1061.824527	0.036547
1061.989706	0.032140
1062.154867	0.026145
1062.320010	0.028830
1062.485134	0.031435
1062.650240	0.027840
1062.815328	0.024976
1062.980398	0.020498
1063.145449	0.024496
1063.310482	0.025648
1063.475497	0.024982
1063.640494	0.027330
1063.805473	0.024961
1063.970433	0.020750
1064.135375	0.021000
1064.300299	0.021521
1064.465204	0.024706
1064.630092	0.022885
1064.794961	0.021059
1064.959812	0.023916
1065.124645	0.026859
1065.289459	0.028656
1065.454256	0.031131
1065.619034	0.035364
1065.783793	0.037446
1065.948535	0.037232
1066.113258	0.038014
1066.277964	0.040619
1066.442651	0.038063
1066.607319	0.037876
1066.771970	0.045227
1066.936602	0.047642
1067.101216	0.048128
1067.265812	0.044665
1067.430389	0.038470
1067.594949	0.033978
1067.759490	0.028458
1067.924013	0.029609
1068.088518	0.027419
1068.253004	0.022186
1068.417472	0.022280
1068.581922	0.022145
1068.746354	0.021915
1068.910768	0.023539
1069.075163	0.023707
1069.239540	0.026039
1069.403899	0.023568
1069.568240	0.029363
1069.732562	0.025994
1069.896866	0.028224
1070.061152	0.024587
1070.225420	0.024729
1070.389670	0.023069
1070.553901	0.024272
1070.718114	0.024856
1070.882309	0.027906
1071.046486	0.024836
1071.210644	0.022972
1071.374784	0.019356
1071.538906	0.017290
1071.703010	0.021647
1071.867096	0.024951
1072.031163	0.025050
1072.195212	0.023444
1072.359243	0.024993
1072.523256	0.024991
1072.687250	0.034917
1072.851226	0.030002
1073.015184	0.033867
1073.179124	0.027715
1073.343045	0.031744
1073.506949	0.035810
1073.670834	0.042810
1073.834701	0.036924
1073.998549	0.037107
1074.162380	0.033444
1074.326192	0.038019
1074.489986	0.033632
1074.653761	0.036734
1074.817519	0.032556
1074.981258	0.027602
1075.144979	0.022898
1075.308682	0.025552
1075.472367	0.019318
1075.636033	0.011948
1075.799681	0.016667
1075.963311	0.021232
1076.126923	0.020384
1076.290516	0.017354
1076.454092	0.020025
1076.617649	0.018873
1076.781187	0.019834
1076.944708	0.026469
1077.108210	0.031001
1077.271695	0.026753
1077.435160	0.023609
1077.598608	0.026468
1077.762038	0.030367
1077.925449	0.025001
1078.088842	0.024493
1078.252217	0.028393
1078.415573	0.028702
1078.578912	0.029843
1078.742232	0.026241
1078.905534	0.026426
1079.068817	0.023167
1079.232083	0.017610
1079.395330	0.022123
1079.558559	0.026523
1079.721770	0.023669
1079.884962	0.017334
1080.048136	0.018708
1080.211293	0.021672
1080.374430	0.018318
1080.537550	0.017524
1080.700651	0.020032
1080.863735	0.021949
1081.026800	0.021204
1081.189846	0.017774
1081.352875	0.027093
1081.515885	0.031814
1081.678877	0.030945
1081.841851	0.036699
1082.004807	0.034582
1082.167744	0.040187
1082.330663	0.039100
1082.493564	0.031668
1082.656447	0.036339
1082.819312	0.025508
1082.982158	0.019892
1083.144986	0.016857
1083.307796	0.013191
1083.470587	0.017452
1083.633361	0.015285
1083.796116	0.014455
1083.958853	0.023464
1084.121571	0.020238
1084.284272	0.022331
1084.446954	0.018509
1084.609618	0.025001
1084.772264	0.029814
1084.934892	0.027794
1085.097501	0.030175
1085.260092	0.028030
1085.422665	0.016444
1085.585220	0.017347
1085.747756	0.020326
1085.910274	0.017880
1086.072774	0.023060
1086.235256	0.018629
1086.397720	0.019505
1086.560165	0.015142
1086.722592	0.020002
1086.885001	0.030118
1087.047392	0.029585
1087.209764	0.028282
1087.372119	0.037038
1087.534455	0.030585
1087.696772	0.041386
1087.859072	0.044245
1088.021353	0.045622
1088.183616	0.043081
1088.345861	0.037514
1088.508088	0.039257
1088.670296	0.043420
1088.832486	0.037691
1088.994658	0.031541
1089.156812	0.026222
1089.318948	0.023017
1089.481065	0.017797
1089.643164	0.016848
1089.805245	0.021887
1089.967308	0.026993
1090.129352	0.027479
1090.291378	0.031678
1090.453386	0.036082
1090.615376	0.032046
1090.777347	0.030102
1090.939301	0.032963
1091.101236	0.037019
1091.263153	0.032566
1091.425051	0.033236
1091.586932	0.031881
1091.748794	0.033957
1091.910638	0.032262
1092.072463	0.034648
1092.234271	0.032485
1092.396060	0.033201
1092.557831	0.027885
1092.719584	0.019516
1092.881319	0.008693
1093.043035	0.004719
1093.204733	-0.002244
1093.366413	-0.002010
1093.528075	-0.005815
1093.689718	-0.003016
1093.851343	-0.002224
1094.012950	-0.000283
1094.174539	0.003746
1094.336110	0.001941
1094.497662	0.010383
1094.659196	0.017539
1094.820712	0.021864
1094.982210	0.024949
1095.143689	0.026647
1095.305151	0.031463
1095.466594	0.032762
1095.628018	0.034827
1095.789425	0.036508
1095.950813	0.025718
1096.112183	0.025249
1096.273535	0.019587
1096.434869	0.022116
1096.596184	0.017348
1096.757482	0.007830
1096.918761	0.003798
1097.080021	0.007038
1097.241264	0.013529
1097.402488	0.020950
1097.563694	0.011926
1097.724882	0.015215
1097.886052	0.011625
1098.047203	0.019335
1098.208336	0.029582
1098.369451	0.035467
1098.530548	0.036368
1098.691627	0.031193
1098.852687	0.023018
1099.013729	0.030470
1099.174753	0.031935
1099.335758	0.033049
1099.496746	0.029323
1099.657715	0.020294
1099.818666	0.017701
1099.979599	0.016310
1100.140513	0.020882
1100.301409	0.027428
1100.462287	0.023379
1100.623147	0.017797
1100.783989	0.015074
1100.944812	0.018305
1101.105617	0.020638
1101.266404	0.017550
1101.427173	0.018335
1101.587923	0.014074
1101.748656	0.011654
1101.909370	0.008233
1102.070066	0.014861
1102.230743	0.017825
1102.391403	0.015086
1102.552044	0.012934
1102.712667	0.020500
1102.873271	0.021672
1103.033858	0.023054
1103.194426	0.034313
1103.354976	0.038688
1103.515508	0.031281
1103.676021	0.024677
1103.836517	0.030527
1103.996994	0.030278
1104.157453	0.034968
1104.317893	0.032189
1104.478316	0.037045
1104.638720	0.027255
1104.799106	0.023993
1104.959474	0.029518
1105.119823	0.033077
1105.280155	0.033176
1105.440468	0.040072
1105.600763	0.023699
1105.761039	0.024516
1105.921298	0.016402
1106.081538	0.019438
1106.241760	0.014281
1106.401964	0.011516
1106.562149	0.016756
1106.722316	0.008814
1106.882465	0.002752
1107.042596	0.006902
1107.202709	0.015000
1107.362803	0.017708
1107.522879	0.009412
1107.682937	0.012273
1107.842977	0.012829
1108.002999	0.006236
1108.163002	0.007557
1108.322987	0.005857
1108.482954	0.011008
1108.642902	0.000647
1108.802833	0.006209
1108.962745	0.011272
1109.122639	0.018441
1109.282515	0.016451
1109.442372	0.015040
1109.602211	0.012144
1109.762032	0.015701
1109.921835	0.015016
1110.081620	0.021399
1110.241386	0.026636
1110.401134	0.028598
1110.560864	0.034726
1110.720576	0.030866
1110.880269	0.036417
1111.039945	0.041912
1111.199602	0.040588
1111.359240	0.037762
1111.518861	0.023868
1111.678463	0.018319
1111.838047	0.009762
1111.997613	0.000914
1112.157161	0.016239
1112.316690	0.020347
1112.476202	0.015572
1112.635695	0.012984
1112.795169	0.016149
1112.954626	0.026044
1113.114064	0.023490
1113.273484	0.032706
1113.432886	0.040364
1113.592270	0.019226
1113.751635	0.013642
1113.910983	0.016496
1114.070312	0.020767
1114.229622	0.021243
1114.388915	0.023788
1114.548189	0.021931
1114.707445	0.022050
1114.866683	0.017374
1115.025903	0.021674
1115.185104	0.023362
1115.344287	0.016426
1115.503452	0.029209
1115.662599	0.021415
1115.821727	0.018510
1115.980838	0.020991
1116.139930	0.019732
1116.299004	0.013952
1116.458059	0.024406
1116.617097	0.032468
1116.776116	0.033192
1116.935117	0.030589
1117.094099	0.031962
1117.253064	0.032898
1117.412010	0.022171
1117.570938	0.019427
1117.729848	0.028049
1117.888740	0.021227
1118.047613	0.013509
1118.206468	0.023342
1118.365305	0.007501
1118.524124	0.022215
1118.682924	0.017433
1118.841707	0.017556
1119.000471	0.020391
1119.159216	0.021534
1119.317944	0.007422
1119.476653	0.003253
1119.635344	0.001298
1119.794017	0.012791
1119.952672	0.006130
1120.111308	0.010619
1120.269927	0.013740
1120.428527	0.005775
1120.587108	0.004196
1120.745672	0.017757
1120.904217	0.023795
1121.062744	0.010536
1121.221253	0.006311
1121.379744	-0.000934
1121.538216	-0.000551
1121.696671	-0.006656
1121.855107	-0.008783
1122.013524	-0.011722
1122.171924	-0.006976
1122.330305	-0.006266
1122.488668	-0.001254
1122.647013	-0.000864
1122.805340	0.003692
1122.963648	-0.002486
1123.121938	0.011519
1123.280210	0.020564
1123.438464	0.019088
1123.596700	0.018336
1123.754917	0.010470
1123.913116	0.010645
1124.071297	0.015310
1124.229459	0.015671
1124.387604	0.024306
1124.545730	0.022456
1124.703838	0.023311
1124.861928	0.036501
1125.019999	0.038261
1125.178052	0.038580
1125.336088	0.049160
1125.494104	0.046559
1125.652103	0.034930
1125.810083	0.031572
1125.968045	0.025414
1126.125989	0.026107
1126.283915	0.021427
1126.441823	0.024794
1126.599712	0.036046
1126.757583	0.036592
1126.915436	0.026113
1127.073270	0.034347
1127.231087	0.028330
1127.388885	0.028528
1127.546665	0.033860
1127.704426	0.014674
1127.862170	0.001488
1128.019895	0.000822
1128.177602	0.002249
1128.335291	0.008609
1128.492961	0.012638
1128.650614	0.021402
1128.808248	0.025780
1128.965864	0.015468
1129.123461	0.033415
1129.281041	0.039947
1129.438602	0.032574
1129.596145	0.027120
1129.753670	0.021326
1129.911176	0.007846
1130.068665	0.004640
1130.226135	-0.003362
1130.383587	0.006186
1130.541020	-0.008333
1130.698436	-0.004124
1130.855833	-0.005647
1131.013212	0.006030
1131.170573	0.008337
1131.327915	0.012503
1131.485239	0.017568
1131.642545	0.026761
1131.799833	0.010228
1131.957103	0.018768
1132.114354	0.017533
1132.271588	0.023017
1132.428803	0.014254
1132.585999	0.019177
1132.743178	0.023499
1132.900338	0.009299
1133.057480	0.012393
1133.214604	0.024468
1133.371710	0.021335
1133.528797	0.021635
1133.685866	0.020993
1133.842917	0.007148
1133.999950	0.007740
1134.156964	0.004030
1134.313960	0.016897
1134.470938	0.018108
1134.627898	0.011095
1134.784840	0.026182
1134.941763	0.023196
1135.098668	0.024468
1135.255555	0.040077
1135.412424	0.043480
1135.569274	0.056669
1135.726107	0.060799
1135.882921	0.061888
1136.039716	0.071047
1136.196494	0.068255
1136.353253	0.067596
1136.509995	0.062083
1136.666717	0.060045
1136.823422	0.059732
1136.980109	0.057326
1137.136777	0.046979
1137.293427	0.041982
1137.450059	0.042073
1137.606672	0.026925
1137.763267	0.013364
1137.919844	0.003901
1138.076403	-0.001907
1138.232944	-0.018461
1138.389466	-0.031425
1138.545971	-0.031165
1138.702457	-0.035735
1138.858924	-0.040332
1139.015374	-0.029389
1139.171805	-0.021978
1139.328218	-0.016505
1139.484613	-0.017828
1139.640990	-0.008429
1139.797348	0.005589
1139.953688	0.015943
1140.110010	0.019230
1140.266314	0.023062
1140.422600	0.010011
1140.578867	0.023097
1140.735116	0.026492
1140.891347	0.026878
1141.047559	0.020895
1141.203754	-0.000911
1141.359930	-0.004809
1141.516088	-0.007660
1141.672228	-0.012370
1141.828349	-0.000211
1141.984452	-0.007682
1142.140537	0.000799
1142.296604	0.004079
1142.452653	0.025602
1142.608683	0.041749
1142.764695	0.039449
1142.920689	0.051826
1143.076665	0.039051
1143.232622	0.029847
1143.388562	0.029871
1143.544483	0.029385
1143.700385	0.038443
1143.856270	0.032928
1144.012136	0.036391
1144.167985	0.025277
1144.323814	0.006226
1144.479626	0.005694
1144.635420	0.015748
1144.791195	0.013660
1144.946952	-0.000103
1145.102691	-0.004013
1145.258411	-0.018285
1145.414113	-0.026738
1145.569798	-0.019351
1145.725463	0.000619
1145.881111	0.028554
1146.036741	0.029394
1146.192352	0.030384
1146.347945	0.035190
1146.503519	0.032577
1146.659076	0.034388
1146.814614	0.037472
1146.970134	0.032850
1147.125636	0.016463
1147.281120	0.001857
1147.436585	0.004612
1147.592032	0.001491
1147.747461	-0.002954
1147.902872	-0.006690
1148.058265	0.000729
1148.213639	0.007325
1148.368995	0.020309
1148.524333	0.028402
1148.679653	0.031749
1148.834954	0.029438
1148.990237	0.034686
1149.145502	0.032518
1149.300749	0.042788
1149.455977	0.038473
1149.611188	0.023816
1149.766380	0.017798
1149.921553	0.015108
1150.076709	0.013019
1150.231846	0.002522
1150.386966	-0.003436
1150.542066	0.006164
1150.697149	-0.003572
1150.852214	-0.002945
1151.007260	-0.005059
1151.162288	0.002332
1151.317298	0.006295
1151.472289	0.005557
1151.627263	0.010524
1151.782218	0.006820
1151.937155	0.008315
1152.092073	0.004586
1152.246974	0.009728
1152.401856	0.016017
1152.556720	0.015019
1152.711566	0.006104
1152.866393	-0.002801
1153.021203	-0.001734
1153.175994	0.012889
1153.330767	0.007229
1153.485521	0.004542
1153.640258	0.019117
1153.794976	0.025340
1153.949676	0.008524
1154.104358	0.011799
1154.259021	0.005343
1154.413667	0.010253
1154.568294	0.007509
1154.722903	0.007034
1154.877493	0.002042
1155.032066	-0.011363
1155.186620	-0.005436
1155.341156	-0.008097
1155.495674	-0.004318
1155.650173	0.013217
1155.804654	0.005407
1155.959118	0.009231
1156.113562	0.028183
1156.267989	0.035870
1156.422397	0.043670
1156.576788	0.031135
1156.731160	0.025477
1156.885513	0.029129
1157.039849	0.014223
1157.194166	-0.003467
1157.348465	-0.013368
1157.502746	-0.025583
1157.657009	-0.022654
1157.811253	-0.036761
1157.965479	-0.026639
1158.119687	-0.008265
1158.273877	-0.015008
1158.428048	-0.002589
1158.582201	0.026725
1158.736337	0.047325
1158.890453	0.041897
1159.044552	0.043629
1159.198632	0.049285
1159.352694	0.025324
1159.506738	0.033628
1159.660764	0.023182
1159.814771	0.024291
1159.968761	0.008413
1160.122732	0.002462
1160.276685	0.002722
1160.430619	0.005715
1160.584535	0.006800
1160.738434	0.038237
1160.892313	0.026972
1161.046175	0.036024
1161.200019	0.016725
1161.353844	0.013040
1161.507651	0.004135
1161.661440	0.006831
1161.815210	0.015384
1161.968962	0.003622
1162.122697	-0.012256
1162.276412	-0.008859
1162.430110	-0.012579
1162.583789	-0.000333
1162.737451	-0.004828
1162.891094	-0.019194
1163.044718	-0.011663
1163.198325	-0.020848
1163.351913	-0.015554
1163.505483	-0.027930
1163.659035	-0.036442
1163.812569	-0.030026
1163.966084	-0.041446
1164.119581	-0.035857
1164.273060	-0.031653
1164.426521	-0.024556
1164.579964	-0.037797
1164.733388	-0.051178
1164.886794	-0.042979
1165.040182	-0.041215
1165.193551	-0.051757
1165.346903	-0.064337
1165.500236	-0.059848
1165.653551	-0.034480
1165.806848	-0.052349
1165.960126	-0.037122
1166.113386	-0.034316
1166.266628	-0.023853
1166.419852	-0.017578
1166.573058	-0.006553
1166.726245	0.026205
1166.879414	0.033458
1167.032565	0.010543
1167.185698	0.016328
1167.338812	-0.005962
1167.491909	0.011215
1167.644987	-0.013984
1167.798046	-0.022973
1167.951088	-0.027958
1168.104111	-0.032647
1168.257117	-0.029045
1168.410103	-0.025351
1168.563072	-0.027950
1168.716023	-0.004009
1168.868955	-0.010181
1169.021869	-0.004626
1169.174765	0.001590
1169.327642	-0.003510
1169.480501	-0.002850
1169.633343	-0.006882
1169.786165	-0.007701
1169.938970	-0.005415
1170.091757	-0.007238
1170.244525	-0.004071
1170.397275	-0.003463
1170.550007	0.019952
1170.702720	0.025500
1170.855415	0.029158
1171.008092	0.034635
1171.160751	0.048843
1171.313392	0.063418
1171.466014	0.056153
1171.618619	0.139838
1171.771205	0.139838
1171.923772	0.139838
