sample name	sample
index	206
start time	 02-22-2021  09:38:24 AM
880	0.065673
Peak Time (s)	91.035
Peak Height 	0.06567
calc peak height	90,93
Baseline Time (s)	8.534
Baseline Value 	-0.002568
subtract baseline	10,4
Abs	0.044789
Peak Time (s)	92.536
Peak Height 	0.04479
calc peak height	90,93
Baseline Time (s)	9.037
Baseline Value 	0.001432
subtract baseline	10,3
PK_550	0.024940
Peak Time (s)	90.534
Peak Height 	0.02494
calc peak height	90,93
Baseline Time (s)	11.039
Baseline Value 	1.4091E-4
subtract baseline	10,2
PK_880	0.040694
Peak Time (s)	92.536
Peak Height 	0.04069
calc peak height	90,93
Baseline Time (s)	9.037
Baseline Value 	0.001006
subtract baseline	10,1


Time (s)	A880-A510	A880-A775	A880-A975	A880	I510	I775	I975	I880	
0.037500	-0.000485	0.000194	-0.000456	0.001260	6833.729345	47200.889242	3846.950013	24674.979998
0.535000	-0.001685	-0.000748	-0.005830	0.003770	6798.386095	46848.516020	3825.370590	24548.116303
1.035500	-0.000927	-0.000212	-0.003646	0.002931	6813.557702	46988.451296	3833.599254	24590.439775
1.535500	-0.002980	0.000430	-0.003275	0.006396	6761.345666	46701.508811	3825.176212	24416.146545
2.036000	-0.000041	0.000004	0.004822	-0.000479	6854.675168	47359.981388	3866.489741	24763.346384
2.539000	0.002144	-0.000099	0.002720	-0.000777	6878.619048	47379.936274	3861.436398	24778.500553
3.037000	0.001084	0.000301	-0.004004	-0.001683	6877.136646	47514.613547	3845.280191	24824.706051
3.539500	-0.001614	-0.000251	0.003151	0.000961	6825.792964	47185.846892	3857.786907	24690.147854
4.033500	-0.002054	0.000031	0.000807	0.000167	6829.180111	47296.346727	3853.475202	24730.484021
4.549000	0.001060	0.000091	-0.001097	0.000832	6852.660983	47234.202262	3846.364056	24696.727933
5.037500	-0.000186	0.000509	0.003051	0.000860	6840.424091	47274.230211	3857.791864	24695.287820
5.535000	-0.000446	0.000072	0.000662	0.000465	6841.731142	47269.991399	3852.248670	24715.361014
6.035000	-0.001538	0.000128	0.001301	0.000585	6830.114968	47263.331768	3853.686553	24709.243576
6.535500	0.001735	0.000757	-0.000791	0.000747	6859.975757	47311.282674	3847.442206	24701.033763
7.036000	0.001004	0.000920	0.003371	0.000713	6853.257344	47331.538569	3859.092485	24702.733075
7.539000	-0.000896	0.000120	0.003821	0.000043	6841.460829	47318.277958	3862.224170	24736.811960
8.033500	-0.002522	0.000077	0.000255	0.000180	6824.591251	47299.683647	3851.906735	24729.822213
8.534000	0.001487	0.000146	-0.002739	0.000000	6864.780333	47325.266704	3844.128710	24738.976320
9.037500	0.000000	-0.000494	0.000000	-0.000164	6852.041006	47276.340699	3852.154441	24747.303423
9.535000	-0.001804	0.000019	-0.000019	0.000347	6829.855524	47276.615652	3850.685452	24721.341195
10.034500	-0.000407	-0.000346	0.001690	-0.000212	6848.592840	47296.530932	3856.984418	24749.739713
10.540500	-0.000117	0.000686	-0.000320	0.000997	6839.770170	47278.347568	3848.051832	24688.325239
11.038500	0.000319	0.000000	0.003508	0.000224	6851.375870	47287.246265	3860.841129	24727.572006
11.536500	0.000406	-0.000074	0.002063	-0.000056	6854.915541	47308.480774	3857.591720	24741.837743
12.036500	0.001948	0.000220	0.001552	-0.000054	6869.748106	47338.492672	3856.162547	24741.738324
12.537000	-0.000058	0.000522	-0.001095	-0.000006	6849.971187	47364.582770	3848.684145	24739.306097
13.036500	0.001435	-0.000032	0.003362	-0.002456	6888.023552	47560.058601	3867.943634	24864.205012
13.539500	0.000415	0.000709	0.002633	-0.001239	6866.391592	47510.888954	3862.485251	24802.076847
14.034500	-0.000885	0.000726	0.003647	-0.000673	6848.422529	47454.279642	3863.739962	24773.201098
14.534500	-0.002943	-0.000162	0.001105	0.001460	6808.376336	47143.920657	3850.717160	24664.870859
15.035000	0.002227	0.000249	0.000978	-0.001070	6882.257190	47446.026251	3857.392006	24793.423463
15.618000	0.000311	0.001071	0.002634	-0.000728	6860.464505	47495.475941	3861.058109	24776.011381
16.035500	0.000365	-0.000123	0.006382	0.000350	6850.609050	47261.718176	3868.543568	24721.192628
16.535500	0.000092	-0.000307	0.004283	-0.001462	6865.431389	47429.134979	3867.737688	24813.456017
17.036000	-0.000119	-0.000322	0.002698	-0.001912	6867.733971	47473.988616	3864.552452	24836.405161
17.536500	0.002160	0.000632	0.006420	-0.001102	6881.932280	47488.823927	3872.741972	24795.101481
18.037000	-0.001126	0.000118	-0.001399	-0.001275	6851.896388	47453.667572	3851.355636	24803.903042
18.536500	0.000205	0.000583	0.002460	0.001409	6838.918714	47225.482570	3854.618420	24667.455235
19.035000	0.000360	-0.000116	-0.002389	0.000668	6847.515587	47229.873178	3843.252357	24705.057856
19.534000	0.000746	0.001288	0.001075	0.002062	6837.837904	47230.804056	3848.965143	24634.381829
20.035500	-0.002120	0.000649	0.005747	0.001347	6817.293919	47238.633629	3863.965738	24670.599022
20.535500	-0.001488	-0.000051	0.004433	0.000734	6829.171267	47229.621370	3862.001320	24701.662959
21.036000	-0.000184	-0.000113	0.002890	0.000902	6840.051205	47206.131809	3857.228148	24693.176793
21.541500	-0.000167	0.000882	0.005876	0.001836	6831.275770	47212.452472	3862.956185	24645.843898
22.036000	-0.001585	0.000533	0.003934	0.001382	6822.054671	47223.144553	3858.796839	24668.796234
22.537000	-0.000785	-0.000182	0.002446	0.000679	6836.417510	47221.888624	3856.608607	24704.461509
23.036500	-0.000091	0.000483	0.003050	0.001517	6835.046574	47204.229622	3855.958701	24661.982008
23.658000	-0.000351	0.000968	-0.000765	0.001920	6828.698477	47212.583137	3844.275440	24641.557170
24.034500	0.000951	0.000387	0.001345	0.001244	6847.654870	47222.315373	3851.981563	24675.830226
24.534500	-0.000893	0.000374	0.003768	0.001445	6828.063084	47200.387914	3858.160171	24665.642160
25.035000	-0.001087	0.000251	0.002030	0.000972	6830.734204	47236.287280	3854.637871	24689.633566
25.535000	-0.000336	0.000197	0.003340	0.001102	6836.676658	47217.389141	3857.920796	24683.007255
26.035500	-0.001167	0.000598	0.003136	0.001365	6826.215999	47231.540640	3856.621604	24669.684965
26.536000	-0.001533	-0.000176	0.001328	0.000821	6827.912735	47207.909336	3853.107361	24697.253739
27.036000	-0.000443	0.000756	0.000018	0.001310	6833.655430	47253.403242	3848.121857	24672.475366
27.536500	-0.000646	-0.000131	0.003931	0.000990	6834.778336	47195.256676	3859.883785	24688.706419
28.034000	-0.000074	0.000660	0.000286	-0.001621	6865.360240	47545.267930	3857.001701	24821.557604
28.534000	0.002432	0.000344	0.002969	-0.001373	6887.180841	47487.035725	3863.800899	24808.892364
29.034500	0.000443	0.000726	0.000966	-0.001079	6865.111963	47496.119616	3857.385259	24793.892841
29.535000	-0.000050	0.000313	0.006033	-0.001310	6862.590452	47477.361516	3872.234148	24805.662340
30.035000	-0.000181	0.000840	0.006263	0.001090	6838.272452	47284.543169	3866.130456	24683.612806
30.541500	0.002359	0.000735	0.004754	-0.001183	6884.641889	47507.853337	3868.277219	24799.216356
31.036000	-0.000013	0.000312	0.007228	-0.000772	6857.769274	47421.779653	3874.092031	24778.265620
31.567500	0.000674	0.001151	0.007586	-0.000514	6861.899919	47481.742694	3874.374078	24765.129565
32.036500	0.000000	0.000425	-0.000271	0.003438	6817.573522	47001.806903	3841.459853	24564.882554
32.534000	0.000070	0.000481	0.006123	-0.000606	6856.966980	47422.143138	3870.505352	24769.803643
33.052000	0.001601	0.001413	-0.001241	0.001421	6852.196396	47309.457630	3844.341937	24666.839756
33.534500	0.002039	0.000480	0.005748	-0.000968	6879.467243	47459.378635	3870.470116	24788.269841
34.035000	0.000426	0.001012	0.005636	0.002231	6833.156602	47185.205889	3861.178915	24625.825397
34.535000	0.000431	0.000478	0.006536	-0.000899	6863.263444	47451.941094	3872.494869	24784.726010
35.035500	0.002289	0.000251	-0.000646	-0.000528	6877.618774	47390.325185	3851.371335	24765.814981
35.535500	-0.001267	0.000689	0.003070	0.002118	6818.074227	47163.673246	3854.342604	24631.547389
36.035500	0.000284	0.000330	0.002517	0.001745	6836.453776	47165.223757	3853.844558	24650.451139
36.542000	0.001455	0.001336	0.007117	0.002556	6839.899522	47185.063799	3864.414053	24609.373785
37.036500	-0.002818	0.000095	-0.001462	0.001420	6809.951527	47174.408156	3843.734722	24666.904791
37.536500	-0.000539	-0.000231	0.003494	0.001455	6831.354181	47137.373179	3857.367373	24665.109733
38.034000	0.000117	0.000127	0.002632	0.001444	6837.740471	47175.221589	3855.000549	24665.683159
38.535000	0.000603	0.000158	0.002537	0.001608	6840.827066	47161.553272	3854.280772	24657.388034
39.034500	-0.001390	0.000180	0.000316	0.001263	6825.056086	47199.192080	3849.078289	24674.853961
39.535000	0.000991	0.000541	-0.001272	0.001830	6842.419501	47178.106015	3843.129451	24646.132494
40.035500	0.000262	0.000513	0.005403	0.002181	6832.068233	47139.183226	3860.667717	24628.340974
40.535500	-0.000954	-0.000102	0.001251	0.001175	6830.056419	47179.269586	3851.910487	24679.307816
41.036000	-0.000359	0.000628	0.000843	0.002234	6825.623493	47145.524360	3847.849277	24625.661120
41.536500	-0.000137	0.000324	0.002003	0.001401	6835.715465	47199.792377	3853.369940	24667.850558
42.036500	0.000393	0.000892	0.002975	0.002728	6828.094113	47122.116886	3852.387051	24600.721005
42.534000	-0.000164	0.000986	0.004316	0.002351	6826.380480	47170.290889	3857.163838	24619.782373
43.034500	0.001773	0.000830	0.002476	0.002046	6847.841980	47185.506038	3852.894271	24635.195389
43.534500	0.000306	0.001053	0.007203	0.002239	6831.937794	47188.625464	3865.546685	24625.432839
44.037500	-0.001996	-0.000371	0.003017	0.001575	6816.295473	47110.760860	3855.706038	24659.046500
44.538500	-0.002296	0.000196	-0.000884	0.001583	6813.361550	47168.028056	3844.878835	24658.634755
45.035500	-0.000459	0.000287	-0.001082	0.001590	6830.827537	47176.569475	3844.312708	24658.268103
45.538500	0.001037	0.000520	0.007249	-0.000913	6869.242707	47457.746019	3874.548006	24785.428664
46.036500	-0.000507	0.000632	-0.002194	0.002063	6825.850623	47163.496401	3839.953149	24634.321911
46.564000	0.000788	0.000732	0.004439	-0.000682	6864.612048	47455.814865	3865.985981	24773.683981
47.034000	0.002878	0.000296	0.004490	-0.000916	6887.080196	47435.038580	3866.786817	24785.612243
47.534500	0.000152	0.000708	0.002611	-0.000415	6855.915469	47425.828291	3860.121129	24760.092623
48.036000	-0.001727	0.001598	0.000861	0.002430	6810.718544	47224.857554	3847.355879	24615.761137
48.555000	0.000161	0.000698	0.005839	0.000833	6844.009317	47296.411309	3865.662310	24696.647372
49.035000	-0.001693	0.000843	0.004058	0.003887	6797.203306	46998.641445	3852.174513	24542.240894
49.536000	0.000279	0.000692	-0.002428	0.002815	6826.166590	47092.652789	3837.247093	24596.298281
50.062500	-0.000689	0.000195	-0.003621	0.002111	6823.650070	47113.843811	3835.908533	24631.913743
50.539000	-0.000066	0.000663	-0.000891	0.000381	6846.178199	47339.318740	3848.178508	24719.610745
51.036500	-0.001605	0.000867	-0.000527	0.003651	6800.273103	47025.126468	3840.169371	24554.112936
51.539500	0.001456	0.000840	0.010036	-0.001541	6879.364276	47555.650744	3884.238240	24817.475481
52.037000	-0.000886	0.000499	0.001615	0.001534	6827.273290	47203.998669	3851.922813	24661.097158
52.540000	0.001588	0.000901	0.006393	-0.000383	6869.450964	47442.429576	3870.638415	24758.478975
53.040000	-0.003200	-0.001001	0.002103	-0.004047	6858.616036	47624.411572	3868.877532	24945.717020
53.557500	-0.002912	-0.009723	0.009463	0.031954	6528.569207	43227.072376	3790.918315	23172.604303
54.035500	-0.010044	-0.020323	0.014867	-0.033567	7082.711529	48692.104172	3993.790027	26513.407712
54.535000	-0.009912	-0.019803	0.016268	-0.051285	7267.532095	50665.258209	4054.389932	27506.786934
55.035000	-0.022492	-0.019688	0.000749	-0.042912	7051.338990	49761.528579	3979.073734	27032.267891
55.536000	-0.025232	-0.020520	-0.013627	-0.099441	7628.005093	56203.030585	4114.811624	30420.761844
56.033500	-0.022673	-0.025899	-0.018925	-0.148120	8247.869352	61813.708813	4268.966319	33713.830878
56.536000	0.000443	-0.026871	-0.001944	-0.158473	8694.104158	63104.877751	4374.309632	34463.074460
57.034500	0.003986	-0.017268	-0.001472	-0.138538	8471.272632	61684.473986	4298.627451	33036.158163
57.537000	0.009904	-0.009485	0.007518	-0.109283	8168.158450	58838.394336	4223.341687	31057.119635
58.034500	0.007870	-0.006552	0.006681	-0.082633	7817.260513	55854.201395	4126.687610	29366.796206
58.535000	0.005024	-0.007027	0.005626	-0.074147	7684.881732	54768.410794	4094.542737	28849.951187
59.035000	0.010075	-0.002271	0.008303	-0.055842	7534.383438	53168.588638	4043.388939	27768.902544
59.535500	0.011822	-0.001738	0.010719	-0.046424	7449.354161	52146.370479	4021.063299	27230.192977
60.036000	0.017555	0.001903	0.018600	-0.022127	7249.684132	49848.930043	3970.105532	25893.171695
60.536000	0.017783	0.004223	0.020559	-0.008027	7105.970261	48586.963634	3933.642413	25150.920235
61.036500	0.019833	0.005308	0.018467	-0.003218	7077.931903	48195.040024	3913.364437	24903.228827
61.534000	0.020207	0.007678	0.022051	0.005957	6989.643990	47487.400840	3897.166676	24438.133554
62.034000	0.021990	0.009007	0.020194	0.013729	6930.602916	46827.692182	3869.763267	24051.834858
62.534500	0.021931	0.010063	0.025229	0.022283	6847.085289	46072.133367	3859.897160	23634.560808
63.035000	0.022425	0.011704	0.025544	0.028764	6790.006718	45591.346020	3842.804731	23323.850932
63.535000	0.029183	0.015936	0.025360	0.032446	6819.237352	45645.705023	3832.209604	23149.371108
64.035500	0.029990	0.017303	0.027923	0.032567	6825.782983	45769.234224	3838.891972	23143.672273
64.536000	0.029866	0.017616	0.028606	0.025292	6894.643197	46528.544916	3860.924754	23489.720571
65.036000	0.026038	0.017079	0.026834	0.026629	6844.792292	46339.727800	3852.269773	23425.687909
65.551000	0.028056	0.017321	0.026323	0.023694	6892.586570	46660.208142	3859.011047	23566.506940
66.036500	0.025585	0.017106	0.028690	0.028919	6818.553440	46112.900719	3851.065705	23316.459735
66.534000	0.029540	0.017532	0.029060	0.027028	6874.676599	46345.218678	3857.348885	23406.629665
67.034500	0.027465	0.017815	0.028357	0.034835	6780.257196	45595.247019	3833.870182	23036.944644
67.537500	0.030613	0.018418	0.033420	0.031329	6843.592902	46003.186265	3857.514637	23202.149168
68.035000	0.029236	0.018543	0.030572	0.036093	6785.096161	45542.953607	3836.485246	22977.982882
68.535500	0.029168	0.018629	0.028191	0.034654	6798.089793	45693.754880	3833.911133	23045.448468
69.035500	0.027638	0.018857	0.031574	0.041038	6723.691238	45088.396637	3825.741357	22747.949946
69.535500	0.031495	0.019735	0.030415	0.037592	6792.288944	45512.689370	3831.959332	22907.963302
70.036000	0.029778	0.019530	0.028149	0.041633	6738.112330	45096.081775	3814.883359	22720.436729
70.536500	0.030002	0.020222	0.035872	0.039788	6757.496599	45344.471456	3840.889595	22805.848262
71.034000	0.028457	0.020170	0.032812	0.046324	6682.283941	44702.224191	3814.805587	22504.864902
71.534500	0.032352	0.020607	0.033273	0.041708	6761.536580	45194.000435	3828.535170	22716.954534
72.037500	0.029660	0.020696	0.036240	0.045667	6699.470523	44816.878920	3825.838357	22534.917464
72.534500	0.033388	0.020716	0.033116	0.043294	6756.362725	45049.623885	3823.803776	22643.831899
73.035000	0.031633	0.021621	0.030994	0.050928	6669.141935	44398.343596	3797.670106	22295.578991
73.535500	0.035627	0.021508	0.037028	0.045316	6758.403442	44929.870290	3828.935097	22550.990929
74.035500	0.032855	0.022169	0.036449	0.049716	6691.576880	44567.766608	3815.467508	22350.485675
74.536000	0.034573	0.021090	0.035895	0.046143	6740.766156	44808.883618	3823.613237	22513.140834
75.037000	0.030734	0.022273	0.033150	0.053096	6641.051254	44253.017124	3797.637727	22197.790722
75.536500	0.035583	0.022950	0.039840	0.048159	6731.368372	44793.786866	3828.850199	22421.196537
76.034000	0.034768	0.023053	0.036178	0.049354	6712.648992	44688.013914	3815.708915	22366.873330
76.534500	0.034689	0.023102	0.034690	0.049315	6712.285692	44696.596367	3811.819670	22368.668723
77.034500	0.031712	0.022237	0.034686	0.055237	6630.454919	44045.188947	3796.036726	22101.707394
77.538000	0.035880	0.023272	0.036623	0.050240	6714.759178	44623.636462	3814.525795	22326.727003
78.034000	0.035974	0.023576	0.037209	0.051179	6706.909854	44562.325957	3813.577557	22284.239589
78.536000	0.035859	0.023676	0.040070	0.051462	6703.211237	44544.599902	3820.519199	22271.427828
79.036500	0.034447	0.023380	0.035089	0.058089	6629.390068	43882.711339	3789.578928	21974.436705
79.537000	0.037363	0.023555	0.040287	0.052656	6706.091601	44418.145551	3817.883926	22217.617824
80.037000	0.038410	0.023367	0.036104	0.052457	6717.667903	44419.246260	3807.194433	22226.582578
80.534000	0.038653	0.024652	0.036551	0.053996	6705.631905	44394.767411	3804.283206	22157.347498
81.035000	0.037511	0.024376	0.038783	0.054330	6691.963748	44336.239890	3809.348185	22142.355826
81.541000	0.035775	0.023352	0.038759	0.053666	6682.066198	44301.776923	3811.063090	22172.170270
82.035500	0.039908	0.024052	0.038725	0.054704	6710.700570	44269.352685	3808.192195	22125.553960
82.535000	0.037392	0.024514	0.041683	0.055446	6680.569616	44242.615011	3814.133906	22092.359116
83.035500	0.039416	0.024780	0.042934	0.055992	6694.205706	44215.749474	3816.028522	22067.924292
83.538500	0.039750	0.024267	0.037788	0.056042	6696.841795	44161.995731	3802.129833	22065.705544
84.039500	0.034188	0.023804	0.042286	0.060465	6605.482751	43697.982302	3802.327274	21869.030426
84.536000	0.038783	0.023501	0.043242	0.056412	6684.478417	44053.615777	3815.724545	22049.136564
85.037000	0.038328	0.024686	0.039236	0.057428	6670.932349	44069.681127	3802.291659	22003.828910
85.537000	0.038758	0.024309	0.040195	0.057226	6676.751825	44053.064718	3805.387262	22012.863656
86.037500	0.036204	0.023804	0.035294	0.061083	6618.149646	43639.610734	3782.266123	21841.702237
86.540500	0.038591	0.024393	0.041989	0.057583	6671.925854	44027.010746	3809.222714	21996.928203
87.038000	0.035448	0.024388	0.036816	0.063977	6585.173704	43422.444111	3778.687794	21714.309606
87.541000	0.039658	0.024952	0.041830	0.058741	6671.093174	43970.075468	3805.704409	21945.445056
88.036000	0.039720	0.024593	0.043701	0.062428	6637.899785	43587.237378	3800.871282	21782.396688
88.538000	0.038458	0.024143	0.039045	0.058853	6659.045762	43882.637071	3798.004294	21940.480129
89.036000	0.034532	0.024132	0.038375	0.062954	6586.130400	43494.342070	3785.430186	21759.212405
89.542500	0.038621	0.024398	0.045259	0.059739	6652.416186	43822.730629	3812.206377	21901.148807
90.037000	0.036064	0.023908	0.042073	0.063928	6591.161959	43381.983993	3792.593094	21716.444637
90.534000	0.039001	0.024940	0.042490	0.060669	6647.389815	43786.029767	3802.326224	21859.989845
91.034500	0.036757	0.023904	0.038243	0.065673	6581.690457	43218.426459	3777.985747	21640.003626
91.544000	0.038789	0.023486	0.042036	0.059976	6651.790033	43714.144955	3802.965079	21890.681019
92.035500	0.036699	0.024192	0.042260	0.065156	6585.818533	43293.618747	3789.849856	21662.607534
92.536000	0.040694	0.024493	0.044789	0.061339	6656.749109	43680.516808	3806.667158	21830.391409
93.035500	0.036607	0.024254	0.037210	0.065545	6581.487141	43263.003256	3775.630112	21645.597122
93.542000	0.040868	0.024792	0.042058	0.061751	6654.571580	43669.846572	3798.309408	21812.232847
94.037000	0.041250	0.024385	0.043783	0.061809	6657.539002	43625.940440	3802.734190	21809.656803
94.536500	0.039037	0.024493	0.042325	0.061776	6637.608769	43639.241591	3798.949313	21811.109458
95.034000	0.037581	0.024020	0.036226	0.066304	6583.421976	43170.388888	3771.113442	21612.447966
95.534500	0.040689	0.023844	0.039862	0.061753	6652.919016	43580.264580	3792.499709	21812.145373
96.067500	0.040632	0.023856	0.046510	0.062166	6648.613119	43542.499960	3809.056068	21793.913176
96.551500	0.041282	0.023990	0.043615	0.062674	6649.920318	43507.412012	3799.991176	21771.563357
97.035000	0.038204	0.024926	0.044848	0.067407	6579.105950	43152.030474	3790.736417	21564.357074
97.544000	0.043256	0.024436	0.039959	0.063302	6662.238191	43490.254010	3788.674930	21743.927862
98.036000	0.041046	0.024117	0.043736	0.063496	6640.245995	43442.075886	3798.130213	21735.403584
98.536000	0.040775	0.024748	0.040391	0.063545	6637.323880	43496.718283	3789.170962	21733.240217
99.036000	0.041047	0.024194	0.044069	0.063435	6640.812413	43455.092563	3799.175984	21738.094268
