sample name	sample
index	1009
start time	 04-19-2021  11:01:00 AM
880	0.025575
Peak Time (s)	100.04
Peak Height 	0.02557
calc peak height	100,103
Baseline Time (s)	9.037
Baseline Value 	-0.02783
subtract baseline	10,4
Abs	-0.001916
Peak Time (s)	102.035
Peak Height 	-0.001916
calc peak height	100,103
Baseline Time (s)	10.037
Baseline Value 	0.003627
subtract baseline	10,3
PK_550	0.003783
Peak Time (s)	101.535
Peak Height 	0.003783
calc peak height	100,103
Baseline Time (s)	9.037
Baseline Value 	2.6084E-4
subtract baseline	10,2
PK_880	-0.005914
Peak Time (s)	102.535
Peak Height 	-0.005914
calc peak height	100,103
Baseline Time (s)	11.536
Baseline Value 	0.001904
subtract baseline	10,1


Time (s)	A880-A510	A880-A775	A880-A975	A880	I510	I775	I975	I880	
0.037500	-0.001419	-0.000785	-0.003090	0.020578	6240.751485	42939.594048	3783.349317	22840.312511
0.537500	0.000105	-0.000059	0.000293	0.019587	6260.832711	43098.615991	3793.727223	22886.154036
1.040500	-0.001202	-0.001457	-0.004452	0.017041	6270.777842	43205.248593	3788.498524	23004.402154
1.535000	-0.000110	-0.000079	-0.003600	0.016182	6286.474462	43413.796179	3792.564622	23044.417273
2.035500	-0.002694	-0.000568	-0.004780	0.013284	6289.016181	43639.651860	3796.667542	23180.126927
2.536000	-0.000766	-0.000810	-0.003352	0.013221	6305.130254	43622.854907	3800.236937	23183.083974
3.042000	-0.000729	-0.001228	-0.005321	0.011697	6317.804559	43726.797670	3799.169821	23254.778922
3.536000	-0.004598	-0.001327	-0.003985	0.009996	6300.213372	43878.146506	3806.476619	23335.181404
4.040000	-0.001611	-0.000684	-0.001130	0.008072	6340.209118	44121.541180	3818.076565	23426.435618
4.537000	-0.001352	-0.000911	-0.002254	0.008334	6340.184809	44074.933710	3814.695970	23413.961967
5.037000	-0.004277	-0.001377	-0.003260	0.007123	6326.170645	44145.848441	3815.195307	23471.586671
5.540000	-0.002891	-0.000724	-0.001166	0.007368	6335.495256	44184.737868	3819.707690	23459.940444
6.035000	0.000698	-0.001297	0.000633	0.001715	6411.911652	44671.399702	3838.078208	23730.862495
6.535000	-0.001717	-0.000806	0.000998	0.006145	6355.153594	44293.478286	3828.017276	23518.225993
7.035000	-0.002062	-0.000890	-0.006004	0.005471	6357.868836	44349.933659	3812.542304	23550.480370
7.536000	0.003261	0.000484	0.001843	0.001091	6438.640982	44903.849205	3842.648223	23761.001264
8.096000	0.001406	-0.000055	0.002014	0.000534	6427.731300	44905.545360	3844.468303	23787.915966
8.536500	-0.004253	-0.000694	-0.001255	0.004749	6345.793262	44437.857967	3825.910483	23585.032422
9.036500	0.003072	0.000000	0.004213	0.000000	6446.244004	44962.741309	3851.325891	23813.786061
9.608500	0.002153	0.000175	0.000186	-0.000873	6445.859952	45064.592846	3843.418109	23856.124785
10.037500	-0.001320	-0.000464	0.000000	0.002575	6387.941290	44668.885078	3834.373048	23689.434520
10.537000	-0.000328	0.000002	-0.001174	0.003571	6387.906555	44617.830256	3829.008428	23641.542191
11.035000	0.001414	0.000063	0.002803	-0.001863	6447.980118	45150.030087	3852.466320	23904.213661
11.535500	0.000000	-0.000392	-0.000335	-0.002300	6439.739184	45148.296689	3845.683355	23925.479975
12.060000	-0.002774	-0.000100	0.002401	0.002999	6372.382667	44663.019380	3839.283413	23669.006192
12.539500	0.000921	0.000154	0.001196	-0.001476	6440.557931	45121.297062	3847.456700	23885.417510
13.036500	0.002537	0.000108	0.001245	-0.002976	6466.894217	45263.129764	3851.346169	23958.429087
13.536000	0.002055	-0.000688	0.003815	-0.003080	6463.690722	45195.515406	3858.096755	23963.472047
14.036500	-0.001213	0.000023	0.001862	0.002048	6393.211245	44766.694662	3840.309491	23714.816135
14.537000	0.000561	-0.000768	0.003332	-0.000044	6425.493393	44892.507205	3849.222092	23815.924912
15.037500	0.001253	0.000122	0.008915	-0.003217	6458.061172	45288.016870	3871.444811	23970.192994
15.538000	0.003048	0.000595	0.001238	-0.002824	6469.944596	45295.828187	3850.946173	23951.016382
16.035000	-0.001615	-0.000963	-0.001534	0.001671	6392.996763	44707.800415	3832.810967	23732.983389
16.535000	-0.001636	-0.000123	-0.004719	0.003087	6381.075343	44652.344768	3821.487061	23664.792106
17.036000	0.004173	0.000198	0.005481	-0.004541	6494.156418	45425.197232	3866.048639	24034.891551
17.539500	0.002974	-0.000237	0.003801	-0.002109	6463.254544	45144.786934	3855.606335	23916.185573
18.036000	-0.001237	-0.000145	0.000417	0.000317	6407.428527	44917.886263	3841.020850	23798.423071
18.536500	0.000179	0.000305	0.003513	0.000560	6417.227705	44937.970862	3848.159194	23786.666327
19.033500	0.001093	0.000938	0.004176	-0.000698	6435.453347	45121.717475	3852.990824	23847.597316
19.537500	0.002949	-0.000247	0.001128	-0.001631	6458.990397	45097.291159	3847.672113	23892.921063
20.037500	-0.000803	0.000548	0.001251	0.000241	6411.684719	44992.494294	3843.292930	23802.095917
20.538000	-0.001174	0.000845	0.001391	0.001414	6398.811297	44907.590132	3840.716339	23745.414988
21.035500	-0.001527	0.000392	0.001455	-0.001282	6418.375266	45125.564311	3847.617718	23875.974150
21.538500	0.001005	0.000410	0.004801	-0.000941	6436.753876	45094.023124	3855.181242	23859.401711
22.036000	-0.000305	0.000449	-0.000783	0.000360	6414.851653	44971.340498	3837.927571	23796.352410
22.536000	-0.000091	-0.000205	-0.002227	-0.001035	6428.333440	45043.352881	3837.806007	23863.965211
23.036500	0.002048	0.000410	0.003967	-0.001235	6448.031602	45122.736648	3853.821336	23873.711334
23.536500	0.001718	0.000308	0.000555	-0.001111	6444.194146	45100.707199	3844.933833	23867.672648
24.037500	-0.002005	-0.000042	0.000295	0.000236	6401.700506	44935.756277	3840.919874	23802.374072
24.537500	0.000317	0.000815	0.004829	-0.001139	6432.638597	45152.715165	3855.751568	23869.003475
25.035000	0.000266	0.000718	0.008440	-0.001249	6433.135645	45154.109450	3865.197159	23874.376023
25.535000	0.002901	0.000271	0.000104	-0.001486	6457.351074	45133.566169	3844.743294	23885.868993
26.035500	0.001009	0.000324	0.001282	0.000099	6428.054579	44984.538670	3843.726597	23808.988590
26.535500	0.001380	0.000837	0.004201	-0.001572	6445.234244	45197.211853	3855.259306	23890.055371
27.036000	0.003207	0.000220	0.005911	-0.004186	6482.884670	45392.559051	3866.239781	24017.522453
27.538000	0.001779	0.000917	0.003387	-0.003709	6466.682700	45414.059121	3858.606455	23994.179765
28.037000	-0.000699	0.000445	0.002281	0.001538	6401.725013	44856.784207	3842.626964	23739.404820
28.537000	0.000327	0.000495	0.008690	-0.002360	6442.998511	45240.716579	3868.670537	23928.385247
29.034500	0.003166	-0.000210	0.004406	-0.004370	6484.104021	45368.412650	3862.872716	24026.530460
29.534500	0.003672	0.001097	0.002585	-0.003107	6477.658096	45372.801756	3855.056218	23964.832623
30.035000	-0.001571	0.000864	0.005641	0.001850	6391.877019	44867.135709	3850.264111	23724.374251
30.534500	-0.001240	-0.000118	0.005357	0.001688	6395.985085	44787.904012	3849.960426	23732.208361
31.035500	0.000655	-0.000101	0.007421	-0.001414	6437.790762	45090.374776	3863.022819	23882.379787
31.535500	0.002122	0.000210	0.002820	-0.003755	6469.985161	45349.331806	3857.287054	23996.440145
32.036000	0.002180	0.000501	0.005881	0.001602	6425.272933	44856.101365	3851.492761	23736.354434
32.536500	-0.000605	0.000423	0.002748	0.002086	6397.953715	44801.681955	3842.424478	23712.986449
33.037000	-0.001226	0.000847	0.004954	-0.000518	6414.496010	45095.419642	3854.501659	23838.899053
33.536500	0.003938	0.001207	0.007540	-0.004043	6487.894687	45475.310592	3870.035176	24010.520914
34.040000	0.001317	-0.000089	0.004078	-0.000734	6437.646489	45025.455785	3852.836571	23849.382994
34.534500	0.001045	0.000849	0.003182	0.000352	6426.237583	45011.006481	3847.850775	23796.761115
35.035500	0.000342	0.000820	0.001452	0.000568	6418.530458	44987.206554	3842.979485	23786.293328
35.535000	0.001274	-0.000064	0.002709	-0.002022	6448.132049	45153.179744	3852.630557	23911.947963
36.038500	0.002337	0.000668	0.007966	-0.000454	6443.873733	45071.760836	3861.968115	23835.781677
36.536500	0.000059	0.000414	0.008259	0.000035	6420.620880	44999.550588	3861.468485	23812.074773
37.039000	0.001361	0.000834	0.001088	-0.001811	6447.092051	45220.222389	3848.024031	23901.694258
37.537000	0.000372	0.000188	0.005812	-0.002175	6441.821108	45192.720958	3860.868327	23919.414756
38.037000	0.000350	0.001435	0.004437	0.000106	6422.466088	45091.884253	3851.623861	23808.637610
38.540000	0.000294	0.000591	0.007543	-0.002037	6440.005150	45218.542475	3864.920001	23912.695916
39.037000	0.001861	0.000661	0.007409	-0.001629	6449.774238	45185.611050	3863.540265	23892.839303
39.535000	0.001612	0.000778	0.004162	-0.001784	6448.979503	45212.094571	3855.697999	23900.362652
40.035500	-0.001581	0.000756	0.002571	-0.000886	6414.608118	45122.413043	3849.426231	23856.746221
40.535500	0.002623	0.000467	0.002130	-0.001966	6459.070636	45199.493236	3851.032723	23909.233067
41.036000	0.002061	0.000966	0.008328	-0.001581	6451.065973	45210.729931	3865.759981	23890.524779
41.536000	-0.000164	0.001065	0.006929	-0.001431	6431.049275	45205.622058	3861.815153	23883.190972
42.036500	0.000478	0.000022	0.004832	-0.001324	6435.544900	45093.555194	3856.227908	23878.001766
42.536500	0.000850	0.000653	0.004308	-0.000007	6427.607482	45026.838736	3851.583959	23814.113730
43.037000	0.002211	0.001310	0.001677	-0.001778	6453.987939	45263.497241	3849.421652	23900.086178
43.534500	0.000789	0.000715	0.007771	-0.001588	6440.388905	45186.832299	3864.358005	23890.838732
44.034500	0.000213	0.000432	0.002992	0.000709	6416.274468	44935.856124	3846.480507	23779.487587
44.535000	-0.001665	0.000183	0.001789	0.002296	6387.395228	44758.224581	3839.511513	23702.895182
45.035500	-0.001663	0.000456	0.006549	0.001587	6393.296128	44853.059301	3853.214258	23737.050863
45.536000	0.002063	0.000783	0.008080	-0.003113	6464.040929	45342.518952	3869.038774	23965.112587
46.036000	0.000209	0.000397	0.002275	0.000538	6417.669515	44949.070245	3845.111066	23787.744600
46.536500	-0.000282	0.000777	0.002469	0.002210	6399.608305	44823.921098	3841.420107	23707.024255
47.039000	-0.001720	0.001502	0.004994	0.002588	6384.519161	44857.543971	3846.787429	23688.822678
47.537000	0.000914	0.001009	0.010559	-0.000326	6430.824121	45092.566235	3868.251966	23829.598365
48.039500	0.000224	0.001236	0.001668	0.001045	6413.550827	44981.362701	3842.327100	23763.250156
48.537500	0.000343	0.000701	0.006883	0.000467	6419.387250	44985.453746	3856.887797	23791.195992
49.037500	-0.000643	0.001092	0.001242	0.002111	6397.432258	44864.001470	3838.610372	23711.805603
49.535500	0.002623	0.001634	0.004432	-0.004814	6483.248020	45593.157660	3864.068900	24048.225811
50.035500	-0.000305	0.000944	0.004487	0.002529	6396.754819	44809.218301	3845.663817	23691.635579
50.536000	-0.002489	0.001970	0.003541	0.004536	6362.050174	44714.405022	3838.295945	23595.220068
51.049500	-0.002146	0.001871	0.010073	0.180820	5169.702237	30729.232715	3488.830135	16650.218945
51.536000	0.005348	-0.005899	-0.002444	0.227975	4961.362606	27413.059758	3395.025763	15222.965769
52.083000	-0.023404	-0.064511	-0.035760	-0.229322	8627.311343	64415.589437	4448.752266	38445.697936
52.717000	-0.016139	-0.105985	-0.019361	-0.278617	9440.292143	65535.000000	4724.839838	42732.823993
53.092000	-0.003098	-0.066274	-0.007072	-0.235179	8990.233716	64999.073048	4588.720285	38929.990962
53.537500	-0.005369	-0.044218	-0.004855	-0.202839	8514.710024	63543.883187	4466.052362	36335.728963
54.035500	-0.010855	-0.015913	-0.006129	-0.118674	7445.566756	56214.197389	4161.038892	30423.796588
54.552500	-0.014079	-0.009511	-0.008982	-0.098072	7196.628940	54496.436868	4087.281470	29142.977684
55.036000	-0.009847	-0.008272	-0.007010	-0.095173	7210.201096	54299.247945	4084.447773	28967.586689
55.536000	-0.003560	-0.006707	-0.006071	-0.090087	7222.466745	53883.621363	4071.845555	28662.699370
56.036500	-0.009165	-0.004122	-0.013772	-0.066076	6929.779573	51425.218784	3979.335641	27270.464889
56.536500	-0.010509	-0.002924	-0.010332	-0.052779	6792.299666	50089.675748	3951.929082	26531.939694
57.036500	-0.005629	-0.001028	-0.005052	-0.043318	6750.230197	49273.466656	3940.493751	26020.113721
57.540000	-0.010203	-0.001897	-0.012747	-0.029996	6590.052986	47779.864544	3884.638391	25318.001303
58.037500	-0.010476	-0.004474	-0.010729	-0.043455	6707.433979	48920.809160	3925.508184	26027.444519
58.535000	-0.004021	-0.000888	-0.017000	-0.023408	6586.497356	47205.892763	3856.864060	24978.648145
59.035000	-0.009004	0.000292	-0.010868	0.033089	6084.376699	41897.108458	3736.557264	22270.665043
59.535000	-0.011272	0.001193	-0.013340	0.053121	5919.114024	40212.854500	3687.151060	21392.007378
60.035500	-0.013705	0.000096	-0.016002	0.068948	5789.965568	38783.486120	3648.428634	20725.868175
60.536000	-0.011757	0.001828	-0.012958	0.063902	5838.797374	39349.259039	3665.169748	20935.633119
61.037500	-0.009376	0.001253	-0.008174	0.072657	5794.272453	38572.799206	3656.913955	20573.276192
61.536000	-0.013581	0.000655	-0.002476	0.074853	5750.201942	38343.487238	3664.189940	20483.502420
62.037500	-0.013990	-0.000800	-0.014356	0.078454	5722.925809	37932.264448	3632.461606	20337.310719
62.657500	-0.010102	0.001314	-0.010167	0.079833	5739.965895	37991.801966	3638.137278	20281.667424
63.038000	-0.010282	0.001076	-0.008521	0.079770	5739.164588	37977.519966	3641.607040	20284.180540
63.535000	-0.011665	-0.000004	-0.008798	0.071128	5789.005562	38595.224789	3658.789412	20636.030216
64.038500	-0.013266	0.000412	-0.010570	0.076357	5742.086061	38200.829603	3644.384465	20422.295682
64.535500	-0.014166	0.001112	-0.012082	0.055621	5880.395832	39991.219614	3684.495957	21285.152927
65.035500	-0.009462	-0.001089	-0.014955	0.045557	5987.545669	40670.453680	3699.962219	21719.002030
65.536000	-0.010636	0.001032	-0.013791	0.072060	5789.671736	38603.786771	3646.585176	20597.746929
66.040000	-0.011872	-0.001870	-0.016909	0.032299	6068.620344	41773.842289	3724.799623	22306.148213
66.537000	-0.008293	0.000774	-0.017341	0.018629	6201.759323	43265.135827	3754.718239	22930.582218
67.039500	-0.008473	0.001158	-0.014428	0.012641	6247.787447	43862.931192	3775.354898	23210.345684
67.545500	-0.004613	0.002627	-0.015542	0.009045	6307.801966	44344.545688	3781.185942	23380.244679
68.048500	-0.007626	0.002868	-0.014287	0.012742	6253.749614	44015.321575	3775.448214	23205.591892
68.534500	-0.006273	0.002551	-0.010477	0.009864	6287.730129	44258.951249	3791.233723	23341.385682
69.041500	-0.005201	0.003526	-0.009363	0.008596	6306.667944	44473.573732	3796.917055	23401.522182
69.536000	-0.004502	0.003452	-0.010311	0.008974	6309.279279	44430.241329	3793.750961	23383.607635
70.036500	-0.006870	0.003446	-0.008235	0.013123	6256.744359	44033.967193	3788.819113	23187.673014
70.536500	-0.008357	0.002868	-0.013831	0.015274	6227.761756	43775.770880	3770.594877	23086.837064
71.036500	-0.004148	0.003072	-0.007744	0.010023	6303.630707	44293.454079	3797.375957	23333.861736
71.539500	-0.005316	0.002725	-0.008268	0.010310	6291.854104	44232.998408	3795.436792	23320.281477
72.036500	-0.007252	0.003828	-0.007591	0.015593	6234.008072	43836.252369	3784.495306	23071.933195
72.537500	-0.007486	0.002432	-0.010510	0.016956	6221.333420	43576.498422	3774.422583	23008.323796
73.035000	-0.007517	0.003339	-0.010601	0.013522	6248.386969	43985.966280	3782.277398	23168.940149
73.535500	-0.003940	0.003509	-0.006198	0.015112	6264.277172	43851.581575	3788.931209	23094.408959
74.038000	-0.005202	0.003029	-0.007575	0.020524	6211.190359	43298.615291	3772.943972	22842.845088
74.536000	-0.005954	0.001488	-0.009807	0.021170	6200.162590	43095.228277	3766.241463	22812.982848
75.036000	-0.004656	0.003514	-0.009249	0.018506	6231.482164	43532.638487	3773.747821	22936.264570
75.536500	-0.005179	0.003344	-0.003596	0.018220	6229.608891	43543.466983	3787.732769	22949.558373
76.036500	-0.008993	0.002722	-0.008426	0.022101	6169.072174	43123.449793	3767.286942	22770.115638
76.537000	-0.004074	0.004030	-0.007582	0.019714	6226.513847	43467.707009	3774.822510	22880.265513
77.037500	-0.007753	0.002687	-0.006295	0.017849	6212.165336	43516.688202	3782.229079	22966.794813
77.535000	-0.004208	0.003720	-0.001343	0.018821	6232.546471	43522.367332	3791.654840	22921.656033
78.035500	-0.006141	0.003009	-0.005435	0.022447	6188.666578	43117.892338	3773.451795	22754.194474
78.535500	-0.003802	0.002882	-0.007425	0.019047	6233.969138	43422.744717	3776.752295	22911.160422
79.035500	-0.004013	0.004112	-0.006035	0.019870	6225.764321	43460.852700	3778.082368	22873.054551
79.535500	-0.003747	0.004275	-0.006019	0.020769	6220.746991	43391.994661	3776.010811	22831.501082
80.036000	-0.004865	0.002716	-0.005554	0.024505	6182.541264	42900.352652	3768.375764	22659.764373
80.536500	-0.002442	0.003226	-0.007464	0.021863	6222.421938	43192.329018	3770.077363	22781.050665
81.040000	-0.001934	0.003381	-0.004272	0.022050	6224.962570	43189.256358	3777.105194	22772.432025
81.537000	-0.005187	0.002879	-0.004944	0.022343	6196.967445	43115.480290	3774.841601	22758.947870
82.035000	-0.008025	0.003141	-0.008305	0.027235	6136.735281	42688.114824	3755.706533	22535.175707
82.535000	-0.003050	0.003975	-0.004049	0.024029	6200.525100	43060.771371	3772.994236	22681.567323
83.035000	-0.004420	0.003305	-0.004839	0.023073	6197.264192	43087.346922	3773.381993	22725.431855
83.535500	-0.003169	0.002999	-0.012350	0.023199	6206.123671	43047.272171	3755.683088	22719.617723
84.036000	-0.008579	0.003636	-0.005706	0.027619	6129.502476	42698.358056	3760.806680	22517.718112
84.536000	-0.005227	0.003193	-0.006990	0.023558	6187.116536	43031.956772	3767.237951	22703.136936
85.036000	-0.003487	0.003366	-0.005586	0.023980	6197.462221	43008.908553	3769.522356	22683.780113
85.537000	-0.006706	0.003561	-0.006018	0.024011	6172.011828	43024.133644	3768.445566	22682.381212
86.037000	-0.006373	0.002906	-0.010560	0.027570	6146.927256	42635.796254	3749.774289	22519.927443
86.537000	-0.007368	0.002662	-0.003154	0.023643	6169.717646	42974.976651	3775.991429	22699.258523
87.035000	-0.006507	0.002887	-0.008472	0.023017	6181.332189	43053.728846	3765.053249	22727.979387
87.535000	-0.006412	0.002863	-0.003937	0.022958	6182.539929	43056.944219	3775.760919	22730.691487
88.035000	-0.011305	0.001920	-0.014676	0.026044	6120.639588	42685.302267	3743.876232	22589.399076
88.535500	-0.006869	0.003213	-0.009192	0.023655	6173.515229	43024.786036	3761.909928	22698.693728
89.036000	-0.005527	0.003210	-0.006489	0.023055	6188.708624	43080.146577	3769.572999	22726.223129
89.536000	-0.005659	0.002828	-0.005604	0.022339	6193.293580	43111.139506	3773.308060	22759.156751
90.036000	-0.009955	0.002999	-0.006927	0.026354	6128.650823	42756.096404	3760.908638	22575.304735
90.542500	-0.006834	0.003238	-0.002751	0.022312	6184.289878	43151.637765	3780.062485	22760.371891
91.037500	-0.002559	0.003869	-0.002797	0.022268	6218.291490	43214.383974	3780.057304	22762.406602
91.537500	-0.007710	0.002703	-0.005214	0.020906	6188.440237	43232.608061	3777.579123	22825.167125
92.035000	-0.007501	0.002714	-0.002587	0.024706	6160.394864	42881.578128	3774.828002	22650.537503
92.535000	-0.006728	0.002884	-0.003191	0.020716	6197.644340	43267.181277	3782.787390	22833.944230
93.035500	-0.004274	0.003797	0.000806	0.021151	6213.563200	43311.800939	3791.226889	22813.884997
93.536000	-0.004986	0.002781	-0.007523	0.020335	6214.384813	43293.137688	3773.509048	22851.569311
94.036500	-0.007513	0.002853	-0.008002	0.024597	6161.150171	42904.402517	3762.482062	22655.522402
94.536000	-0.005984	0.003128	-0.005533	0.021658	6196.090840	43202.268567	3775.066550	22790.490450
95.037000	-0.007418	0.002917	-0.005475	0.021015	6189.882223	43242.456074	3776.711343	22820.162490
95.537000	-0.006028	0.003119	-0.004499	0.021124	6199.947960	43251.087618	3778.745632	22815.127083
96.037500	-0.010051	0.002169	-0.011931	0.024231	6144.299122	42875.119549	3754.275931	22672.287119
96.534500	-0.007943	0.002732	-0.009777	0.021040	6185.568322	43222.978713	3766.613987	22819.018196
97.035500	-0.008702	0.002531	-0.004728	0.020447	6184.270559	43259.383546	3779.800646	22846.392890
97.535500	-0.007164	0.003121	-0.002082	0.020903	6192.754534	43271.885601	3784.964278	22825.317318
98.035000	-0.008755	0.003232	-0.010158	0.024690	6150.783438	42930.833212	3757.294693	22651.266385
98.536000	-0.005984	0.003475	-0.003962	0.020842	6202.509838	43310.555758	3780.672558	22828.133947
99.036500	-0.005119	0.002865	-0.006593	0.020650	6210.848403	43271.654520	3774.947087	22837.030261
99.536500	-0.007124	0.002717	-0.003368	0.020757	6194.217420	43247.886784	3782.273559	22832.087384
100.039500	-0.007756	0.002817	-0.005403	0.025575	6151.667058	42811.029776	3766.238468	22610.833479
100.536500	-0.006457	0.003173	-0.003646	0.021244	6195.628476	43244.931074	3780.470830	22809.590777
101.034500	-0.008315	0.002749	-0.006128	0.020886	6183.859135	43238.803497	3775.482779	22826.095776
101.535000	-0.007075	0.003783	-0.004017	0.021368	6189.808358	43290.308213	3779.307558	22803.891851
102.035000	-0.010336	0.002518	-0.001916	0.024966	6136.410766	42839.476000	3775.790596	22638.642869
102.535500	-0.005914	0.003372	-0.007834	0.021256	6199.811543	43262.458916	3770.632145	22809.058106
103.035500	-0.007200	0.002551	-0.006244	0.020329	6196.980982	43272.314364	3776.518032	22851.854599
103.536000	-0.006393	0.003833	-0.002298	0.021139	6196.959588	43316.244538	3783.896198	22814.433486
104.036500	-0.012033	0.002419	-0.009490	0.025488	6119.321914	42782.403667	3756.997170	22614.822378
104.539500	-0.009383	0.002262	-0.003608	0.019292	6187.983407	43342.045694	3785.164732	22899.831095
105.037000	-0.007839	0.003314	-0.002785	0.020056	6194.103928	43368.805743	3785.304336	22864.449238
105.537000	-0.006797	0.003188	-0.006027	0.020207	6201.113851	43343.019108	3777.312259	22857.497877
106.037500	-0.010837	0.003827	-0.003160	0.026909	6117.597411	42781.201388	3768.351648	22550.023562
106.538000	-0.006832	0.002794	-0.005161	0.019420	6207.038270	43379.711693	3781.199920	22893.919736
107.035000	-0.008496	0.002582	-0.008839	0.019025	6197.050204	43396.865521	3773.494244	22912.219410
107.563000	-0.008367	0.002737	-0.004389	0.018760	6200.139714	43436.016553	3784.576005	22924.475610
108.036000	-0.010633	0.002975	-0.013282	0.023671	6144.132664	43001.303982	3752.464784	22697.969474
108.536500	-0.006378	0.003340	-0.002766	0.019992	6206.111121	43377.365564	3785.503207	22867.443884
109.036000	-0.006758	0.002608	-0.000854	0.019424	6207.589125	43362.001440	3791.385789	22893.730444
109.536500	-0.007990	0.002645	-0.005547	0.019584	6196.630133	43350.495944	3779.902449	22886.308438
110.037000	-0.009194	0.002776	-0.008102	0.024460	6149.161506	42909.938256	3762.567408	22661.794273
