sample name	sample
index	569
start time	 03-16-2021  02:50:15 PM
880	0.000735
Peak Time (s)	181.035
Peak Height 	7.3518E-4
calc peak height	180,183
Baseline Time (s)	9.535
Baseline Value 	-0.004044
subtract baseline	10,4
Abs	0.002847
Peak Time (s)	180.535
Peak Height 	0.002847
calc peak height	180,183
Baseline Time (s)	9.535
Baseline Value 	0.002265
subtract baseline	10,3
PK_550	0.000854
Peak Time (s)	180.037
Peak Height 	8.5403E-4
calc peak height	180,183
Baseline Time (s)	9.037
Baseline Value 	0.001245
subtract baseline	10,2
PK_880	-0.004527
Peak Time (s)	180.037
Peak Height 	-0.004527
calc peak height	180,183
Baseline Time (s)	8.535
Baseline Value 	0.003008
subtract baseline	10,1


Time (s)	A880-A510	A880-A775	A880-A975	A880	I510	I775	I975	I880	
0.041000	-0.000980	-0.000438	0.006722	0.000595	5576.168822	34018.938995	3612.652981	18409.286294
0.536000	-0.002702	-0.000417	-0.002182	0.004604	5538.595819	33732.962362	3585.467843	18264.946116
1.036000	-0.004995	-0.001592	-0.002340	0.005769	5516.163888	33566.363845	3582.729476	18223.255567
1.539000	-0.000597	-0.000461	0.000343	0.000229	5581.116832	34043.640448	3599.892689	18422.539396
2.037000	0.001271	-0.001270	0.001327	-0.000459	5598.067291	34034.927733	3603.423698	18447.468085
2.537000	-0.000498	-0.000473	0.000220	-0.000392	5585.883216	34087.624144	3600.943417	18445.037477
3.037000	-0.004999	-0.001133	-0.002536	0.003523	5530.685921	33759.018256	3586.976044	18303.728468
3.535000	-0.000899	-0.001128	-0.001536	-0.000950	5586.920052	34080.602457	3598.418811	18465.273681
4.035000	0.000968	-0.000342	0.001705	-0.000243	5594.618433	34086.279427	3603.768025	18439.649257
4.535500	-0.000213	-0.001198	0.001255	-0.000077	5585.685681	34012.638767	3602.465751	18433.639778
5.036000	-0.000951	-0.000588	0.000350	0.000691	5575.728939	34001.239582	3598.934897	18405.823109
5.536000	-0.000581	-0.000564	0.001018	-0.000377	5585.234779	34079.944463	3602.596782	18444.494976
6.039000	-0.002191	-0.000909	0.001961	-0.000454	5575.099574	34060.560815	3604.755114	18447.277434
6.536500	-0.000761	-0.000392	0.001051	-0.000338	5583.785679	34089.543506	3602.583941	18443.077936
7.036500	-0.000590	-0.001014	0.000565	-0.000652	5586.999649	34067.367535	3602.222469	18454.490857
7.540000	-0.000316	-0.000349	0.002612	-0.000475	5587.639242	34102.594076	3606.181361	18448.064224
8.037500	-0.002125	-0.001421	-0.003474	-0.000798	5577.808392	34048.446489	3594.032794	18459.758547
8.535000	0.000000	-0.001131	0.000765	-0.000392	5589.186220	34040.148309	3602.095879	18445.062628
9.036500	0.001380	0.000000	-0.001839	0.000110	5595.010686	34085.485054	3595.556489	18426.841888
9.535000	0.000633	0.000382	0.000000	0.000000	5590.778408	34121.042067	3599.653538	18430.838882
10.036000	-0.001571	-0.001124	0.002710	-0.000971	5582.612920	34082.408732	3607.441477	18466.060532
10.536000	0.000109	0.000637	-0.003602	0.000772	5582.195566	34083.731789	3590.485415	18402.895391
11.036500	-0.000696	0.000437	-0.000553	0.000190	5580.721367	34111.346471	3598.090631	18423.967083
11.536500	-0.001413	-0.000734	0.001247	-0.000492	5580.488752	34075.966193	3603.323393	18448.666589
12.037500	-0.000729	-0.000590	0.000549	-0.000303	5583.765224	34072.754464	3601.450036	18441.820117
12.537000	0.001029	-0.000794	0.008532	-0.000277	5595.244487	34056.116869	3618.402121	18440.861869
13.034500	-0.000233	-0.000236	0.000430	-0.001596	5595.628489	34191.810055	3603.931366	18488.767763
13.534500	-0.000859	0.000467	0.004131	0.001230	5572.779699	34038.412273	3605.786391	18386.352219
14.057000	-0.000365	-0.000422	0.000016	-0.000630	5588.341187	34108.465468	3601.015767	18453.679733
14.535500	-0.001612	-0.000655	0.003483	0.002653	5558.476842	33855.504801	3601.404729	18335.033075
15.038500	-0.000496	0.001009	0.001409	0.001474	5573.563169	34059.874384	3599.515294	18377.521390
15.546500	0.001731	0.000270	0.007488	0.000525	5594.587997	34075.054486	3614.441732	18411.845191
16.036500	0.000413	-0.000103	0.005169	-0.000435	5592.208288	34117.415307	3611.535600	18446.598754
16.536500	0.000055	-0.001419	0.002417	-0.001091	5594.184132	34069.740819	3607.073637	18470.400143
17.040000	0.000068	-0.000742	-0.000441	-0.000014	5587.127617	34040.925066	3598.754876	18431.354285
17.537000	-0.000253	-0.000645	0.002471	-0.001773	5596.671996	34174.992118	3608.638488	18495.194670
18.035000	0.000013	-0.000613	0.004388	-0.001816	5598.727931	34180.479609	3612.818422	18496.773123
18.535000	-0.003055	-0.000108	0.007412	0.000998	5559.863687	34013.681157	3613.266135	18394.723751
19.035000	-0.000952	-0.000752	0.001965	0.001121	5572.885038	33958.489037	3601.433511	18390.283186
19.536000	-0.000154	-0.000397	0.006484	0.001595	5575.026450	33949.958293	3610.012440	18373.175792
20.036000	-0.003797	-0.000550	0.005958	0.000910	5555.574293	33988.207891	3610.351672	18397.908567
20.536000	-0.000260	-0.000224	0.007314	0.001530	5574.755296	33967.087842	3611.920810	18375.527044
21.036500	0.000834	0.000475	0.000979	0.001736	5580.621512	34002.552257	3598.061780	18368.095232
21.539500	-0.002589	-0.000427	-0.002678	0.001415	5560.186670	33960.710049	3591.070546	18379.664785
22.037000	-0.000219	0.000015	0.001373	0.001357	5576.165561	33996.697216	3599.687277	18381.746215
22.537500	0.000991	-0.000196	0.002471	0.001780	5581.364615	33951.107032	3601.110959	18366.493230
23.035000	-0.001424	-0.000484	0.002128	0.001473	5567.460682	33952.431388	3601.035528	18377.577099
23.535000	-0.000889	-0.000183	-0.000132	0.001912	5568.093357	33942.540894	3595.357084	18361.740523
24.035000	-0.000908	0.000473	0.004400	0.002241	5565.806783	33966.059679	3604.213035	18349.875248
24.536000	0.000790	0.000252	0.001070	0.002374	5576.112596	33940.596922	3596.910455	18345.070077
25.036000	-0.000009	0.000104	0.002124	0.002118	5572.531916	33948.364642	3599.666913	18354.316653
25.536500	-0.000675	0.000024	0.002043	0.002133	5568.041923	33941.500810	3599.464427	18353.753393
26.037000	0.000243	0.000451	0.002857	0.002253	5573.301008	33963.566881	3600.927856	18349.440040
26.536500	0.000142	0.000202	0.002665	0.002145	5573.346266	33953.461511	3600.750554	18353.333980
27.037500	-0.002894	-0.000584	-0.000196	0.001802	5555.648010	33921.604299	3595.452431	18365.684214
27.535000	-0.001233	-0.000752	-0.003044	0.001767	5566.783736	33912.062788	3589.574359	18366.959630
28.035500	0.003755	0.000222	0.001896	-0.000890	5617.518904	34173.862386	3605.542282	18463.123939
28.535500	-0.000942	-0.000418	0.001532	-0.000147	5581.324100	34073.845157	3603.195822	18436.149916
29.066000	0.000621	-0.000353	0.003171	0.000049	5590.375185	34064.371066	3606.253934	18429.047040
29.536000	0.000139	0.000093	0.005273	0.000368	5585.072720	34073.604940	3610.045732	18417.521976
30.036000	0.002728	0.001266	0.000058	0.001314	5595.967481	34089.980766	3597.010381	18383.303216
30.536500	0.002887	0.000316	0.001555	0.000049	5605.441650	34112.696499	3602.831647	18429.051791
31.039500	0.000038	0.000266	0.003030	0.001200	5578.904321	34026.077194	3603.518735	18387.444118
31.537000	-0.000492	0.000844	0.002046	0.004246	5555.367469	33848.692863	3595.028301	18277.762597
32.037500	-0.001789	-0.000479	0.004298	0.002428	5558.789943	33884.232077	3603.601825	18343.139742
32.535000	0.000553	0.000378	0.001960	0.000583	5586.386490	34078.691921	3602.559825	18409.737350
33.062500	-0.000838	-0.000636	0.001401	0.000839	5575.500326	33987.120896	3600.837105	18400.467915
33.539500	-0.000966	0.000128	-0.001870	0.000953	5573.905767	34033.946190	3593.725133	18396.359625
34.036000	0.000876	0.000088	0.003408	0.000212	5590.983156	34084.483991	3606.411715	18423.145190
34.537000	0.001143	0.000976	0.003113	0.001086	5586.965557	34085.571975	3603.935274	18391.562604
35.036500	-0.002397	-0.000813	0.004984	0.002065	5557.182044	33886.314770	3605.824330	18356.210831
35.536500	-0.000793	-0.000382	0.000591	0.002888	5562.302390	33858.183489	3594.826194	18326.554311
36.037000	-0.000589	-0.000336	0.001411	0.003167	5561.817890	33841.516450	3595.963181	18316.549670
36.537000	-0.000856	0.000606	0.005991	0.003354	5558.831150	33895.640142	3605.224619	18309.799248
37.037500	0.001671	-0.000138	-0.001489	0.003222	5576.327720	33851.747908	3589.780821	18314.542783
37.535000	-0.000512	0.000192	-0.000729	0.003670	5559.022311	33843.354110	3590.433343	18298.472059
38.035000	-0.000101	-0.000784	0.006078	0.002907	5566.726225	33828.029518	3606.357699	18325.872080
38.535500	0.000209	0.000128	-0.000644	0.003511	5564.796924	33850.055104	3590.941993	18304.160484
39.036000	-0.001968	-0.000375	0.004777	0.002510	5557.071962	33885.756880	3604.442116	18340.168321
39.536000	0.000009	-0.000527	0.004043	0.003117	5566.076010	33831.393721	3601.606165	18318.337426
40.036500	0.000423	0.000050	0.003216	0.003161	5568.505818	33869.592488	3599.768870	18316.734309
40.536500	-0.000486	-0.001102	0.003400	0.002684	5565.669773	33821.271743	3601.163323	18333.929086
41.037000	0.000030	-0.000164	0.005733	0.003678	5562.518354	33817.231931	3603.991993	18298.153264
41.537000	0.000872	-0.000367	0.003122	0.003316	5570.442926	33828.580487	3599.243695	18311.165148
42.035000	-0.000592	-0.000721	0.006696	0.003262	5561.173456	33807.133738	3606.918334	18313.122679
42.535500	-0.001358	0.000637	0.003430	0.004474	5548.218708	33817.599499	3597.456665	18269.612824
43.038500	-0.000175	-0.000120	0.005964	0.003838	5560.121599	33808.916045	3604.143457	18292.407260
43.535500	-0.001596	-0.000164	0.007590	0.003606	5552.333049	33822.363498	3608.084308	18300.744919
44.036000	0.000901	0.000994	0.008920	0.004627	5562.013153	33832.196260	3608.742701	18264.118235
44.536000	0.000108	0.000891	0.004630	0.004040	5560.658620	33866.892835	3600.897887	18285.173140
45.037000	0.002672	0.001109	0.006248	-0.000546	5607.978873	34213.149100	3614.078470	18450.616805
45.539500	0.002556	0.000556	0.007107	0.002302	5588.264851	33967.614347	3609.833778	18347.667842
46.037000	0.001968	0.000840	0.001572	0.001739	5588.101309	34028.549538	3599.300570	18367.962909
46.538000	0.001609	0.000792	0.006171	0.001718	5585.865231	34026.691718	3609.084033	18368.732103
47.035000	0.003435	0.000801	0.002597	0.002014	5596.010960	34005.964927	3600.883617	18358.051585
47.535000	0.000524	-0.000008	0.005865	0.002922	5570.741600	33882.538943	3605.873321	18325.331740
48.035500	0.000396	0.000776	0.007727	0.001694	5578.002469	34027.195353	3612.453576	18369.593246
48.563000	-0.000711	-0.000036	0.004572	0.005839	5543.526190	33672.039055	3596.988141	18220.731621
49.036500	-0.000109	0.000712	0.005200	0.005383	5550.433244	33757.934264	3599.267433	18237.038690
49.536500	0.000943	-0.000139	0.002393	0.002802	5574.292981	33881.784049	3598.791472	18329.647621
50.061500	0.000040	0.001119	0.002493	0.002096	5572.994774	34022.957017	3600.489318	18355.085273
50.534500	0.001624	0.000107	0.002829	0.004120	5570.098302	33805.011348	3596.938547	18282.303117
51.038000	-0.000114	0.001337	0.008266	0.002625	5568.502607	34000.596090	3611.616901	18336.043962
51.535000	0.001218	0.000391	0.006569	0.002011	5581.337935	33976.671211	3609.307175	18358.145978
52.035000	0.000722	0.000399	0.002010	0.002117	5577.358084	33969.619860	3599.429414	18354.345019
52.535500	0.018185	0.005482	0.014680	0.021117	5567.231575	32984.499044	3586.193317	17684.201543
53.036000	-0.004359	-0.013397	0.001215	0.009200	5498.166909	32503.393385	3582.985376	18101.093232
53.536000	-0.003648	-0.003462	-0.008331	-0.115791	6434.112451	43350.913006	3856.520852	23237.661660
54.036000	-0.007121	-0.033281	-0.012845	-0.305856	8432.918383	61477.954821	4481.151834	34514.543591
54.542000	-0.009388	-0.014986	-0.003198	-0.150726	6693.074450	45600.668005	3969.781104	24958.089511
55.036500	-0.017259	-0.011360	-0.012876	-0.146810	6586.422304	45572.055226	3930.177298	24758.286972
55.537000	-0.019416	-0.007012	-0.025518	-0.194096	7010.920208	50980.694161	4033.604133	27295.781409
56.037500	-0.007857	-0.004737	-0.019726	-0.234042	7552.463029	55907.017118	4183.417516	29665.488268
56.535000	-0.008362	-0.003957	-0.021790	-0.212414	7311.856467	53414.622138	4103.845798	28355.426482
57.035000	-0.006484	-0.000696	-0.023491	-0.190458	7103.950691	51279.093473	4028.609162	27090.582976
57.535500	-0.006473	0.001262	-0.019324	-0.167337	6876.242798	48970.127874	3971.216216	25825.975937
58.036000	-0.006427	-0.001326	-0.016036	-0.148407	6698.974314	46735.011896	3925.704730	24839.590848
58.536000	-0.004535	-0.001216	-0.010235	-0.126528	6519.544309	44583.546055	3880.597837	23751.762784
59.036500	-0.002681	-0.002157	-0.011667	-0.108417	6379.580145	42787.294559	3827.979113	22891.897000
59.536500	-0.000213	-0.003153	-0.011854	-0.090950	6255.005577	41120.044428	3782.434801	22095.839897
60.037000	-0.006532	-0.003946	-0.011550	-0.070175	6040.592807	39260.134832	3731.889423	21189.804797
60.537500	-0.007399	-0.005413	-0.013957	-0.065551	5998.747356	38751.397535	3715.073258	20993.960057
61.035000	-0.005319	-0.003679	-0.002493	-0.048795	5889.466038	37526.704087	3702.593137	20301.528191
61.534500	-0.006040	-0.001813	-0.006590	-0.028103	5736.501720	36050.633736	3646.117857	19482.514239
62.035500	-0.007752	-0.002841	-0.003959	-0.016988	5648.418209	35131.945362	3627.518706	19058.419774
62.535500	-0.009306	-0.003177	-0.006022	-0.004810	5556.953381	34211.575389	3597.102715	18606.033872
63.036000	-0.010998	-0.003487	0.002233	0.000247	5513.059802	33824.982329	3603.848413	18421.897086
63.536500	-0.009834	-0.002329	-0.005879	-0.002972	5541.486510	34139.887966	3593.548192	18538.849602
64.059000	-0.012371	-0.003202	-0.006219	-0.011282	5579.384226	34682.419745	3610.383896	18844.894481
64.537000	-0.012638	-0.003029	-0.007833	-0.009043	5562.872810	34530.795480	3602.205341	18761.852639
65.037000	-0.012732	-0.002534	-0.009061	-0.010469	5571.634263	34671.770583	3602.625633	18814.688540
65.556500	-0.012044	-0.002084	-0.004366	-0.011813	5585.052215	34803.987891	3615.478638	18864.629328
66.037500	-0.008950	-0.002330	-0.006938	-0.011659	5604.587279	34774.423176	3609.652862	18858.895994
66.534500	-0.012177	-0.002490	-0.008707	-0.006712	5550.613289	34399.855800	3595.461520	18675.876098
67.035500	-0.007184	-0.001557	-0.006790	-0.011810	5617.390887	34842.669876	3610.289306	18864.507324
67.536000	-0.009222	-0.001750	-0.002871	-0.011378	5600.898642	34796.486372	3617.751320	18848.432294
68.036500	-0.009721	-0.001947	-0.003026	-0.011200	5596.400002	34768.875169	3617.037861	18841.837870
68.536500	-0.010571	-0.002064	-0.006312	-0.006216	5557.880976	34394.743294	3599.450157	18657.620645
69.037000	-0.008864	-0.001022	-0.004148	-0.011525	5604.260640	34861.145003	3615.327845	18853.897615
69.537000	-0.008277	-0.001577	-0.005671	-0.011752	5609.695866	34836.912413	3612.556584	18862.378036
70.037500	-0.009211	-0.000942	-0.004510	-0.011312	5600.534452	34851.278513	3614.096871	18845.976604
70.535000	-0.010894	-0.001348	-0.013256	-0.006208	5555.715897	34446.366187	3584.924249	18657.336387
71.035000	-0.007895	-0.000943	-0.007107	-0.011417	5610.011537	34859.003752	3608.779676	18849.896229
71.535500	-0.008583	-0.001174	-0.003610	-0.011356	5605.012093	34837.473489	3616.120040	18847.648336
72.035500	-0.007960	-0.000995	-0.008867	-0.011090	5607.394124	34830.997130	3604.349850	18837.756862
72.536000	-0.011411	-0.001406	-0.007183	-0.006570	5554.698034	34468.569111	3598.362092	18670.645015
73.036000	-0.006113	-0.000463	-0.003781	-0.010387	5615.036574	34818.399786	3613.678767	18811.656744
73.545000	-0.009021	-0.000528	-0.001465	-0.010634	5597.290689	34831.850224	3619.176362	18820.815632
74.037000	-0.006493	0.000069	-0.002997	-0.010043	5610.191532	34832.268404	3614.618002	18798.874464
74.537000	-0.005867	-0.000348	-0.009589	-0.009880	5613.289689	34789.398638	3600.266245	18792.842812
75.034500	-0.009149	-0.000216	-0.000954	-0.010057	5592.602518	34812.197776	3619.034969	18799.394526
75.538000	-0.005590	0.000099	0.000108	-0.009312	5611.347492	34780.501699	3619.716117	18771.814349
76.035500	-0.007927	-0.001184	-0.003805	-0.010163	5601.435218	34748.618066	3613.147119	18803.328258
76.535500	-0.004929	-0.000899	-0.009282	-0.010433	5623.272864	34789.510773	3602.081454	18813.332776
77.035500	-0.004678	0.000296	-0.002987	-0.008808	5614.074740	34757.888542	3612.000906	18753.169981
77.539000	-0.008014	-0.000957	-0.002562	-0.009145	5594.081560	34690.351839	3613.628347	18765.612806
78.036500	-0.009218	-0.001174	-0.007652	-0.009709	5589.841920	34715.893935	3603.997777	18786.509221
78.536500	-0.005703	0.000629	-0.003650	-0.007494	5598.468882	34685.584910	3607.787319	18704.654955
79.036500	-0.005844	-0.001114	-0.004194	-0.008447	5603.876391	34627.446730	3608.656374	18739.807478
79.537000	-0.008140	-0.000369	-0.003232	-0.008535	5589.198671	34688.739107	3610.895024	18743.065630
80.037500	-0.009408	-0.000922	-0.004466	-0.008770	5582.358318	34665.295195	3608.765320	18751.739261
80.535500	-0.011190	-0.001019	-0.011353	-0.002579	5530.110758	34206.290781	3581.353424	18524.526834
81.035000	-0.006597	-0.001003	-0.003715	-0.007961	5595.633035	34599.957952	3608.641501	18721.871843
81.536000	-0.007089	0.000433	-0.006543	-0.007201	5587.330142	34649.626290	3601.041846	18693.869458
82.035500	-0.005329	0.000150	-0.001274	-0.007251	5599.340695	34632.473103	3612.333442	18695.705698
82.536500	-0.010342	-0.000876	-0.001381	-0.001755	5530.266345	34156.992428	3600.440551	18494.529348
83.039000	-0.003854	0.000674	-0.004980	-0.006552	5604.513216	34619.656122	3602.971543	18669.977074
83.537000	-0.009433	-0.001437	-0.004496	-0.007970	5576.907182	34568.822310	3607.000753	18722.209197
84.037000	-0.009376	-0.000219	0.002915	-0.006887	5570.145290	34578.673949	3620.538144	18682.287844
84.538000	-0.009239	-0.000872	-0.006061	-0.001250	5534.151084	34120.714269	3589.572104	18476.174720
85.035000	-0.008500	-0.001017	-0.007674	-0.006864	5575.771233	34518.553565	3597.947653	18681.458039
85.535500	-0.007105	0.000625	-0.009222	-0.005339	5574.911773	34527.149879	3591.508946	18625.444539
86.035500	-0.007957	0.000096	-0.007231	-0.006036	5573.893069	34539.460880	3597.140810	18651.034494
86.535500	-0.009150	-0.000698	-0.005634	-0.000845	5532.094902	34104.039869	3589.619958	18461.480329
87.036000	-0.006571	-0.000354	-0.003956	-0.005967	5582.585893	34501.416875	3603.898608	18648.470541
87.539500	-0.005545	0.000455	-0.003076	-0.004508	5579.724798	34453.878234	3602.675294	18594.984868
88.036000	-0.005888	-0.000323	0.001428	-0.005733	5585.561764	34486.575357	3614.867360	18639.906044
88.537000	-0.009076	-0.000909	-0.005909	-0.001605	5537.521037	34143.728503	3590.630716	18489.077323
89.036500	-0.003995	0.001240	-0.006809	-0.004405	5589.302330	34503.741050	3594.601623	18591.217507
89.535000	-0.005266	-0.001184	-0.005724	-0.005726	5589.633614	34423.167052	3599.658582	18639.637153
90.035000	-0.006005	0.000150	-0.001447	-0.004894	5579.234518	34459.776635	3606.944929	18609.111845
90.535500	-0.012593	-0.001279	-0.010607	0.000240	5502.825137	33983.884941	3577.082137	18422.129729
91.035500	-0.005379	-0.000556	-0.004208	-0.005144	5585.029388	34426.520708	3601.628852	18618.295158
91.536000	-0.005731	0.000041	-0.004413	-0.004186	5576.366259	34400.165525	3599.175546	18583.203851
92.036000	-0.007927	-0.000912	-0.002472	-0.005834	5572.756082	34450.884713	3606.763944	18643.586802
92.536500	-0.009792	-0.001766	-0.011336	0.000553	5518.875621	33926.431251	3574.945667	18410.830906
93.037000	-0.005968	-0.000808	-0.001506	-0.005162	5581.253594	34409.464933	3607.389716	18618.955577
93.536500	-0.007313	0.001314	-0.007199	-0.003118	5558.931795	34415.131649	3591.096470	18544.196701
94.034500	-0.009390	0.000265	-0.002783	-0.004463	5554.137100	34436.762511	3603.199419	18593.350285
94.535000	-0.007253	0.000144	-0.001498	-0.003721	5563.288780	34373.830613	3604.350229	18566.222670
95.035000	-0.007209	-0.000138	-0.002675	-0.004479	5568.562786	34408.520816	3603.462910	18593.935144
95.535500	-0.006862	-0.000407	-0.006734	-0.003943	5567.312604	34349.833774	3593.791475	18574.311983
96.035500	-0.008583	-0.000761	-0.001197	-0.004820	5561.766357	34387.971987	3607.317814	18606.415807
96.539000	-0.009289	-0.000631	-0.006942	-0.000410	5528.373260	34077.509051	3585.994360	18445.699492
97.039000	-0.006198	0.000211	-0.002810	-0.003724	5570.246824	34378.954783	3601.581738	18566.325579
97.536500	-0.008474	-0.000428	-0.007464	-0.004504	5560.408415	34389.194408	3593.439470	18594.850919
98.037000	-0.007172	-0.000727	-0.000479	-0.004313	5567.709157	34353.495836	3607.765905	18587.849861
98.537000	-0.009652	-0.000652	-0.009213	0.000391	5520.826662	34018.251026	3579.643030	18416.693827
99.036500	-0.008825	-0.000444	-0.004764	-0.004201	5556.115216	34365.914339	3598.466976	18583.747017
99.535000	-0.004438	-0.000253	-0.003224	-0.004122	5584.488712	34374.095367	3601.547483	18580.857441
100.035500	-0.002946	0.000271	0.002831	-0.003464	5590.015047	34364.334348	3613.012559	18556.814596
100.538500	-0.008627	0.000031	-0.002967	0.001478	5520.426503	33989.178705	3590.336654	18377.397516
101.036000	-0.005021	-0.000317	-0.003276	-0.003793	5578.465278	34345.476693	3600.743187	18568.853765
101.536500	-0.005670	0.000434	-0.004547	-0.003662	5573.315929	34390.606289	3597.790250	18564.044416
102.036000	-0.008256	-0.000271	-0.005892	-0.004049	5558.853284	34367.466591	3595.778425	18578.195787
102.536500	-0.009166	-0.000359	-0.003859	0.000378	5524.059111	34040.343336	3590.771886	18417.170003
103.037000	-0.007021	-0.000406	-0.005215	-0.003762	5565.078601	34336.730524	3596.596544	18567.695991
103.537000	-0.005000	-0.000226	-0.003306	-0.003701	5577.997281	34345.397462	3600.485789	18565.488768
104.037500	-0.007515	-0.000142	-0.003571	-0.004011	5563.471987	34374.117432	3600.581653	18576.810604
104.535000	-0.008149	-0.000307	-0.008390	-0.001901	5545.491362	34208.761569	3586.083476	18499.837166
105.035500	-0.004604	-0.000150	-0.001386	-0.003831	5581.474747	34360.439630	3604.820182	18570.241171
105.538500	-0.006023	-0.001282	-0.004281	-0.004500	5576.515126	34326.689809	3600.114402	18594.696785
106.036000	-0.006838	-0.000509	-0.002475	-0.003819	5566.656065	34333.334516	3602.489644	18569.775588
106.542000	-0.006129	-0.000455	-0.008108	-0.002328	5561.517042	34228.983790	3587.556596	18515.382772
107.037000	-0.006020	0.000281	-0.001934	-0.003197	5567.951851	34345.631729	3602.318040	18547.086551
107.537000	-0.006063	-0.001194	-0.007048	-0.004006	5572.993984	34297.134762	3593.266524	18576.616371
108.037000	-0.003933	0.000851	-0.001640	-0.002748	5578.747894	34354.445648	3601.991512	18530.698897
108.537500	-0.006545	0.000894	-0.001791	-0.002880	5562.408223	34367.175176	3601.951318	18535.509062
109.035000	-0.003579	0.000741	-0.001191	-0.002860	5581.825547	34354.595557	3603.176663	18534.784747
109.535500	-0.006623	-0.000040	-0.002670	-0.003242	5564.277987	34325.556505	3600.860240	18548.725282
110.035500	-0.003800	0.000358	-0.000768	-0.003111	5582.029060	34345.033721	3604.603495	18543.953595
110.538500	-0.005027	0.000820	0.005904	-0.000467	5556.540030	34186.551027	3613.175522	18447.763569
111.036500	-0.007400	0.000059	-0.003378	-0.003488	5560.791430	34350.657406	3599.885700	18557.693343
111.536500	-0.006184	0.000138	-0.004373	-0.003415	5568.299637	34351.107135	3597.636979	18555.029551
112.036500	-0.002721	-0.000237	-0.000031	-0.003590	5592.345841	34336.565636	3607.182720	18561.433659
112.536500	-0.007688	-0.000007	-0.004845	-0.001068	5543.069606	34170.160846	3591.731864	18469.581496
113.037000	-0.007760	-0.000972	-0.004131	-0.003729	5560.012555	34293.163322	3598.807550	18566.508889
113.535000	-0.007126	-0.000712	-0.004894	-0.003495	5562.638762	34295.094879	3596.711051	18557.960187
114.035000	-0.007352	0.000930	-0.004024	-0.002608	5555.332735	34350.029954	3596.675814	18525.608530
114.535500	-0.008052	0.000144	-0.003445	-0.001483	5543.402619	34211.116597	3595.527707	18484.642235
115.035500	-0.008838	-0.000845	-0.001343	-0.003551	5551.781305	34289.476357	3604.318745	18560.009730
115.535500	-0.005760	-0.000512	-0.005237	-0.003509	5571.713613	34310.647219	3596.020434	18558.467379
116.039000	-0.006189	0.000393	-0.001908	-0.003155	5566.564659	34350.771427	3602.284387	18545.558696
116.536500	-0.007532	-0.000521	-0.002827	-0.001987	5550.087188	34199.472928	3597.884771	18502.977188
117.036000	-0.008352	0.000803	-0.002000	-0.002964	5551.117452	34366.644679	3601.687000	18538.564229
117.537000	-0.007844	-0.000452	-0.002654	-0.003077	5555.180112	34283.612070	3600.544385	18542.697548
118.037500	-0.004027	-0.001318	-0.004795	-0.003967	5586.185892	34285.308591	3597.911969	18575.203546
118.535500	-0.006370	-0.000052	-0.002656	-0.001577	5555.017657	34203.822025	3597.384832	18488.084874
119.035000	-0.003606	0.000324	-0.003611	-0.002796	5581.226024	34319.576989	3597.937514	18532.436863
119.538500	-0.005176	-0.000816	-0.001902	-0.003447	5575.158765	34284.066394	3602.913843	18556.210367
120.035500	-0.008312	-0.000311	-0.005329	-0.003668	5555.983987	34336.772620	3596.158902	18564.258529
120.539000	-0.005297	-0.000688	0.002796	-0.001668	5562.647854	34164.263965	3609.107478	18491.371966
121.036500	-0.007686	-0.001662	-0.004313	-0.004044	5562.565687	34265.970500	3599.088392	18578.022161
121.536500	-0.008381	-0.000336	-0.000981	-0.002914	5550.603703	34280.232193	3603.735646	18536.766728
122.037000	-0.005547	-0.000914	-0.005078	-0.003945	5575.995399	34313.102443	3597.269654	18574.398105
122.535000	-0.007322	-0.000308	-0.001516	-0.003282	5559.949905	34309.014712	3603.382591	18550.189668
123.035000	-0.006387	0.000894	-0.001367	-0.001761	5556.107854	34285.800891	3600.485479	18494.777723
123.535000	-0.005257	-0.000196	-0.001992	-0.002514	5568.472912	34261.315761	3600.754083	18522.164660
124.035500	-0.004378	0.000582	-0.001129	-0.002680	5575.361488	34329.928400	3602.927442	18528.217064
124.535500	-0.005056	-0.000626	-0.002206	-0.002074	5566.902267	34198.224433	3599.375776	18506.155542
125.036500	-0.006435	-0.000280	-0.005061	-0.002630	5561.490609	34263.652130	3594.545575	18526.399200
125.536500	-0.005495	0.000770	-0.003773	-0.002223	5564.997818	34310.334308	3596.394661	18511.583676
126.036500	-0.005725	-0.000051	0.002980	-0.002610	5566.027935	34278.768694	3611.506905	18525.663910
126.537000	-0.005388	-0.000262	-0.000204	-0.001600	5561.601976	34190.175168	3602.599330	18488.896869
127.037000	-0.006643	-0.000816	-0.007800	-0.003033	5562.770930	34253.974863	3589.664973	18541.082097
127.534500	-0.007144	-0.000711	-0.004927	-0.003064	5559.689127	34263.829908	3595.736045	18542.219264
128.035000	-0.004386	0.000043	-0.003069	-0.003010	5577.486299	34314.661707	3599.528222	18540.245524
128.535000	-0.005173	0.001001	0.001514	-0.000698	5557.096567	34216.379873	3604.324528	18456.129770
129.035500	-0.001276	0.000497	-0.002795	-0.001690	5589.332815	34251.808564	3597.329386	18492.189619
129.536000	-0.003343	0.000252	-0.005453	-0.002115	5578.464290	34264.827822	3592.648257	18507.645254
130.039000	-0.004090	0.000571	-0.003298	-0.002961	5579.118556	34349.565193	3598.942489	18538.458525
130.536500	-0.008279	-0.001420	-0.004215	-0.002881	5551.048775	34199.140278	3596.845610	18535.533541
131.036500	-0.004925	-0.000679	-0.004636	-0.002681	5571.759711	34238.394435	3595.544319	18528.257612
131.537000	-0.005730	-0.000096	-0.007389	-0.002552	5565.613052	34271.293616	3589.520704	18523.562087
132.037000	-0.005355	0.000028	-0.008719	-0.002900	5570.367677	34305.606307	3587.476207	18536.235416
132.538000	-0.005875	0.001089	-0.003361	-0.000820	5553.300516	34231.611391	3594.315668	18460.583059
133.035000	-0.006247	0.000740	-0.004620	-0.001663	5556.377081	34267.482761	3593.444806	18491.186906
133.538500	-0.006607	-0.000172	-0.001888	-0.002810	5561.542488	34284.541172	3601.598797	18532.966403
134.035500	-0.005362	0.000101	0.000261	-0.002893	5570.277457	34310.452631	3606.323133	18535.993960
134.536000	-0.009114	-0.000807	-0.001681	-0.002376	5542.300514	34206.957949	3601.118705	18517.153679
135.036000	-0.004973	-0.000246	-0.002411	-0.003157	5574.579451	34304.361163	3601.226067	18545.604568
135.536500	-0.005109	-0.000238	-0.004812	-0.002914	5572.077556	34287.272118	3595.663627	18536.736468
136.036500	-0.005821	-0.000567	-0.010577	-0.003137	5568.862498	34279.659582	3584.112964	18544.901914
136.537000	-0.007639	-0.000599	-0.005316	-0.002233	5551.000552	34211.742694	3593.182899	18511.952771
137.034500	-0.004689	0.000007	-0.000832	-0.002372	5571.277781	34265.706826	3602.903928	18517.008059
137.535000	-0.005496	0.000418	-0.002984	-0.002259	5565.226926	34287.400091	3598.127743	18512.895225
138.035000	-0.007200	-0.000580	-0.001680	-0.003058	5559.284769	34272.951464	3602.562527	18542.015049
138.535500	-0.005667	0.000031	-0.011016	-0.003229	5570.478006	34329.749047	3583.394633	18548.240567
139.035000	-0.004293	-0.000043	0.000834	-0.002075	5571.930368	34240.483244	3605.801487	18506.170099
139.539000	-0.004909	0.000894	0.002546	-0.001815	5566.161684	34289.704728	3608.887176	18496.718675
140.036000	-0.005019	-0.000107	0.001853	-0.002546	5570.252160	34270.070975	3608.968700	18523.349929
140.536500	-0.005854	-0.000302	-0.000894	-0.002496	5564.433080	34252.290318	3603.035630	18521.525926
141.037000	-0.006024	0.000583	0.003195	-0.002580	5563.860090	34322.681931	3611.900601	18524.571622
141.537500	-0.006540	-0.000589	-0.001895	-0.003140	5564.149772	34278.230964	3602.280325	18544.998927
142.037500	-0.006207	0.000534	0.002227	-0.002111	5559.580083	34285.073518	3608.839700	18507.502339
142.538000	-0.006392	-0.000947	-0.004945	-0.003165	5565.287896	34254.011833	3595.910662	18545.893255
143.035000	-0.006447	0.000460	-0.003165	-0.001557	5554.370851	34239.392166	3596.270774	18487.325938
143.538500	-0.006824	-0.000351	-0.006650	-0.002537	5558.332470	34251.750098	3591.028854	18523.014317
144.036000	-0.007022	-0.000676	-0.002643	-0.003156	5561.090104	34273.043970	3600.735527	18545.573827
144.536500	-0.004358	0.000347	-0.007698	-0.001670	5568.833199	34239.413443	3587.041715	18491.443438
145.036000	-0.005673	0.000736	-0.000299	-0.000894	5555.107926	34211.443094	3600.909231	18463.272957
145.537000	-0.007037	0.000161	-0.000833	-0.002032	5553.622609	34252.201108	3602.182430	18504.613970
146.037000	-0.006347	-0.000257	0.002004	-0.002166	5559.025769	34231.597091	3608.481017	18509.491782
146.537500	-0.004528	-0.000382	-0.004056	-0.001832	5568.787990	34198.353926	3594.980447	18497.357647
147.034500	-0.004214	0.000109	-0.000160	-0.001365	5567.780651	34200.141707	3602.196545	18480.378007
147.538500	-0.006761	-0.000141	-0.005788	-0.001599	5552.596346	34198.906048	3590.869489	18488.866097
148.035500	-0.007762	0.000593	0.001464	-0.001759	5547.092146	34263.761628	3606.467540	18494.677014
148.536000	-0.004565	0.000319	0.002564	-0.000642	5560.713612	34162.868124	3606.432303	18454.097794
149.038500	-0.006390	-0.000648	-0.000903	-0.001418	5553.834720	34149.108986	3600.738676	18482.278349
149.536500	-0.006481	-0.000158	-0.002197	-0.001759	5555.479132	34209.263922	3598.731362	18494.692747
150.036500	-0.006359	-0.000050	-0.001245	-0.002437	5560.718799	34266.289582	3602.168073	18519.348214
150.537000	-0.005617	-0.000221	-0.002890	-0.002166	5563.818982	34234.226815	3598.129551	18509.506011
151.037000	-0.006027	0.000237	-0.000180	-0.001020	5553.607787	34184.344334	3601.425024	18467.821115
151.537500	-0.004633	0.000049	0.000523	-0.001686	5567.129398	34219.027103	3604.319726	18492.033438
152.035000	-0.006619	-0.000733	-0.002290	-0.002766	5561.176766	34240.590545	3600.656412	18531.346682
152.538500	-0.004681	0.000353	-0.003138	-0.001690	5566.845151	34241.379955	3596.609317	18492.188261
153.035500	-0.004560	0.000111	-0.004205	-0.001876	5568.856717	34237.231487	3594.759181	18498.930326
153.541500	-0.004695	-0.000522	-0.000274	-0.002039	5569.041456	34203.152221	3603.378615	18504.863606
154.036000	-0.005759	0.000546	-0.003560	-0.001959	5561.525442	34274.813496	3596.286025	18501.949155
154.539500	-0.004389	0.000031	-0.002058	-0.001946	5570.448114	34236.530445	3599.417399	18501.491087
155.036500	-0.004798	0.000560	0.000762	-0.001520	5564.954240	34244.082227	3604.474047	18486.009852
155.536500	-0.005783	-0.000620	-0.009949	-0.002623	5565.735289	34238.422487	3584.348207	18526.154284
156.037000	-0.006733	-0.000159	-0.002861	-0.001982	5555.284265	34225.385797	3597.802576	18502.798872
156.537500	-0.007256	0.000653	-0.004107	-0.001541	5548.978165	34252.330986	3594.264285	18486.769384
157.035000	-0.006789	0.000347	-0.001863	-0.001671	5552.885732	34239.523545	3599.249324	18491.503326
157.535500	-0.005375	-0.000435	-0.003718	-0.002018	5564.431647	34207.962344	3596.078961	18504.099286
158.035500	-0.004444	-0.000045	-0.003093	-0.000306	5559.308534	34112.358429	3593.800787	18441.940196
158.536000	-0.006579	0.000623	-0.000645	-0.001558	5553.515492	34251.283267	3601.578675	18487.360804
159.036500	-0.005048	-0.000082	0.001928	-0.001657	5564.208173	34207.372777	3607.236668	18490.970990
159.537000	-0.006058	0.000266	-0.001995	-0.001778	5558.373825	34241.412365	3599.196357	18495.363423
160.036500	-0.006360	0.000942	-0.002275	0.000970	5538.441517	34091.481875	3592.843219	18395.751303
160.537500	-0.005758	0.000045	0.002695	-0.001406	5557.902913	34198.444289	3608.334958	18481.862908
161.037500	-0.006265	0.000188	-0.005324	-0.000677	5549.807190	34155.964522	3589.915984	18455.382627
161.538500	-0.004212	-0.000148	0.000352	-0.001613	5569.423086	34199.407632	3603.802882	18489.374221
162.035000	-0.006357	-0.000190	-0.002543	0.000753	5539.872336	34025.424216	3592.735634	18403.588781
162.535500	-0.007216	0.000220	-0.003809	-0.001592	5549.572055	34224.582581	3594.993959	18488.614383
163.038500	-0.006067	-0.000109	-0.002496	-0.002438	5562.650225	34262.126723	3599.533179	18519.419833
163.536000	-0.005653	0.000322	-0.001980	-0.001685	5560.426153	34238.746843	3599.031966	18492.006936
164.036500	-0.008813	-0.001243	-0.003105	0.000188	5527.578426	33990.246931	3592.741796	18424.027695
164.536000	-0.005050	-0.000774	-0.000986	-0.002542	5570.022213	34221.386598	3602.937065	18523.199315
165.036500	-0.005792	-0.000176	-0.001771	-0.000449	5551.414051	34113.211267	3596.873032	18447.117555
165.537000	-0.006909	-0.000248	-0.000983	-0.002196	5555.535161	34234.382016	3602.211883	18510.575256
166.035000	-0.008489	-0.000968	-0.003782	0.000912	5524.980628	33957.951271	3589.816058	18397.819436
166.535000	-0.006295	0.000682	-0.002640	-0.001138	5552.627869	34225.168248	3596.493761	18472.120330
167.035500	-0.006873	0.000368	-0.004580	-0.001714	5552.618580	34244.185481	3593.635191	18493.065565
167.535500	-0.003938	0.000490	0.000646	-0.001642	5571.420275	34247.792538	3604.486149	18490.439464
168.036000	-0.006339	-0.000709	-0.001420	0.001173	5537.254726	33957.782483	3594.206206	18388.389794
168.536500	-0.004248	-0.000644	-0.001897	-0.002182	5572.937658	34204.709983	3600.254677	18510.089755
169.036500	-0.003507	-0.000923	-0.002895	-0.003003	5583.247324	34244.010064	3599.880898	18539.980155
169.537000	-0.003947	0.000151	-0.001217	-0.002060	5574.111751	34253.513013	3601.432082	18505.638245
170.037000	-0.007839	0.000022	-0.000526	0.002822	5516.830704	33891.956546	3592.627445	18328.955315
170.537500	-0.007163	-0.000213	-0.002565	-0.002368	5555.004514	34249.486642	3599.238806	18516.868245
171.035000	-0.003897	0.000504	-0.003796	-0.000125	5561.705190	34138.856580	3591.951254	18435.355037
171.535000	-0.007194	0.000566	-0.001853	-0.000992	5545.794581	34206.175405	3597.841943	18466.818109
172.035500	-0.009083	-0.000872	-0.004799	0.002087	5513.542029	33880.505322	3585.260468	18355.418206
172.539000	-0.007173	0.000274	0.000099	-0.001299	5547.944491	34207.276555	3602.605200	18477.980036
173.036000	-0.005683	-0.000255	-0.002372	-0.000270	5550.955344	34094.495538	3595.235899	18440.618695
173.536500	-0.003781	0.000338	0.003805	-0.001336	5570.433440	34214.564534	3610.549561	18479.310564
174.036500	-0.008857	-0.000366	-0.001859	0.002834	5510.179536	33863.214091	3589.819363	18328.517610
174.537000	-0.005001	-0.000420	-0.009689	-0.002068	5567.221051	34212.720758	3583.738358	18505.932042
175.037500	-0.008652	0.000274	0.002140	-0.001823	5541.703561	34245.287454	3608.040740	18497.017917
175.537500	-0.006333	-0.000387	0.001162	-0.001969	5557.818770	34207.850777	3606.273919	18502.312499
176.034500	-0.008645	-0.000845	-0.005782	0.002847	5511.466379	33827.968892	3581.654321	18328.060085
176.535500	-0.003775	0.000177	-0.003019	-0.001785	5573.433570	34235.445666	3597.057030	18495.633787
177.036000	-0.007059	0.000483	0.001267	0.000078	5539.698813	34122.717896	3602.162066	18428.005497
177.536000	-0.004146	0.000482	-0.002823	-0.001836	5571.331093	34261.327882	3597.577626	18497.505947
178.036000	-0.008857	-0.000013	-0.007685	0.003934	5503.096341	33809.738084	3575.500295	18288.979995
178.537000	-0.005781	0.000523	0.003246	-0.001763	5560.094622	34258.991477	3610.266842	18494.826604
179.037000	-0.008371	-0.000652	0.001721	-0.000355	5533.981366	34072.004770	3604.038126	18443.716610
179.538000	-0.005726	-0.000061	0.001044	-0.001788	5560.623145	34218.478423	3605.641227	18495.754890
180.037000	-0.004527	0.000854	-0.004487	-0.001367	5565.728174	34254.236523	3593.103785	18480.426224
180.535000	-0.007503	-0.000875	0.002847	-0.002802	5555.612238	34232.898082	3611.631929	18532.665687
181.035000	-0.006671	0.000526	-0.001392	0.000735	5537.946888	34078.322997	3595.182691	18404.229678
181.535500	-0.007072	-0.000524	-0.000764	-0.002551	5556.797349	34240.178994	3603.427071	18523.526473
182.038500	-0.005933	-0.000208	0.000496	-0.002306	5562.659909	34245.289889	3605.574972	18514.589275
182.536500	-0.009347	-0.001275	-0.000295	-0.002604	5542.265039	34189.570238	3604.531748	18525.456954
183.036000	-0.009164	-0.000890	-0.000528	-0.000106	5527.203613	34036.900489	3598.763741	18434.668658
183.537000	-0.005798	0.000221	0.000298	-0.001366	5557.383482	34208.301366	3603.167040	18480.417112
184.037000	-0.012267	-0.001086	-0.013257	0.003301	5485.287311	33778.240257	3565.424267	18311.699652
184.537500	-0.005599	0.000734	-0.002961	-0.000698	5554.303458	34196.996134	3594.897941	18456.129228
185.037500	-0.006256	-0.000009	-0.002095	0.000788	5540.304215	34035.957343	3593.599662	18402.319078
185.609000	-0.004794	-0.000059	-0.004183	-0.002045	5568.435659	34237.244140	3595.162190	18505.109996
186.035000	-0.011101	-0.000814	-0.000274	0.003927	5488.740616	33752.929040	3590.844993	18289.213180
186.566000	-0.004328	0.000719	0.000075	-0.001482	5567.800463	34252.832387	3602.940438	18484.629121
187.036000	-0.006023	0.000215	-0.000194	0.000812	5541.662602	34050.313464	3597.536606	18401.437024
187.536000	-0.003270	0.000716	-0.004057	-0.001158	5572.631869	34229.119344	3593.566146	18472.859445
188.036500	-0.010514	-0.001023	-0.007301	0.003528	5495.063119	33766.499999	3577.119474	18303.546960
188.537500	-0.004483	-0.000231	-0.000621	-0.002031	5570.388972	34223.725678	3602.628490	18504.588399
189.036500	-0.007494	0.001333	-0.002101	-0.000858	5542.962538	34252.066305	3597.038405	18461.952205
