sample name	sample
index	180
start time	 02-18-2021  11:15:30 AM
880	-0.016761
Peak Time (s)	90.537
Peak Height 	-0.01676
calc peak height	90,93
Baseline Time (s)	9.037
Baseline Value 	-0.003301
subtract baseline	10,4
Abs	-0.016119
Peak Time (s)	90.036
Peak Height 	-0.01612
calc peak height	90,93
Baseline Time (s)	9.037
Baseline Value 	0.00222
subtract baseline	10,3
PK_550	-0.000891
Peak Time (s)	91.537
Peak Height 	-8.9086E-4
calc peak height	90,93
Baseline Time (s)	10.037
Baseline Value 	3.9299E-4
subtract baseline	10,2
PK_880	-0.009146
Peak Time (s)	91.537
Peak Height 	-0.009146
calc peak height	90,93
Baseline Time (s)	10.534
Baseline Value 	0.001523
subtract baseline	10,1


Time (s)	A880-A510	A880-A775	A880-A975	A880	I510	I775	I975	I880	
0.036500	0.001201	0.000448	0.002703	-0.000215	6733.449506	44045.238972	3883.856937	23154.667255
0.536500	-0.000727	-0.000588	-0.002736	0.002563	6691.518924	43685.180831	3863.697066	23025.082921
1.037000	-0.001185	-0.000226	-0.002208	0.003411	6679.964659	43639.579350	3862.923204	22985.723591
1.537500	-0.001367	-0.000361	-0.008817	-0.000693	6714.776767	44013.791480	3856.856400	23177.049679
2.035000	0.001137	-0.000995	0.001478	-0.001888	6747.898661	44067.053893	3884.967553	23233.124906
2.539000	0.002553	0.000065	-0.003914	-0.001653	6758.528890	44145.358923	3871.107094	23222.063775
3.036000	0.000394	0.000091	-0.005971	0.002508	6701.953841	43754.238144	3855.999050	23027.655084
3.535500	-0.000488	-0.000004	0.002758	-0.000440	6720.363430	44023.697759	3884.551014	23165.227243
4.036000	-0.000815	-0.000324	0.002727	-0.000653	6719.342750	44013.541320	3885.001050	23175.184891
4.536500	0.000318	0.001162	-0.002553	0.000442	6719.675961	44050.565969	3869.310752	23123.938480
5.037000	-0.000709	-0.000678	0.004786	-0.001413	6727.080213	44052.073799	3892.012959	23210.812931
5.537000	0.001187	-0.000399	0.002961	-0.000961	6740.014901	44035.621251	3886.345636	23189.601333
6.037000	0.000148	0.000090	0.003878	0.000218	6720.169650	43970.325097	3885.696332	23134.441072
6.535000	0.001461	0.000773	0.001527	0.000198	6732.086920	44036.886208	3879.929685	23135.362292
7.035500	0.001936	-0.000400	-0.001899	-0.000286	6740.678012	43971.616824	3872.694273	23157.987135
7.535500	0.001169	0.000065	-0.001895	0.000101	6730.329560	43978.955928	3871.755038	23139.875590
8.036000	0.000326	-0.000644	-0.000359	-0.000340	6726.740777	43953.588020	3876.606790	23160.515260
8.536000	0.004335	-0.000419	0.001548	-0.000145	6761.003167	43956.528899	3880.827968	23151.426097
9.036500	-0.000056	-0.000152	0.000000	0.000000	6720.291739	43968.062813	3876.655178	23144.622043
9.537000	0.001264	0.000141	0.000091	0.000327	6729.167572	43964.770187	3876.073955	23129.329983
10.037000	0.001386	0.000000	-0.000602	-0.000042	6733.563540	43986.368200	3875.278748	23146.579477
10.534500	0.000000	0.000349	-0.005235	0.000077	6720.096872	44008.115554	3863.666787	23140.997688
11.039500	-0.001818	-0.000367	-0.000966	-0.000153	6705.949848	43962.110176	3874.655678	23151.763213
11.535000	-0.000230	0.000257	0.000610	0.000555	6713.787313	43954.245447	3876.790272	23118.677259
12.035500	0.001093	0.000001	-0.000763	0.000227	6728.527485	43961.009228	3874.221186	23133.996959
12.535500	-0.001770	-0.000344	-0.001672	0.003569	6673.399115	43613.647200	3863.840714	22978.377182
13.036000	0.002174	0.000820	-0.001803	-0.001664	6755.211360	44218.254485	3876.312280	23222.593796
13.536000	0.001224	0.000475	0.000027	-0.000344	6734.818021	44060.020487	3877.568197	23160.733826
14.036500	0.000937	0.000350	-0.000132	-0.000050	6729.608493	44020.233873	3876.452021	23146.943333
14.537000	-0.002635	0.000930	-0.001583	0.004916	6653.944784	43606.815284	3860.786579	22916.003972
15.042500	0.001255	0.000123	0.000985	-0.000001	6732.021157	43994.149048	3879.082939	23144.678653
15.537000	0.004234	0.001524	0.001946	0.000401	6755.173365	44088.890787	3880.464327	23125.896066
16.035000	0.000623	0.000317	0.004088	-0.000459	6730.470720	44055.985125	3887.899970	23166.120037
16.535000	-0.001619	0.000131	-0.003412	0.005264	6659.811692	43499.358921	3855.523761	22899.916973
17.035500	0.001643	0.000745	0.002882	0.000140	6734.236829	44039.665458	3883.422221	23138.068947
17.536000	0.005218	0.001275	0.011415	-0.002173	6787.350125	44310.105297	3910.609769	23246.502960
18.036500	0.000936	0.000690	0.001917	0.000878	6721.309355	43964.633663	3879.215021	23103.607317
18.536500	-0.001842	0.000530	-0.003175	0.003715	6671.483599	43681.991367	3859.839684	22971.613341
19.037000	0.001160	0.000583	0.000597	0.002125	6712.180304	43836.741941	3872.902077	23045.478247
19.537000	-0.001564	0.000945	0.000591	0.002534	6684.364136	43832.271317	3871.886585	23026.440159
20.037500	0.000677	0.000447	-0.002931	0.002128	6707.852815	43823.553621	3864.282196	23045.333468
20.537500	-0.000679	0.000067	0.001252	0.002950	6688.520523	43710.350873	3872.486003	23007.114857
21.035000	-0.000199	-0.000214	-0.000257	0.001530	6705.379082	43817.675399	3872.268869	23073.186385
21.535500	0.001002	-0.000064	0.000214	0.001693	6714.622810	43816.394860	3873.024398	23065.595991
22.035500	-0.000385	0.000184	-0.000251	0.001669	6702.489972	43842.118799	3871.942943	23066.725338
22.536000	-0.000308	0.000811	-0.002615	0.003523	6686.723439	43726.406866	3861.661193	22980.494701
23.036500	-0.000401	0.000429	0.002716	0.002276	6696.958202	43807.881438	3877.737993	23038.433273
23.536500	-0.001753	0.000175	-0.002486	0.001736	6689.757463	43834.923050	3866.319187	23063.602096
24.037000	-0.002210	0.000007	-0.000732	0.001732	6685.746386	43819.404275	3870.610236	23063.754909
24.537000	-0.001146	0.000456	0.000844	0.003264	6681.600869	43717.381514	3870.716703	22992.512667
25.037500	0.000706	0.000631	-0.002158	0.002052	6708.780804	43848.076966	3866.346316	23048.850796
25.535000	-0.000423	0.000722	0.002370	0.002331	6696.281059	43830.375337	3876.752402	23035.908004
26.035500	-0.000913	0.000809	-0.004784	0.002208	6693.018224	43850.206516	3859.593096	23041.616103
26.535500	0.000086	0.000383	0.001824	0.002823	6696.424195	43752.079718	3874.201356	23013.031478
27.035500	-0.000590	0.000068	0.002743	0.001722	6700.198013	43826.166811	3879.169490	23064.256320
27.539000	0.001577	0.000464	0.002651	0.001576	6720.799608	43877.314926	3879.302621	23071.059113
28.036000	0.004508	0.000537	0.003963	-0.001191	6772.016755	44146.303223	3889.409308	23200.412042
28.536500	0.001658	0.000930	-0.003161	0.000362	6732.385149	44036.201901	3868.024332	23127.704543
29.056000	0.003025	0.000784	0.001144	0.000637	6742.173260	43996.357554	3877.903056	23114.871908
29.537000	0.001485	0.001245	0.002189	0.000629	6728.441218	44040.756426	3880.498669	23115.212241
30.034500	-0.000379	0.000227	0.002147	-0.000155	6718.783793	44018.584758	3882.333019	23151.868796
30.535000	0.002864	0.000678	0.001185	0.000854	6738.776725	43965.723569	3877.468563	23104.698911
31.055000	0.001657	0.000667	0.002029	0.000372	6732.273041	44010.257776	3880.737889	23127.208456
31.538000	-0.001314	0.000166	0.001108	0.004304	6670.936450	43592.540444	3868.820882	22944.295525
32.035000	0.000230	-0.000012	0.003321	0.002126	6703.895544	43780.484763	3879.600454	23045.436164
32.588000	0.000219	0.000300	-0.002433	0.001830	6706.427628	43837.782409	3866.219416	23059.209663
33.036500	-0.001854	-0.000395	-0.004765	0.005388	6656.653652	43438.607478	3851.969617	22894.187671
33.539500	0.001679	0.000651	-0.000249	0.000733	6729.249590	43974.701533	3874.242376	23110.375787
34.037500	0.000533	0.000908	-0.000292	0.000940	6717.152474	43979.314469	3873.626588	23100.680951
34.537500	-0.001340	-0.000427	-0.000737	0.004728	6666.981847	43497.305067	3863.296536	22924.686149
35.037500	-0.001224	0.000456	0.002962	0.003543	6678.457306	43691.246939	3875.227434	22979.603809
35.535500	0.000318	-0.000702	-0.001388	0.002383	6702.387005	43691.355851	3867.418459	23033.447923
36.035000	-0.000152	0.000642	-0.001478	0.003555	6687.823962	43707.590245	3864.344854	22979.031314
36.535500	0.000295	0.000866	0.001728	0.003463	6692.598795	43737.196671	3872.393738	22983.270697
37.036000	-0.000553	-0.000330	-0.001429	0.003601	6683.875832	43612.012312	3864.353272	22976.901515
37.536000	0.001845	0.000173	0.000162	0.003541	6705.674297	43664.769570	3868.376027	22979.672120
38.036500	-0.001015	0.000487	0.000674	0.003502	6680.663344	43698.057559	3869.721041	22981.503341
38.539500	-0.000324	0.000506	0.005017	0.003654	6685.430568	43685.475047	3880.013378	22974.446544
39.037000	0.000454	0.000462	-0.001397	0.003193	6696.410806	43724.732922	3865.424140	22995.833448
39.537500	0.001046	-0.000041	-0.001601	0.003075	6702.711272	43688.438337	3865.213616	23001.296692
40.035000	-0.001171	-0.000190	-0.001553	0.002916	6684.461075	43689.342299	3865.716550	23008.674660
40.535500	0.000078	0.000344	-0.002117	0.003723	6688.372742	43663.727564	3862.386151	22971.236730
41.035500	0.001813	0.000488	0.001776	0.003675	6704.197281	43681.808077	3871.994929	22973.472654
41.536000	0.000102	0.000722	0.002519	0.003960	6686.488699	43677.005204	3873.116819	22960.264461
42.036000	0.001273	0.000388	0.002340	0.003699	6699.182669	43670.164628	3873.317119	22972.332898
42.536500	-0.000030	0.000607	0.000836	0.004892	6677.083405	43578.777442	3866.724830	22917.110520
43.037000	-0.000093	0.000603	0.005883	0.003533	6688.535395	43705.896123	3882.450986	22980.026139
43.537000	-0.002058	0.000484	0.000799	0.003406	6672.304916	43706.701023	3870.260349	22985.943272
44.040000	-0.000078	0.000471	0.001848	0.003490	6689.057938	43697.533892	3872.624024	22982.032278
44.535000	-0.002312	-0.000060	0.002129	0.004998	6656.051462	43506.291344	3869.619842	22912.178503
45.035000	0.000351	0.001325	0.000717	0.004444	6684.409542	43688.130956	3867.526045	22937.811710
45.535500	0.000324	0.001242	-0.000351	0.001259	6712.445726	43980.783589	3872.702759	23085.830690
46.035500	0.001701	0.000388	0.003952	0.000988	6727.163021	43925.679342	3883.971288	23098.473667
46.535500	-0.001967	-0.000903	-0.005616	0.005813	6651.934305	43351.509678	3848.906616	22874.552846
47.036500	0.000193	-0.000059	0.001006	0.002987	6695.911089	43695.060028	3871.792753	23005.371476
47.536500	0.001311	-0.000316	0.001575	0.000283	6729.985183	43925.737424	3879.838916	23131.401516
48.053000	0.001882	0.000864	0.001900	0.001301	6725.975786	43941.026785	3878.128229	23083.847320
48.537000	-0.001427	0.000504	-0.003895	0.006097	6654.180611	43456.364679	3852.356032	22861.461754
49.037500	0.000057	0.000687	-0.003902	0.004062	6685.189948	43664.132230	3857.241610	22955.522279
49.543000	0.001779	0.000836	0.002433	0.001442	6723.806013	43925.106749	3879.096159	23077.311340
50.035000	0.001721	0.001052	-0.000664	0.002073	6717.647942	43885.932169	3869.944717	23047.908672
50.535500	-0.003125	0.000742	-0.002485	0.007879	6623.754985	43312.261251	3851.461346	22779.428088
51.036000	-0.000119	0.000445	0.000903	0.002865	6694.232584	43753.959822	3871.840607	23011.076267
51.536000	0.002900	0.000778	-0.003534	0.001784	6730.766627	43887.306990	3863.652585	23061.361451
52.036500	0.000932	0.000411	0.006878	-0.000540	6733.952731	44072.579927	3895.061311	23169.897198
52.536500	0.003879	0.000759	0.006338	-0.005661	6806.921208	44594.674004	3906.583796	23411.114986
53.037000	-0.027960	-0.009454	-0.019616	0.162756	5342.410222	30523.950490	3510.308358	16795.925656
53.537000	-0.035873	-0.024373	-0.010537	-0.067038	7009.328910	48226.437418	4025.094386	26535.090369
54.035000	-0.025895	-0.065416	0.000635	-0.238340	9167.865451	64091.019204	4660.520794	37996.860736
54.535000	-0.019901	-0.031214	0.000404	-0.172005	8347.342549	59724.821914	4397.309362	33015.776517
55.035000	-0.028417	-0.023134	-0.008783	-0.130157	7744.578950	55471.523817	4221.130011	30242.971770
55.535500	-0.028051	-0.018600	-0.017723	-0.126300	7705.330754	55553.683758	4180.108375	30000.647434
56.036000	-0.012216	-0.016090	-0.016787	-0.130463	7934.488883	56369.366052	4196.311163	30262.327118
56.536000	-0.005056	-0.013230	-0.013730	-0.140882	8144.822245	58030.419391	4240.055225	30928.329095
57.036500	-0.002815	-0.035421	-0.015116	-0.203765	9002.636769	63448.890995	4457.852773	35305.835407
57.537000	-0.002846	-0.019636	-0.017172	-0.171306	8558.600095	61167.060796	4331.829371	32967.193478
58.036500	-0.004934	-0.011401	-0.012792	-0.136978	8098.854647	57767.657365	4230.312111	30676.936476
58.537500	-0.007012	-0.008254	-0.014374	-0.113965	7803.764742	55312.871108	4152.016157	29239.795194
59.035000	-0.009068	-0.009223	-0.012296	-0.103294	7660.498413	53925.914599	4125.691346	28598.867891
59.535000	-0.010859	-0.007666	-0.018881	-0.087216	7466.276803	52247.082323	4058.706526	27662.379436
60.035500	-0.011374	-0.007932	-0.017349	-0.083476	7421.203201	51793.729976	4052.364956	27449.472905
60.538500	-0.012261	-0.007707	-0.015682	-0.084246	7419.965421	51905.887368	4059.364987	27493.134123
61.035000	-0.012641	-0.007213	-0.019469	-0.072239	7291.251166	50622.910224	4014.685443	26820.643665
61.536500	-0.013439	-0.007437	-0.018384	-0.046330	7025.915080	47834.242022	3947.661100	25431.381269
62.036500	-0.016832	-0.008807	-0.018288	-0.036452	6900.016662	46684.572862	3922.286351	24923.147581
62.537000	-0.020200	-0.007114	-0.021021	-0.036774	6871.656508	46888.359617	3916.120224	24939.561288
63.037000	-0.018049	-0.005455	-0.025308	-0.037051	6894.250449	47085.083045	3905.939157	24953.670819
63.535500	-0.013168	-0.001339	-0.018358	-0.027113	6847.341719	46496.222467	3898.411851	24453.181483
64.035000	-0.015119	-0.003408	-0.019183	-0.054749	7091.340023	49141.622044	3967.829011	25873.753992
64.538000	-0.016395	-0.004186	-0.021214	-0.050012	7032.913244	48557.804172	3949.899527	25623.806626
65.052000	-0.011172	-0.002872	-0.019335	-0.050358	7086.999935	48732.761697	3955.763243	25641.975531
65.536000	-0.010826	-0.003050	-0.017136	-0.047615	7063.629095	48425.302994	3954.327012	25498.331240
66.036500	-0.012171	-0.002774	-0.019265	-0.046282	7037.685162	48314.538569	3945.226729	25428.865777
66.537000	-0.014766	-0.001883	-0.016547	-0.040080	6953.565098	47762.204023	3936.143728	25108.469222
67.039500	-0.012963	-0.002231	-0.017791	-0.044165	7009.679908	48150.171281	3943.546390	25319.006903
67.537000	-0.011824	-0.001521	-0.016350	-0.046118	7039.452897	48428.691403	3952.450952	25420.343875
68.034500	-0.011769	-0.002809	-0.019266	-0.048460	7062.678477	48539.390148	3950.941012	25542.496915
68.535000	-0.016749	-0.002997	-0.020282	-0.045741	6988.525086	48234.621632	3941.154089	25400.734401
69.035500	-0.012354	-0.002108	-0.017794	-0.049393	7066.056532	48711.495327	3957.285956	25591.316209
69.535500	-0.014562	-0.003242	-0.021381	-0.053155	7081.196765	48989.750805	3957.747422	25789.331565
70.036000	-0.012930	-0.003189	-0.017153	-0.054361	7108.994948	49123.697611	3972.221190	25853.194006
70.536000	-0.014252	-0.003364	-0.022904	-0.049283	7046.579128	48567.536078	3943.558404	25585.557420
71.036000	-0.013276	-0.003180	-0.021488	-0.054387	7105.852126	49127.403601	3960.729588	25854.557554
71.537000	-0.011252	-0.002718	-0.021777	-0.055814	7139.859914	49328.994850	3963.753599	25930.331080
72.040000	-0.010391	-0.003327	-0.017799	-0.056526	7155.458211	49340.085390	3976.298633	25968.222923
72.537000	-0.017016	-0.004016	-0.020315	-0.051429	7040.606782	48725.033053	3956.005096	25698.304127
73.037000	-0.014349	-0.003617	-0.020032	-0.054829	7099.667324	49127.939646	3965.778644	25878.031425
73.535000	-0.013097	-0.004099	-0.015727	-0.056296	7126.401397	49232.961513	3981.264668	25955.999902
74.035500	-0.013621	-0.004842	-0.018454	-0.055875	7117.085730	49108.875062	3972.793169	25933.585743
74.535000	-0.015672	-0.004422	-0.022911	-0.049814	7037.993471	48512.224425	3944.931461	25613.439908
75.035500	-0.012912	-0.003773	-0.018283	-0.053127	7097.066414	48930.457661	3965.903444	25787.868805
75.536000	-0.014031	-0.005125	-0.019651	-0.054144	7096.071327	48895.001303	3964.968048	25841.704014
76.036500	-0.013553	-0.004513	-0.016326	-0.052902	7088.588763	48828.270379	3970.530936	25775.996434
76.536500	-0.013751	-0.005539	-0.020954	-0.052637	7084.061664	48691.797835	3957.507221	25761.961415
77.040000	-0.013961	-0.005668	-0.018835	-0.051191	7067.925901	48525.937512	3959.292220	25685.764839
77.537500	-0.010525	-0.004330	-0.016726	-0.049860	7088.447356	48526.647380	3961.353415	25615.825630
78.035000	-0.014274	-0.004604	-0.020231	-0.049383	7047.343378	48447.852247	3950.832823	25590.841355
78.535000	-0.011742	-0.004813	-0.019201	-0.047968	7058.161852	48277.598735	3949.816953	25516.775357
79.035500	-0.013471	-0.004558	-0.017535	-0.045759	7020.109044	48073.824431	3948.390413	25401.685102
79.536000	-0.011057	-0.004529	-0.020401	-0.045495	7040.843894	48049.384767	3940.206970	25387.996312
80.035500	-0.012707	-0.004734	-0.019979	-0.044442	7014.795066	47918.737234	3938.562917	25333.361558
80.536500	-0.009095	-0.004131	-0.015664	-0.042922	7034.940374	47823.610348	3945.857166	25254.711308
81.039000	-0.011908	-0.004519	-0.017339	-0.042499	7003.815026	47739.720597	3940.376543	25232.901920
81.537000	-0.013750	-0.004720	-0.022370	-0.041420	6975.930526	47607.785586	3924.560686	25177.330632
82.037000	-0.012486	-0.003611	-0.018603	-0.039450	6969.210680	47519.110156	3929.190209	25076.177001
82.537000	-0.015593	-0.003835	-0.023182	-0.033862	6887.414889	46925.602639	3903.255565	24791.825609
83.035000	-0.012845	-0.003669	-0.016384	-0.037127	6943.799962	47274.902249	3928.919953	24957.498098
83.535000	-0.012582	-0.003412	-0.015176	-0.036155	6937.122015	47201.974406	3929.531610	24908.069910
84.035500	-0.012468	-0.003497	-0.016782	-0.035055	6927.833078	47081.106167	3922.564491	24852.205520
84.535500	-0.011606	-0.003870	-0.014272	-0.034552	6931.215086	46992.053446	3927.727073	24826.735110
85.036500	-0.013871	-0.003505	-0.022270	-0.032577	6891.484613	46828.785678	3902.313559	24726.937395
85.536500	-0.011550	-0.002467	-0.017804	-0.031602	6904.061634	46835.256214	3911.143585	24677.848845
86.039500	-0.012410	-0.003349	-0.018342	-0.030900	6889.474727	46675.120450	3907.999215	24642.539155
86.537000	-0.018361	-0.003707	-0.026565	-0.024461	6775.648079	45994.859081	3871.491168	24321.548324
87.037000	-0.011578	-0.003524	-0.016425	-0.028770	6877.391643	46443.246415	3907.459907	24535.837212
87.535000	-0.013165	-0.003161	-0.018407	-0.027669	6852.495317	46369.226157	3899.683690	24480.870038
88.035000	-0.013772	-0.002852	-0.020533	-0.026703	6838.005152	46303.530189	3891.941350	24432.785645
88.535500	-0.014529	-0.002100	-0.018081	-0.020986	6778.888532	45809.746582	3883.825453	24150.306168
89.035500	-0.012159	-0.002638	-0.017774	-0.024825	6835.566697	46137.431993	3894.144093	24339.584729
89.536000	-0.010544	-0.001878	-0.014580	-0.023884	6841.763011	46119.362741	3899.790760	24293.030055
90.036000	-0.013831	-0.002309	-0.016119	-0.023780	6810.651694	46066.038108	3895.666203	24287.857660
90.536500	-0.014134	-0.000990	-0.016923	-0.016761	6744.319513	45502.818065	3876.255251	23943.877136
91.039500	-0.013509	-0.002043	-0.020001	-0.022954	6806.052410	46010.361506	3883.943488	24247.098863
91.537000	-0.009146	-0.000891	-0.019238	-0.022191	6839.046040	46049.115141	3883.944091	24209.525358
92.038000	-0.012317	-0.001263	-0.019252	-0.022466	6812.489639	46039.464077	3884.589400	24223.050573
92.535000	-0.016418	-0.001861	-0.016839	-0.016937	6725.425573	45434.667496	3876.895224	23952.455892
93.035000	-0.010903	-0.000996	-0.014239	-0.021026	6812.250651	45923.047292	3893.482172	24152.263243
93.538000	-0.011441	-0.001255	-0.019849	-0.021474	6811.431014	45941.743484	3880.660203	24174.250679
94.036000	-0.012022	-0.000849	-0.018852	-0.020774	6799.736083	45912.619874	3881.393337	24139.889698
94.536000	-0.015053	-0.000902	-0.021478	-0.015471	6724.518138	45385.023895	3861.978856	23881.265273
95.095500	-0.010702	-0.000430	-0.014074	-0.019263	6797.998585	45804.552611	3889.496840	24065.889034
95.536500	-0.010992	-0.001071	-0.012938	-0.020137	6803.320814	45827.541412	3894.511641	24108.660651
96.037000	-0.009187	-0.000815	-0.019168	-0.020154	6819.964891	45854.492606	3879.081287	24109.464046
96.534500	-0.015230	-0.001892	-0.025589	-0.015575	6723.868960	45298.315766	3852.301257	23886.299656
97.035000	-0.011264	-0.001512	-0.023671	-0.020464	6803.816084	45816.209830	3868.793839	24124.654944
97.540500	-0.011788	-0.001133	-0.014530	-0.020198	6796.623202	45827.475072	3890.691975	24111.660713
98.067000	-0.012260	-0.001454	-0.018065	-0.020399	6794.153817	45815.627642	3882.412513	24121.494187
98.536000	-0.013454	-0.001656	-0.020921	-0.019604	6776.100166	45717.159296	3873.421399	24082.566819
