sample name	sample
index	721
start time	 03-25-2021  11:47:07 AM


Wavelength (nm)	Absorbance
494.344910	-0.116186
494.563924	-0.116186
494.782919	-0.116186
495.001897	NaN
495.220856	-0.056519
495.439797	-0.045031
495.658719	-0.059088
495.877624	-0.026378
496.096510	-0.085017
496.315378	-0.032834
496.534227	0.001371
496.753059	0.020069
496.971872	0.094570
497.190667	0.038903
497.409444	0.041368
497.628203	0.043217
497.846943	0.042090
498.065665	0.041027
498.284369	0.040410
498.503055	0.039199
498.721723	0.039209
498.940372	0.038454
499.159003	0.039622
499.377616	0.039911
499.596210	0.039488
499.814787	0.038750
500.033345	0.038375
500.251885	0.037395
500.470406	0.037904
500.688910	0.037217
500.907395	0.037760
501.125862	0.036431
501.344311	0.034927
501.562742	0.034615
501.781154	0.035123
501.999548	0.035479
502.217924	0.036593
502.436282	0.035907
502.654621	0.036001
502.872942	0.035811
503.091245	0.036292
503.309530	0.036967
503.527797	0.037103
503.746045	0.036996
503.964275	0.036636
504.182487	0.036680
504.400681	0.037098
504.618856	0.037586
504.837013	0.036503
505.055152	0.035626
505.273273	0.035225
505.491376	0.035197
505.709460	0.035894
505.927526	0.036020
506.145574	0.035490
506.363604	0.035896
506.581615	0.035507
506.799608	0.036141
507.017583	0.036729
507.235540	0.037141
507.453478	0.037110
507.671399	0.035715
507.889301	0.034880
508.107185	0.034360
508.325050	0.034054
508.542898	0.034548
508.760727	0.034628
508.978538	0.034248
509.196330	0.033962
509.414105	0.033985
509.631861	0.034188
509.849599	0.034368
510.067319	0.035035
510.285021	0.034879
510.502704	0.034420
510.720369	0.034541
510.938016	0.034591
511.155645	0.034634
511.373255	0.034812
511.590848	0.035431
511.808422	0.035915
512.025977	0.035547
512.243515	0.035677
512.461034	0.035557
512.678536	0.035622
512.896018	0.035725
513.113483	0.035503
513.330930	0.035109
513.548358	0.033993
513.765768	0.034450
513.983160	0.033930
514.200533	0.034070
514.417889	0.033581
514.635226	0.033172
514.852545	0.033095
515.069845	0.033135
515.287128	0.032651
515.504392	0.032656
515.721638	0.032092
515.938866	0.032765
516.156075	0.032187
516.373267	0.032344
516.590440	0.032525
516.807594	0.032650
517.024731	0.032166
517.241850	0.032654
517.458950	0.032994
517.676032	0.033156
517.893095	0.032608
518.110141	0.032755
518.327168	0.033209
518.544177	0.033017
518.761168	0.032961
518.978141	0.033574
519.195095	0.033420
519.412031	0.033675
519.628949	0.033167
519.845849	0.033835
520.062731	0.033758
520.279594	0.033596
520.496439	0.034137
520.713266	0.034741
520.930074	0.034437
521.146865	0.033990
521.363637	0.033624
521.580391	0.034186
521.797127	0.034067
522.013844	0.033911
522.230543	0.034233
522.447224	0.033876
522.663887	0.033078
522.880532	0.033541
523.097158	0.034013
523.313766	0.034646
523.530356	0.034683
523.746928	0.034191
523.963481	0.034930
524.180017	0.034134
524.396534	0.034700
524.613032	0.034886
524.829513	0.034489
525.045975	0.034809
525.262420	0.034625
525.478845	0.034530
525.695253	0.034961
525.911643	0.034933
526.128014	0.036049
526.344367	0.035484
526.560702	0.035550
526.777018	0.035973
526.993316	0.035781
527.209597	0.035551
527.425858	0.035564
527.642102	0.035382
527.858328	0.035331
528.074535	0.034863
528.290724	0.035032
528.506894	0.034861
528.723047	0.035050
528.939181	0.035208
529.155297	0.035431
529.371395	0.035437
529.587475	0.035802
529.803536	0.035371
530.019579	0.035478
530.235604	0.035426
530.451611	0.035791
530.667600	0.036069
530.883570	0.036027
531.099522	0.036133
531.315456	0.036013
531.531372	0.036291
531.747269	0.037072
531.963148	0.037240
532.179009	0.037315
532.394852	0.037199
532.610676	0.036682
532.826482	0.036502
533.042271	0.036184
533.258040	0.036217
533.473792	0.035708
533.689525	0.035126
533.905240	0.034596
534.120937	0.034426
534.336616	0.034295
534.552277	0.034155
534.767919	0.034446
534.983543	0.035062
535.199149	0.035627
535.414736	0.036022
535.630306	0.036062
535.845857	0.036417
536.061390	0.036423
536.276904	0.036698
536.492401	0.036994
536.707879	0.036881
536.923339	0.036382
537.138781	0.036330
537.354204	0.036405
537.569610	0.036844
537.784997	0.036542
538.000366	0.036923
538.215716	0.037115
538.431049	0.037117
538.646363	0.037372
538.861659	0.037647
539.076937	0.037500
539.292196	0.037261
539.507438	0.036914
539.722661	0.037313
539.937866	0.037341
540.153052	0.037400
540.368221	0.037417
540.583371	0.037420
540.798503	0.037315
541.013617	0.036965
541.228712	0.037251
541.443789	0.037333
541.658848	0.037371
541.873889	0.037438
542.088912	0.036837
542.303916	0.036822
542.518902	0.036881
542.733870	0.037003
542.948820	0.037707
543.163752	0.037927
543.378665	0.038346
543.593560	0.038257
543.808437	0.037913
544.023295	0.038294
544.238136	0.038605
544.452958	0.038808
544.667762	0.039323
544.882548	0.039104
545.097315	0.039252
545.312064	0.039265
545.526795	0.039573
545.741508	0.039762
545.956203	0.039888
546.170879	0.039640
546.385537	0.039332
546.600177	0.038725
546.814799	0.038240
547.029402	0.038133
547.243988	0.038031
547.458555	0.037857
547.673103	0.037972
547.887634	0.038018
548.102146	0.037798
548.316640	0.038074
548.531116	0.038480
548.745574	0.038718
548.960013	0.037972
549.174435	0.037707
549.388838	0.037864
549.603222	0.037584
549.817589	0.037606
550.031937	0.037828
550.246267	0.037867
550.460579	0.037524
550.674873	0.037884
550.889148	0.038244
551.103405	0.038045
551.317644	0.038074
551.531865	0.038693
551.746068	0.038768
551.960252	0.039106
552.174418	0.039039
552.388566	0.039304
552.602696	0.039108
552.816807	0.039480
553.030900	0.039782
553.244975	0.039607
553.459032	0.039354
553.673070	0.039426
553.887091	0.039178
554.101093	0.039087
554.315077	0.038932
554.529042	0.038833
554.742990	0.038433
554.956919	0.038515
555.170830	0.038698
555.384722	0.038712
555.598597	0.038567
555.812453	0.038835
556.026291	0.038978
556.240111	0.039182
556.453913	0.039350
556.667696	0.039517
556.881461	0.039796
557.095208	0.039884
557.308937	0.039870
557.522647	0.040041
557.736339	0.039630
557.950013	0.039576
558.163669	0.039673
558.377307	0.039904
558.590926	0.039958
558.804527	0.039901
559.018110	0.039926
559.231675	0.039993
559.445221	0.040203
559.658749	0.040413
559.872259	0.040544
560.085751	0.040622
560.299225	0.040724
560.512680	0.040673
560.726117	0.040572
560.939536	0.040631
561.152937	0.040946
561.366319	0.040580
561.579683	0.040680
561.793029	0.040795
562.006357	0.040771
562.219667	0.040841
562.432958	0.041233
562.646231	0.041102
562.859486	0.040956
563.072723	0.040671
563.285941	0.040775
563.499141	0.040899
563.712323	0.040605
563.925487	0.040511
564.138632	0.040396
564.351760	0.040278
564.564869	0.040625
564.777960	0.040871
564.991032	0.041082
565.204087	0.041224
565.417123	0.041285
565.630141	0.041427
565.843140	0.041613
566.056122	0.041268
566.269085	0.041549
566.482030	0.041495
566.694957	0.041402
566.907866	0.041268
567.120756	0.041186
567.333628	0.040758
567.546482	0.040783
567.759318	0.040719
567.972135	0.041261
568.184935	0.040918
568.397716	0.041082
568.610478	0.041087
568.823223	0.041106
569.035949	0.041203
569.248657	0.041739
569.461347	0.041638
569.674019	0.041886
569.886672	0.041894
570.099308	0.042119
570.311925	0.041896
570.524523	0.042033
570.737104	0.041917
570.949666	0.041993
571.162210	0.042174
571.374736	0.042310
571.587244	0.042252
571.799733	0.041955
572.012205	0.041743
572.224658	0.041975
572.437092	0.041828
572.649509	0.042076
572.861907	0.041791
573.074287	0.041366
573.286649	0.041528
573.498993	0.041408
573.711318	0.041741
573.923625	0.041737
574.135914	0.041819
574.348185	0.042204
574.560438	0.041971
574.772672	0.042400
574.984888	0.042708
575.197086	0.042660
575.409266	0.042808
575.621427	0.042836
575.833570	0.043216
576.045695	0.043114
576.257802	0.042729
576.469890	0.042975
576.681961	0.042642
576.894013	0.042333
577.106046	0.042501
577.318062	0.042524
577.530059	0.042385
577.742039	0.042299
577.954000	0.042085
578.165942	0.042248
578.377867	0.042108
578.589773	0.042280
578.801661	0.042533
579.013531	0.042552
579.225382	0.042586
579.437216	0.042488
579.649031	0.042579
579.860828	0.042712
580.072606	0.042916
580.284367	0.042856
580.496109	0.042771
580.707833	0.042577
580.919539	0.042542
581.131227	0.042290
581.342896	0.042422
581.554547	0.042469
581.766180	0.042218
581.977795	0.042175
582.189391	0.042544
582.400969	0.042798
582.612529	0.042880
582.824071	0.042682
583.035595	0.043021
583.247100	0.043210
583.458587	0.042987
583.670056	0.043450
583.881506	0.043273
584.092939	0.043009
584.304353	0.043025
584.515749	0.043168
584.727127	0.043555
584.938486	0.043319
585.149828	0.043034
585.361151	0.043046
585.572456	0.042662
585.783742	0.043116
585.995011	0.043183
586.206261	0.043164
586.417493	0.043329
586.628706	0.042874
586.839902	0.043110
587.051079	0.043320
587.262238	0.043400
587.473379	0.043849
587.684502	0.043771
587.895606	0.043844
588.106692	0.044156
588.317760	0.043819
588.528810	0.043985
588.739841	0.043739
588.950855	0.043513
589.161850	0.043628
589.372827	0.043395
589.583785	0.043065
589.794726	0.043316
590.005648	0.042835
590.216552	0.042919
590.427437	0.043112
590.638305	0.043251
590.849154	0.043289
591.059985	0.043160
591.270798	0.043375
591.481592	0.043318
591.692369	0.043044
591.903127	0.043118
592.113867	0.043252
592.324588	0.043182
592.535292	0.043459
592.745977	0.043599
592.956644	0.043600
593.167293	0.043547
593.377923	0.043458
593.588536	0.043798
593.799130	0.044133
594.009706	0.044412
594.220263	0.044593
594.430803	0.044433
594.641324	0.044501
594.851827	0.045051
595.062312	0.045302
595.272778	0.045548
595.483227	0.045476
595.693657	0.045509
595.904069	0.045648
596.114462	0.045325
596.324838	0.045209
596.535195	0.045339
596.745534	0.044887
596.955855	0.045078
597.166157	0.045217
597.376441	0.045448
597.586707	0.045247
597.796955	0.045084
598.007185	0.045055
598.217396	0.045392
598.427589	0.045363
598.637764	0.045620
598.847921	0.045167
599.058060	0.045063
599.268180	0.044972
599.478282	0.044845
599.688366	0.044653
599.898431	0.044864
600.108479	0.044270
600.318508	0.044276
600.528519	0.044205
600.738511	0.044598
600.948486	0.044796
601.158442	0.044865
601.368380	0.044950
601.578300	0.045362
601.788202	0.045585
601.998085	0.046041
602.207950	0.046059
602.417797	0.045993
602.627626	0.045762
602.837436	0.045904
603.047228	0.046031
603.257002	0.046164
603.466758	0.045993
603.676496	0.045984
603.886215	0.046116
604.095916	0.046276
604.305599	0.046306
604.515264	0.046582
604.724910	0.046450
604.934538	0.046305
605.144148	0.046393
605.353740	0.046418
605.563314	0.046500
605.772869	0.046530
605.982406	0.046569
606.191925	0.046959
606.401425	0.046890
606.610908	0.047048
606.820372	0.046960
607.029818	0.047172
607.239246	0.046998
607.448655	0.046872
607.658047	0.046786
607.867420	0.046589
608.076775	0.046131
608.286111	0.045953
608.495430	0.045741
608.704730	0.045670
608.914012	0.045475
609.123275	0.045634
609.332521	0.045653
609.541748	0.045753
609.750957	0.045848
609.960148	0.046194
610.169321	0.046293
610.378475	0.046219
610.587611	0.046326
610.796729	0.046392
611.005829	0.046117
611.214910	0.045928
611.423974	0.045828
611.633019	0.045759
611.842045	0.045457
612.051054	0.045404
612.260044	0.045674
612.469017	0.045797
612.677970	0.045869
612.886906	0.046135
613.095824	0.046423
613.304723	0.046534
613.513604	0.046810
613.722467	0.047169
613.931311	0.047387
614.140138	0.047463
614.348946	0.047446
614.557736	0.047589
614.766507	0.047871
614.975261	0.047802
615.183996	0.047781
615.392713	0.047755
615.601412	0.047784
615.810092	0.047514
616.018754	0.047453
616.227399	0.047339
616.436024	0.047237
616.644632	0.047027
616.853222	0.047146
617.061793	0.047205
617.270346	0.047134
617.478880	0.046966
617.687397	0.047159
617.895895	0.047079
618.104375	0.047201
618.312837	0.047231
618.521281	0.047266
618.729706	0.047315
618.938113	0.047361
619.146502	0.047726
619.354873	0.047914
619.563226	0.047935
619.771560	0.048014
619.979876	0.048015
620.188174	0.047969
620.396453	0.048020
620.604715	0.047845
620.812958	0.047722
621.021183	0.047405
621.229390	0.047294
621.437578	0.047305
621.645748	0.047324
621.853900	0.047437
622.062034	0.047425
622.270150	0.047335
622.478247	0.047719
622.686326	0.047924
622.894387	0.047981
623.102430	0.048069
623.310454	0.048114
623.518461	0.048212
623.726449	0.048268
623.934418	0.048383
624.142370	0.048464
624.350303	0.048279
624.558218	0.048325
624.766115	0.048325
624.973994	0.048351
625.181855	0.048414
625.389697	0.048405
625.597521	0.048252
625.805327	0.048199
626.013114	0.048097
626.220883	0.048069
626.428634	0.047799
626.636367	0.047824
626.844082	0.047754
627.051778	0.047697
627.259457	0.047819
627.467117	0.047788
627.674758	0.047739
627.882382	0.047983
628.089987	0.048138
628.297574	0.048313
628.505143	0.048191
628.712694	0.048307
628.920226	0.048488
629.127740	0.048266
629.335236	0.048426
629.542714	0.048571
629.750174	0.048557
629.957615	0.048420
630.165038	0.048502
630.372443	0.048602
630.579829	0.048344
630.787198	0.048321
630.994548	0.048374
631.201880	0.048482
631.409194	0.048319
631.616489	0.048265
631.823766	0.048098
632.031025	0.048295
632.238266	0.048274
632.445489	0.048573
632.652693	0.048450
632.859879	0.048619
633.067047	0.048686
633.274197	0.048844
633.481329	0.048950
633.688442	0.049295
633.895537	0.048964
634.102614	0.049037
634.309672	0.048999
634.516713	0.049174
634.723735	0.049229
634.930739	0.049220
635.137724	0.049222
635.344692	0.049269
635.551641	0.049161
635.758572	0.049323
635.965485	0.049599
636.172379	0.049644
636.379256	0.049535
636.586114	0.049589
636.792954	0.049773
636.999775	0.049837
637.206579	0.049883
637.413364	0.050069
637.620131	0.049996
637.826880	0.049760
638.033610	0.049832
638.240323	0.050040
638.447017	0.049988
638.653692	0.049795
638.860350	0.050001
639.066990	0.049956
639.273611	0.049914
639.480214	0.050267
639.686798	0.050347
639.893365	0.050576
640.099913	0.050391
640.306443	0.050526
640.512955	0.050497
640.719449	0.050369
640.925924	0.050560
641.132381	0.050618
641.338820	0.050542
641.545241	0.050498
641.751644	0.050466
641.958028	0.050660
642.164394	0.050486
642.370742	0.050749
642.577071	0.050827
642.783383	0.050812
642.989676	0.050988
643.195951	0.051141
643.402207	0.051378
643.608446	0.051222
643.814666	0.051452
644.020868	0.051370
644.227052	0.051256
644.433218	0.051368
644.639365	0.051387
644.845494	0.051136
645.051605	0.051084
645.257698	0.051126
645.463772	0.051195
645.669828	0.051012
645.875866	0.051170
646.081886	0.051294
646.287888	0.051119
646.493871	0.051170
646.699836	0.051291
646.905783	0.051202
647.111712	0.051029
647.317622	0.051025
647.523514	0.051108
647.729388	0.051399
647.935244	0.051345
648.141082	0.051530
648.346901	0.051373
648.552702	0.051499
648.758485	0.051416
648.964250	0.051616
649.169996	0.051685
649.375724	0.051704
649.581434	0.051599
649.787126	0.051594
649.992800	0.051553
650.198455	0.051729
650.404092	0.051667
650.609711	0.051892
650.815311	0.051720
651.020894	0.051643
651.226458	0.051376
651.432004	0.051332
651.637532	0.051422
651.843041	0.051207
652.048532	0.051313
652.254006	0.051506
652.459460	0.051614
652.664897	0.051690
652.870315	0.051697
653.075716	0.051940
653.281097	0.051975
653.486461	0.051902
653.691807	0.052092
653.897134	0.052029
654.102443	0.051839
654.307734	0.051697
654.513006	0.051828
654.718261	0.052087
654.923497	0.052109
655.128715	0.052122
655.333915	0.052129
655.539096	0.052343
655.744259	0.052443
655.949404	0.052587
656.154531	0.052610
656.359640	0.052558
656.564730	0.052438
656.769802	0.052442
656.974856	0.052467
657.179892	0.052668
657.384909	0.052662
657.589908	0.052455
657.794889	0.052514
657.999852	0.052562
658.204797	0.052644
658.409723	0.052716
658.614631	0.052804
658.819521	0.052847
659.024393	0.052949
659.229246	0.052822
659.434081	0.053062
659.638898	0.052976
659.843697	0.053058
660.048478	0.053101
660.253240	0.053123
660.457984	0.053210
660.662710	0.053229
660.867417	0.053068
661.072107	0.053174
661.276778	0.053046
661.481431	0.053160
661.686066	0.053145
661.890682	0.053171
662.095281	0.053219
662.299861	0.053198
662.504422	0.053326
662.708966	0.053316
662.913491	0.053271
663.117999	0.053371
663.322488	0.053327
663.526958	0.053292
663.731411	0.053251
663.935845	0.053234
664.140261	0.053195
664.344659	0.053200
664.549038	0.053254
664.753400	0.053320
664.957743	0.053441
665.162068	0.053433
665.366375	0.053519
665.570663	0.053581
665.774933	0.053697
665.979185	0.053751
666.183419	0.053712
666.387635	0.053767
666.591832	0.053836
666.796011	0.053729
667.000172	0.053865
667.204315	0.053803
667.408439	0.054000
667.612545	0.054121
667.816634	0.054100
668.020703	0.054084
668.224755	0.054215
668.428788	0.054210
668.632803	0.054309
668.836800	0.054346
669.040779	0.054555
669.244739	0.054512
669.448681	0.054435
669.652605	0.054686
669.856511	0.054851
670.060399	0.054624
670.264268	0.054732
670.468119	0.054942
670.671952	0.054833
670.875767	0.054922
671.079563	0.054756
671.283341	0.054573
671.487101	0.054505
671.690843	0.054389
671.894567	0.054574
672.098272	0.054720
672.301959	0.054725
672.505628	0.054730
672.709278	0.054674
672.912911	0.054990
673.116525	0.055318
673.320121	0.055330
673.523699	0.055604
673.727258	0.055594
673.930799	0.055475
674.134322	0.055512
674.337827	0.055793
674.541314	0.055722
674.744782	0.055669
674.948232	0.055488
675.151664	0.055281
675.355078	0.055213
675.558474	0.055400
675.761851	0.055362
675.965210	0.055507
676.168551	0.055387
676.371873	0.055444
676.575178	0.055330
676.778464	0.055616
676.981732	0.055890
677.184981	0.055907
677.388213	0.055935
677.591426	0.056111
677.794621	0.056146
677.997798	0.056436
678.200956	0.056521
678.404097	0.056758
678.607219	0.056708
678.810323	0.056613
679.013408	0.056774
679.216476	0.056820
679.419525	0.056851
679.622556	0.056641
679.825569	0.056426
680.028563	0.056604
680.231540	0.056570
680.434498	0.056522
680.637438	0.056764
680.840359	0.056821
681.043263	0.056922
681.246148	0.057085
681.449015	0.057201
681.651864	0.057326
681.854694	0.057340
682.057506	0.057517
682.260301	0.057675
682.463076	0.057497
682.665834	0.057282
682.868573	0.057251
683.071295	0.056989
683.273998	0.057028
683.476682	0.057013
683.679349	0.056898
683.881997	0.056878
684.084627	0.056851
684.287239	0.057151
684.489833	0.057225
684.692408	0.057177
684.894965	0.057310
685.097504	0.057394
685.300025	0.057461
685.502527	0.057573
685.705012	0.057425
685.907478	0.057595
686.109925	0.057438
686.312355	0.057578
686.514766	0.057749
686.717159	0.057911
686.919534	0.057967
687.121891	0.057946
687.324230	0.058130
687.526550	0.058514
687.728852	0.058387
687.931136	0.058573
688.133401	0.058611
688.335649	0.058522
688.537878	0.058502
688.740089	0.058522
688.942281	0.058547
689.144456	0.058474
689.346612	0.058176
689.548750	0.058188
689.750870	0.058324
689.952971	0.058355
690.155055	0.058371
690.357120	0.058567
690.559167	0.058561
690.761195	0.058618
690.963206	0.058455
691.165198	0.058651
691.367172	0.058852
691.569128	0.058731
691.771065	0.058890
691.972984	0.059079
692.174885	0.058895
692.376768	0.058996
692.578633	0.059048
692.780479	0.059198
692.982308	0.059104
693.184118	0.058944
693.385909	0.058724
693.587683	0.058525
693.789438	0.058611
693.991175	0.058804
694.192894	0.058575
694.394595	0.058682
694.596277	0.058851
694.797941	0.058928
694.999587	0.058963
695.201215	0.059132
695.402824	0.059219
695.604416	0.059227
695.805989	0.059340
696.007543	0.059470
696.209080	0.059439
696.410598	0.059422
696.612099	0.059416
696.813580	0.059462
697.015044	0.059630
697.216490	0.059729
697.417917	0.059671
697.619326	0.059434
697.820717	0.059517
698.022089	0.059551
698.223444	0.059608
698.424780	0.059731
698.626098	0.059927
698.827397	0.060010
699.028679	0.060096
699.229942	0.060181
699.431187	0.060312
699.632414	0.060498
699.833622	0.060430
700.034813	0.060359
700.235985	0.060329
700.437139	0.060287
700.638274	0.060159
700.839392	0.060286
701.040491	0.060194
701.241572	0.060233
701.442635	0.060025
701.643679	0.060200
701.844706	0.060253
702.045714	0.060245
702.246704	0.060413
702.447675	0.060483
702.648629	0.060466
702.849564	0.060455
703.050481	0.060456
703.251380	0.060498
703.452260	0.060523
703.653122	0.060599
703.853966	0.060459
704.054792	0.060323
704.255600	0.060471
704.456389	0.060201
704.657160	0.060341
704.857913	0.060250
705.058648	0.060183
705.259365	0.060217
705.460063	0.059981
705.660743	0.060057
705.861405	0.060183
706.062048	0.060039
706.262674	0.060016
706.463281	0.060001
706.663870	0.060146
706.864441	0.060211
707.064993	0.060248
707.265527	0.060408
707.466043	0.060484
707.666541	0.060207
707.867021	0.060327
708.067482	0.060526
708.267925	0.060524
708.468350	0.060540
708.668757	0.060577
708.869145	0.060624
709.069516	0.060614
709.269868	0.060902
709.470201	0.061119
709.670517	0.061174
709.870814	0.061310
710.071093	0.061341
710.271354	0.061394
710.471597	0.061410
710.671821	0.061355
710.872028	0.061406
711.072216	0.061350
711.272385	0.061324
711.472537	0.061199
711.672670	0.060966
711.872785	0.060841
712.072882	0.060566
712.272961	0.060407
712.473021	0.060338
712.673063	0.060345
712.873087	0.060078
713.073093	0.060052
713.273081	0.060000
713.473050	0.060123
713.673001	0.060113
713.872934	0.060352
714.072849	0.060613
714.272745	0.060639
714.472623	0.060609
714.672483	0.060864
714.872325	0.060776
715.072148	0.060693
715.271954	0.060574
715.471741	0.060533
715.671509	0.060400
715.871260	0.060299
716.070992	0.060156
716.270707	0.060081
716.470403	0.059914
716.670080	0.059995
716.869740	0.060214
717.069381	0.060270
717.269004	0.060354
717.468609	0.060382
717.668195	0.060358
717.867764	0.060317
718.067314	0.060274
718.266846	0.060159
718.466360	0.060298
718.665855	0.060172
718.865332	0.060153
719.064791	0.060004
719.264232	0.060098
719.463655	0.060087
719.663059	0.060173
719.862445	0.060211
720.061813	0.060348
720.261163	0.060027
720.460494	0.059921
720.659807	0.060027
720.859102	0.060284
721.058379	0.060109
721.257638	0.060118
721.456878	0.060096
721.656100	0.060052
721.855304	0.059950
722.054490	0.060089
722.253657	0.060086
722.452806	0.059889
722.651937	0.059855
722.851050	0.059936
723.050145	0.060053
723.249221	0.059856
723.448279	0.060009
723.647319	0.060062
723.846340	0.059970
724.045344	0.059980
724.244329	0.059933
724.443296	0.059695
724.642245	0.059627
724.841175	0.059330
725.040088	0.059523
725.238982	0.059520
725.437857	0.059394
725.636715	0.059481
725.835554	0.059509
726.034376	0.059448
726.233179	0.059609
726.431963	0.059569
726.630730	0.059654
726.829478	0.059723
727.028208	0.059554
727.226920	0.059376
727.425614	0.059170
727.624289	0.059040
727.822946	0.058933
728.021585	0.058627
728.220206	0.058621
728.418808	0.058686
728.617392	0.058547
728.815958	0.058539
729.014506	0.058805
729.213036	0.058740
729.411547	0.058786
729.610040	0.058916
729.808515	0.058899
730.006972	0.058805
730.205410	0.058750
730.403831	0.058736
730.602233	0.058774
730.800616	0.058644
730.998982	0.058801
731.197329	0.058920
731.395658	0.058997
731.593969	0.059019
731.792262	0.058927
731.990536	0.058879
732.188793	0.058843
732.387031	0.058887
732.585250	0.058758
732.783452	0.058821
732.981635	0.058802
733.179800	0.058599
733.377947	0.058671
733.576076	0.058750
733.774186	0.058734
733.972278	0.058643
734.170352	0.058471
734.368408	0.058541
734.566446	0.058402
734.764465	0.058174
734.962466	0.058117
735.160449	0.057985
735.358413	0.057815
735.556360	0.057720
735.754288	0.057941
735.952198	0.057739
736.150090	0.057637
736.347963	0.057574
736.545818	0.057418
736.743655	0.057402
736.941474	0.057502
737.139275	0.057642
737.337057	0.057364
737.534821	0.057073
737.732567	0.057083
737.930295	0.057111
738.128005	0.057030
738.325696	0.057107
738.523369	0.056915
738.721024	0.056870
738.918660	0.056653
739.116279	0.056878
739.313879	0.056800
739.511461	0.056770
739.709024	0.056648
739.906570	0.056431
740.104097	0.056271
740.301606	0.056508
740.499097	0.056516
740.696569	0.056498
740.894024	0.056367
741.091460	0.056301
741.288878	0.056378
741.486277	0.056216
741.683659	0.056301
741.881022	0.056506
742.078367	0.056317
742.275694	0.056357
742.473002	0.056449
742.670293	0.056481
742.867565	0.056696
743.064819	0.056706
743.262054	0.056789
743.459272	0.056768
743.656471	0.056758
743.853652	0.056926
744.050815	0.056696
744.247959	0.056713
744.445085	0.056828
744.642194	0.056600
744.839283	0.056508
745.036355	0.056494
745.233408	0.056743
745.430444	0.056812
745.627461	0.056907
745.824459	0.056877
746.021440	0.056593
746.218402	0.056266
746.415346	0.056326
746.612272	0.056384
746.809180	0.056449
747.006069	0.056222
747.202940	0.056057
747.399793	0.055836
747.596628	0.055871
747.793444	0.056050
747.990243	0.056023
748.187023	0.055818
748.383784	0.055767
748.580528	0.055623
748.777253	0.055634
748.973960	0.055648
749.170649	0.055678
749.367320	0.055715
749.563973	0.055554
749.760607	0.055723
749.957223	0.055920
750.153821	0.055840
750.350400	0.055906
750.546962	0.056013
750.743505	0.055967
750.940030	0.055987
751.136536	0.055944
751.333025	0.056196
751.529495	0.056123
751.725947	0.056045
751.922381	0.056104
752.118796	0.056041
752.315194	0.055924
752.511573	0.055898
752.707934	0.055897
752.904276	0.055861
753.100601	0.055861
753.296907	0.055813
753.493195	0.055927
753.689465	0.055857
753.885716	0.055922
754.081949	0.055954
754.278164	0.055902
754.474361	0.055874
754.670540	0.056121
754.866700	0.055946
755.062843	0.056062
755.258967	0.055926
755.455072	0.056000
755.651160	0.055980
755.847229	0.055860
756.043280	0.055975
756.239313	0.055883
756.435328	0.055595
756.631324	0.055665
756.827302	0.055590
757.023262	0.055612
757.219204	0.055507
757.415127	0.055511
757.611033	0.055512
757.806920	0.055273
758.002788	0.055222
758.198639	0.055241
758.394471	0.055281
758.590286	0.055162
758.786081	0.055058
758.981859	0.055023
759.177619	0.055108
759.373360	0.054892
759.569083	0.055062
759.764788	0.054930
759.960474	0.054880
760.156143	0.054829
760.351793	0.055032
760.547425	0.055068
760.743038	0.055044
760.938634	0.054859
761.134211	0.055022
761.329770	0.054924
761.525311	0.055017
761.720833	0.054837
761.916338	0.054812
762.111824	0.054695
762.307292	0.054512
762.502741	0.054453
762.698173	0.054744
762.893586	0.054838
763.088981	0.054823
763.284358	0.054869
763.479716	0.055020
763.675057	0.054969
763.870379	0.054875
764.065683	0.055064
764.260968	0.055189
764.456236	0.054899
764.651485	0.054811
764.846716	0.054778
765.041929	0.054651
765.237123	0.054567
765.432299	0.054455
765.627457	0.054562
765.822597	0.054384
766.017719	0.054363
766.212822	0.054422
766.407907	0.054139
766.602974	0.054255
766.798023	0.054277
766.993054	0.054319
767.188066	0.054224
767.383060	0.054023
767.578036	0.054177
767.772993	0.053969
767.967933	0.053878
768.162854	0.054102
768.357757	0.053986
768.552642	0.054172
768.747508	0.054044
768.942356	0.054269
769.137186	0.054613
769.331998	0.054645
769.526792	0.054989
769.721567	0.055155
769.916324	0.055043
770.111063	0.055177
770.305784	0.054945
770.500486	0.055035
770.695171	0.054996
770.889837	0.054503
771.084484	0.054292
771.279114	0.054269
771.473725	0.054391
771.668318	0.054280
771.862893	0.054153
772.057450	0.054295
772.251988	0.054391
772.446509	0.054470
772.641011	0.054806
772.835494	0.054972
773.029960	0.054879
773.224407	0.054666
773.418836	0.055159
773.613247	0.055345
773.807640	0.055445
774.002014	0.055509
774.196370	0.055573
774.390708	0.055751
774.585028	0.055692
774.779330	0.055686
774.973613	0.055678
775.167878	0.055385
775.362125	0.055170
775.556354	0.054931
775.750564	0.054934
775.944756	0.054678
776.138930	0.054355
776.333086	0.054351
776.527223	0.054047
776.721343	0.054059
776.915444	0.054150
777.109526	0.054014
777.303591	0.054090
777.497637	0.054031
777.691666	0.054098
777.885676	0.054025
778.079667	0.054242
778.273641	0.054584
778.467596	0.054669
778.661533	0.054756
778.855452	0.055047
779.049352	0.055068
779.243235	0.055077
779.437099	0.055145
779.630945	0.055561
779.824773	0.055478
780.018582	0.055303
780.212373	0.055236
780.406146	0.055214
780.599901	0.054977
780.793638	0.055230
780.987356	0.055220
781.181056	0.055226
781.374738	0.054945
781.568402	0.054973
781.762047	0.055089
781.955674	0.055130
782.149283	0.054921
782.342874	0.055178
782.536447	0.055013
782.730001	0.054823
782.923537	0.054831
783.117055	0.055014
783.310555	0.054980
783.504036	0.054910
783.697499	0.054837
783.890944	0.055077
784.084371	0.055009
784.277780	0.054867
784.471170	0.054993
784.664542	0.054955
784.857896	0.054771
785.051231	0.054803
785.244549	0.054917
785.437848	0.054796
785.631129	0.054811
785.824392	0.054630
786.017636	0.054787
786.210863	0.054868
786.404071	0.054936
786.597260	0.055169
786.790432	0.055031
786.983585	0.055071
787.176721	0.055286
787.369838	0.055162
787.562936	0.055280
787.756017	0.055294
787.949079	0.055343
788.142123	0.055433
788.335149	0.055476
788.528156	0.055575
788.721146	0.055360
788.914117	0.055211
789.107070	0.055399
789.300005	0.055556
789.492921	0.055664
789.685819	0.055834
789.878699	0.055789
790.071561	0.055735
790.264405	0.055838
790.457230	0.056058
790.650037	0.056328
790.842826	0.056372
791.035597	0.056430
791.228349	0.056380
791.421084	0.056386
791.613800	0.056570
791.806497	0.056581
791.999177	0.056680
792.191838	0.056761
792.384481	0.056942
792.577106	0.056864
792.769713	0.056963
792.962301	0.057042
793.154871	0.057064
793.347423	0.057103
793.539957	0.057310
793.732473	0.057290
793.924970	0.057287
794.117449	0.057319
794.309910	0.057513
794.502353	0.057472
794.694777	0.057522
794.887183	0.057535
795.079571	0.057493
795.271941	0.057379
795.464293	0.057471
795.656626	0.057644
795.848941	0.057394
796.041238	0.057417
796.233516	0.057539
796.425777	0.057628
796.618019	0.057573
796.810243	0.057501
797.002449	0.057691
797.194636	0.057683
797.386805	0.057825
797.578956	0.057924
797.771089	0.057708
797.963204	0.057598
798.155300	0.057644
798.347378	0.057772
798.539438	0.057933
798.731480	0.057726
798.923503	0.057724
799.115509	0.057556
799.307496	0.057641
799.499465	0.057773
799.691415	0.057732
799.883348	0.057528
800.075262	0.057395
800.267158	0.057222
800.459035	0.057342
800.650895	0.057279
800.842736	0.057396
801.034559	0.057595
801.226364	0.057575
801.418150	0.057542
801.609919	0.057752
801.801669	0.057881
801.993401	0.058296
802.185114	0.058397
802.376810	0.058784
802.568487	0.058843
802.760146	0.058869
802.951787	0.059131
803.143409	0.059492
803.335014	0.059701
803.526600	0.059788
803.718168	0.059643
803.909717	0.059649
804.101249	0.059588
804.292762	0.059518
804.484257	0.059659
804.675734	0.059585
804.867192	0.059608
805.058632	0.059490
805.250054	0.059610
805.441458	0.059738
805.632844	0.059895
805.824211	0.059920
806.015561	0.060045
806.206891	0.059922
806.398204	0.059919
806.589499	0.059867
806.780775	0.059971
806.972033	0.060093
807.163273	0.059973
807.354495	0.059772
807.545698	0.059955
807.736883	0.060150
807.928050	0.060199
808.119199	0.060506
808.310329	0.060535
808.501441	0.060691
808.692535	0.060719
808.883611	0.060835
809.074669	0.061156
809.265708	0.060985
809.456729	0.060974
809.647732	0.061276
809.838717	0.061246
810.029683	0.061529
810.220632	0.061550
810.411562	0.061603
810.602474	0.061715
810.793367	0.061675
810.984242	0.061797
811.175100	0.061892
811.365938	0.061617
811.556759	0.061484
811.747562	0.061163
811.938346	0.061141
812.129112	0.061058
812.319860	0.061088
812.510589	0.061113
812.701300	0.061123
812.891994	0.061060
813.082668	0.061134
813.273325	0.061165
813.463964	0.061697
813.654584	0.061568
813.845186	0.061831
814.035769	0.062025
814.226335	0.062037
814.416882	0.061977
814.607411	0.062024
814.797922	0.062241
814.988415	0.062568
815.178889	0.062425
815.369345	0.062729
815.559783	0.062889
815.750203	0.062921
815.940605	0.063176
816.130988	0.063598
816.321353	0.063821
816.511700	0.063803
816.702028	0.063823
816.892339	0.063855
817.082631	0.064016
817.272905	0.064063
817.463161	0.064049
817.653398	0.064089
817.843617	0.064047
818.033819	0.063884
818.224001	0.063920
818.414166	0.063892
818.604312	0.064121
818.794440	0.064011
818.984550	0.063884
819.174642	0.063882
819.364716	0.063787
819.554771	0.063946
819.744808	0.064003
819.934827	0.064042
820.124827	0.063961
820.314810	0.063829
820.504774	0.063936
820.694720	0.063860
820.884647	0.064061
821.074557	0.064321
821.264448	0.064265
821.454321	0.064352
821.644176	0.064270
821.834012	0.064443
822.023831	0.064409
822.213631	0.064379
822.403413	0.064522
822.593176	0.064667
822.782922	0.064516
822.972649	0.064682
823.162358	0.064897
823.352049	0.065061
823.541721	0.064972
823.731376	0.065159
823.921012	0.065318
824.110629	0.065542
824.300229	0.065271
824.489811	0.065573
824.679374	0.065643
824.868919	0.065554
825.058445	0.065880
825.247954	0.066264
825.437444	0.066491
825.626916	0.066533
825.816370	0.066514
826.005806	0.066742
826.195223	0.066746
826.384622	0.066584
826.574003	0.066869
826.763366	0.066503
826.952711	0.066560
827.142037	0.066502
827.331345	0.066704
827.520635	0.066572
827.709906	0.066641
827.899160	0.066659
828.088395	0.066780
828.277612	0.066712
828.466810	0.066997
828.655991	0.066798
828.845153	0.066792
829.034297	0.066811
829.223423	0.067056
829.412531	0.067134
829.601620	0.067180
829.790691	0.067114
829.979744	0.067242
830.168779	0.067649
830.357795	0.067841
830.546793	0.067774
830.735773	0.067997
830.924735	0.068225
831.113679	0.068322
831.302604	0.068313
831.491511	0.068734
831.680400	0.068696
831.869271	0.068625
832.058123	0.068763
832.246957	0.068947
832.435773	0.068814
832.624571	0.068860
832.813351	0.068973
833.002112	0.069427
833.190855	0.069152
833.379580	0.069495
833.568287	0.069612
833.756975	0.069702
833.945645	0.069890
834.134297	0.070208
834.322931	0.070289
834.511547	0.070556
834.700144	0.070543
834.888723	0.070734
835.077284	0.070746
835.265826	0.070718
835.454351	0.070796
835.642857	0.070770
835.831345	0.070562
836.019815	0.070570
836.208266	0.070556
836.396699	0.070335
836.585114	0.070656
836.773511	0.070784
836.961890	0.070825
837.150250	0.071126
837.338592	0.071598
837.526916	0.071836
837.715222	0.071795
837.903510	0.071924
838.091779	0.072074
838.280030	0.072123
838.468263	0.072143
838.656477	0.072357
838.844674	0.072297
839.032852	0.072006
839.221012	0.071915
839.409153	0.072238
839.597277	0.072427
839.785382	0.072794
839.973469	0.072830
840.161538	0.072980
840.349589	0.072992
840.537621	0.072989
840.725635	0.073284
840.913631	0.073557
841.101609	0.073629
841.289568	0.073497
841.477509	0.073476
841.665432	0.073717
841.853337	0.073821
842.041224	0.074102
842.229092	0.074317
842.416942	0.074588
842.604774	0.074773
842.792588	0.074968
842.980383	0.075132
843.168160	0.075194
843.355919	0.075129
843.543660	0.075314
843.731382	0.075185
843.919087	0.075364
844.106773	0.075335
844.294441	0.075443
844.482090	0.075702
844.669722	0.075979
844.857335	0.076098
845.044930	0.076420
845.232507	0.076359
845.420065	0.076284
845.607605	0.076248
845.795127	0.076199
845.982631	0.076101
846.170117	0.076176
846.357584	0.076495
846.545033	0.076775
846.732464	0.076695
846.919877	0.076782
847.107272	0.077246
847.294648	0.077496
847.482006	0.077838
847.669346	0.077886
847.856667	0.077934
848.043971	0.077582
848.231256	0.077543
848.418523	0.077637
848.605771	0.077796
848.793002	0.077589
848.980214	0.077622
849.167408	0.077646
849.354584	0.077877
849.541742	0.077713
849.728881	0.078148
849.916002	0.078123
850.103105	0.078085
850.290190	0.078188
850.477256	0.078493
850.664304	0.078727
850.851334	0.078645
851.038346	0.078577
851.225340	0.078794
851.412315	0.078533
851.599272	0.078700
851.786211	0.078934
851.973132	0.079031
852.160034	0.079268
852.346918	0.079258
852.533784	0.079487
852.720632	0.080013
852.907462	0.080065
853.094273	0.080439
853.281066	0.080556
853.467841	0.080585
853.654598	0.080695
853.841336	0.080728
854.028056	0.080833
854.214758	0.081002
854.401442	0.080929
854.588107	0.081082
854.774755	0.081098
854.961384	0.081368
855.147995	0.081673
855.334587	0.081773
855.521162	0.082021
855.707718	0.082187
855.894256	0.082034
856.080775	0.081880
856.267277	0.081867
856.453760	0.081933
856.640225	0.082130
856.826672	0.082282
857.013101	0.082295
857.199511	0.082431
857.385903	0.082529
857.572277	0.082987
857.758633	0.083119
857.944970	0.083126
858.131290	0.083165
858.317591	0.083237
858.503873	0.083397
858.690138	0.083733
858.876384	0.083600
859.062612	0.083462
859.248822	0.083561
859.435014	0.084079
859.621188	0.084263
859.807343	0.084506
859.993480	0.084407
860.179599	0.084394
860.365699	0.084615
860.551781	0.084558
860.737846	0.085001
860.923891	0.085132
861.109919	0.085108
861.295929	0.085325
861.481920	0.085075
861.667893	0.085230
861.853848	0.085307
862.039784	0.085237
862.225702	0.085615
862.411603	0.085651
862.597484	0.085687
862.783348	0.085673
862.969193	0.085955
863.155021	0.086303
863.340830	0.086285
863.526620	0.086422
863.712393	0.086439
863.898147	0.086643
864.083883	0.087031
864.269601	0.087300
864.455301	0.087444
864.640982	0.087612
864.826645	0.087586
865.012290	0.087612
865.197917	0.087484
865.383526	0.087837
865.569116	0.087605
865.754688	0.087545
865.940242	0.087051
866.125777	0.087292
866.311295	0.087349
866.496794	0.087517
866.682275	0.087926
866.867737	0.088166
867.053182	0.088072
867.238608	0.088211
867.424016	0.087946
867.609406	0.088423
867.794778	0.088393
867.980131	0.088400
868.165466	0.088416
868.350783	0.088395
868.536082	0.088399
868.721362	0.088329
868.906625	0.088452
869.091869	0.088647
869.277094	0.088639
869.462302	0.088708
869.647491	0.088455
869.832662	0.088716
870.017815	0.088872
870.202950	0.089142
870.388066	0.089394
870.573165	0.089483
870.758245	0.089588
870.943306	0.089619
871.128350	0.089803
871.313375	0.090157
871.498382	0.090458
871.683371	0.090456
871.868342	0.090562
872.053294	0.090492
872.238229	0.090564
872.423144	0.090577
872.608042	0.090665
872.792922	0.090679
872.977783	0.090886
873.162626	0.090648
873.347451	0.090654
873.532258	0.090731
873.717046	0.091041
873.901816	0.091216
874.086568	0.091476
874.271302	0.091474
874.456017	0.091698
874.640715	0.091403
874.825394	0.091474
875.010055	0.091696
875.194697	0.091555
875.379322	0.091565
875.563928	0.091467
875.748516	0.091189
875.933085	0.091181
876.117637	0.091116
876.302170	0.091238
876.486685	0.091397
876.671182	0.091192
876.855661	0.091129
877.040121	0.091084
877.224563	0.091174
877.408987	0.091374
877.593393	0.091342
877.777780	0.091418
877.962150	0.091495
878.146501	0.091266
878.330833	0.091622
878.515148	0.091870
878.699444	0.092044
878.883722	0.092420
879.067982	0.092572
879.252224	0.092565
879.436447	0.092597
879.620653	0.092499
879.804840	0.092868
879.989008	0.092723
880.173159	0.092895
880.357291	0.092926
880.541405	0.092644
880.725501	0.092683
880.909579	0.093182
881.093638	0.093390
881.277680	0.093915
881.461703	0.093944
881.645707	0.094002
881.829694	0.093777
882.013662	0.093395
882.197612	0.093546
882.381544	0.093639
882.565458	0.093616
882.749353	0.093238
882.933230	0.092917
883.117089	0.093015
883.300930	0.092912
883.484753	0.092986
883.668557	0.093173
883.852343	0.093254
884.036111	0.093355
884.219861	0.093330
884.403592	0.093603
884.587305	0.093875
884.771000	0.093665
884.954677	0.093938
885.138335	0.094010
885.321976	0.094200
885.505598	0.093992
885.689201	0.093721
885.872787	0.093693
886.056354	0.093254
886.239904	0.093080
886.423434	0.092866
886.606947	0.092659
886.790442	0.092355
886.973918	0.092382
887.157376	0.092405
887.340816	0.092295
887.524237	0.092357
887.707641	0.092725
887.891026	0.092776
888.074393	0.093115
888.257741	0.092932
888.441072	0.093033
888.624384	0.092730
888.807678	0.092684
888.990954	0.092687
889.174211	0.092678
889.357451	0.092529
889.540672	0.092473
889.723875	0.092390
889.907059	0.092314
890.090226	0.092436
890.273374	0.092551
890.456504	0.092899
890.639616	0.092919
890.822709	0.092761
891.005785	0.092842
891.188842	0.092924
891.371881	0.092812
891.554901	0.092991
891.737904	0.092994
891.920888	0.093187
892.103854	0.092993
892.286802	0.093422
892.469731	0.093324
892.652643	0.093613
892.835536	0.093480
893.018410	0.093764
893.201267	0.094126
893.384106	0.094259
893.566926	0.094069
893.749728	0.093859
893.932511	0.093530
894.115277	0.093799
894.298024	0.093436
894.480753	0.093211
894.663464	0.092913
894.846157	0.092534
895.028831	0.092696
895.211487	0.093006
895.394125	0.093109
895.576745	0.093353
895.759346	0.093237
895.941930	0.093147
896.124495	0.093174
896.307041	0.093428
896.489570	0.093588
896.672080	0.093161
896.854573	0.092753
897.037046	0.093080
897.219502	0.092994
897.401940	0.093235
897.584359	0.093428
897.766760	0.093612
897.949143	0.093273
898.131507	0.093177
898.313854	0.093661
898.496182	0.093683
898.678492	0.093379
898.860783	0.093287
899.043057	0.092932
899.225312	0.092694
899.407549	0.092754
899.589768	0.092856
899.771968	0.092900
899.954151	0.092471
900.136315	0.092601
900.318461	0.092700
900.500588	0.092693
900.682698	0.092953
900.864789	0.093059
901.046862	0.092520
901.228917	0.092392
901.410953	0.092232
901.592971	0.092337
901.774972	0.092080
901.956953	0.091900
902.138917	0.091772
902.320862	0.091571
902.502790	0.091734
902.684699	0.091860
902.866589	0.091827
903.048462	0.092087
903.230316	0.091915
903.412152	0.091884
903.593970	0.091838
903.775770	0.091862
903.957551	0.091896
904.139314	0.091538
904.321059	0.091433
904.502786	0.091710
904.684494	0.091378
904.866185	0.091378
905.047857	0.091332
905.229510	0.091092
905.411146	0.090642
905.592763	0.090241
905.774363	0.090279
905.955943	0.090586
906.137506	0.090014
906.319051	0.089915
906.500577	0.089499
906.682085	0.089137
906.863575	0.088846
907.045046	0.088634
907.226500	0.088627
907.407935	0.088352
907.589352	0.088039
907.770750	0.087924
907.952131	0.087927
908.133493	0.087747
908.314837	0.087584
908.496163	0.087609
908.677470	0.088065
908.858760	0.087731
909.040031	0.087390
909.221284	0.087443
909.402518	0.087524
909.583735	0.087356
909.764933	0.087260
909.946113	0.087475
910.127275	0.087736
910.308418	0.087489
910.489544	0.087553
910.670651	0.087792
910.851740	0.087567
911.032810	0.087464
911.213863	0.087082
911.394897	0.087433
911.575913	0.087603
911.756911	0.087456
911.937890	0.087097
912.118851	0.086920
912.299794	0.086769
912.480719	0.086330
912.661626	0.086031
912.842514	0.085836
913.023384	0.085428
913.204236	0.084684
913.385070	0.084171
913.565886	0.083949
913.746683	0.083717
913.927462	0.083437
914.108223	0.083886
914.288965	0.083430
914.469690	0.083506
914.650396	0.083262
914.831084	0.083314
915.011754	0.083086
915.192405	0.083399
915.373038	0.083406
915.553653	0.082869
915.734250	0.081791
915.914829	0.081598
916.095389	0.081020
916.275931	0.080925
916.456455	0.080686
916.636961	0.080621
916.817448	0.080179
916.997917	0.079847
917.178368	0.079930
917.358801	0.080564
917.539216	0.080810
917.719612	0.080774
917.899990	0.080576
918.080350	0.080868
918.260692	0.080523
918.441015	0.080179
918.621320	0.079881
918.801607	0.079719
918.981876	0.079329
919.162127	0.079490
919.342359	0.079106
919.522573	0.078994
919.702769	0.078619
919.882947	0.078217
920.063106	0.078161
920.243247	0.078352
920.423370	0.078190
920.603475	0.077906
920.783562	0.077093
920.963630	0.077194
921.143680	0.076731
921.323712	0.075920
921.503725	0.075914
921.683721	0.075928
921.863698	0.075631
922.043657	0.075507
922.223598	0.075057
922.403520	0.074989
922.583424	0.074816
922.763311	0.074824
922.943178	0.074911
923.123028	0.075237
923.302859	0.074765
923.482673	0.074641
923.662467	0.074360
923.842244	0.074080
924.022003	0.074476
924.201743	0.074320
924.381465	0.074167
924.561169	0.074111
924.740854	0.073242
924.920522	0.072762
925.100171	0.072539
925.279802	0.072100
925.459414	0.071915
925.639009	0.071069
925.818585	0.070896
925.998143	0.070232
926.177683	0.070299
926.357205	0.070207
926.536708	0.070302
926.716193	0.069800
926.895660	0.069854
927.075109	0.070257
927.254539	0.070024
927.433951	0.069960
927.613345	0.069701
927.792721	0.069183
927.972079	0.069272
928.151418	0.068749
928.330739	0.068175
928.510042	0.067650
928.689327	0.066754
928.868593	0.066346
929.047841	0.065520
929.227071	0.065605
929.406283	0.065679
929.585476	0.065382
929.764652	0.065104
929.943809	0.065160
930.122948	0.065064
930.302068	0.065018
930.481171	0.064624
930.660255	0.064271
930.839321	0.064105
931.018369	0.062958
931.197398	0.062578
931.376409	0.062482
931.555402	0.061815
931.734377	0.060913
931.913334	0.060567
932.092272	0.060738
932.271192	0.060712
932.450094	0.059817
932.628978	0.059691
932.807844	0.059038
932.986691	0.058791
933.165520	0.058616
933.344331	0.059100
933.523123	0.058755
933.701898	0.058481
933.880654	0.058565
934.059392	0.058637
934.238111	0.058755
934.416813	0.058817
934.595496	0.058428
934.774161	0.058378
934.952808	0.057445
935.131437	0.057475
935.310047	0.056792
935.488639	0.056596
935.667213	0.056508
935.845769	0.055596
936.024306	0.055228
936.202825	0.054920
936.381326	0.054874
936.559809	0.055114
936.738274	0.054568
936.916720	0.054527
937.095148	0.054252
937.273558	0.054312
937.451950	0.054770
937.630323	0.054137
937.808678	0.053701
937.987015	0.053375
938.165334	0.053441
938.343635	0.053445
938.521917	0.053029
938.700181	0.052745
938.878427	0.052086
939.056655	0.052074
939.234864	0.052679
939.413055	0.052843
939.591228	0.052966
939.769383	0.051729
939.947519	0.051414
940.125638	0.051137
940.303738	0.050089
940.481820	0.049659
940.659883	0.048869
940.837929	0.047731
941.015956	0.047904
941.193965	0.046767
941.371955	0.047302
941.549928	0.046834
941.727882	0.047052
941.905818	0.047375
942.083736	0.046778
942.261636	0.046353
942.439517	0.046946
942.617380	0.046013
942.795225	0.046002
942.973052	0.045412
943.150860	0.045142
943.328651	0.044485
943.506423	0.044105
943.684176	0.044295
943.861912	0.044293
944.039629	0.043751
944.217328	0.043597
944.395009	0.044115
944.572672	0.044160
944.750317	0.044000
944.927943	0.043202
945.105551	0.043103
945.283141	0.043535
945.460712	0.043165
945.638265	0.042640
945.815801	0.041194
945.993317	0.040953
946.170816	0.039976
946.348297	0.039595
946.525759	0.039896
946.703203	0.040213
946.880629	0.038830
947.058036	0.038601
947.235425	0.038275
947.412797	0.038532
947.590149	0.037500
947.767484	0.038383
947.944800	0.038778
948.122099	0.037829
948.299379	0.037313
948.476640	0.037086
948.653884	0.036751
948.831109	0.037047
949.008316	0.038271
949.185505	0.038765
949.362676	0.038110
949.539828	0.037684
949.716962	0.038589
949.894078	0.037338
950.071176	0.037135
950.248256	0.036481
950.425317	0.035444
950.602360	0.035302
950.779385	0.034749
950.956391	0.034148
951.133380	0.034312
951.310350	0.034148
951.487302	0.034872
951.664235	0.035372
951.841151	0.036003
952.018048	0.035651
952.194927	0.033696
952.371788	0.033370
952.548631	0.034408
952.725455	0.031703
952.902261	0.031330
953.079049	0.030318
953.255819	0.030273
953.432570	0.030555
953.609303	0.032032
953.786018	0.032428
953.962715	0.033680
954.139394	0.031925
954.316054	0.034130
954.492696	0.035268
954.669320	0.035984
954.845926	0.036017
955.022513	0.035484
955.199083	0.034778
955.375634	0.033752
955.552166	0.031762
955.728681	0.031843
955.905177	0.031071
956.081655	0.031283
956.258115	0.030394
956.434557	0.029653
956.610980	0.030058
956.787385	0.028975
956.963772	0.031081
957.140141	0.032093
957.316492	0.032435
957.492824	0.033099
957.669138	0.031594
957.845434	0.032645
958.021712	0.034079
958.197971	0.034583
958.374212	0.035830
958.550435	0.034969
958.726640	0.037130
958.902826	0.035892
959.078995	0.035489
959.255145	0.035881
959.431277	0.035507
959.607390	0.035011
959.783486	0.034064
959.959563	0.032185
960.135622	0.031666
960.311662	0.029534
960.487685	0.032492
960.663689	0.032446
960.839675	0.030648
961.015643	0.030714
961.191593	0.030654
961.367524	0.031154
961.543437	0.033040
961.719332	0.034152
961.895209	0.034104
962.071067	0.032082
962.246907	0.031657
962.422730	0.033959
962.598533	0.034475
962.774319	0.035091
962.950086	0.033758
963.125835	0.032722
963.301566	0.032391
963.477279	0.033276
963.652973	0.034408
963.828650	0.035356
964.004308	0.035479
964.179947	0.035088
964.355569	0.034798
964.531172	0.036271
964.706757	0.037102
964.882324	0.038553
965.057873	0.038181
965.233403	0.039100
965.408916	0.038472
965.584410	0.038443
965.759885	0.039221
965.935343	0.037307
966.110782	0.037291
966.286203	0.038596
966.461606	0.039008
966.636991	0.039359
966.812357	0.038678
966.987705	0.039062
967.163035	0.038303
967.338347	0.038340
967.513641	0.040782
967.688916	0.038970
967.864173	0.036774
968.039412	0.033379
968.214632	0.033826
968.389835	0.031960
968.565019	0.030324
968.740185	0.030811
968.915333	0.030410
969.090462	0.030534
969.265573	0.031023
969.440667	0.031927
969.615741	0.034756
969.790798	0.035184
969.965836	0.036447
970.140856	0.037053
970.315858	0.035993
970.490842	0.035990
970.665808	0.035710
970.840755	0.035237
971.015684	0.036330
971.190595	0.034978
971.365487	0.034424
971.540362	0.036431
971.715218	0.036168
971.890056	0.036817
972.064875	0.036162
972.239677	0.034665
972.414460	0.037478
972.589225	0.036824
972.763972	0.036522
972.938700	0.036485
973.113411	0.033582
973.288103	0.034749
973.462777	0.034326
973.637432	0.035591
973.812070	0.035394
973.986689	0.035307
974.161290	0.035907
974.335873	0.037137
974.510437	0.036715
974.684984	0.038791
974.859512	0.038927
975.034022	0.040157
975.208513	0.040674
975.382987	0.041351
975.557442	0.039029
975.731879	0.038432
975.906298	0.038257
976.080698	0.038226
976.255080	0.036530
976.429445	0.035645
976.603790	0.035395
976.778118	0.035076
976.952427	0.035610
977.126719	0.036402
977.300992	0.037978
977.475246	0.036544
977.649483	0.036703
977.823701	0.037732
977.997901	0.038331
978.172083	0.039246
978.346247	0.039419
978.520392	0.038640
978.694519	0.038493
978.868628	0.036332
979.042719	0.037410
979.216791	0.036607
979.390845	0.037857
979.564882	0.038387
979.738899	0.036865
979.912899	0.035123
980.086880	0.034055
980.260843	0.035284
980.434788	0.034960
980.608715	0.035752
980.782623	0.035763
980.956514	0.035278
981.130386	0.035745
981.304240	0.035571
981.478075	0.034837
981.651892	0.035822
981.825692	0.036230
981.999472	0.036900
982.173235	0.036993
982.346980	0.036261
982.520706	0.035816
982.694414	0.033287
982.868104	0.034611
983.041775	0.033808
983.215428	0.034860
983.389064	0.034037
983.562680	0.034890
983.736279	0.033478
983.909860	0.034844
984.083422	0.035053
984.256966	0.035517
984.430491	0.034797
984.603999	0.036973
984.777488	0.036481
984.950959	0.034959
985.124412	0.036489
985.297847	0.037338
985.471263	0.037319
985.644661	0.036171
985.818041	0.037915
985.991403	0.036343
986.164747	0.035893
986.338072	0.036692
986.511379	0.037694
986.684668	0.035797
986.857938	0.035155
987.031191	0.035062
987.204425	0.036830
987.377641	0.035693
987.550839	0.036697
987.724018	0.037180
987.897179	0.035023
988.070322	0.035401
988.243447	0.034278
988.416554	0.037142
988.589642	0.036414
988.762712	0.036205
988.935764	0.036886
989.108798	0.037156
989.281813	0.036121
989.454811	0.039565
989.627790	0.036802
989.800751	0.038715
989.973693	0.036221
990.146617	0.035287
990.319524	0.034216
990.492412	0.033061
990.665281	0.032760
990.838133	0.034919
991.010966	0.033381
991.183781	0.034925
991.356578	0.033872
991.529356	0.035014
991.702117	0.035764
991.874859	0.035400
992.047583	0.036505
992.220288	0.037034
992.392976	0.034338
992.565645	0.033834
992.738296	0.034593
992.910929	0.033752
993.083543	0.032600
993.256139	0.031143
993.428718	0.032538
993.601277	0.032195
993.773819	0.031869
993.946342	0.033861
994.118848	0.034622
994.291335	0.033531
994.463803	0.034192
994.636254	0.035723
994.808686	0.038839
994.981100	0.038817
995.153496	0.039192
995.325874	0.040251
995.498233	0.040140
995.670574	0.039116
995.842897	0.041100
996.015202	0.041702
996.187488	0.040062
996.359757	0.038019
996.532007	0.037623
996.704239	0.038496
996.876452	0.036946
997.048648	0.036493
997.220825	0.036761
997.392984	0.035375
997.565124	0.035070
997.737247	0.035867
997.909351	0.036887
998.081437	0.037417
998.253505	0.038108
998.425554	0.038351
998.597586	0.038010
998.769599	0.036893
998.941594	0.036527
999.113571	0.035944
999.285529	0.037355
999.457469	0.036360
999.629391	0.034996
999.801295	0.033192
999.973181	0.033653
1000.145048	0.033105
1000.316897	0.034059
1000.488728	0.036081
1000.660541	0.037180
1000.832335	0.035021
1001.004111	0.035957
1001.175869	0.035184
1001.347609	0.033935
1001.519331	0.032309
1001.691034	0.034296
1001.862719	0.034526
1002.034386	0.031650
1002.206035	0.031161
1002.377665	0.032074
1002.549277	0.031445
1002.720871	0.032625
1002.892447	0.034337
1003.064004	0.034832
1003.235544	0.034647
1003.407065	0.034143
1003.578568	0.035681
1003.750052	0.034707
1003.921519	0.034761
1004.092967	0.034611
1004.264397	0.034890
1004.435809	0.034440
1004.607202	0.036527
1004.778577	0.036047
1004.949934	0.035553
1005.121273	0.035954
1005.292594	0.037246
1005.463896	0.036919
1005.635180	0.038623
1005.806446	0.039654
1005.977694	0.039604
1006.148923	0.039158
1006.320135	0.038075
1006.491328	0.039136
1006.662503	0.038192
1006.833659	0.037146
1007.004798	0.036819
1007.175918	0.035533
1007.347020	0.034490
1007.518103	0.034169
1007.689169	0.032706
1007.860216	0.032535
1008.031245	0.031600
1008.202256	0.031130
1008.373248	0.032559
1008.544223	0.032728
1008.715179	0.032245
1008.886117	0.029352
1009.057036	0.029346
1009.227938	0.028877
1009.398821	0.028150
1009.569686	0.028758
1009.740533	0.029631
1009.911361	0.029124
1010.082172	0.027358
1010.252964	0.029049
1010.423738	0.030993
1010.594493	0.030998
1010.765231	0.032805
1010.935950	0.033779
1011.106651	0.032641
1011.277334	0.033458
1011.447998	0.032153
1011.618645	0.034380
1011.789273	0.034186
1011.959882	0.034398
1012.130474	0.032563
1012.301048	0.031492
1012.471603	0.032046
1012.642140	0.032804
1012.812658	0.031484
1012.983159	0.033335
1013.153641	0.031421
1013.324105	0.030666
1013.494551	0.030430
1013.664979	0.033121
1013.835388	0.033601
1014.005779	0.032072
1014.176152	0.032906
1014.346507	0.033351
1014.516843	0.032052
1014.687162	0.031845
1014.857462	0.032143
1015.027744	0.032446
1015.198007	0.030578
1015.368252	0.029626
1015.538480	0.029298
1015.708689	0.029477
1015.878879	0.030281
1016.049052	0.030863
1016.219206	0.031756
1016.389342	0.031911
1016.559460	0.032232
1016.729559	0.033257
1016.899641	0.034061
1017.069704	0.035592
1017.239749	0.035952
1017.409775	0.034958
1017.579784	0.034563
1017.749774	0.034581
1017.919746	0.034475
1018.089700	0.034701
1018.259635	0.034764
1018.429553	0.035574
1018.599452	0.034511
1018.769333	0.031173
1018.939195	0.032594
1019.109040	0.032533
1019.278866	0.032376
1019.448674	0.033639
1019.618464	0.033775
1019.788235	0.033972
1019.957989	0.033391
1020.127724	0.033725
1020.297441	0.034783
1020.467139	0.033738
1020.636820	0.032362
1020.806482	0.032582
1020.976126	0.031773
1021.145752	0.031824
1021.315359	0.030375
1021.484948	0.032381
1021.654519	0.033758
1021.824072	0.035197
1021.993607	0.034447
1022.163123	0.037351
1022.332621	0.037941
1022.502101	0.036424
1022.671563	0.035830
1022.841007	0.038077
1023.010432	0.034976
1023.179839	0.034653
1023.349228	0.033955
1023.518598	0.034837
1023.687951	0.033984
1023.857285	0.032545
1024.026601	0.034068
1024.195899	0.034755
1024.365178	0.033970
1024.534439	0.035110
1024.703682	0.033530
1024.872907	0.034815
1025.042114	0.034625
1025.211302	0.034794
1025.380472	0.037098
1025.549624	0.036579
1025.718758	0.037271
1025.887873	0.036603
1026.056970	0.035615
1026.226049	0.037275
1026.395110	0.035833
1026.564153	0.035280
1026.733177	0.034487
1026.902183	0.032690
1027.071171	0.033174
1027.240141	0.030826
1027.409092	0.031039
1027.578026	0.032494
1027.746940	0.032918
1027.915837	0.032454
1028.084716	0.032717
1028.253576	0.033495
1028.422418	0.034577
1028.591242	0.034544
1028.760048	0.035219
1028.928835	0.036762
1029.097604	0.035608
1029.266355	0.033751
1029.435088	0.034824
1029.603803	0.034630
1029.772499	0.032713
1029.941177	0.031393
1030.109837	0.032105
1030.278478	0.033167
1030.447102	0.031517
1030.615707	0.030845
1030.784294	0.032953
1030.952863	0.033053
1031.121413	0.032990
1031.289945	0.036072
1031.458460	0.035994
1031.626955	0.033913
1031.795433	0.033076
1031.963892	0.034015
1032.132334	0.035337
1032.300756	0.034191
1032.469161	0.033221
1032.637548	0.033654
1032.805916	0.031267
1032.974266	0.030944
1033.142598	0.032033
1033.310911	0.032356
1033.479207	0.031371
1033.647484	0.032917
1033.815743	0.033641
1033.983983	0.033128
1034.152206	0.034210
1034.320410	0.033190
1034.488596	0.035206
1034.656764	0.034053
1034.824914	0.033808
1034.993045	0.034044
1035.161158	0.032730
1035.329253	0.032477
1035.497330	0.033684
1035.665388	0.032763
1035.833428	0.032846
1036.001450	0.032795
1036.169454	0.033703
1036.337440	0.033508
1036.505407	0.033349
1036.673356	0.031728
1036.841287	0.029450
1037.009200	0.029822
1037.177094	0.029417
1037.344970	0.030818
1037.512828	0.029449
1037.680668	0.029320
1037.848489	0.029088
1038.016293	0.029153
1038.184078	0.029464
1038.351845	0.031476
1038.519593	0.032653
1038.687324	0.033040
1038.855036	0.032351
1039.022730	0.032999
1039.190406	0.033894
1039.358063	0.033350
1039.525702	0.034945
1039.693323	0.033909
1039.860926	0.032883
1040.028511	0.031708
1040.196077	0.031836
1040.363625	0.032680
1040.531155	0.032047
1040.698667	0.031079
1040.866161	0.032663
1041.033636	0.032503
1041.201093	0.035215
1041.368532	0.035938
1041.535952	0.035779
1041.703355	0.034629
1041.870739	0.035507
1042.038105	0.035883
1042.205452	0.034846
1042.372782	0.033915
1042.540093	0.032211
1042.707386	0.031948
1042.874661	0.031291
1043.041918	0.030659
1043.209156	0.030265
1043.376376	0.028667
1043.543578	0.027847
1043.710762	0.027876
1043.877927	0.028861
1044.045074	0.030410
1044.212203	0.029391
1044.379314	0.029463
1044.546407	0.029979
1044.713481	0.029279
1044.880537	0.030500
1045.047575	0.030019
1045.214595	0.030915
1045.381596	0.030732
1045.548579	0.030248
1045.715544	0.031407
1045.882491	0.031133
1046.049420	0.030407
1046.216330	0.031539
1046.383222	0.031549
1046.550096	0.033199
1046.716951	0.031444
1046.883789	0.031443
1047.050608	0.030760
1047.217409	0.031512
1047.384192	0.031301
1047.550956	0.032099
1047.717703	0.033098
1047.884431	0.032268
1048.051140	0.032021
1048.217832	0.032007
1048.384505	0.031478
1048.551161	0.030573
1048.717798	0.028616
1048.884416	0.028742
1049.051017	0.029115
1049.217599	0.029357
1049.384163	0.028828
1049.550709	0.028900
1049.717237	0.030697
1049.883746	0.030800
1050.050237	0.030585
1050.216710	0.030779
1050.383165	0.031245
1050.549601	0.031417
1050.716019	0.030694
1050.882420	0.030648
1051.048801	0.030680
1051.215165	0.030116
1051.381510	0.029143
1051.547837	0.029503
1051.714146	0.030227
1051.880437	0.031811
1052.046709	0.031552
1052.212964	0.031576
1052.379200	0.032033
1052.545417	0.031131
1052.711617	0.030870
1052.877798	0.030771
1053.043961	0.029677
1053.210106	0.027219
1053.376233	0.027573
1053.542341	0.025999
1053.708432	0.027441
1053.874504	0.026817
1054.040557	0.027336
1054.206593	0.026952
1054.372610	0.029215
1054.538609	0.031684
1054.704590	0.035565
1054.870553	0.033417
1055.036497	0.031918
1055.202424	0.031050
1055.368331	0.032502
1055.534221	0.031778
1055.700093	0.032583
1055.865946	0.031113
1056.031781	0.030345
1056.197598	0.027497
1056.363397	0.029699
1056.529177	0.032666
1056.694939	0.030976
1056.860683	0.029775
1057.026409	0.030554
1057.192116	0.029303
1057.357806	0.027859
1057.523477	0.028174
1057.689130	0.027886
1057.854764	0.025527
1058.020381	0.025985
1058.185979	0.027327
1058.351559	0.028543
1058.517120	0.028040
1058.682664	0.029880
1058.848189	0.030619
1059.013696	0.031598
1059.179185	0.032829
1059.344656	0.032197
1059.510108	0.031101
1059.675542	0.030959
1059.840958	0.029090
1060.006356	0.030168
1060.171735	0.030193
1060.337096	0.032556
1060.502439	0.031939
1060.667764	0.032696
1060.833071	0.033452
1060.998359	0.034138
1061.163629	0.034106
1061.328881	0.035944
1061.494115	0.035708
1061.659330	0.035011
1061.824527	0.033513
1061.989706	0.032670
1062.154867	0.032091
1062.320010	0.033054
1062.485134	0.032275
1062.650240	0.031511
1062.815328	0.029853
1062.980398	0.030064
1063.145449	0.030080
1063.310482	0.029202
1063.475497	0.028092
1063.640494	0.028974
1063.805473	0.027300
1063.970433	0.027404
1064.135375	0.028017
1064.300299	0.028887
1064.465204	0.031373
1064.630092	0.031084
1064.794961	0.032471
1064.959812	0.034326
1065.124645	0.032164
1065.289459	0.032921
1065.454256	0.033161
1065.619034	0.032527
1065.783793	0.033048
1065.948535	0.032221
1066.113258	0.033107
1066.277964	0.035023
1066.442651	0.034996
1066.607319	0.036112
1066.771970	0.037266
1066.936602	0.038318
1067.101216	0.039063
1067.265812	0.037681
1067.430389	0.035755
1067.594949	0.033506
1067.759490	0.030137
1067.924013	0.029470
1068.088518	0.028362
1068.253004	0.027700
1068.417472	0.027707
1068.581922	0.027608
1068.746354	0.030022
1068.910768	0.030164
1069.075163	0.032295
1069.239540	0.032282
1069.403899	0.032951
1069.568240	0.032997
1069.732562	0.031794
1069.896866	0.029340
1070.061152	0.028229
1070.225420	0.026337
1070.389670	0.026547
1070.553901	0.026568
1070.718114	0.027246
1070.882309	0.025910
1071.046486	0.025961
1071.210644	0.026175
1071.374784	0.027489
1071.538906	0.029162
1071.703010	0.030500
1071.867096	0.030079
1072.031163	0.029772
1072.195212	0.030656
1072.359243	0.032536
1072.523256	0.035076
1072.687250	0.034267
1072.851226	0.035046
1073.015184	0.036415
1073.179124	0.036691
1073.343045	0.037738
1073.506949	0.038441
1073.670834	0.037966
1073.834701	0.038015
1073.998549	0.034570
1074.162380	0.036061
1074.326192	0.033721
1074.489986	0.031214
1074.653761	0.029687
1074.817519	0.028589
1074.981258	0.027027
1075.144979	0.027182
1075.308682	0.026613
1075.472367	0.026632
1075.636033	0.027004
1075.799681	0.028569
1075.963311	0.029392
1076.126923	0.029243
1076.290516	0.030021
1076.454092	0.030498
1076.617649	0.029794
1076.781187	0.029776
1076.944708	0.032212
1077.108210	0.033230
1077.271695	0.032917
1077.435160	0.033842
1077.598608	0.032386
1077.762038	0.032058
1077.925449	0.030515
1078.088842	0.030688
1078.252217	0.030658
1078.415573	0.030834
1078.578912	0.030903
1078.742232	0.032148
1078.905534	0.032633
1079.068817	0.035717
1079.232083	0.034305
1079.395330	0.033437
1079.558559	0.033101
1079.721770	0.031720
1079.884962	0.031413
1080.048136	0.029213
1080.211293	0.027343
1080.374430	0.026335
1080.537550	0.027323
1080.700651	0.027805
1080.863735	0.028986
1081.026800	0.027857
1081.189846	0.027967
1081.352875	0.027306
1081.515885	0.027023
1081.678877	0.028819
1081.841851	0.026691
1082.004807	0.025201
1082.167744	0.026081
1082.330663	0.026547
1082.493564	0.028709
1082.656447	0.029170
1082.819312	0.028226
1082.982158	0.029925
1083.144986	0.029080
1083.307796	0.030023
1083.470587	0.029048
1083.633361	0.028121
1083.796116	0.028181
1083.958853	0.028179
1084.121571	0.029213
1084.284272	0.030992
1084.446954	0.030742
1084.609618	0.031038
1084.772264	0.032587
1084.934892	0.032118
1085.097501	0.030505
1085.260092	0.031122
1085.422665	0.032662
1085.585220	0.030411
1085.747756	0.030461
1085.910274	0.029586
1086.072774	0.028427
1086.235256	0.026618
1086.397720	0.026516
1086.560165	0.027124
1086.722592	0.027406
1086.885001	0.024512
1087.047392	0.027529
1087.209764	0.027147
1087.372119	0.028142
1087.534455	0.028180
1087.696772	0.029920
1087.859072	0.030828
1088.021353	0.031615
1088.183616	0.032937
1088.345861	0.035172
1088.508088	0.034020
1088.670296	0.033961
1088.832486	0.035081
1088.994658	0.037216
1089.156812	0.034509
1089.318948	0.034080
1089.481065	0.035385
1089.643164	0.032394
1089.805245	0.028797
1089.967308	0.031211
1090.129352	0.032236
1090.291378	0.031190
1090.453386	0.030593
1090.615376	0.032135
1090.777347	0.033053
1090.939301	0.032165
1091.101236	0.033830
1091.263153	0.036604
1091.425051	0.033510
1091.586932	0.031841
1091.748794	0.034609
1091.910638	0.035164
1092.072463	0.033635
1092.234271	0.032587
1092.396060	0.032256
1092.557831	0.033747
1092.719584	0.033117
1092.881319	0.032745
1093.043035	0.033021
1093.204733	0.030581
1093.366413	0.030279
1093.528075	0.033064
1093.689718	0.036128
1093.851343	0.036338
1094.012950	0.036154
1094.174539	0.035687
1094.336110	0.036244
1094.497662	0.035350
1094.659196	0.033476
1094.820712	0.030704
1094.982210	0.029912
1095.143689	0.026371
1095.305151	0.026941
1095.466594	0.025268
1095.628018	0.023275
1095.789425	0.023876
1095.950813	0.022462
1096.112183	0.023806
1096.273535	0.027714
1096.434869	0.027591
1096.596184	0.029287
1096.757482	0.029196
1096.918761	0.028935
1097.080021	0.030677
1097.241264	0.029093
1097.402488	0.027958
1097.563694	0.027378
1097.724882	0.023531
1097.886052	0.022590
1098.047203	0.024916
1098.208336	0.025120
1098.369451	0.025180
1098.530548	0.024327
1098.691627	0.024322
1098.852687	0.029520
1099.013729	0.031714
1099.174753	0.035470
1099.335758	0.036724
1099.496746	0.032041
1099.657715	0.029786
1099.818666	0.030578
1099.979599	0.030054
1100.140513	0.029732
1100.301409	0.029256
1100.462287	0.026806
1100.623147	0.022756
1100.783989	0.022794
1100.944812	0.025967
1101.105617	0.026252
1101.266404	0.027223
1101.427173	0.032564
1101.587923	0.035629
1101.748656	0.034374
1101.909370	0.035892
1102.070066	0.036227
1102.230743	0.034624
1102.391403	0.031444
1102.552044	0.034413
1102.712667	0.035481
1102.873271	0.032016
1103.033858	0.029620
1103.194426	0.029834
1103.354976	0.030654
1103.515508	0.032002
1103.676021	0.033722
1103.836517	0.034465
1103.996994	0.036015
1104.157453	0.032702
1104.317893	0.032635
1104.478316	0.034699
1104.638720	0.035622
1104.799106	0.033778
1104.959474	0.032141
1105.119823	0.033961
1105.280155	0.037630
1105.440468	0.037315
1105.600763	0.040833
1105.761039	0.040991
1105.921298	0.040495
1106.081538	0.039268
1106.241760	0.038571
1106.401964	0.039176
1106.562149	0.040813
1106.722316	0.041419
1106.882465	0.038469
1107.042596	0.035380
1107.202709	0.035651
1107.362803	0.033205
1107.522879	0.035373
1107.682937	0.037285
1107.842977	0.039363
1108.002999	0.035221
1108.163002	0.029968
1108.322987	0.026393
1108.482954	0.026974
1108.642902	0.027780
1108.802833	0.030049
1108.962745	0.027538
1109.122639	0.027736
1109.282515	0.026129
1109.442372	0.027509
1109.602211	0.029710
1109.762032	0.032644
1109.921835	0.031105
1110.081620	0.033297
1110.241386	0.029316
1110.401134	0.028761
1110.560864	0.027950
1110.720576	0.028176
1110.880269	0.025107
1111.039945	0.024478
1111.199602	0.024736
1111.359240	0.024890
1111.518861	0.024053
1111.678463	0.025738
1111.838047	0.023881
1111.997613	0.023049
1112.157161	0.022078
1112.316690	0.023552
1112.476202	0.022418
1112.635695	0.021557
1112.795169	0.021297
1112.954626	0.019149
1113.114064	0.020206
1113.273484	0.018389
1113.432886	0.016004
1113.592270	0.014912
1113.751635	0.013589
1113.910983	0.016530
1114.070312	0.018424
1114.229622	0.018986
1114.388915	0.018394
1114.548189	0.019457
1114.707445	0.026998
1114.866683	0.026839
1115.025903	0.030639
1115.185104	0.032784
1115.344287	0.031236
1115.503452	0.027948
1115.662599	0.028293
1115.821727	0.027999
1115.980838	0.028666
1116.139930	0.025877
1116.299004	0.032606
1116.458059	0.030425
1116.617097	0.033489
1116.776116	0.031109
1116.935117	0.031490
1117.094099	0.032546
1117.253064	0.034483
1117.412010	0.035783
1117.570938	0.037901
1117.729848	0.034353
1117.888740	0.039553
1118.047613	0.036808
1118.206468	0.038831
1118.365305	0.044229
1118.524124	0.045060
1118.682924	0.043989
1118.841707	0.043841
1119.000471	0.040554
1119.159216	0.039186
1119.317944	0.032593
1119.476653	0.033189
1119.635344	0.032334
1119.794017	0.028116
1119.952672	0.028583
1120.111308	0.024989
1120.269927	0.025434
1120.428527	0.024378
1120.587108	0.025224
1120.745672	0.029456
1120.904217	0.029079
1121.062744	0.032152
1121.221253	0.031356
1121.379744	0.027943
1121.538216	0.031224
1121.696671	0.033324
1121.855107	0.034260
1122.013524	0.034291
1122.171924	0.034650
1122.330305	0.033254
1122.488668	0.036252
1122.647013	0.038046
1122.805340	0.040165
1122.963648	0.040003
1123.121938	0.034814
1123.280210	0.036195
1123.438464	0.035702
1123.596700	0.033863
1123.754917	0.033934
1123.913116	0.028746
1124.071297	0.029630
1124.229459	0.029474
1124.387604	0.030297
1124.545730	0.034061
1124.703838	0.032110
1124.861928	0.034779
1125.019999	0.034867
1125.178052	0.035576
1125.336088	0.033179
1125.494104	0.031859
1125.652103	0.030745
1125.810083	0.032150
1125.968045	0.031655
1126.125989	0.035956
1126.283915	0.037771
1126.441823	0.036978
1126.599712	0.038366
1126.757583	0.037634
1126.915436	0.041477
1127.073270	0.039830
1127.231087	0.039044
1127.388885	0.031566
1127.546665	0.030584
1127.704426	0.026830
1127.862170	0.031796
1128.019895	0.025617
1128.177602	0.025979
1128.335291	0.024203
1128.492961	0.023458
1128.650614	0.023428
1128.808248	0.030531
1128.965864	0.026887
1129.123461	0.031074
1129.281041	0.029328
1129.438602	0.030637
1129.596145	0.036439
1129.753670	0.033570
1129.911176	0.037738
1130.068665	0.037150
1130.226135	0.034435
1130.383587	0.040746
1130.541020	0.032439
1130.698436	0.029112
1130.855833	0.031580
1131.013212	0.025965
1131.170573	0.030430
1131.327915	0.033708
1131.485239	0.034455
1131.642545	0.031118
1131.799833	0.028065
1131.957103	0.030833
1132.114354	0.036130
1132.271588	0.035233
1132.428803	0.039537
1132.585999	0.035807
1132.743178	0.032775
1132.900338	0.030486
1133.057480	0.034066
1133.214604	0.030856
1133.371710	0.034622
1133.528797	0.029106
1133.685866	0.028941
1133.842917	0.025746
1133.999950	0.030512
1134.156964	0.030045
1134.313960	0.035717
1134.470938	0.034994
1134.627898	0.034425
1134.784840	0.033233
1134.941763	0.033161
1135.098668	0.033781
1135.255555	0.036774
1135.412424	0.034515
1135.569274	0.028934
1135.726107	0.022125
1135.882921	0.025279
1136.039716	0.026313
1136.196494	0.025674
1136.353253	0.028753
1136.509995	0.032141
1136.666717	0.030014
1136.823422	0.029658
1136.980109	0.031562
1137.136777	0.035350
1137.293427	0.027110
1137.450059	0.031743
1137.606672	0.027831
1137.763267	0.024578
1137.919844	0.019744
1138.076403	0.023397
1138.232944	0.020755
1138.389466	0.027246
1138.545971	0.025671
1138.702457	0.029065
1138.858924	0.028392
1139.015374	0.033264
1139.171805	0.036074
1139.328218	0.034810
1139.484613	0.029398
1139.640990	0.031033
1139.797348	0.028836
1139.953688	0.029171
1140.110010	0.030004
1140.266314	0.035931
1140.422600	0.034690
1140.578867	0.034484
1140.735116	0.035895
1140.891347	0.042569
1141.047559	0.041358
1141.203754	0.038749
1141.359930	0.036737
1141.516088	0.036974
1141.672228	0.032651
1141.828349	0.028281
1141.984452	0.026419
1142.140537	0.028282
1142.296604	0.023208
1142.452653	0.023190
1142.608683	0.022574
1142.764695	0.027506
1142.920689	0.027185
1143.076665	0.026354
1143.232622	0.026340
1143.388562	0.032106
1143.544483	0.034113
1143.700385	0.042896
1143.856270	0.044719
1144.012136	0.046905
1144.167985	0.042546
1144.323814	0.047920
1144.479626	0.040540
1144.635420	0.036645
1144.791195	0.035646
1144.946952	0.030758
1145.102691	0.022600
1145.258411	0.024039
1145.414113	0.020899
1145.569798	0.023079
1145.725463	0.014032
1145.881111	0.020898
1146.036741	0.031842
1146.192352	0.029413
1146.347945	0.036010
1146.503519	0.037884
1146.659076	0.037717
1146.814614	0.038319
1146.970134	0.031202
1147.125636	0.035708
1147.281120	0.030932
1147.436585	0.025318
1147.592032	0.016598
1147.747461	0.012676
1147.902872	0.009511
1148.058265	0.008671
1148.213639	0.013958
1148.368995	0.016531
1148.524333	0.020730
1148.679653	0.026450
1148.834954	0.028846
1148.990237	0.037901
1149.145502	0.040760
1149.300749	0.038485
1149.455977	0.039183
1149.611188	0.029097
1149.766380	0.029541
1149.921553	0.028954
1150.076709	0.025536
1150.231846	0.020755
1150.386966	0.018032
1150.542066	0.019076
1150.697149	0.018085
1150.852214	0.018201
1151.007260	0.026150
1151.162288	0.036315
1151.317298	0.033656
1151.472289	0.031916
1151.627263	0.037313
1151.782218	0.037943
1151.937155	0.035309
1152.092073	0.038216
1152.246974	0.035113
1152.401856	0.035537
1152.556720	0.030607
1152.711566	0.027362
1152.866393	0.031278
1153.021203	0.033530
1153.175994	0.036698
1153.330767	0.034613
1153.485521	0.037901
1153.640258	0.034374
1153.794976	0.029332
1153.949676	0.025715
1154.104358	0.024334
1154.259021	0.023688
1154.413667	0.023219
1154.568294	0.016770
1154.722903	0.020372
1154.877493	0.019121
1155.032066	0.030840
1155.186620	0.031274
1155.341156	0.028650
1155.495674	0.036732
1155.650173	0.032680
1155.804654	0.031009
1155.959118	0.030178
1156.113562	0.027150
1156.267989	0.024120
1156.422397	0.016722
1156.576788	0.023472
1156.731160	0.027553
1156.885513	0.019987
1157.039849	0.024398
1157.194166	0.022500
1157.348465	0.033768
1157.502746	0.034072
1157.657009	0.041421
1157.811253	0.039637
1157.965479	0.030533
1158.119687	0.030523
1158.273877	0.031761
1158.428048	0.029037
1158.582201	0.032032
1158.736337	0.017134
1158.890453	0.013786
1159.044552	0.009604
1159.198632	0.014020
1159.352694	0.023943
1159.506738	0.014997
1159.660764	0.013820
1159.814771	0.011543
1159.968761	0.011784
1160.122732	0.020553
1160.276685	0.027637
1160.430619	0.018880
1160.584535	0.018516
1160.738434	0.019822
1160.892313	0.025108
1161.046175	0.025485
1161.200019	0.031369
1161.353844	0.035902
1161.507651	0.027196
1161.661440	0.030953
1161.815210	0.039406
1161.968962	0.043888
1162.122697	0.039063
1162.276412	0.038369
1162.430110	0.038690
1162.583789	0.040538
1162.737451	0.031543
1162.891094	0.037193
1163.044718	0.033058
1163.198325	0.037522
1163.351913	0.041792
1163.505483	0.031616
1163.659035	0.036379
1163.812569	0.043478
1163.966084	0.046660
1164.119581	0.046458
1164.273060	0.048421
1164.426521	0.046549
1164.579964	0.045127
1164.733388	0.035490
1164.886794	0.049910
1165.040182	0.055101
1165.193551	0.060323
1165.346903	0.052159
1165.500236	0.049773
1165.653551	0.047987
1165.806848	0.043061
1165.960126	0.040788
1166.113386	0.041055
1166.266628	0.033723
1166.419852	0.019981
1166.573058	0.006942
1166.726245	0.007833
1166.879414	0.013599
1167.032565	0.020334
1167.185698	0.016605
1167.338812	0.017899
1167.491909	0.016070
1167.644987	0.018139
1167.798046	0.022070
1167.951088	0.020958
1168.104111	0.014737
1168.257117	0.000063
1168.410103	0.000918
1168.563072	0.005577
1168.716023	0.006747
1168.868955	0.015660
1169.021869	0.016326
1169.174765	0.014258
1169.327642	0.027350
1169.480501	0.028648
1169.633343	0.041642
1169.786165	0.037053
1169.938970	0.040342
1170.091757	0.036553
1170.244525	0.018652
1170.397275	0.015864
1170.550007	0.022287
1170.702720	0.023497
1170.855415	0.026964
1171.008092	0.025058
1171.160751	0.018701
1171.313392	0.015740
1171.466014	0.046860
1171.618619	-0.002321
1171.771205	-0.002321
1171.923772	-0.002321
