sample name	sample
index	608
start time	 03-19-2021  01:46:49 PM


Wavelength (nm)	Absorbance
494.344910	0.045107
494.563924	0.045107
494.782919	0.045107
495.001897	-0.056983
495.220856	0.058957
495.439797	0.094450
495.658719	0.100199
495.877624	0.210715
496.096510	0.154286
496.315378	0.176869
496.534227	0.206470
496.753059	0.081192
496.971872	0.077960
497.190667	0.015445
497.409444	0.011254
497.628203	0.011197
497.846943	0.010850
498.065665	0.010839
498.284369	0.010004
498.503055	0.010129
498.721723	0.009647
498.940372	0.009133
499.159003	0.009092
499.377616	0.008711
499.596210	0.008976
499.814787	0.008534
500.033345	0.009217
500.251885	0.009806
500.470406	0.009759
500.688910	0.010603
500.907395	0.010137
501.125862	0.010158
501.344311	0.010519
501.562742	0.010870
501.781154	0.011152
501.999548	0.009812
502.217924	0.009978
502.436282	0.009275
502.654621	0.009403
502.872942	0.010019
503.091245	0.010702
503.309530	0.010607
503.527797	0.009767
503.746045	0.010193
503.964275	0.011061
504.182487	0.011316
504.400681	0.012171
504.618856	0.012319
504.837013	0.012442
505.055152	0.011827
505.273273	0.011597
505.491376	0.011098
505.709460	0.011088
505.927526	0.011358
506.145574	0.010465
506.363604	0.010657
506.581615	0.010173
506.799608	0.010126
507.017583	0.009896
507.235540	0.009658
507.453478	0.010374
507.671399	0.009460
507.889301	0.009109
508.107185	0.009824
508.325050	0.009205
508.542898	0.008540
508.760727	0.008846
508.978538	0.008712
509.196330	0.009401
509.414105	0.009085
509.631861	0.009060
509.849599	0.009261
510.067319	0.008992
510.285021	0.009084
510.502704	0.009565
510.720369	0.009525
510.938016	0.009485
511.155645	0.008824
511.373255	0.008679
511.590848	0.008732
511.808422	0.007479
512.025977	0.006871
512.243515	0.006619
512.461034	0.006815
512.678536	0.005916
512.896018	0.006429
513.113483	0.006384
513.330930	0.006864
513.548358	0.006534
513.765768	0.007594
513.983160	0.007556
514.200533	0.007713
514.417889	0.007495
514.635226	0.007477
514.852545	0.006644
515.069845	0.006613
515.287128	0.005730
515.504392	0.006251
515.721638	0.005895
515.938866	0.005851
516.156075	0.005282
516.373267	0.004522
516.590440	0.005457
516.807594	0.005419
517.024731	0.005321
517.241850	0.005835
517.458950	0.005763
517.676032	0.005625
517.893095	0.005994
518.110141	0.005935
518.327168	0.006781
518.544177	0.005552
518.761168	0.006162
518.978141	0.006228
519.195095	0.005176
519.412031	0.005049
519.628949	0.004728
519.845849	0.004865
520.062731	0.005178
520.279594	0.005122
520.496439	0.005551
520.713266	0.005279
520.930074	0.005794
521.146865	0.006608
521.363637	0.006468
521.580391	0.006265
521.797127	0.006013
522.013844	0.006322
522.230543	0.005949
522.447224	0.006100
522.663887	0.005758
522.880532	0.004905
523.097158	0.004779
523.313766	0.005236
523.530356	0.004814
523.746928	0.004773
523.963481	0.004805
524.180017	0.004636
524.396534	0.004744
524.613032	0.004610
524.829513	0.005187
525.045975	0.005121
525.262420	0.004419
525.478845	0.004761
525.695253	0.004719
525.911643	0.004618
526.128014	0.004705
526.344367	0.004236
526.560702	0.004461
526.777018	0.004137
526.993316	0.004097
527.209597	0.004005
527.425858	0.004015
527.642102	0.004057
527.858328	0.004005
528.074535	0.003560
528.290724	0.003855
528.506894	0.003746
528.723047	0.003645
528.939181	0.003617
529.155297	0.003753
529.371395	0.004260
529.587475	0.004251
529.803536	0.003692
530.019579	0.003808
530.235604	0.003346
530.451611	0.003557
530.667600	0.003492
530.883570	0.003294
531.099522	0.003543
531.315456	0.003101
531.531372	0.002616
531.747269	0.002819
531.963148	0.003196
532.179009	0.003112
532.394852	0.002615
532.610676	0.002277
532.826482	0.002625
533.042271	0.002687
533.258040	0.002405
533.473792	0.002763
533.689525	0.002479
533.905240	0.002441
534.120937	0.003076
534.336616	0.003200
534.552277	0.003571
534.767919	0.003386
534.983543	0.002845
535.199149	0.003167
535.414736	0.003068
535.630306	0.003163
535.845857	0.003544
536.061390	0.002976
536.276904	0.003285
536.492401	0.002979
536.707879	0.002843
536.923339	0.003351
537.138781	0.002968
537.354204	0.002936
537.569610	0.003227
537.784997	0.002832
538.000366	0.002829
538.215716	0.002372
538.431049	0.002498
538.646363	0.002527
538.861659	0.002510
539.076937	0.002759
539.292196	0.002674
539.507438	0.002359
539.722661	0.002205
539.937866	0.002126
540.153052	0.002365
540.368221	0.002612
540.583371	0.002312
540.798503	0.002229
541.013617	0.002198
541.228712	0.002352
541.443789	0.002327
541.658848	0.002384
541.873889	0.002451
542.088912	0.002339
542.303916	0.002033
542.518902	0.002190
542.733870	0.001651
542.948820	0.001890
543.163752	0.001944
543.378665	0.002055
543.593560	0.001795
543.808437	0.002281
544.023295	0.002095
544.238136	0.002028
544.452958	0.002111
544.667762	0.002056
544.882548	0.001823
545.097315	0.001520
545.312064	0.001376
545.526795	0.001424
545.741508	0.001135
545.956203	0.001170
546.170879	0.001133
546.385537	0.000949
546.600177	0.000922
546.814799	0.001335
547.029402	0.001760
547.243988	0.001868
547.458555	0.001578
547.673103	0.001480
547.887634	0.001632
548.102146	0.001987
548.316640	0.002226
548.531116	0.002464
548.745574	0.002303
548.960013	0.001939
549.174435	0.002073
549.388838	0.002492
549.603222	0.002251
549.817589	0.001972
550.031937	0.001841
550.246267	0.001909
550.460579	0.001735
550.674873	0.001295
550.889148	0.001405
551.103405	0.001408
551.317644	0.001419
551.531865	0.001218
551.746068	0.001239
551.960252	0.001338
552.174418	0.000936
552.388566	0.000896
552.602696	0.000896
552.816807	0.000784
553.030900	0.000559
553.244975	0.000554
553.459032	0.000871
553.673070	0.001025
553.887091	0.000739
554.101093	0.001033
554.315077	0.001080
554.529042	0.001050
554.742990	0.000853
554.956919	0.000740
555.170830	0.000702
555.384722	0.000633
555.598597	0.000331
555.812453	0.000365
556.026291	0.000191
556.240111	0.000331
556.453913	0.000525
556.667696	0.000697
556.881461	0.000880
557.095208	0.000748
557.308937	0.000817
557.522647	0.000905
557.736339	0.000776
557.950013	0.001085
558.163669	0.000801
558.377307	0.000783
558.590926	0.000692
558.804527	0.000537
559.018110	0.000677
559.231675	0.000431
559.445221	0.000525
559.658749	0.000562
559.872259	0.000279
560.085751	0.000298
560.299225	0.000270
560.512680	0.000352
560.726117	0.000362
560.939536	0.000458
561.152937	0.000727
561.366319	0.000889
561.579683	0.000369
561.793029	0.000239
562.006357	0.000516
562.219667	0.000435
562.432958	0.000424
562.646231	0.000267
562.859486	0.000122
563.072723	-0.000096
563.285941	-0.000161
563.499141	0.000280
563.712323	0.000112
563.925487	-0.000025
564.138632	-0.000076
564.351760	-0.000127
564.564869	-0.000227
564.777960	-0.000359
564.991032	-0.000290
565.204087	-0.000472
565.417123	-0.000605
565.630141	-0.000413
565.843140	-0.000254
566.056122	-0.000569
566.269085	-0.000752
566.482030	-0.000635
566.694957	-0.000911
566.907866	-0.001168
567.120756	-0.001262
567.333628	-0.001212
567.546482	-0.001098
567.759318	-0.001377
567.972135	-0.001080
568.184935	-0.001060
568.397716	-0.001289
568.610478	-0.001051
568.823223	-0.000878
569.035949	-0.001061
569.248657	-0.001131
569.461347	-0.001518
569.674019	-0.001422
569.886672	-0.001490
570.099308	-0.001539
570.311925	-0.001330
570.524523	-0.001378
570.737104	-0.001150
570.949666	-0.000933
571.162210	-0.000951
571.374736	-0.000628
571.587244	-0.000712
571.799733	-0.000957
572.012205	-0.001042
572.224658	-0.001051
572.437092	-0.001185
572.649509	-0.001503
572.861907	-0.001754
573.074287	-0.001667
573.286649	-0.002020
573.498993	-0.001957
573.711318	-0.001928
573.923625	-0.002080
574.135914	-0.001923
574.348185	-0.001639
574.560438	-0.001589
574.772672	-0.001544
574.984888	-0.001378
575.197086	-0.001411
575.409266	-0.001520
575.621427	-0.001256
575.833570	-0.001367
576.045695	-0.001628
576.257802	-0.001991
576.469890	-0.002058
576.681961	-0.002157
576.894013	-0.002195
577.106046	-0.002040
577.318062	-0.002112
577.530059	-0.001989
577.742039	-0.001699
577.954000	-0.001534
578.165942	-0.001149
578.377867	-0.001136
578.589773	-0.000958
578.801661	-0.000790
579.013531	-0.000701
579.225382	-0.000627
579.437216	-0.000784
579.649031	-0.000643
579.860828	-0.000925
580.072606	-0.001032
580.284367	-0.000942
580.496109	-0.000807
580.707833	-0.001085
580.919539	-0.001234
581.131227	-0.001090
581.342896	-0.001243
581.554547	-0.001175
581.766180	-0.001199
581.977795	-0.001502
582.189391	-0.001627
582.400969	-0.001701
582.612529	-0.001613
582.824071	-0.001324
583.035595	-0.001325
583.247100	-0.001134
583.458587	-0.001202
583.670056	-0.000998
583.881506	-0.000912
584.092939	-0.000910
584.304353	-0.000815
584.515749	-0.001072
584.727127	-0.001424
584.938486	-0.001574
585.149828	-0.001935
585.361151	-0.002024
585.572456	-0.002092
585.783742	-0.002004
585.995011	-0.002132
586.206261	-0.002155
586.417493	-0.002303
586.628706	-0.002290
586.839902	-0.002242
587.051079	-0.002129
587.262238	-0.002236
587.473379	-0.002304
587.684502	-0.002373
587.895606	-0.002172
588.106692	-0.002270
588.317760	-0.002338
588.528810	-0.002314
588.739841	-0.002264
588.950855	-0.002283
589.161850	-0.002283
589.372827	-0.002105
589.583785	-0.002334
589.794726	-0.002356
590.005648	-0.002413
590.216552	-0.002303
590.427437	-0.002437
590.638305	-0.002596
590.849154	-0.002689
591.059985	-0.002706
591.270798	-0.002971
591.481592	-0.002704
591.692369	-0.002903
591.903127	-0.002968
592.113867	-0.003013
592.324588	-0.002616
592.535292	-0.002494
592.745977	-0.002277
592.956644	-0.002354
593.167293	-0.002380
593.377923	-0.002610
593.588536	-0.002532
593.799130	-0.002533
594.009706	-0.002430
594.220263	-0.002703
594.430803	-0.002896
594.641324	-0.003006
594.851827	-0.002836
595.062312	-0.002779
595.272778	-0.002569
595.483227	-0.002347
595.693657	-0.002220
595.904069	-0.002170
596.114462	-0.001960
596.324838	-0.001778
596.535195	-0.001732
596.745534	-0.001589
596.955855	-0.001587
597.166157	-0.001572
597.376441	-0.001756
597.586707	-0.001697
597.796955	-0.001632
598.007185	-0.001876
598.217396	-0.002002
598.427589	-0.002002
598.637764	-0.002370
598.847921	-0.002144
599.058060	-0.002355
599.268180	-0.002221
599.478282	-0.002297
599.688366	-0.002299
599.898431	-0.002137
600.108479	-0.002340
600.318508	-0.002153
600.528519	-0.001805
600.738511	-0.001805
600.948486	-0.001680
601.158442	-0.001849
601.368380	-0.001809
601.578300	-0.001853
601.788202	-0.001936
601.998085	-0.001776
602.207950	-0.002001
602.417797	-0.002069
602.627626	-0.002389
602.837436	-0.002326
603.047228	-0.002382
603.257002	-0.002754
603.466758	-0.002809
603.676496	-0.002617
603.886215	-0.002447
604.095916	-0.002472
604.305599	-0.002655
604.515264	-0.002404
604.724910	-0.002510
604.934538	-0.002526
605.144148	-0.002254
605.353740	-0.002377
605.563314	-0.002492
605.772869	-0.002760
605.982406	-0.002684
606.191925	-0.002809
606.401425	-0.002896
606.610908	-0.002706
606.820372	-0.002704
607.029818	-0.002699
607.239246	-0.002507
607.448655	-0.002699
607.658047	-0.002675
607.867420	-0.002787
608.076775	-0.002527
608.286111	-0.002642
608.495430	-0.002787
608.704730	-0.002715
608.914012	-0.002912
609.123275	-0.002888
609.332521	-0.002643
609.541748	-0.002586
609.750957	-0.002490
609.960148	-0.002515
610.169321	-0.002319
610.378475	-0.002476
610.587611	-0.002461
610.796729	-0.002464
611.005829	-0.002636
611.214910	-0.002835
611.423974	-0.002889
611.633019	-0.003022
611.842045	-0.003190
612.051054	-0.003323
612.260044	-0.003007
612.469017	-0.003245
612.677970	-0.003187
612.886906	-0.003249
613.095824	-0.003430
613.304723	-0.003463
613.513604	-0.003551
613.722467	-0.003509
613.931311	-0.003487
614.140138	-0.003883
614.348946	-0.003792
614.557736	-0.003839
614.766507	-0.003621
614.975261	-0.003317
615.183996	-0.003301
615.392713	-0.003253
615.601412	-0.003139
615.810092	-0.003107
616.018754	-0.002906
616.227399	-0.002896
616.436024	-0.002748
616.644632	-0.002794
616.853222	-0.002917
617.061793	-0.002854
617.270346	-0.002888
617.478880	-0.002880
617.687397	-0.002750
617.895895	-0.002639
618.104375	-0.002728
618.312837	-0.002729
618.521281	-0.002764
618.729706	-0.002711
618.938113	-0.002871
619.146502	-0.002718
619.354873	-0.002815
619.563226	-0.003233
619.771560	-0.003306
619.979876	-0.003395
620.188174	-0.003424
620.396453	-0.003717
620.604715	-0.003934
620.812958	-0.003693
621.021183	-0.003934
621.229390	-0.004031
621.437578	-0.003857
621.645748	-0.003959
621.853900	-0.003805
622.062034	-0.003926
622.270150	-0.003559
622.478247	-0.003408
622.686326	-0.003668
622.894387	-0.003629
623.102430	-0.003637
623.310454	-0.003640
623.518461	-0.003601
623.726449	-0.003491
623.934418	-0.003324
624.142370	-0.003313
624.350303	-0.003431
624.558218	-0.003320
624.766115	-0.003220
624.973994	-0.003223
625.181855	-0.003333
625.389697	-0.003448
625.597521	-0.003649
625.805327	-0.003618
626.013114	-0.003628
626.220883	-0.003678
626.428634	-0.003761
626.636367	-0.003809
626.844082	-0.003591
627.051778	-0.003472
627.259457	-0.003419
627.467117	-0.003163
627.674758	-0.003257
627.882382	-0.003359
628.089987	-0.003198
628.297574	-0.003106
628.505143	-0.002922
628.712694	-0.003098
628.920226	-0.002918
629.127740	-0.002894
629.335236	-0.003163
629.542714	-0.003062
629.750174	-0.003057
629.957615	-0.002955
630.165038	-0.002944
630.372443	-0.003001
630.579829	-0.003007
630.787198	-0.003046
630.994548	-0.003018
631.201880	-0.002742
631.409194	-0.002787
631.616489	-0.002839
631.823766	-0.003062
632.031025	-0.003090
632.238266	-0.003214
632.445489	-0.003257
632.652693	-0.003488
632.859879	-0.003524
633.067047	-0.003632
633.274197	-0.003665
633.481329	-0.003611
633.688442	-0.003542
633.895537	-0.003454
634.102614	-0.003383
634.309672	-0.003254
634.516713	-0.003171
634.723735	-0.003174
634.930739	-0.003172
635.137724	-0.003183
635.344692	-0.003338
635.551641	-0.003176
635.758572	-0.003341
635.965485	-0.003452
636.172379	-0.003547
636.379256	-0.003718
636.586114	-0.003759
636.792954	-0.003857
636.999775	-0.003920
637.206579	-0.003785
637.413364	-0.003854
637.620131	-0.003769
637.826880	-0.003617
638.033610	-0.003713
638.240323	-0.003547
638.447017	-0.003497
638.653692	-0.003429
638.860350	-0.003261
639.066990	-0.003233
639.273611	-0.003291
639.480214	-0.003205
639.686798	-0.003203
639.893365	-0.003214
640.099913	-0.003110
640.306443	-0.003106
640.512955	-0.003061
640.719449	-0.003261
640.925924	-0.003191
641.132381	-0.003150
641.338820	-0.003452
641.545241	-0.003523
641.751644	-0.003417
641.958028	-0.003609
642.164394	-0.003658
642.370742	-0.003830
642.577071	-0.003854
642.783383	-0.004023
642.989676	-0.004229
643.195951	-0.003969
643.402207	-0.003975
643.608446	-0.004071
643.814666	-0.003891
644.020868	-0.003744
644.227052	-0.003644
644.433218	-0.003626
644.639365	-0.003630
644.845494	-0.003483
645.051605	-0.003592
645.257698	-0.003591
645.463772	-0.003570
645.669828	-0.003691
645.875866	-0.003828
646.081886	-0.003872
646.287888	-0.003713
646.493871	-0.003659
646.699836	-0.003653
646.905783	-0.003603
647.111712	-0.003676
647.317622	-0.003572
647.523514	-0.003482
647.729388	-0.003475
647.935244	-0.003369
648.141082	-0.003589
648.346901	-0.003609
648.552702	-0.003688
648.758485	-0.003689
648.964250	-0.003659
649.169996	-0.003632
649.375724	-0.003661
649.581434	-0.003749
649.787126	-0.003749
649.992800	-0.003587
650.198455	-0.003504
650.404092	-0.003469
650.609711	-0.003470
650.815311	-0.003517
651.020894	-0.003592
651.226458	-0.003608
651.432004	-0.003530
651.637532	-0.003464
651.843041	-0.003482
652.048532	-0.003497
652.254006	-0.003420
652.459460	-0.003342
652.664897	-0.003232
652.870315	-0.002952
653.075716	-0.003012
653.281097	-0.003095
653.486461	-0.003135
653.691807	-0.003161
653.897134	-0.003203
654.102443	-0.003140
654.307734	-0.003350
654.513006	-0.003446
654.718261	-0.003693
654.923497	-0.003551
655.128715	-0.003393
655.333915	-0.003434
655.539096	-0.003327
655.744259	-0.003365
655.949404	-0.003576
656.154531	-0.003453
656.359640	-0.003288
656.564730	-0.003383
656.769802	-0.003353
656.974856	-0.003544
657.179892	-0.003483
657.384909	-0.003554
657.589908	-0.003522
657.794889	-0.003334
657.999852	-0.003252
658.204797	-0.003254
658.409723	-0.003312
658.614631	-0.003435
658.819521	-0.003351
659.024393	-0.003429
659.229246	-0.003455
659.434081	-0.003520
659.638898	-0.003528
659.843697	-0.003672
660.048478	-0.003713
660.253240	-0.003487
660.457984	-0.003393
660.662710	-0.003315
660.867417	-0.003321
661.072107	-0.003298
661.276778	-0.003153
661.481431	-0.003261
661.686066	-0.003277
661.890682	-0.003368
662.095281	-0.003485
662.299861	-0.003620
662.504422	-0.003589
662.708966	-0.003629
662.913491	-0.003623
663.117999	-0.003605
663.322488	-0.003557
663.526958	-0.003449
663.731411	-0.003408
663.935845	-0.003365
664.140261	-0.003219
664.344659	-0.003301
664.549038	-0.003149
664.753400	-0.003183
664.957743	-0.003385
665.162068	-0.003385
665.366375	-0.003422
665.570663	-0.003452
665.774933	-0.003582
665.979185	-0.003656
666.183419	-0.003665
666.387635	-0.003981
666.591832	-0.004016
666.796011	-0.003919
667.000172	-0.004002
667.204315	-0.004046
667.408439	-0.004091
667.612545	-0.004040
667.816634	-0.003966
668.020703	-0.003920
668.224755	-0.003682
668.428788	-0.003655
668.632803	-0.003687
668.836800	-0.003783
669.040779	-0.003830
669.244739	-0.003655
669.448681	-0.003554
669.652605	-0.003550
669.856511	-0.003597
670.060399	-0.003584
670.264268	-0.003618
670.468119	-0.003577
670.671952	-0.003325
670.875767	-0.003185
671.079563	-0.003310
671.283341	-0.003305
671.487101	-0.003258
671.690843	-0.003214
671.894567	-0.003242
672.098272	-0.003139
672.301959	-0.003134
672.505628	-0.003093
672.709278	-0.003070
672.912911	-0.003009
673.116525	-0.002986
673.320121	-0.003062
673.523699	-0.003026
673.727258	-0.003085
673.930799	-0.003090
674.134322	-0.003091
674.337827	-0.003200
674.541314	-0.003334
674.744782	-0.003370
674.948232	-0.003517
675.151664	-0.003588
675.355078	-0.003552
675.558474	-0.003553
675.761851	-0.003749
675.965210	-0.003764
676.168551	-0.003806
676.371873	-0.003761
676.575178	-0.003810
676.778464	-0.003693
676.981732	-0.003633
677.184981	-0.003682
677.388213	-0.003611
677.591426	-0.003485
677.794621	-0.003452
677.997798	-0.003308
678.200956	-0.003162
678.404097	-0.003048
678.607219	-0.003170
678.810323	-0.003248
679.013408	-0.003375
679.216476	-0.003424
679.419525	-0.003268
679.622556	-0.003236
679.825569	-0.003356
680.028563	-0.003470
680.231540	-0.003512
680.434498	-0.003267
680.637438	-0.003270
680.840359	-0.003139
681.043263	-0.003043
681.246148	-0.003105
681.449015	-0.002997
681.651864	-0.003029
681.854694	-0.003036
682.057506	-0.003084
682.260301	-0.003133
682.463076	-0.003095
682.665834	-0.003169
682.868573	-0.003316
683.071295	-0.003397
683.273998	-0.003583
683.476682	-0.003573
683.679349	-0.003494
683.881997	-0.003426
684.084627	-0.003525
684.287239	-0.003609
684.489833	-0.003458
684.692408	-0.003346
684.894965	-0.003240
685.097504	-0.003142
685.300025	-0.003045
685.502527	-0.003119
685.705012	-0.003138
685.907478	-0.003007
686.109925	-0.002873
686.312355	-0.003037
686.514766	-0.003022
686.717159	-0.003137
686.919534	-0.003283
687.121891	-0.003331
687.324230	-0.003267
687.526550	-0.003162
687.728852	-0.003431
687.931136	-0.003463
688.133401	-0.003376
688.335649	-0.003450
688.537878	-0.003388
688.740089	-0.003327
688.942281	-0.003285
689.144456	-0.003371
689.346612	-0.003449
689.548750	-0.003236
689.750870	-0.003165
689.952971	-0.003174
690.155055	-0.003099
690.357120	-0.003070
690.559167	-0.003125
690.761195	-0.003135
690.963206	-0.003007
691.165198	-0.002973
691.367172	-0.003063
691.569128	-0.003090
691.771065	-0.003118
691.972984	-0.003085
692.174885	-0.003116
692.376768	-0.003043
692.578633	-0.003093
692.780479	-0.003136
692.982308	-0.003190
693.184118	-0.003154
693.385909	-0.003260
693.587683	-0.003239
693.789438	-0.003326
693.991175	-0.003393
694.192894	-0.003299
694.394595	-0.003222
694.596277	-0.003226
694.797941	-0.003194
694.999587	-0.003155
695.201215	-0.003167
695.402824	-0.003192
695.604416	-0.003206
695.805989	-0.003106
696.007543	-0.003147
696.209080	-0.003186
696.410598	-0.003198
696.612099	-0.003251
696.813580	-0.003290
697.015044	-0.003246
697.216490	-0.003339
697.417917	-0.003427
697.619326	-0.003561
697.820717	-0.003773
698.022089	-0.003848
698.223444	-0.003891
698.424780	-0.003891
698.626098	-0.003882
698.827397	-0.003961
699.028679	-0.003875
699.229942	-0.003762
699.431187	-0.003726
699.632414	-0.003624
699.833622	-0.003581
700.034813	-0.003529
700.235985	-0.003415
700.437139	-0.003365
700.638274	-0.003175
700.839392	-0.003178
701.040491	-0.003192
701.241572	-0.003229
701.442635	-0.003225
701.643679	-0.003180
701.844706	-0.003332
702.045714	-0.003502
702.246704	-0.003612
702.447675	-0.003734
702.648629	-0.003661
702.849564	-0.003638
703.050481	-0.003598
703.251380	-0.003558
703.452260	-0.003557
703.653122	-0.003390
703.853966	-0.003192
704.054792	-0.003219
704.255600	-0.003260
704.456389	-0.003189
704.657160	-0.003323
704.857913	-0.003257
705.058648	-0.003355
705.259365	-0.003510
705.460063	-0.003689
705.660743	-0.003744
705.861405	-0.003617
706.062048	-0.003655
706.262674	-0.003783
706.463281	-0.003765
706.663870	-0.003804
706.864441	-0.003708
707.064993	-0.003649
707.265527	-0.003526
707.466043	-0.003606
707.666541	-0.003692
707.867021	-0.003602
708.067482	-0.003573
708.267925	-0.003390
708.468350	-0.003436
708.668757	-0.003518
708.869145	-0.003486
709.069516	-0.003524
709.269868	-0.003590
709.470201	-0.003551
709.670517	-0.003543
709.870814	-0.003574
710.071093	-0.003622
710.271354	-0.003449
710.471597	-0.003413
710.671821	-0.003411
710.872028	-0.003404
711.072216	-0.003355
711.272385	-0.003370
711.472537	-0.003409
711.672670	-0.003465
711.872785	-0.003558
712.072882	-0.003805
712.272961	-0.003732
712.473021	-0.003746
712.673063	-0.003712
712.873087	-0.003642
713.073093	-0.003778
713.273081	-0.003776
713.473050	-0.003773
713.673001	-0.003735
713.872934	-0.003634
714.072849	-0.003737
714.272745	-0.003671
714.472623	-0.003735
714.672483	-0.003783
714.872325	-0.003689
715.072148	-0.003693
715.271954	-0.003696
715.471741	-0.003666
715.671509	-0.003645
715.871260	-0.003679
716.070992	-0.003794
716.270707	-0.003786
716.470403	-0.003922
716.670080	-0.003962
716.869740	-0.004002
717.069381	-0.003946
717.269004	-0.004096
717.468609	-0.004126
717.668195	-0.004051
717.867764	-0.003973
718.067314	-0.003907
718.266846	-0.003835
718.466360	-0.003764
718.665855	-0.003744
718.865332	-0.003828
719.064791	-0.003835
719.264232	-0.003964
719.463655	-0.004065
719.663059	-0.004196
719.862445	-0.004391
720.061813	-0.004410
720.261163	-0.004601
720.460494	-0.004641
720.659807	-0.004597
720.859102	-0.004605
721.058379	-0.004565
721.257638	-0.004488
721.456878	-0.004511
721.656100	-0.004402
721.855304	-0.004361
722.054490	-0.004280
722.253657	-0.004202
722.452806	-0.004184
722.651937	-0.004308
722.851050	-0.004252
723.050145	-0.004311
723.249221	-0.004285
723.448279	-0.004254
723.647319	-0.004434
723.846340	-0.004506
724.045344	-0.004611
724.244329	-0.004625
724.443296	-0.004362
724.642245	-0.004489
724.841175	-0.004526
725.040088	-0.004500
725.238982	-0.004729
725.437857	-0.004600
725.636715	-0.004466
725.835554	-0.004524
726.034376	-0.004672
726.233179	-0.004897
726.431963	-0.004856
726.630730	-0.004869
726.829478	-0.004871
727.028208	-0.004745
727.226920	-0.004883
727.425614	-0.005054
727.624289	-0.005025
727.822946	-0.005056
728.021585	-0.005003
728.220206	-0.005080
728.418808	-0.005094
728.617392	-0.005166
728.815958	-0.005139
729.014506	-0.005171
729.213036	-0.005058
729.411547	-0.005112
729.610040	-0.005056
729.808515	-0.004954
730.006972	-0.004863
730.205410	-0.004798
730.403831	-0.004816
730.602233	-0.004919
730.800616	-0.004770
730.998982	-0.004945
731.197329	-0.005018
731.395658	-0.005021
731.593969	-0.005279
731.792262	-0.005296
731.990536	-0.005428
732.188793	-0.005473
732.387031	-0.005446
732.585250	-0.005490
732.783452	-0.005444
732.981635	-0.005378
733.179800	-0.005413
733.377947	-0.005240
733.576076	-0.005334
733.774186	-0.005216
733.972278	-0.005237
734.170352	-0.005269
734.368408	-0.005279
734.566446	-0.005265
734.764465	-0.005218
734.962466	-0.005366
735.160449	-0.005391
735.358413	-0.005499
735.556360	-0.005575
735.754288	-0.005558
735.952198	-0.005606
736.150090	-0.005688
736.347963	-0.005743
736.545818	-0.005788
736.743655	-0.005742
736.941474	-0.005815
737.139275	-0.005773
737.337057	-0.005965
737.534821	-0.005957
737.732567	-0.005998
737.930295	-0.005992
738.128005	-0.005980
738.325696	-0.006059
738.523369	-0.005886
738.721024	-0.005929
738.918660	-0.005856
739.116279	-0.005704
739.313879	-0.005683
739.511461	-0.005795
739.709024	-0.005762
739.906570	-0.005696
740.104097	-0.005706
740.301606	-0.005795
740.499097	-0.005727
740.696569	-0.005696
740.894024	-0.005731
741.091460	-0.005782
741.288878	-0.005610
741.486277	-0.005703
741.683659	-0.005759
741.881022	-0.005758
742.078367	-0.005700
742.275694	-0.005759
742.473002	-0.005891
742.670293	-0.005862
742.867565	-0.005835
743.064819	-0.005655
743.262054	-0.005587
743.459272	-0.005551
743.656471	-0.005414
743.853652	-0.005412
744.050815	-0.005213
744.247959	-0.005136
744.445085	-0.004994
744.642194	-0.005002
744.839283	-0.005164
745.036355	-0.005128
745.233408	-0.005161
745.430444	-0.005265
745.627461	-0.005327
745.824459	-0.005548
746.021440	-0.005546
746.218402	-0.005633
746.415346	-0.005749
746.612272	-0.005784
746.809180	-0.005704
747.006069	-0.005557
747.202940	-0.005488
747.399793	-0.005466
747.596628	-0.005384
747.793444	-0.005378
747.990243	-0.005318
748.187023	-0.005180
748.383784	-0.005036
748.580528	-0.005102
748.777253	-0.005166
748.973960	-0.005020
749.170649	-0.005007
749.367320	-0.005108
749.563973	-0.005060
749.760607	-0.005290
749.957223	-0.005349
750.153821	-0.005461
750.350400	-0.005465
750.546962	-0.005396
750.743505	-0.005482
750.940030	-0.005289
751.136536	-0.005087
751.333025	-0.005035
751.529495	-0.004937
751.725947	-0.004733
751.922381	-0.004691
752.118796	-0.004720
752.315194	-0.004721
752.511573	-0.004826
752.707934	-0.005014
752.904276	-0.004978
753.100601	-0.005012
753.296907	-0.005013
753.493195	-0.005044
753.689465	-0.005079
753.885716	-0.005045
754.081949	-0.005193
754.278164	-0.005116
754.474361	-0.005094
754.670540	-0.005214
754.866700	-0.005155
755.062843	-0.005090
755.258967	-0.005231
755.455072	-0.005047
755.651160	-0.005058
755.847229	-0.004982
756.043280	-0.004862
756.239313	-0.004814
756.435328	-0.004827
756.631324	-0.004931
756.827302	-0.004938
757.023262	-0.004878
757.219204	-0.005058
757.415127	-0.004950
757.611033	-0.005041
757.806920	-0.005123
758.002788	-0.005317
758.198639	-0.005323
758.394471	-0.005347
758.590286	-0.005319
758.786081	-0.005361
758.981859	-0.005278
759.177619	-0.005425
759.373360	-0.005171
759.569083	-0.005284
759.764788	-0.004962
759.960474	-0.004870
760.156143	-0.004891
760.351793	-0.004818
760.547425	-0.004775
760.743038	-0.004830
760.938634	-0.004666
761.134211	-0.004739
761.329770	-0.004517
761.525311	-0.004660
761.720833	-0.004750
761.916338	-0.004701
762.111824	-0.004675
762.307292	-0.004556
762.502741	-0.004475
762.698173	-0.004660
762.893586	-0.004633
763.088981	-0.004762
763.284358	-0.004708
763.479716	-0.004626
763.675057	-0.004713
763.870379	-0.004722
764.065683	-0.004851
764.260968	-0.004817
764.456236	-0.004641
764.651485	-0.004865
764.846716	-0.005004
765.041929	-0.005047
765.237123	-0.005097
765.432299	-0.004895
765.627457	-0.004979
765.822597	-0.004912
766.017719	-0.004862
766.212822	-0.004902
766.407907	-0.004723
766.602974	-0.004629
766.798023	-0.004798
766.993054	-0.004860
767.188066	-0.004932
767.383060	-0.004768
767.578036	-0.004845
767.772993	-0.004974
767.967933	-0.004990
768.162854	-0.005044
768.357757	-0.004938
768.552642	-0.004655
768.747508	-0.004525
768.942356	-0.004429
769.137186	-0.004543
769.331998	-0.004358
769.526792	-0.004304
769.721567	-0.004318
769.916324	-0.004307
770.111063	-0.004334
770.305784	-0.004425
770.500486	-0.004507
770.695171	-0.004529
770.889837	-0.004570
771.084484	-0.004579
771.279114	-0.004395
771.473725	-0.004437
771.668318	-0.004447
771.862893	-0.004439
772.057450	-0.004572
772.251988	-0.004469
772.446509	-0.004345
772.641011	-0.004395
772.835494	-0.004351
773.029960	-0.004608
773.224407	-0.004474
773.418836	-0.004302
773.613247	-0.004151
773.807640	-0.004053
774.002014	-0.004029
774.196370	-0.004134
774.390708	-0.004000
774.585028	-0.004014
774.779330	-0.004017
774.973613	-0.003873
775.167878	-0.003932
775.362125	-0.004029
775.556354	-0.003885
775.750564	-0.003959
775.944756	-0.003896
776.138930	-0.003828
776.333086	-0.003984
776.527223	-0.003955
776.721343	-0.004159
776.915444	-0.004175
777.109526	-0.004237
777.303591	-0.004254
777.497637	-0.003993
777.691666	-0.003922
777.885676	-0.003900
778.079667	-0.003869
778.273641	-0.003734
778.467596	-0.003594
778.661533	-0.003552
778.855452	-0.003592
779.049352	-0.003519
779.243235	-0.003655
779.437099	-0.003773
779.630945	-0.003828
779.824773	-0.003908
780.018582	-0.003900
780.212373	-0.003943
780.406146	-0.004047
780.599901	-0.004035
780.793638	-0.004226
780.987356	-0.004219
781.181056	-0.004154
781.374738	-0.004073
781.568402	-0.003894
781.762047	-0.003938
781.955674	-0.003897
782.149283	-0.003913
782.342874	-0.004087
782.536447	-0.004109
782.730001	-0.004123
782.923537	-0.004215
783.117055	-0.004297
783.310555	-0.004250
783.504036	-0.004191
783.697499	-0.004193
783.890944	-0.004107
784.084371	-0.003856
784.277780	-0.003761
784.471170	-0.003733
784.664542	-0.003722
784.857896	-0.003770
785.051231	-0.003772
785.244549	-0.003763
785.437848	-0.003717
785.631129	-0.003738
785.824392	-0.003724
786.017636	-0.003736
786.210863	-0.003886
786.404071	-0.003783
786.597260	-0.003653
786.790432	-0.003695
786.983585	-0.003752
787.176721	-0.003856
787.369838	-0.003823
787.562936	-0.003656
787.756017	-0.003551
787.949079	-0.003553
788.142123	-0.003582
788.335149	-0.003585
788.528156	-0.003501
788.721146	-0.003529
788.914117	-0.003518
789.107070	-0.003537
789.300005	-0.003713
789.492921	-0.003776
789.685819	-0.003644
789.878699	-0.003680
790.071561	-0.003652
790.264405	-0.003841
790.457230	-0.003815
790.650037	-0.003844
790.842826	-0.003752
791.035597	-0.003835
791.228349	-0.004023
791.421084	-0.004083
791.613800	-0.003943
791.806497	-0.003962
791.999177	-0.003839
792.191838	-0.003866
792.384481	-0.003788
792.577106	-0.003988
792.769713	-0.004071
792.962301	-0.003821
793.154871	-0.003700
793.347423	-0.003842
793.539957	-0.003858
793.732473	-0.003758
793.924970	-0.003705
794.117449	-0.003764
794.309910	-0.003595
794.502353	-0.003450
794.694777	-0.003564
794.887183	-0.003783
795.079571	-0.003782
795.271941	-0.003808
795.464293	-0.004183
795.656626	-0.004164
795.848941	-0.004211
796.041238	-0.004352
796.233516	-0.004358
796.425777	-0.004172
796.618019	-0.004022
796.810243	-0.003973
797.002449	-0.004099
797.194636	-0.003813
797.386805	-0.003726
797.578956	-0.003519
797.771089	-0.003452
797.963204	-0.003398
798.155300	-0.003476
798.347378	-0.003415
798.539438	-0.003588
798.731480	-0.003599
798.923503	-0.003572
799.115509	-0.003653
799.307496	-0.003722
799.499465	-0.003707
799.691415	-0.003741
799.883348	-0.003902
800.075262	-0.004003
800.267158	-0.003846
800.459035	-0.003805
800.650895	-0.004001
800.842736	-0.004003
801.034559	-0.004028
801.226364	-0.004074
801.418150	-0.004084
801.609919	-0.003956
801.801669	-0.003908
801.993401	-0.003943
802.185114	-0.003887
802.376810	-0.003817
802.568487	-0.003782
802.760146	-0.003801
802.951787	-0.003749
803.143409	-0.003809
803.335014	-0.003821
803.526600	-0.003880
803.718168	-0.003929
803.909717	-0.004037
804.101249	-0.004032
804.292762	-0.004065
804.484257	-0.003957
804.675734	-0.003959
804.867192	-0.003983
805.058632	-0.003909
805.250054	-0.003838
805.441458	-0.003743
805.632844	-0.003561
805.824211	-0.003464
806.015561	-0.003602
806.206891	-0.003722
806.398204	-0.003776
806.589499	-0.003640
806.780775	-0.003647
806.972033	-0.003612
807.163273	-0.003538
807.354495	-0.003517
807.545698	-0.003407
807.736883	-0.003237
807.928050	-0.003244
808.119199	-0.003036
808.310329	-0.002964
808.501441	-0.003061
808.692535	-0.003087
808.883611	-0.002969
809.074669	-0.003012
809.265708	-0.003019
809.456729	-0.003025
809.647732	-0.003002
809.838717	-0.003164
810.029683	-0.003194
810.220632	-0.003163
810.411562	-0.003237
810.602474	-0.003508
810.793367	-0.003426
810.984242	-0.003472
811.175100	-0.003613
811.365938	-0.003647
811.556759	-0.003584
811.747562	-0.003369
811.938346	-0.003467
812.129112	-0.003219
812.319860	-0.003119
812.510589	-0.003245
812.701300	-0.003189
812.891994	-0.003161
813.082668	-0.003125
813.273325	-0.003143
813.463964	-0.003425
813.654584	-0.003334
813.845186	-0.003434
814.035769	-0.003487
814.226335	-0.003574
814.416882	-0.003821
814.607411	-0.003655
814.797922	-0.003764
814.988415	-0.003650
815.178889	-0.003595
815.369345	-0.003565
815.559783	-0.003531
815.750203	-0.003504
815.940605	-0.003300
816.130988	-0.003142
816.321353	-0.003207
816.511700	-0.003105
816.702028	-0.003135
816.892339	-0.002944
817.082631	-0.003023
817.272905	-0.003062
817.463161	-0.002982
817.653398	-0.003043
817.843617	-0.003190
818.033819	-0.003229
818.224001	-0.003256
818.414166	-0.003447
818.604312	-0.003764
818.794440	-0.003807
818.984550	-0.003994
819.174642	-0.004209
819.364716	-0.004184
819.554771	-0.004147
819.744808	-0.004153
819.934827	-0.004093
820.124827	-0.004022
820.314810	-0.004059
820.504774	-0.004036
820.694720	-0.004078
820.884647	-0.004012
821.074557	-0.004133
821.264448	-0.004109
821.454321	-0.004153
821.644176	-0.004333
821.834012	-0.004328
822.023831	-0.004347
822.213631	-0.004239
822.403413	-0.004259
822.593176	-0.004333
822.782922	-0.004479
822.972649	-0.004520
823.162358	-0.004558
823.352049	-0.004491
823.541721	-0.004545
823.731376	-0.004422
823.921012	-0.004491
824.110629	-0.004358
824.300229	-0.004388
824.489811	-0.004166
824.679374	-0.004294
824.868919	-0.004113
825.058445	-0.004170
825.247954	-0.004291
825.437444	-0.004286
825.626916	-0.004498
825.816370	-0.004548
826.005806	-0.004443
826.195223	-0.004499
826.384622	-0.004271
826.574003	-0.004437
826.763366	-0.004315
826.952711	-0.004207
827.142037	-0.004258
827.331345	-0.004085
827.520635	-0.004013
827.709906	-0.004184
827.899160	-0.004069
828.088395	-0.004166
828.277612	-0.004113
828.466810	-0.004237
828.655991	-0.004265
828.845153	-0.004283
829.034297	-0.004379
829.223423	-0.004330
829.412531	-0.004320
829.601620	-0.004497
829.790691	-0.004684
829.979744	-0.004792
830.168779	-0.004823
830.357795	-0.004898
830.546793	-0.004958
830.735773	-0.004844
830.924735	-0.005021
831.113679	-0.004952
831.302604	-0.004907
831.491511	-0.004940
831.680400	-0.004993
831.869271	-0.004775
832.058123	-0.004868
832.246957	-0.004762
832.435773	-0.004663
832.624571	-0.004836
832.813351	-0.004783
833.002112	-0.004964
833.190855	-0.004676
833.379580	-0.004543
833.568287	-0.004771
833.756975	-0.004718
833.945645	-0.004635
834.134297	-0.004809
834.322931	-0.004728
834.511547	-0.004802
834.700144	-0.004727
834.888723	-0.004862
835.077284	-0.004991
835.265826	-0.004911
835.454351	-0.004878
835.642857	-0.005110
835.831345	-0.005369
836.019815	-0.005520
836.208266	-0.005573
836.396699	-0.005586
836.585114	-0.005739
836.773511	-0.005703
836.961890	-0.005812
837.150250	-0.005718
837.338592	-0.005635
837.526916	-0.005426
837.715222	-0.005319
837.903510	-0.005157
838.091779	-0.005150
838.280030	-0.004694
838.468263	-0.004624
838.656477	-0.004665
838.844674	-0.004526
839.032852	-0.004593
839.221012	-0.004724
839.409153	-0.004781
839.597277	-0.004790
839.785382	-0.004771
839.973469	-0.005143
840.161538	-0.005053
840.349589	-0.005195
840.537621	-0.005294
840.725635	-0.005468
840.913631	-0.005297
841.101609	-0.005068
841.289568	-0.005234
841.477509	-0.005018
841.665432	-0.004898
841.853337	-0.005205
842.041224	-0.005133
842.229092	-0.005192
842.416942	-0.005009
842.604774	-0.004901
842.792588	-0.004743
842.980383	-0.004674
843.168160	-0.004849
843.355919	-0.004669
843.543660	-0.004430
843.731382	-0.004344
843.919087	-0.004451
844.106773	-0.004396
844.294441	-0.004561
844.482090	-0.004685
844.669722	-0.004675
844.857335	-0.004601
845.044930	-0.004830
845.232507	-0.005039
845.420065	-0.005145
845.607605	-0.005164
845.795127	-0.005399
845.982631	-0.005519
846.170117	-0.005729
846.357584	-0.005782
846.545033	-0.005854
846.732464	-0.005870
846.919877	-0.005861
847.107272	-0.005730
847.294648	-0.005796
847.482006	-0.005704
847.669346	-0.005624
847.856667	-0.005653
848.043971	-0.005676
848.231256	-0.005827
848.418523	-0.005722
848.605771	-0.005639
848.793002	-0.005648
848.980214	-0.005613
849.167408	-0.005540
849.354584	-0.005515
849.541742	-0.005338
849.728881	-0.005355
849.916002	-0.005301
850.103105	-0.005371
850.290190	-0.005394
850.477256	-0.005218
850.664304	-0.004989
850.851334	-0.005129
851.038346	-0.005043
851.225340	-0.005077
851.412315	-0.004968
851.599272	-0.004915
851.786211	-0.004886
851.973132	-0.004813
852.160034	-0.004760
852.346918	-0.004836
852.533784	-0.004645
852.720632	-0.004621
852.907462	-0.004633
853.094273	-0.004669
853.281066	-0.004610
853.467841	-0.004732
853.654598	-0.004817
853.841336	-0.005075
854.028056	-0.005154
854.214758	-0.005053
854.401442	-0.005106
854.588107	-0.004819
854.774755	-0.004545
854.961384	-0.004673
855.147995	-0.004571
855.334587	-0.004499
855.521162	-0.004420
855.707718	-0.004355
855.894256	-0.004391
856.080775	-0.004231
856.267277	-0.004560
856.453760	-0.004722
856.640225	-0.004607
856.826672	-0.004621
857.013101	-0.004580
857.199511	-0.004524
857.385903	-0.004528
857.572277	-0.004412
857.758633	-0.004566
857.944970	-0.004289
858.131290	-0.004401
858.317591	-0.004620
858.503873	-0.004561
858.690138	-0.004632
858.876384	-0.004703
859.062612	-0.004487
859.248822	-0.004571
859.435014	-0.004596
859.621188	-0.004739
859.807343	-0.004536
859.993480	-0.004396
860.179599	-0.004424
860.365699	-0.004472
860.551781	-0.004220
860.737846	-0.004241
860.923891	-0.004228
861.109919	-0.004421
861.295929	-0.004432
861.481920	-0.004733
861.667893	-0.004780
861.853848	-0.004890
862.039784	-0.004593
862.225702	-0.004807
862.411603	-0.004911
862.597484	-0.004850
862.783348	-0.004415
862.969193	-0.004366
863.155021	-0.004187
863.340830	-0.003932
863.526620	-0.003787
863.712393	-0.004005
863.898147	-0.003909
864.083883	-0.003897
864.269601	-0.003810
864.455301	-0.004056
864.640982	-0.004197
864.826645	-0.004138
865.012290	-0.004186
865.197917	-0.004373
865.383526	-0.004341
865.569116	-0.004397
865.754688	-0.004549
865.940242	-0.004936
866.125777	-0.004835
866.311295	-0.004490
866.496794	-0.004381
866.682275	-0.004545
866.867737	-0.004231
867.053182	-0.004312
867.238608	-0.004216
867.424016	-0.004079
867.609406	-0.003973
867.794778	-0.004063
867.980131	-0.004210
868.165466	-0.004274
868.350783	-0.004158
868.536082	-0.004186
868.721362	-0.004172
868.906625	-0.004254
869.091869	-0.004086
869.277094	-0.003733
869.462302	-0.003725
869.647491	-0.003735
869.832662	-0.003643
870.017815	-0.003617
870.202950	-0.003637
870.388066	-0.003481
870.573165	-0.003151
870.758245	-0.003255
870.943306	-0.003504
871.128350	-0.003318
871.313375	-0.003369
871.498382	-0.003544
871.683371	-0.003275
871.868342	-0.003301
872.053294	-0.003550
872.238229	-0.003742
872.423144	-0.003807
872.608042	-0.003697
872.792922	-0.003766
872.977783	-0.003657
873.162626	-0.003369
873.347451	-0.003667
873.532258	-0.003656
873.717046	-0.003356
873.901816	-0.003535
874.086568	-0.003455
874.271302	-0.003434
874.456017	-0.003392
874.640715	-0.003322
874.825394	-0.003426
875.010055	-0.003434
875.194697	-0.003165
875.379322	-0.003209
875.563928	-0.003281
875.748516	-0.003176
875.933085	-0.003335
876.117637	-0.003311
876.302170	-0.003517
876.486685	-0.003759
876.671182	-0.003654
876.855661	-0.003990
877.040121	-0.004117
877.224563	-0.003780
877.408987	-0.003878
877.593393	-0.003518
877.777780	-0.003523
877.962150	-0.003343
878.146501	-0.002969
878.330833	-0.003210
878.515148	-0.003225
878.699444	-0.003159
878.883722	-0.003169
879.067982	-0.002942
879.252224	-0.002985
879.436447	-0.002745
879.620653	-0.002770
879.804840	-0.002845
879.989008	-0.002536
880.173159	-0.002398
880.357291	-0.002279
880.541405	-0.002465
880.725501	-0.002684
880.909579	-0.002673
881.093638	-0.002996
881.277680	-0.002964
881.461703	-0.003143
881.645707	-0.003042
881.829694	-0.003163
882.013662	-0.003160
882.197612	-0.003000
882.381544	-0.002938
882.565458	-0.002954
882.749353	-0.002747
882.933230	-0.002870
883.117089	-0.002847
883.300930	-0.003045
883.484753	-0.002910
883.668557	-0.002804
883.852343	-0.002771
884.036111	-0.002904
884.219861	-0.003045
884.403592	-0.003065
884.587305	-0.003029
884.771000	-0.002973
884.954677	-0.002993
885.138335	-0.003063
885.321976	-0.003070
885.505598	-0.003357
885.689201	-0.003034
885.872787	-0.003289
886.056354	-0.003304
886.239904	-0.003309
886.423434	-0.003090
886.606947	-0.002886
886.790442	-0.002771
886.973918	-0.002645
887.157376	-0.002316
887.340816	-0.002262
887.524237	-0.002045
887.707641	-0.001953
887.891026	-0.001724
888.074393	-0.001909
888.257741	-0.002067
888.441072	-0.002089
888.624384	-0.002291
888.807678	-0.002717
888.990954	-0.003156
889.174211	-0.003057
889.357451	-0.003145
889.540672	-0.003172
889.723875	-0.003500
889.907059	-0.003309
890.090226	-0.003439
890.273374	-0.003441
890.456504	-0.003100
890.639616	-0.002738
890.822709	-0.002868
891.005785	-0.002632
891.188842	-0.002696
891.371881	-0.002382
891.554901	-0.002639
891.737904	-0.002524
891.920888	-0.002607
892.103854	-0.002512
892.286802	-0.002454
892.469731	-0.002198
892.652643	-0.002471
892.835536	-0.002468
893.018410	-0.002350
893.201267	-0.002129
893.384106	-0.002047
893.566926	-0.001988
893.749728	-0.002100
893.932511	-0.002610
894.115277	-0.002689
894.298024	-0.002655
894.480753	-0.002699
894.663464	-0.002719
894.846157	-0.002739
895.028831	-0.002644
895.211487	-0.002555
895.394125	-0.002466
895.576745	-0.001961
895.759346	-0.002173
895.941930	-0.002317
896.124495	-0.002340
896.307041	-0.002230
896.489570	-0.002226
896.672080	-0.002573
896.854573	-0.002512
897.037046	-0.002647
897.219502	-0.002671
897.401940	-0.002545
897.584359	-0.002673
897.766760	-0.002474
897.949143	-0.002791
898.131507	-0.002655
898.313854	-0.002167
898.496182	-0.002287
898.678492	-0.002452
898.860783	-0.002693
899.043057	-0.002506
899.225312	-0.001997
899.407549	-0.002366
899.589768	-0.002168
899.771968	-0.002360
899.954151	-0.002791
900.136315	-0.002915
900.318461	-0.002766
900.500588	-0.002589
900.682698	-0.002856
900.864789	-0.002987
901.046862	-0.002833
901.228917	-0.002846
901.410953	-0.002689
901.592971	-0.002714
901.774972	-0.002411
901.956953	-0.002443
902.138917	-0.002506
902.320862	-0.002374
902.502790	-0.002387
902.684699	-0.002207
902.866589	-0.002207
903.048462	-0.002352
903.230316	-0.002028
903.412152	-0.002487
903.593970	-0.002554
903.775770	-0.002624
903.957551	-0.002953
904.139314	-0.002915
904.321059	-0.002977
904.502786	-0.002859
904.684494	-0.003185
904.866185	-0.003387
905.047857	-0.003190
905.229510	-0.003187
905.411146	-0.002919
905.592763	-0.002923
905.774363	-0.002886
905.955943	-0.002966
906.137506	-0.002863
906.319051	-0.002458
906.500577	-0.002445
906.682085	-0.002506
906.863575	-0.002348
907.045046	-0.002536
907.226500	-0.002504
907.407935	-0.002733
907.589352	-0.002817
907.770750	-0.003175
907.952131	-0.003251
908.133493	-0.003350
908.314837	-0.003189
908.496163	-0.003057
908.677470	-0.003256
908.858760	-0.002860
909.040031	-0.002871
909.221284	-0.002810
909.402518	-0.002982
909.583735	-0.002989
909.764933	-0.003138
909.946113	-0.002958
910.127275	-0.002944
910.308418	-0.003004
910.489544	-0.002920
910.670651	-0.003138
910.851740	-0.003294
911.032810	-0.002857
911.213863	-0.002782
911.394897	-0.002471
911.575913	-0.002768
911.756911	-0.002759
911.937890	-0.002635
912.118851	-0.003026
912.299794	-0.002611
912.480719	-0.002446
912.661626	-0.002813
912.842514	-0.003022
913.023384	-0.003165
913.204236	-0.003297
913.385070	-0.003667
913.565886	-0.003804
913.746683	-0.003748
913.927462	-0.003765
914.108223	-0.003768
914.288965	-0.003294
914.469690	-0.003227
914.650396	-0.003078
914.831084	-0.002970
915.011754	-0.002814
915.192405	-0.002785
915.373038	-0.002639
915.553653	-0.002904
915.734250	-0.002998
915.914829	-0.003214
916.095389	-0.003543
916.275931	-0.003705
916.456455	-0.003744
916.636961	-0.003688
916.817448	-0.003941
916.997917	-0.004012
917.178368	-0.003927
917.358801	-0.003687
917.539216	-0.003940
917.719612	-0.003496
917.899990	-0.003221
918.080350	-0.002903
918.260692	-0.002976
918.441015	-0.002811
918.621320	-0.002826
918.801607	-0.002791
918.981876	-0.003220
919.162127	-0.003066
919.342359	-0.003504
919.522573	-0.004035
919.702769	-0.004717
919.882947	-0.004659
920.063106	-0.004517
920.243247	-0.004804
920.423370	-0.004692
920.603475	-0.004671
920.783562	-0.005022
920.963630	-0.005086
921.143680	-0.005048
921.323712	-0.004513
921.503725	-0.005258
921.683721	-0.005169
921.863698	-0.005230
922.043657	-0.005607
922.223598	-0.005766
922.403520	-0.005963
922.583424	-0.005665
922.763311	-0.005952
922.943178	-0.006396
923.123028	-0.005652
923.302859	-0.006230
923.482673	-0.006338
923.662467	-0.006540
923.842244	-0.006540
924.022003	-0.006530
924.201743	-0.006642
924.381465	-0.006504
924.561169	-0.006757
924.740854	-0.007047
924.920522	-0.006865
925.100171	-0.006879
925.279802	-0.006639
925.459414	-0.006422
925.639009	-0.006293
925.818585	-0.006442
925.998143	-0.006228
926.177683	-0.006003
926.357205	-0.006289
926.536708	-0.006362
926.716193	-0.006204
926.895660	-0.006394
927.075109	-0.006662
927.254539	-0.006329
927.433951	-0.006266
927.613345	-0.006435
927.792721	-0.006369
927.972079	-0.006218
928.151418	-0.005956
928.330739	-0.006124
928.510042	-0.006524
928.689327	-0.006423
928.868593	-0.006881
929.047841	-0.006962
929.227071	-0.007093
929.406283	-0.007195
929.585476	-0.007263
929.764652	-0.007086
929.943809	-0.007164
930.122948	-0.006825
930.302068	-0.006577
930.481171	-0.006571
930.660255	-0.006301
930.839321	-0.006088
931.018369	-0.006225
931.197398	-0.006294
931.376409	-0.006786
931.555402	-0.006758
931.734377	-0.006952
931.913334	-0.007420
932.092272	-0.007776
932.271192	-0.008168
932.450094	-0.008366
932.628978	-0.008351
932.807844	-0.008250
932.986691	-0.008733
933.165520	-0.009071
933.344331	-0.008596
933.523123	-0.008560
933.701898	-0.008618
933.880654	-0.009129
934.059392	-0.008943
934.238111	-0.008698
934.416813	-0.008765
934.595496	-0.008346
934.774161	-0.008001
934.952808	-0.008615
935.131437	-0.008725
935.310047	-0.008585
935.488639	-0.008221
935.667213	-0.008584
935.845769	-0.009633
936.024306	-0.010242
936.202825	-0.010233
936.381326	-0.010780
936.559809	-0.010513
936.738274	-0.010931
936.916720	-0.010774
937.095148	-0.010970
937.273558	-0.011282
937.451950	-0.010457
937.630323	-0.010242
937.808678	-0.011105
937.987015	-0.011281
938.165334	-0.011936
938.343635	-0.011292
938.521917	-0.011530
938.700181	-0.011783
938.878427	-0.011721
939.056655	-0.012037
939.234864	-0.012154
939.413055	-0.012054
939.591228	-0.011766
939.769383	-0.011480
939.947519	-0.011798
940.125638	-0.012197
940.303738	-0.012249
940.481820	-0.012171
940.659883	-0.012155
940.837929	-0.011661
941.015956	-0.012154
941.193965	-0.012112
941.371955	-0.012835
941.549928	-0.013808
941.727882	-0.013642
941.905818	-0.013599
942.083736	-0.013523
942.261636	-0.012927
942.439517	-0.012892
942.617380	-0.011440
942.795225	-0.010531
942.973052	-0.009784
943.150860	-0.009287
943.328651	-0.008584
943.506423	-0.008893
943.684176	-0.009088
943.861912	-0.009869
944.039629	-0.010787
944.217328	-0.010872
944.395009	-0.011307
944.572672	-0.011465
944.750317	-0.011233
944.927943	-0.011582
945.105551	-0.010059
945.283141	-0.009751
945.460712	-0.010162
945.638265	-0.010216
945.815801	-0.010229
945.993317	-0.010300
946.170816	-0.009969
946.348297	-0.009502
946.525759	-0.009938
946.703203	-0.010249
946.880629	-0.010180
947.058036	-0.009164
947.235425	-0.008330
947.412797	-0.008268
947.590149	-0.008876
947.767484	-0.007962
947.944800	-0.007789
948.122099	-0.006643
948.299379	-0.007517
948.476640	-0.007150
948.653884	-0.006124
948.831109	-0.006246
949.008316	-0.006155
949.185505	-0.006258
949.362676	-0.006676
949.539828	-0.006431
949.716962	-0.005952
949.894078	-0.004982
950.071176	-0.005551
950.248256	-0.006176
950.425317	-0.005685
950.602360	-0.004612
950.779385	-0.003685
950.956391	-0.003531
951.133380	-0.003799
951.310350	-0.005405
951.487302	-0.004274
951.664235	-0.003826
951.841151	-0.004313
952.018048	-0.004072
952.194927	-0.005998
952.371788	-0.005639
952.548631	-0.006250
952.725455	-0.006295
952.902261	-0.005488
953.079049	-0.007089
953.255819	-0.007462
953.432570	-0.006992
953.609303	-0.007020
953.786018	-0.006646
953.962715	-0.007898
954.139394	-0.008646
954.316054	-0.008506
954.492696	-0.007947
954.669320	-0.008253
954.845926	-0.008499
955.022513	-0.007421
955.199083	-0.007313
955.375634	-0.006229
955.552166	-0.004415
955.728681	-0.002238
955.905177	-0.002160
956.081655	-0.003106
956.258115	-0.001769
956.434557	-0.001048
956.610980	-0.000671
956.787385	0.000452
956.963772	0.000474
957.140141	-0.001666
957.316492	-0.002172
957.492824	-0.001650
957.669138	-0.000475
957.845434	0.000081
958.021712	0.001211
958.197971	0.000461
958.374212	-0.000387
958.550435	0.001417
958.726640	0.002662
958.902826	0.003092
959.078995	0.003520
959.255145	0.002743
959.431277	0.002590
959.607390	0.002911
959.783486	0.002260
959.959563	0.000988
960.135622	-0.000153
960.311662	0.002191
960.487685	0.002890
960.663689	0.003467
960.839675	0.004805
961.015643	0.004167
961.191593	0.003620
961.367524	0.003781
961.543437	0.006550
961.719332	0.006581
961.895209	0.004371
962.071067	0.004351
962.246907	0.005013
962.422730	0.004647
962.598533	0.004855
962.774319	0.005750
962.950086	0.006250
963.125835	0.005295
963.301566	0.004892
963.477279	0.006463
963.652973	0.004955
963.828650	0.003929
964.004308	0.004708
964.179947	0.006663
964.355569	0.007722
964.531172	0.009372
964.706757	0.009493
964.882324	0.008644
965.057873	0.006608
965.233403	0.007584
965.408916	0.008332
965.584410	0.009118
965.759885	0.008530
965.935343	0.008583
966.110782	0.009456
966.286203	0.010997
966.461606	0.011425
966.636991	0.014055
966.812357	0.014428
966.987705	0.015347
967.163035	0.014721
967.338347	0.014676
967.513641	0.014082
967.688916	0.012201
967.864173	0.012089
968.039412	0.013768
968.214632	0.014731
968.389835	0.015057
968.565019	0.014995
968.740185	0.014599
968.915333	0.014862
969.090462	0.015807
969.265573	0.016544
969.440667	0.015520
969.615741	0.015901
969.790798	0.015893
969.965836	0.016646
970.140856	0.015560
970.315858	0.014681
970.490842	0.015056
970.665808	0.013008
970.840755	0.011875
971.015684	0.012371
971.190595	0.012050
971.365487	0.011522
971.540362	0.010701
971.715218	0.010179
971.890056	0.011360
972.064875	0.010553
972.239677	0.010012
972.414460	0.010604
972.589225	0.010944
972.763972	0.010552
972.938700	0.011146
973.113411	0.012017
973.288103	0.013116
973.462777	0.012745
973.637432	0.011618
973.812070	0.012877
973.986689	0.013637
974.161290	0.014860
974.335873	0.015933
974.510437	0.015453
974.684984	0.016112
974.859512	0.016252
975.034022	0.017116
975.208513	0.017678
975.382987	0.020051
975.557442	0.019064
975.731879	0.016678
975.906298	0.014907
976.080698	0.014191
976.255080	0.013303
976.429445	0.013155
976.603790	0.012475
976.778118	0.012312
976.952427	0.009975
977.126719	0.010168
977.300992	0.010249
977.475246	0.013540
977.649483	0.014449
977.823701	0.013703
977.997901	0.013222
978.172083	0.014200
978.346247	0.015288
978.520392	0.016338
978.694519	0.017529
978.868628	0.016603
979.042719	0.012770
979.216791	0.011462
979.390845	0.011020
979.564882	0.010603
979.738899	0.011009
979.912899	0.011640
980.086880	0.009829
980.260843	0.008708
980.434788	0.008629
980.608715	0.008554
980.782623	0.009536
980.956514	0.010692
981.130386	0.011664
981.304240	0.010047
981.478075	0.008607
981.651892	0.009878
981.825692	0.009998
981.999472	0.011598
982.173235	0.013430
982.346980	0.013222
982.520706	0.013307
982.694414	0.013217
982.868104	0.012867
983.041775	0.012854
983.215428	0.011551
983.389064	0.010839
983.562680	0.011437
983.736279	0.011996
983.909860	0.013295
984.083422	0.012659
984.256966	0.010718
984.430491	0.012526
984.603999	0.012289
984.777488	0.013996
984.950959	0.013938
985.124412	0.014588
985.297847	0.013143
985.471263	0.010594
985.644661	0.009536
985.818041	0.010461
985.991403	0.009411
986.164747	0.010978
986.338072	0.010871
986.511379	0.011398
986.684668	0.011860
986.857938	0.013081
987.031191	0.013497
987.204425	0.013322
987.377641	0.013873
987.550839	0.014489
987.724018	0.013387
987.897179	0.012688
988.070322	0.012505
988.243447	0.010632
988.416554	0.007915
988.589642	0.007468
988.762712	0.009269
988.935764	0.009544
989.108798	0.008192
989.281813	0.008264
989.454811	0.010022
989.627790	0.008866
989.800751	0.009380
989.973693	0.010851
990.146617	0.011010
990.319524	0.008341
990.492412	0.008812
990.665281	0.009067
990.838133	0.009954
991.010966	0.008853
991.183781	0.010122
991.356578	0.011270
991.529356	0.013103
991.702117	0.013944
991.874859	0.016074
992.047583	0.015308
992.220288	0.015565
992.392976	0.013808
992.565645	0.013145
992.738296	0.013720
992.910929	0.011818
993.083543	0.010362
993.256139	0.010042
993.428718	0.009656
993.601277	0.010110
993.773819	0.011764
993.946342	0.012279
994.118848	0.013096
994.291335	0.011986
994.463803	0.012751
994.636254	0.013841
994.808686	0.014456
994.981100	0.014199
995.153496	0.013066
995.325874	0.011439
995.498233	0.010605
995.670574	0.010052
995.842897	0.010093
996.015202	0.010855
996.187488	0.009770
996.359757	0.009742
996.532007	0.009989
996.704239	0.009643
996.876452	0.009685
997.048648	0.010626
997.220825	0.010394
997.392984	0.010807
997.565124	0.008436
997.737247	0.008694
997.909351	0.007952
998.081437	0.008795
998.253505	0.009952
998.425554	0.009780
998.597586	0.010533
998.769599	0.011456
998.941594	0.010687
999.113571	0.012429
999.285529	0.012756
999.457469	0.013325
999.629391	0.011893
999.801295	0.011252
999.973181	0.010333
1000.145048	0.010366
1000.316897	0.009606
1000.488728	0.009996
1000.660541	0.007952
1000.832335	0.007586
1001.004111	0.006791
1001.175869	0.007663
1001.347609	0.008415
1001.519331	0.011162
1001.691034	0.011681
1001.862719	0.011392
1002.034386	0.011600
1002.206035	0.011876
1002.377665	0.011522
1002.549277	0.012518
1002.720871	0.011919
1002.892447	0.011267
1003.064004	0.009861
1003.235544	0.008713
1003.407065	0.009459
1003.578568	0.009046
1003.750052	0.009466
1003.921519	0.010434
1004.092967	0.010420
1004.264397	0.010906
1004.435809	0.009865
1004.607202	0.010573
1004.778577	0.010092
1004.949934	0.009386
1005.121273	0.010052
1005.292594	0.009815
1005.463896	0.008658
1005.635180	0.007179
1005.806446	0.007742
1005.977694	0.008632
1006.148923	0.006507
1006.320135	0.006627
1006.491328	0.007665
1006.662503	0.008640
1006.833659	0.008815
1007.004798	0.010264
1007.175918	0.011112
1007.347020	0.010773
1007.518103	0.011119
1007.689169	0.013359
1007.860216	0.013405
1008.031245	0.012873
1008.202256	0.011053
1008.373248	0.010463
1008.544223	0.009457
1008.715179	0.009283
1008.886117	0.009614
1009.057036	0.009410
1009.227938	0.008332
1009.398821	0.007552
1009.569686	0.005131
1009.740533	0.005587
1009.911361	0.007192
1010.082172	0.006519
1010.252964	0.007003
1010.423738	0.005935
1010.594493	0.006249
1010.765231	0.006273
1010.935950	0.007073
1011.106651	0.008533
1011.277334	0.009194
1011.447998	0.008981
1011.618645	0.009314
1011.789273	0.008108
1011.959882	0.007946
1012.130474	0.008526
1012.301048	0.009349
1012.471603	0.009182
1012.642140	0.009613
1012.812658	0.008857
1012.983159	0.008863
1013.153641	0.008539
1013.324105	0.010468
1013.494551	0.008584
1013.664979	0.007552
1013.835388	0.007918
1014.005779	0.008217
1014.176152	0.008085
1014.346507	0.007478
1014.516843	0.005818
1014.687162	0.006353
1014.857462	0.004846
1015.027744	0.006844
1015.198007	0.007588
1015.368252	0.006154
1015.538480	0.006098
1015.708689	0.005134
1015.878879	0.005895
1016.049052	0.007889
1016.219206	0.006908
1016.389342	0.006442
1016.559460	0.007221
1016.729559	0.005909
1016.899641	0.006202
1017.069704	0.005950
1017.239749	0.006088
1017.409775	0.005160
1017.579784	0.005210
1017.749774	0.006285
1017.919746	0.006774
1018.089700	0.005698
1018.259635	0.005972
1018.429553	0.005942
1018.599452	0.006186
1018.769333	0.007297
1018.939195	0.007387
1019.109040	0.007305
1019.278866	0.006495
1019.448674	0.006375
1019.618464	0.006568
1019.788235	0.006284
1019.957989	0.006768
1020.127724	0.005817
1020.297441	0.006629
1020.467139	0.008159
1020.636820	0.007380
1020.806482	0.007769
1020.976126	0.007880
1021.145752	0.007908
1021.315359	0.007976
1021.484948	0.006736
1021.654519	0.008650
1021.824072	0.007200
1021.993607	0.006829
1022.163123	0.006053
1022.332621	0.006658
1022.502101	0.005763
1022.671563	0.004721
1022.841007	0.005382
1023.010432	0.005930
1023.179839	0.005468
1023.349228	0.004147
1023.518598	0.004008
1023.687951	0.004956
1023.857285	0.004455
1024.026601	0.005805
1024.195899	0.007925
1024.365178	0.007882
1024.534439	0.009126
1024.703682	0.007347
1024.872907	0.009391
1025.042114	0.008366
1025.211302	0.008659
1025.380472	0.009138
1025.549624	0.007043
1025.718758	0.005749
1025.887873	0.005391
1026.056970	0.004778
1026.226049	0.005094
1026.395110	0.005044
1026.564153	0.005372
1026.733177	0.004220
1026.902183	0.003745
1027.071171	0.005010
1027.240141	0.005930
1027.409092	0.007123
1027.578026	0.005841
1027.746940	0.006633
1027.915837	0.007054
1028.084716	0.007831
1028.253576	0.008506
1028.422418	0.009305
1028.591242	0.010646
1028.760048	0.009238
1028.928835	0.006931
1029.097604	0.007928
1029.266355	0.009528
1029.435088	0.008532
1029.603803	0.007283
1029.772499	0.007409
1029.941177	0.007331
1030.109837	0.006578
1030.278478	0.007628
1030.447102	0.008772
1030.615707	0.009546
1030.784294	0.007750
1030.952863	0.008299
1031.121413	0.008335
1031.289945	0.007117
1031.458460	0.006613
1031.626955	0.007337
1031.795433	0.007522
1031.963892	0.006752
1032.132334	0.005995
1032.300756	0.007449
1032.469161	0.006030
1032.637548	0.007703
1032.805916	0.008921
1032.974266	0.008160
1033.142598	0.007020
1033.310911	0.006508
1033.479207	0.007191
1033.647484	0.007131
1033.815743	0.005965
1033.983983	0.007535
1034.152206	0.005647
1034.320410	0.006139
1034.488596	0.006270
1034.656764	0.006328
1034.824914	0.006178
1034.993045	0.005159
1035.161158	0.005248
1035.329253	0.004813
1035.497330	0.004445
1035.665388	0.007580
1035.833428	0.006424
1036.001450	0.006801
1036.169454	0.007147
1036.337440	0.007578
1036.505407	0.007975
1036.673356	0.006066
1036.841287	0.006956
1037.009200	0.005884
1037.177094	0.004634
1037.344970	0.005280
1037.512828	0.005464
1037.680668	0.005327
1037.848489	0.003916
1038.016293	0.004363
1038.184078	0.005393
1038.351845	0.005151
1038.519593	0.006614
1038.687324	0.006307
1038.855036	0.007218
1039.022730	0.005445
1039.190406	0.004763
1039.358063	0.006276
1039.525702	0.005650
1039.693323	0.006387
1039.860926	0.007024
1040.028511	0.007460
1040.196077	0.007154
1040.363625	0.006101
1040.531155	0.008175
1040.698667	0.007915
1040.866161	0.005793
1041.033636	0.006567
1041.201093	0.007497
1041.368532	0.005763
1041.535952	0.004566
1041.703355	0.004301
1041.870739	0.003546
1042.038105	0.003610
1042.205452	0.004177
1042.372782	0.007667
1042.540093	0.009044
1042.707386	0.007598
1042.874661	0.008028
1043.041918	0.007527
1043.209156	0.007162
1043.376376	0.008396
1043.543578	0.008095
1043.710762	0.009613
1043.877927	0.006941
1044.045074	0.005372
1044.212203	0.006939
1044.379314	0.007324
1044.546407	0.007396
1044.713481	0.006771
1044.880537	0.006409
1045.047575	0.005423
1045.214595	0.005609
1045.381596	0.004355
1045.548579	0.005585
1045.715544	0.003552
1045.882491	0.002300
1046.049420	0.002832
1046.216330	0.002395
1046.383222	0.002006
1046.550096	0.002924
1046.716951	0.001267
1046.883789	0.003314
1047.050608	0.002687
1047.217409	0.004061
1047.384192	0.004964
1047.550956	0.004658
1047.717703	0.003665
1047.884431	0.003208
1048.051140	0.003121
1048.217832	0.003319
1048.384505	0.004567
1048.551161	0.004948
1048.717798	0.003705
1048.884416	0.003568
1049.051017	0.003727
1049.217599	0.004991
1049.384163	0.006377
1049.550709	0.006302
1049.717237	0.005607
1049.883746	0.004667
1050.050237	0.004000
1050.216710	0.003569
1050.383165	0.004260
1050.549601	0.003112
1050.716019	0.003410
1050.882420	0.003414
1051.048801	0.002353
1051.215165	0.002173
1051.381510	0.002531
1051.547837	0.002821
1051.714146	0.003441
1051.880437	0.003135
1052.046709	0.003935
1052.212964	0.004388
1052.379200	0.002591
1052.545417	0.003464
1052.711617	0.004024
1052.877798	0.003542
1053.043961	0.001660
1053.210106	0.001578
1053.376233	0.002779
1053.542341	0.003254
1053.708432	0.003197
1053.874504	0.002774
1054.040557	0.003277
1054.206593	0.002914
1054.372610	0.002517
1054.538609	0.004588
1054.704590	0.004652
1054.870553	0.004917
1055.036497	0.004262
1055.202424	0.004010
1055.368331	0.004955
1055.534221	0.006158
1055.700093	0.007396
1055.865946	0.007800
1056.031781	0.007817
1056.197598	0.007495
1056.363397	0.005722
1056.529177	0.007293
1056.694939	0.008133
1056.860683	0.008735
1057.026409	0.006638
1057.192116	0.005715
1057.357806	0.005415
1057.523477	0.004547
1057.689130	0.004570
1057.854764	0.004902
1058.020381	0.002645
1058.185979	0.002394
1058.351559	0.001938
1058.517120	0.001533
1058.682664	0.001671
1058.848189	0.001309
1059.013696	0.002394
1059.179185	0.004704
1059.344656	0.004010
1059.510108	0.005452
1059.675542	0.005373
1059.840958	0.005688
1060.006356	0.005520
1060.171735	0.006348
1060.337096	0.006101
1060.502439	0.005151
1060.667764	0.004948
1060.833071	0.007126
1060.998359	0.006039
1061.163629	0.006576
1061.328881	0.004181
1061.494115	0.004479
1061.659330	0.005310
1061.824527	0.005171
1061.989706	0.004374
1062.154867	0.001852
1062.320010	-0.001119
1062.485134	0.000090
1062.650240	-0.000301
1062.815328	0.000152
1062.980398	0.000976
1063.145449	-0.001752
1063.310482	-0.000231
1063.475497	-0.000167
1063.640494	0.000614
1063.805473	0.002186
1063.970433	0.000548
1064.135375	-0.000640
1064.300299	0.002173
1064.465204	0.001696
1064.630092	0.001931
1064.794961	0.000684
1064.959812	0.002313
1065.124645	0.002474
1065.289459	0.003481
1065.454256	0.004552
1065.619034	0.005012
1065.783793	0.003952
1065.948535	0.003294
1066.113258	0.004804
1066.277964	0.003897
1066.442651	0.002787
1066.607319	0.003395
1066.771970	0.001561
1066.936602	0.002424
1067.101216	0.003089
1067.265812	0.002041
1067.430389	0.002477
1067.594949	0.002372
1067.759490	0.002849
1067.924013	0.004614
1068.088518	0.003498
1068.253004	0.003002
1068.417472	0.002278
1068.581922	0.001916
1068.746354	0.002882
1068.910768	0.004147
1069.075163	0.003530
1069.239540	0.005238
1069.403899	0.004266
1069.568240	0.004296
1069.732562	0.005580
1069.896866	0.006319
1070.061152	0.004975
1070.225420	0.005386
1070.389670	0.004977
1070.553901	0.004049
1070.718114	0.001233
1070.882309	0.002266
1071.046486	0.002427
1071.210644	0.002127
1071.374784	0.001723
1071.538906	0.002757
1071.703010	0.003684
1071.867096	0.002815
1072.031163	0.005692
1072.195212	0.008633
1072.359243	0.006497
1072.523256	0.007214
1072.687250	0.006844
1072.851226	0.004982
1073.015184	0.004255
1073.179124	0.003234
1073.343045	0.004101
1073.506949	0.002517
1073.670834	0.000752
1073.834701	0.000293
1073.998549	-0.000127
1074.162380	0.001415
1074.326192	0.002486
1074.489986	0.004984
1074.653761	0.005573
1074.817519	0.004164
1074.981258	0.003418
1075.144979	0.005392
1075.308682	0.005704
1075.472367	0.005323
1075.636033	0.002797
1075.799681	0.005527
1075.963311	0.003029
1076.126923	0.004606
1076.290516	0.006364
1076.454092	0.006267
1076.617649	0.004458
1076.781187	0.005607
1076.944708	0.005519
1077.108210	0.005648
1077.271695	0.004151
1077.435160	0.005102
1077.598608	0.004223
1077.762038	0.002365
1077.925449	0.001787
1078.088842	0.002478
1078.252217	0.001992
1078.415573	0.003220
1078.578912	0.002291
1078.742232	0.000928
1078.905534	0.000791
1079.068817	0.001228
1079.232083	0.002466
1079.395330	0.003216
1079.558559	0.002726
1079.721770	0.002777
1079.884962	-0.000030
1080.048136	0.003737
1080.211293	0.005401
1080.374430	0.006474
1080.537550	0.003305
1080.700651	0.002673
1080.863735	0.000859
1081.026800	0.001244
1081.189846	0.000321
1081.352875	0.002538
1081.515885	0.000951
1081.678877	-0.000055
1081.841851	-0.001305
1082.004807	-0.000524
1082.167744	-0.001193
1082.330663	0.001686
1082.493564	0.001475
1082.656447	0.002268
1082.819312	-0.000449
1082.982158	-0.000013
1083.144986	-0.001021
1083.307796	-0.000209
1083.470587	0.000052
1083.633361	0.001467
1083.796116	0.000442
1083.958853	0.000894
1084.121571	-0.000192
1084.284272	0.001252
1084.446954	-0.001131
1084.609618	-0.002201
1084.772264	-0.003722
1084.934892	-0.003880
1085.097501	-0.003285
1085.260092	-0.004957
1085.422665	-0.006187
1085.585220	-0.004569
1085.747756	-0.005377
1085.910274	-0.003239
1086.072774	-0.002422
1086.235256	-0.000555
1086.397720	0.000066
1086.560165	-0.001130
1086.722592	0.002086
1086.885001	0.003620
1087.047392	0.005187
1087.209764	0.005664
1087.372119	0.006627
1087.534455	0.007071
1087.696772	0.004033
1087.859072	0.003319
1088.021353	0.001675
1088.183616	0.000479
1088.345861	-0.000262
1088.508088	-0.003856
1088.670296	-0.003192
1088.832486	-0.005543
1088.994658	-0.003965
1089.156812	-0.002162
1089.318948	-0.002588
1089.481065	-0.001405
1089.643164	0.000179
1089.805245	-0.001040
1089.967308	-0.000028
1090.129352	0.001407
1090.291378	0.000732
1090.453386	-0.001414
1090.615376	-0.000936
1090.777347	-0.001149
1090.939301	-0.002533
1091.101236	-0.002839
1091.263153	-0.002156
1091.425051	-0.002250
1091.586932	-0.002444
1091.748794	-0.002430
1091.910638	-0.003904
1092.072463	-0.006232
1092.234271	-0.005143
1092.396060	-0.004980
1092.557831	-0.006246
1092.719584	-0.006887
1092.881319	-0.006380
1093.043035	-0.006045
1093.204733	-0.005153
1093.366413	-0.003122
1093.528075	0.000029
1093.689718	0.000860
1093.851343	0.003066
1094.012950	0.004601
1094.174539	0.005779
1094.336110	0.007216
1094.497662	0.008140
1094.659196	0.008517
1094.820712	0.009444
1094.982210	0.008697
1095.143689	0.006464
1095.305151	0.005232
1095.466594	0.003047
1095.628018	0.003903
1095.789425	0.002915
1095.950813	0.002815
1096.112183	0.002128
1096.273535	0.001674
1096.434869	0.000968
1096.596184	0.002790
1096.757482	0.003990
1096.918761	0.003714
1097.080021	0.004043
1097.241264	0.002461
1097.402488	-0.000507
1097.563694	0.000637
1097.724882	-0.001352
1097.886052	0.001325
1098.047203	0.000999
1098.208336	-0.000643
1098.369451	0.000983
1098.530548	0.000106
1098.691627	0.001883
1098.852687	0.004422
1099.013729	0.004205
1099.174753	0.007168
1099.335758	0.004530
1099.496746	0.005115
1099.657715	0.006584
1099.818666	0.005425
1099.979599	0.005471
1100.140513	0.003495
1100.301409	0.001741
1100.462287	0.001359
1100.623147	-0.001449
1100.783989	-0.001670
1100.944812	-0.002912
1101.105617	-0.002512
1101.266404	-0.004872
1101.427173	-0.005041
1101.587923	-0.003785
1101.748656	-0.003760
1101.909370	-0.003846
1102.070066	-0.003713
1102.230743	-0.003704
1102.391403	-0.004036
1102.552044	-0.003624
1102.712667	-0.002685
1102.873271	-0.000639
1103.033858	-0.002912
1103.194426	-0.004318
1103.354976	-0.004395
1103.515508	-0.001571
1103.676021	-0.000780
1103.836517	0.000331
1103.996994	-0.001681
1104.157453	-0.001745
1104.317893	-0.000751
1104.478316	0.001389
1104.638720	0.003341
1104.799106	0.005586
1104.959474	0.005118
1105.119823	0.005802
1105.280155	0.004720
1105.440468	0.004384
1105.600763	0.004255
1105.761039	0.001997
1105.921298	0.006134
1106.081538	0.005979
1106.241760	0.004042
1106.401964	0.004332
1106.562149	0.000350
1106.722316	0.000999
1106.882465	0.002480
1107.042596	0.006452
1107.202709	0.005645
1107.362803	0.002749
1107.522879	0.003166
1107.682937	0.004633
1107.842977	0.004584
1108.002999	0.005500
1108.163002	0.005864
1108.322987	0.002672
1108.482954	0.003415
1108.642902	0.002245
1108.802833	0.003336
1108.962745	0.002122
1109.122639	0.000208
1109.282515	0.002226
1109.442372	0.004646
1109.602211	0.002957
1109.762032	0.006164
1109.921835	0.003886
1110.081620	0.004598
1110.241386	0.002122
1110.401134	-0.003597
1110.560864	-0.004996
1110.720576	-0.007964
1110.880269	-0.010529
1111.039945	-0.006800
1111.199602	-0.007318
1111.359240	-0.004553
1111.518861	-0.002906
1111.678463	-0.003740
1111.838047	0.003880
1111.997613	0.006066
1112.157161	0.007696
1112.316690	0.008912
1112.476202	0.008211
1112.635695	0.009113
1112.795169	0.005077
1112.954626	0.004293
1113.114064	0.006588
1113.273484	0.007107
1113.432886	0.006316
1113.592270	0.002091
1113.751635	0.005514
1113.910983	0.004871
1114.070312	0.002692
1114.229622	0.003688
1114.388915	0.002623
1114.548189	0.001233
1114.707445	-0.002990
1114.866683	-0.001464
1115.025903	0.001884
1115.185104	0.000770
1115.344287	-0.002845
1115.503452	-0.001945
1115.662599	-0.000931
1115.821727	-0.003932
1115.980838	-0.007068
1116.139930	-0.005287
1116.299004	-0.006926
1116.458059	-0.008208
1116.617097	-0.008102
1116.776116	-0.007427
1116.935117	-0.009755
1117.094099	-0.010987
1117.253064	-0.008320
1117.412010	-0.005794
1117.570938	-0.005011
1117.729848	-0.005440
1117.888740	-0.004300
1118.047613	-0.002081
1118.206468	-0.002543
1118.365305	0.001574
1118.524124	0.002978
1118.682924	0.003928
1118.841707	0.004370
1119.000471	0.005027
1119.159216	0.006665
1119.317944	0.005556
1119.476653	0.002128
1119.635344	0.005233
1119.794017	0.006360
1119.952672	0.004876
1120.111308	0.001149
1120.269927	-0.001532
1120.428527	-0.003704
1120.587108	-0.007894
1120.745672	-0.004235
1120.904217	-0.004938
1121.062744	-0.009707
1121.221253	-0.010908
1121.379744	-0.010656
1121.538216	-0.008221
1121.696671	-0.008846
1121.855107	-0.007480
1122.013524	-0.005683
1122.171924	-0.007409
1122.330305	-0.008571
1122.488668	-0.005477
1122.647013	-0.006622
1122.805340	-0.006858
1122.963648	-0.006647
1123.121938	-0.003874
1123.280210	-0.003863
1123.438464	0.000377
1123.596700	-0.002850
1123.754917	0.000869
1123.913116	0.002986
1124.071297	0.002544
1124.229459	0.002575
1124.387604	0.006405
1124.545730	0.007005
1124.703838	0.007797
1124.861928	0.004418
1125.019999	0.004625
1125.178052	-0.000188
1125.336088	-0.001641
1125.494104	-0.001023
1125.652103	-0.002172
1125.810083	-0.007746
1125.968045	-0.006817
1126.125989	-0.010858
1126.283915	-0.010800
1126.441823	-0.011089
1126.599712	-0.008358
1126.757583	-0.007727
1126.915436	-0.008216
1127.073270	-0.004651
1127.231087	-0.002272
1127.388885	-0.005389
1127.546665	-0.004051
1127.704426	-0.001874
1127.862170	0.000350
1128.019895	-0.001283
1128.177602	-0.002462
1128.335291	0.000797
1128.492961	-0.001582
1128.650614	-0.001220
1128.808248	-0.000461
1128.965864	0.002132
1129.123461	0.001446
1129.281041	0.003844
1129.438602	0.003583
1129.596145	0.005717
1129.753670	0.000451
1129.911176	0.003651
1130.068665	0.000361
1130.226135	0.000816
1130.383587	-0.000921
1130.541020	-0.000163
1130.698436	-0.001641
1130.855833	-0.003045
1131.013212	-0.004207
1131.170573	-0.001690
1131.327915	-0.004073
1131.485239	-0.001443
1131.642545	-0.002193
1131.799833	-0.003121
1131.957103	-0.006997
1132.114354	-0.009457
1132.271588	-0.004532
1132.428803	-0.004950
1132.585999	-0.005623
1132.743178	-0.007640
1132.900338	-0.008419
1133.057480	-0.005703
1133.214604	-0.001837
1133.371710	0.000714
1133.528797	0.007348
1133.685866	0.005021
1133.842917	0.003502
1133.999950	0.005122
1134.156964	0.003870
1134.313960	0.003181
1134.470938	0.001069
1134.627898	-0.006348
1134.784840	-0.006706
1134.941763	-0.014891
1135.098668	-0.011523
1135.255555	-0.012814
1135.412424	-0.011781
1135.569274	-0.005073
1135.726107	-0.002375
1135.882921	-0.003163
1136.039716	-0.005688
1136.196494	-0.004993
1136.353253	-0.005562
1136.509995	-0.010978
1136.666717	-0.009221
1136.823422	-0.011140
1136.980109	-0.017868
1137.136777	-0.016290
1137.293427	-0.013085
1137.450059	-0.003720
1137.606672	-0.006359
1137.763267	0.002693
1137.919844	0.007653
1138.076403	0.007884
1138.232944	0.008754
1138.389466	0.014834
1138.545971	0.010502
1138.702457	0.010671
1138.858924	0.010798
1139.015374	0.010505
1139.171805	0.000124
1139.328218	-0.001690
1139.484613	-0.003453
1139.640990	-0.001665
1139.797348	-0.004389
1139.953688	0.000441
1140.110010	-0.000610
1140.266314	-0.004219
1140.422600	-0.001952
1140.578867	-0.000240
1140.735116	0.000813
1140.891347	0.000955
1141.047559	-0.007433
1141.203754	-0.009645
1141.359930	-0.014630
1141.516088	-0.014579
1141.672228	-0.015902
1141.828349	-0.017222
1141.984452	-0.019232
1142.140537	-0.024481
1142.296604	-0.019376
1142.452653	-0.014528
1142.608683	-0.018784
1142.764695	-0.011799
1142.920689	-0.016503
1143.076665	-0.011107
1143.232622	-0.013260
1143.388562	-0.011259
1143.544483	-0.006612
1143.700385	-0.006877
1143.856270	-0.011136
1144.012136	-0.004788
1144.167985	-0.008484
1144.323814	-0.005342
1144.479626	-0.004253
1144.635420	0.000122
1144.791195	-0.000059
1144.946952	-0.002482
1145.102691	-0.006358
1145.258411	0.002475
1145.414113	0.000578
1145.569798	0.001361
1145.725463	0.007395
1145.881111	0.000097
1146.036741	0.001630
1146.192352	0.006339
1146.347945	0.010023
1146.503519	0.009651
1146.659076	0.004345
1146.814614	0.005818
1146.970134	0.007251
1147.125636	0.006025
1147.281120	0.008899
1147.436585	0.011823
1147.592032	0.009603
1147.747461	0.003526
1147.902872	0.009725
1148.058265	0.010852
1148.213639	0.013574
1148.368995	0.011459
1148.524333	0.013960
1148.679653	0.018612
1148.834954	0.018129
1148.990237	0.017444
1149.145502	0.015481
1149.300749	0.007884
1149.455977	0.000360
1149.611188	-0.003599
1149.766380	-0.007753
1149.921553	-0.017941
1150.076709	-0.016098
1150.231846	-0.023590
1150.386966	-0.021683
1150.542066	-0.013330
1150.697149	-0.009869
1150.852214	0.001702
1151.007260	-0.000955
1151.162288	-0.003081
1151.317298	0.000538
1151.472289	-0.006947
1151.627263	-0.003043
1151.782218	-0.006908
1151.937155	-0.011115
1152.092073	-0.014393
1152.246974	-0.020109
1152.401856	-0.018005
1152.556720	-0.009049
1152.711566	-0.009912
1152.866393	-0.007131
1153.021203	-0.006315
1153.175994	-0.001968
1153.330767	-0.005458
1153.485521	-0.003280
1153.640258	-0.009399
1153.794976	-0.012468
1153.949676	-0.020732
1154.104358	-0.019276
1154.259021	-0.018830
1154.413667	-0.017720
1154.568294	-0.021655
1154.722903	-0.017737
1154.877493	-0.018219
1155.032066	-0.008309
1155.186620	-0.006493
1155.341156	-0.003547
1155.495674	-0.003631
1155.650173	-0.003277
1155.804654	0.000322
1155.959118	0.003333
1156.113562	0.002109
1156.267989	-0.001075
1156.422397	-0.005258
1156.576788	-0.000546
1156.731160	0.000412
1156.885513	0.000174
1157.039849	0.000451
1157.194166	-0.011162
1157.348465	-0.010964
1157.502746	-0.006840
1157.657009	-0.005331
1157.811253	-0.011300
1157.965479	-0.012321
1158.119687	-0.010851
1158.273877	-0.012695
1158.428048	-0.008509
1158.582201	0.001128
1158.736337	0.004036
1158.890453	0.001589
1159.044552	0.001064
1159.198632	0.003302
1159.352694	0.002103
1159.506738	0.002198
1159.660764	-0.000191
1159.814771	-0.005264
1159.968761	-0.004720
1160.122732	-0.014676
1160.276685	-0.016191
1160.430619	-0.011255
1160.584535	-0.002964
1160.738434	-0.000903
1160.892313	0.001043
1161.046175	0.004689
1161.200019	0.002902
1161.353844	-0.004244
1161.507651	-0.000731
1161.661440	0.001519
1161.815210	0.003941
1161.968962	0.001863
1162.122697	-0.002201
1162.276412	-0.000178
1162.430110	-0.003745
1162.583789	-0.003633
1162.737451	-0.001729
1162.891094	0.000266
1163.044718	-0.002904
1163.198325	-0.002672
1163.351913	-0.000993
1163.505483	-0.003741
1163.659035	-0.013683
1163.812569	-0.018802
1163.966084	-0.016668
1164.119581	-0.021918
1164.273060	-0.026658
1164.426521	-0.026659
1164.579964	-0.030018
1164.733388	-0.024641
1164.886794	-0.017172
1165.040182	-0.014396
1165.193551	-0.010079
1165.346903	-0.011366
1165.500236	-0.007418
1165.653551	-0.007790
1165.806848	-0.003606
1165.960126	-0.004829
1166.113386	-0.009050
1166.266628	-0.014344
1166.419852	-0.016162
1166.573058	-0.008433
1166.726245	-0.005693
1166.879414	-0.009666
1167.032565	0.003494
1167.185698	-0.005052
1167.338812	-0.008846
1167.491909	-0.007069
1167.644987	-0.006089
1167.798046	-0.002926
1167.951088	-0.001234
1168.104111	-0.005013
1168.257117	-0.001524
1168.410103	-0.005675
1168.563072	0.002964
1168.716023	-0.000653
1168.868955	-0.009939
1169.021869	-0.012932
1169.174765	-0.010695
1169.327642	-0.015034
1169.480501	-0.010440
1169.633343	-0.005305
1169.786165	-0.011073
1169.938970	-0.016909
1170.091757	-0.005861
1170.244525	-0.001131
1170.397275	0.008638
1170.550007	0.003378
1170.702720	0.001805
1170.855415	0.000890
1171.008092	0.005013
1171.160751	0.013474
1171.313392	0.023983
1171.466014	0.032763
1171.618619	0.062690
1171.771205	0.062690
1171.923772	0.062690
