sample name	sample
index	679
start time	 03-22-2021  11:51:18 AM
880	0.001903
Peak Time (s)	91.537
Peak Height 	0.001903
calc peak height	90,93
Baseline Time (s)	8.535
Baseline Value 	-0.002647
subtract baseline	10,4
Abs	-0.005692
Peak Time (s)	91.537
Peak Height 	-0.005692
calc peak height	90,93
Baseline Time (s)	9.536
Baseline Value 	0.002368
subtract baseline	10,3
PK_550	-0.002656
Peak Time (s)	90.035
Peak Height 	-0.002656
calc peak height	90,93
Baseline Time (s)	9.536
Baseline Value 	3.048E-4
subtract baseline	10,2
PK_880	-0.006160
Peak Time (s)	92.54
Peak Height 	-0.00616
calc peak height	90,93
Baseline Time (s)	11.037
Baseline Value 	7.2035E-4
subtract baseline	10,1


Time (s)	A880-A510	A880-A775	A880-A975	A880	I510	I775	I975	I880	
0.035500	-0.002152	-0.000357	-0.003171	0.005592	7324.808843	45448.608825	3944.996822	24037.526581
0.536000	-0.003571	-0.000399	-0.003819	0.005810	7307.978298	45423.129132	3942.765607	24026.872504
1.036000	-0.002375	-0.000274	-0.003767	0.004061	7338.305849	45607.142844	3947.409108	24112.377322
1.537000	-0.001264	-0.000851	-0.005803	0.000999	7381.607762	45852.239038	3950.060682	24262.820380
2.034000	-0.003241	0.000104	-0.000269	0.004872	7321.007949	45564.430971	3954.365485	24072.662292
2.540000	-0.000345	-0.000279	-0.002427	0.001800	7382.840058	45829.598928	3956.744479	24223.345752
3.037500	-0.001197	-0.000286	0.002249	-0.001736	7410.924069	46180.066851	3978.326312	24398.105236
3.535500	0.001208	-0.000088	0.000781	0.000253	7415.291529	46001.854658	3969.191240	24299.648033
4.035500	-0.003541	-0.000946	-0.002562	0.004140	7325.461528	45533.307377	3950.319285	24108.510823
4.535500	-0.000383	-0.000167	0.000531	0.000421	7396.844488	45977.237672	3968.091384	24291.314674
5.035500	-0.001325	-0.000747	-0.000101	0.000024	7391.151943	45959.168933	3967.473788	24310.931397
5.536000	0.001571	-0.000638	0.002213	-0.000071	7422.515094	45979.434294	3973.823844	24315.643556
6.036500	0.000249	-0.000671	-0.000264	-0.000380	7411.875775	46006.850671	3968.109648	24330.937242
6.536500	0.000064	0.000284	-0.001571	0.000089	7405.014769	46055.121612	3963.447057	24307.740983
7.040000	-0.000263	0.000334	0.001533	0.000660	7395.605226	46003.246068	3970.098009	24279.516961
7.537500	0.000136	-0.000417	-0.004186	-0.000128	7408.036738	46007.004060	3957.183551	24318.449026
8.035000	0.000771	0.000152	0.007808	0.000403	7409.132914	46010.744822	3987.434858	24292.215349
8.535000	0.000306	-0.000204	0.002023	0.000000	7408.473854	46015.407654	3973.132315	24312.125327
9.035000	-0.001029	0.000205	-0.003000	0.000214	7392.258544	46034.806884	3959.383436	24301.545519
9.536000	-0.000495	0.000000	0.000000	0.000307	7396.866574	46005.198572	3966.995417	24296.958823
10.036000	0.000044	-0.000616	-0.001070	-0.000168	7407.490972	45991.178452	3965.433113	24320.428602
10.536000	0.000651	0.000011	0.001742	-0.000109	7413.239102	46047.541540	3972.678595	24317.496851
11.036500	0.000000	0.000073	-0.002304	0.000041	7404.837393	46038.815513	3961.652435	24310.090548
11.539500	-0.000552	-0.000080	0.003024	-0.000164	7401.197768	46044.058043	3976.213425	24320.225135
12.037500	-0.001187	-0.000519	-0.002781	0.000956	7382.863527	45889.461809	3958.020381	24264.950538
12.537500	0.000228	0.000413	0.001851	0.000551	7401.878123	46022.006365	3971.224634	24284.903890
13.034500	-0.000892	-0.000769	0.000367	-0.000610	7402.308619	46019.839406	3970.373826	24342.276162
13.535500	0.000855	0.000046	0.000473	0.000099	7413.203133	46030.504241	3968.787473	24307.255000
14.035500	-0.001514	-0.000408	0.000135	0.002989	7358.308317	45699.465541	3960.323343	24164.917677
14.535500	-0.000508	-0.000034	0.000342	0.002153	7377.454833	45818.959490	3963.052310	24205.980267
15.036000	-0.000734	-0.000083	0.000984	-0.000600	7403.859155	46087.028719	3971.972727	24341.778028
15.536500	-0.000042	0.000017	0.003873	-0.000157	7406.474146	46052.995486	3978.445931	24319.892776
16.039500	-0.001366	-0.000001	0.003234	0.002565	7364.247657	45781.466014	3969.563006	24185.723999
16.536500	-0.000091	0.000067	-0.002349	-0.000029	7404.612979	46045.219398	3961.720429	24313.553763
17.037000	0.002546	0.000375	0.001759	-0.002422	7457.652656	46314.520387	3978.847958	24432.177232
17.534500	-0.000727	-0.000558	0.004514	0.001129	7385.855900	45868.374591	3976.736810	24256.405655
18.035000	-0.002197	-0.000329	-0.004521	0.003425	7346.716353	45664.313048	3947.103391	24143.519681
18.535000	-0.001005	0.000072	0.003525	0.001836	7375.583982	45860.737793	3972.249817	24221.577824
19.035500	-0.001523	0.000116	0.005400	0.002083	7367.627838	45840.715964	3976.556788	24209.446454
19.539000	0.000026	-0.000030	0.003960	0.001602	7388.776730	45873.852048	3974.018962	24233.104270
20.036000	-0.000895	0.000384	0.001550	0.001954	7375.501618	45879.943919	3966.740636	24215.778401
20.542000	-0.001190	0.000076	0.002627	0.001279	7379.465757	45916.395627	3971.352429	24249.028565
21.037000	-0.000696	0.000545	-0.000976	0.002170	7375.323649	45874.556002	3959.562701	24205.152538
21.537000	-0.002959	-0.000223	-0.003014	0.001413	7359.666654	45873.389740	3956.222386	24242.390310
22.037500	-0.000219	0.000421	-0.002258	0.002099	7381.033191	45869.304316	3956.404284	24208.634581
22.538000	-0.000396	0.001429	0.005835	0.002604	7373.925390	45919.077226	3976.328912	24183.818272
23.035000	-0.000558	-0.000119	0.003968	0.001645	7382.238708	45860.824531	3973.926025	24230.998323
23.535500	-0.000112	0.000564	-0.000931	0.002276	7380.314496	45865.987483	3959.402664	24199.957040
24.035000	-0.000604	0.000131	0.001341	0.001934	7378.742911	45856.976689	3966.243640	24216.764863
24.536000	-0.000261	-0.000421	0.000447	0.001169	7390.301080	45877.926503	3965.904202	24254.409896
25.039000	-0.001918	0.000386	-0.001189	0.001840	7366.047558	45891.497554	3959.868641	24221.390901
25.536500	0.001416	0.000489	-0.000661	0.001717	7402.120372	45913.866611	3961.568742	24227.457502
26.037000	-0.002757	-0.000115	0.003005	0.001755	7358.207919	45850.237791	3971.092329	24225.545489
26.537500	-0.001319	-0.000555	0.001601	0.001439	7376.444084	45837.969344	3968.226993	24241.103941
27.037500	0.002345	0.000878	0.000726	-0.000817	7438.544481	46204.439719	3971.867912	24352.565183
27.535000	0.001869	0.000693	-0.001061	-0.000539	7430.577911	46158.250172	3966.428172	24338.756428
28.035500	-0.001763	0.000261	0.002485	0.002287	7363.013237	45834.818167	3968.323236	24199.388066
28.535500	-0.000469	0.000607	0.009062	0.000572	7394.370360	46039.206391	3990.340903	24283.878202
29.036000	-0.000967	0.000573	-0.001039	0.000122	7393.875683	46080.601305	3964.754064	24306.111906
29.539000	0.001214	0.001080	0.001995	0.000723	7410.420399	46071.221184	3971.153334	24276.444586
30.036500	-0.002855	-0.000181	-0.000256	0.005559	7317.908705	45469.116492	3952.615567	24039.119202
30.537000	-0.001024	0.000730	0.001253	0.004097	7351.902511	45702.375895	3960.349335	24110.585029
31.037000	-0.000860	-0.000056	-0.000128	0.001116	7384.604236	45919.412787	3964.537084	24257.052448
31.539500	0.001330	0.000650	0.002570	0.000483	7414.157012	46052.338205	3973.303024	24288.281976
32.034500	-0.003528	0.000376	-0.002121	0.006725	7299.045991	45409.397423	3944.780066	23982.299451
32.535000	0.001548	0.000400	0.000461	0.000589	7415.331353	46016.936285	3967.465370	24283.031823
33.035500	-0.000764	0.001079	-0.000367	0.000697	7389.980222	46073.616733	3965.008914	24277.699945
33.536000	0.001209	0.000267	0.003070	-0.000568	7423.933364	46118.703282	3977.406615	24340.198734
34.039000	-0.000798	0.000670	0.001189	0.004439	7350.698130	45662.841071	3959.289897	24093.862937
34.536500	-0.001192	-0.000320	0.003413	0.002423	7367.526995	45763.975947	3970.407410	24192.692116
35.037000	-0.001523	-0.000490	0.001953	0.002019	7368.286947	45787.047548	3967.627507	24212.556642
35.537000	0.000359	0.000815	-0.000708	0.003306	7374.484249	45788.851626	3957.299933	24149.359950
36.037000	-0.000536	0.000359	0.000443	0.004552	7352.244072	45621.064929	3957.051470	24088.350874
36.537000	-0.000792	0.000277	-0.003188	0.002962	7366.085108	45769.732128	3951.747408	24166.222008
37.035000	0.000396	-0.000187	-0.002452	0.002617	7382.043544	45757.967518	3954.555335	24183.189588
37.535000	-0.000309	0.000595	-0.001018	0.003260	7368.011791	45771.683534	3956.610901	24151.604895
38.035000	-0.002151	0.000880	-0.004258	0.003271	7348.781280	45798.794874	3948.180044	24151.069313
38.538500	-0.001363	-0.000304	0.001581	0.002949	7360.287422	45713.692224	3964.212277	24166.872170
39.036000	0.000842	0.000548	0.001653	0.003693	7375.483090	45724.412174	3962.452824	24130.401033
39.536500	0.000431	0.000526	0.009139	0.003357	7374.704067	45755.318420	3983.104218	24146.871289
40.036500	-0.000690	0.000796	0.002511	0.003950	7356.891776	45723.492740	3964.025422	24117.808533
40.537000	0.000223	0.000821	-0.000914	0.003377	7372.320504	45782.391106	3956.576335	24145.858836
41.037500	-0.002394	0.000656	0.001957	0.003497	7343.927690	45754.293114	3963.761707	24139.988209
41.535000	-0.000154	0.000541	-0.001288	0.003571	7366.387587	45735.673791	3955.098929	24136.352666
42.035000	0.000686	0.000950	0.002453	0.004112	7369.494637	45722.646164	3963.449088	24109.842246
42.535500	0.001020	0.000713	-0.001376	0.003600	7378.301299	45749.756735	3954.796139	24134.947929
43.038500	-0.000691	0.000184	-0.000954	0.003189	7364.777365	45738.114384	3956.963111	24155.098523
43.536000	-0.000082	0.000061	-0.005269	0.001430	7389.447006	45899.858283	3950.324931	24241.547719
44.036500	0.000871	0.000158	-0.002685	0.003820	7374.456234	45673.399301	3950.829295	24124.163035
44.536500	0.001876	0.000217	0.001527	0.000618	7418.476744	45995.851245	3970.194183	24281.595413
45.037000	0.002812	0.000793	0.001992	0.001262	7421.554396	45989.114472	3969.724764	24249.857493
45.537000	0.001290	0.000492	0.003419	0.000612	7412.381272	46023.806854	3975.205145	24281.899467
46.034500	-0.002304	0.000220	0.000299	0.003821	7341.518040	45679.373581	3958.582066	24124.125191
46.535000	0.002174	0.000114	0.002783	0.001122	7416.312061	45935.654433	3972.178518	24256.761087
47.035000	-0.000122	0.000492	0.000871	0.003428	7368.205670	45744.931614	3961.099907	24143.388613
47.541000	0.000725	0.000637	0.004818	0.004930	7361.401928	45611.240005	3967.505719	24069.836124
48.036000	-0.001033	-0.000098	0.003516	0.004489	7347.743900	45582.338357	3965.245723	24091.398969
48.536000	0.002063	0.000688	0.004279	0.001116	7415.202544	45993.149835	3976.147014	24257.032956
49.036500	0.000834	0.000012	-0.000086	0.001086	7402.632886	45929.074582	3964.725661	24258.526549
49.537000	0.001998	0.001268	0.003316	-0.000428	7430.776978	46204.521440	3977.686407	24333.290382
50.037000	-0.000292	0.000785	0.001568	0.005702	7342.868126	45549.873469	3956.985799	24032.155958
50.534500	0.001458	0.001217	0.003189	0.003402	7384.928652	45819.052307	3967.240507	24144.627666
51.034500	-0.068161	-0.020647	0.010860	0.226921	5160.317596	27285.909290	3520.306322	15577.033619
51.535000	-0.040934	-0.010540	-0.013290	0.079531	6302.453946	37953.155119	3748.099510	20720.408964
52.038000	-0.055031	-0.068340	-0.016976	-0.221227	9527.770005	64244.203978	4653.380264	38570.156234
52.536000	-0.114133	-0.257592	-0.068015	-0.419520	12049.747757	65535.000000	5390.937776	59241.631911
53.036000	-0.058913	-0.160730	-0.005816	-0.322658	11208.850884	65535.000000	5194.180945	47967.917491
53.535500	-0.065284	-0.140581	0.000037	-0.302509	10713.839116	65535.000000	5117.496287	45922.387389
54.036500	-0.055338	-0.112758	-0.006313	-0.274686	10396.822431	65535.000000	4944.108474	43249.448162
54.536500	-0.032917	-0.120549	-0.008510	-0.282478	10940.334624	65535.000000	4971.566968	43980.784689
55.037000	-0.014916	-0.111053	-0.003839	-0.272981	11100.283716	65535.000000	4947.864519	43091.163929
55.537000	-0.006574	-0.081330	0.001392	-0.243258	10704.057428	65535.000000	4831.516150	40429.074991
56.037500	-0.012691	-0.044693	-0.001636	-0.192424	9739.108631	63519.934688	4597.603726	36277.889122
56.538000	-0.003362	-0.024979	-0.004522	-0.155748	9318.846316	61197.492173	4443.362101	33570.744097
57.035500	-0.010219	-0.015280	-0.007379	-0.113237	8624.040799	56953.995160	4282.940457	30705.953177
57.535500	-0.016469	-0.011990	-0.003293	-0.077637	8093.835736	53077.331751	4180.967962	28513.474582
58.036000	-0.014416	-0.009959	-0.003959	-0.064246	7958.773582	51781.357671	4137.815038	27734.168114
58.536000	-0.015207	-0.008373	-0.006220	-0.044366	7721.439292	49764.391820	4072.621225	26620.717642
59.037000	-0.017885	-0.007116	-0.008501	-0.023570	7465.253751	47701.909779	4008.110368	25509.182558
59.537000	-0.018775	-0.007236	-0.012043	-0.010872	7323.171002	46398.498980	3964.727313	24856.221647
60.037500	-0.021153	-0.007430	-0.012381	0.001196	7176.910867	45186.986731	3932.659610	24253.073623
60.540500	-0.018457	-0.006790	-0.008590	0.009542	7121.017852	44442.985213	3921.117141	23845.669600
61.038000	-0.018931	-0.006993	-0.006624	0.015535	7057.932992	43854.363919	3911.009697	23557.939221
61.540500	-0.013503	-0.003544	-0.013302	0.020019	7067.083487	43756.788767	3883.480455	23345.202375
62.035500	-0.013455	-0.003573	-0.007976	0.013497	7131.322825	44372.507961	3912.726185	23655.332654
62.535500	-0.015903	-0.004230	-0.016785	0.012240	7119.609711	44429.909264	3893.994126	23715.663294
63.036500	-0.014003	-0.004639	-0.011269	0.007927	7181.086869	44804.988607	3918.436784	23923.924655
63.536000	-0.012299	-0.004764	-0.007891	0.006421	7213.196187	44938.548490	3930.790986	23997.119604
64.037000	-0.012348	-0.005006	-0.012122	0.007043	7206.459691	44854.876435	3918.512818	23966.832505
64.545500	-0.011228	-0.005215	-0.008774	0.006480	7223.375712	44889.178946	3928.396878	23994.245914
65.037000	-0.012093	-0.004244	-0.007314	0.007234	7207.101457	44910.079944	3930.189468	23957.549384
65.537500	-0.012369	-0.004533	-0.008737	0.007401	7202.659637	44865.992775	3926.154027	23949.426563
66.038000	-0.012853	-0.004177	-0.009319	0.008685	7185.000958	44776.494481	3921.440432	23887.164625
66.535500	-0.012370	-0.004020	-0.006032	0.006921	7207.464461	44962.081301	3934.251212	23972.769069
67.035500	-0.011092	-0.004433	-0.012530	0.006158	7227.977566	44996.058083	3919.714786	24009.925019
67.536000	-0.009736	-0.003927	-0.009981	0.006752	7235.660778	44987.514192	3924.648373	23980.983128
68.036500	-0.010932	-0.002817	-0.007438	0.008110	7209.964578	44963.510156	3927.651263	23915.041937
68.536500	-0.010667	-0.004026	-0.010336	0.006583	7227.980382	44994.322523	3924.179918	23989.229548
69.037000	-0.011025	-0.003935	-0.003264	0.007037	7219.808767	44959.132586	3941.040116	23967.138034
69.543000	-0.009976	-0.004287	-0.010000	0.006600	7234.781011	44967.438639	3924.987743	23988.422816
70.040500	-0.012259	-0.003715	-0.013132	0.008010	7197.669433	44886.252204	3913.553238	23919.857876
70.534500	-0.009632	-0.003040	-0.010237	0.006461	7239.653524	45101.851580	3924.736800	23995.161178
71.035500	-0.008426	-0.002890	-0.011063	0.006976	7246.639484	45066.428877	3921.349148	23970.095805
71.535000	-0.007046	-0.003314	-0.006305	0.006572	7264.727325	45064.498858	3934.448585	23989.780985
72.036000	-0.008890	-0.003288	-0.011146	0.006460	7247.160595	45077.842234	3922.443151	23995.199923
72.539000	-0.005624	-0.003267	-0.007308	0.005324	7291.941006	45190.487202	3935.073686	24050.613013
73.037000	-0.004537	-0.002530	-0.013877	0.005799	7298.188508	45215.955158	3917.228051	24027.406046
73.539500	-0.007725	-0.002977	-0.006625	0.005715	7266.536663	45180.650138	3935.819455	24031.539967
74.036500	-0.007917	-0.002077	-0.011333	0.007308	7248.424364	45113.167286	3919.834250	23953.954656
74.542500	-0.007411	-0.003044	-0.013364	0.004682	7280.249880	45274.807253	3921.333070	24081.973115
75.034500	-0.006409	-0.002220	-0.008939	0.005415	7282.996397	45283.711370	3930.682867	24046.169890
75.535500	-0.006080	-0.002077	-0.010675	0.005319	7287.326504	45306.991219	3926.519165	24050.833893
76.035500	-0.007735	-0.002311	-0.006390	0.006616	7257.289278	45157.762980	3934.116497	23987.618642
76.536000	-0.005963	-0.002299	-0.007511	0.004710	7294.748494	45344.833788	3936.122315	24080.608751
77.036000	-0.005176	-0.002257	-0.006844	0.004657	7303.352333	45354.122392	3937.963138	24083.193670
77.539000	-0.005911	-0.001893	-0.006815	0.004401	7298.439305	45414.779060	3938.693277	24095.707991
78.036500	-0.007475	-0.002429	-0.011283	0.005532	7270.938808	45251.792177	3924.442049	24040.431049
78.536500	-0.008141	-0.002360	-0.010472	0.003740	7282.406707	45433.824619	3931.045302	24128.075381
79.040000	-0.004746	-0.001630	-0.006894	0.004106	7313.404927	45469.462949	3939.247302	24110.131201
79.537500	-0.005473	-0.001986	-0.008920	0.003516	7312.004099	45492.430930	3935.571371	24139.036308
80.035000	-0.005855	-0.001297	-0.010620	0.005485	7287.929238	45367.066119	3926.238925	24042.754386
80.535500	-0.004519	-0.002598	-0.007584	0.002694	7330.281422	45513.041869	3941.099401	24179.405775
81.035500	-0.006143	-0.001801	-0.010866	0.002773	7312.756491	45583.615087	3932.503326	24175.510697
81.536000	-0.004346	-0.001625	-0.007176	0.003060	7328.289866	45572.712726	3941.208037	24161.439789
82.036500	-0.007690	-0.001938	-0.010746	0.005301	7271.102152	45322.377572	3926.384382	24051.709479
82.536000	-0.005687	-0.001297	-0.006948	0.003338	7311.639415	45577.593382	3941.077763	24147.776806
83.037000	-0.006033	-0.001746	-0.008209	0.002710	7314.530748	45595.197085	3939.455417	24178.601090
83.540000	-0.006374	-0.001437	-0.008542	0.003212	7305.879477	45576.179267	3937.316468	24153.952450
84.037000	-0.005285	-0.002425	-0.008736	0.002541	7323.960895	45545.060745	3938.536769	24186.909000
84.537500	-0.005486	-0.001966	-0.009805	0.002550	7321.806242	45589.375077	3935.780845	24186.489855
85.035500	-0.006072	-0.002438	-0.009259	0.002085	7320.559024	45588.547544	3938.365097	24209.315453
85.535500	-0.006529	-0.003062	-0.005073	0.001898	7317.780046	45545.661354	3949.623487	24218.544523
86.036000	-0.007982	-0.002114	-0.005261	0.003622	7285.239294	45469.560288	3944.688179	24133.883916
86.536000	-0.005863	-0.002546	-0.011059	0.001730	7326.358885	45612.850465	3934.669920	24226.776928
87.036500	-0.006833	-0.002901	-0.010648	0.001291	7320.893767	45621.112628	3936.842539	24248.405320
87.536500	-0.006347	-0.002061	-0.001174	0.002352	7314.985306	45599.369979	3958.568623	24196.182071
88.039500	-0.006799	-0.002164	-0.005497	0.001988	7314.082268	45625.021866	3948.292966	24214.079143
88.536500	-0.006984	-0.002637	-0.006058	0.001321	7319.033489	45644.210249	3948.567870	24246.928934
89.037500	-0.007797	-0.001991	-0.003372	0.001466	7309.194883	45693.583711	3955.155493	24239.812097
89.534000	-0.006256	-0.003094	-0.003023	0.001682	7322.807504	45563.715811	3955.500285	24229.159312
90.035500	-0.008697	-0.002656	-0.006275	0.001533	7299.283448	45621.482174	3947.459217	24236.508913
90.535000	-0.007848	-0.002860	-0.006726	0.000883	7314.661384	45665.451588	3947.973048	24268.543067
91.035500	-0.008555	-0.003285	-0.010485	0.000647	7309.824445	45646.740162	3938.908380	24280.175035
91.536500	-0.008091	-0.002738	-0.005692	0.001903	7301.706043	45577.070411	3948.008887	24218.295635
92.036500	-0.007932	-0.003518	-0.008251	0.000225	7320.561544	45665.414710	3945.736876	24301.025457
92.539500	-0.006160	-0.003081	-0.010332	0.000416	7336.853537	45689.616630	3939.894196	24291.580288
93.036500	-0.007171	-0.003059	-0.004294	0.000515	7325.405252	45682.060710	3955.231682	24286.704248
93.534500	-0.010391	-0.003497	-0.001544	0.001679	7280.480765	45524.420655	3959.360370	24229.308482
94.037500	-0.007888	-0.003430	-0.004867	0.001321	7309.748801	45566.218496	3951.649892	24246.929202
94.535000	-0.006908	-0.003308	-0.005436	0.000296	7330.372235	45679.154164	3952.833752	24297.521449
95.035500	-0.009239	-0.003931	-0.002702	-0.000528	7314.859364	45698.886704	3962.100079	24338.214134
95.536000	-0.008887	-0.003291	-0.003107	-0.000003	7313.087923	45710.250860	3959.673299	24312.293507
96.036000	-0.009624	-0.003033	-0.007271	0.000961	7295.652817	45640.667957	3946.367021	24264.706822
