sample name	sample
index	138
start time	 02-15-2021  01:41:17 PM
880	0.495465
Peak Time (s)	92.037
Peak Height 	0.4955
calc peak height	90,93
Baseline Time (s)	10.537
Baseline Value 	-0.005006
subtract baseline	10,4
Abs	0.341626
Peak Time (s)	91.536
Peak Height 	0.3416
calc peak height	90,93
Baseline Time (s)	8.536
Baseline Value 	4.4587E-4
subtract baseline	10,3
PK_550	0.162021
Peak Time (s)	91.536
Peak Height 	0.162
calc peak height	90,93
Baseline Time (s)	10.537
Baseline Value 	0.001391
subtract baseline	10,2
PK_880	0.315527
Peak Time (s)	90.035
Peak Height 	0.3155
calc peak height	90,93
Baseline Time (s)	11.04
Baseline Value 	0.001608
subtract baseline	10,1


Time (s)	A880-A510	A880-A775	A880-A975	A880	I510	I775	I975	I880	
0.038000	0.000639	-0.000560	-0.002149	0.001584	4238.405339	15288.586639	3260.939879	8707.878123
0.536500	-0.004241	-0.001311	0.011611	0.004069	4218.275693	15198.070089	3268.092579	8675.435532
1.037000	0.000205	-0.002709	-0.000000	0.002415	4234.922932	15205.218505	3261.766260	8697.012186
1.538500	-0.003020	-0.000472	0.005428	0.001252	4229.268728	15300.374468	3265.938224	8712.221194
2.037500	0.000855	-0.001066	0.003497	0.000369	4242.354408	15308.478628	3265.269916	8723.795796
2.535000	-0.002194	-0.001300	-0.004349	0.000796	4232.781125	15289.907389	3260.056244	8718.195418
3.035000	0.004081	-0.000448	0.006825	-0.000992	4255.103666	15364.241986	3268.269588	8741.689981
3.535500	-0.002553	-0.001196	0.001067	0.000291	4233.180938	15307.028916	3263.778085	8724.824463
4.035500	-0.001686	-0.003101	0.001647	-0.001789	4241.295585	15311.939346	3265.466171	8752.192481
4.535500	-0.002452	-0.001793	0.002559	-0.000414	4235.394635	15310.048824	3265.171196	8734.081929
5.036500	-0.000561	-0.001251	-0.011557	0.000441	4238.246985	15301.266601	3255.812379	8722.859147
5.536000	0.003405	-0.000795	0.005111	-0.000156	4250.888433	15330.884966	3266.634555	8730.697557
6.036500	0.000959	0.000187	0.008713	0.001284	4240.114920	15317.997324	3268.020367	8711.806050
6.537000	-0.001000	0.000020	0.014394	0.001046	4235.375019	15320.010657	3271.850259	8714.924839
7.037500	0.000405	-0.001599	-0.012666	-0.000511	4243.542583	15318.244134	3255.715689	8735.362882
7.537500	0.000528	0.000640	0.008556	0.000308	4241.620594	15358.271258	3268.547660	8724.606591
8.038000	-0.001188	-0.001126	0.000797	-0.000630	4239.471474	15334.903116	3264.190269	8736.926833
8.535500	-0.003020	-0.000187	0.000000	-0.000155	4233.126391	15348.007226	3263.385594	8730.688262
9.036000	-0.000511	0.001629	0.004654	0.001297	4236.029138	15358.261590	3265.416130	8711.634799
9.536500	0.000696	0.000084	-0.000339	0.000160	4242.494679	15346.752175	3262.972739	8726.549017
10.039000	-0.000714	-0.001747	-0.005078	-0.000835	4241.346871	15323.192686	3260.620495	8739.626720
10.537000	0.002914	0.000000	0.021536	0.000000	4249.085667	15348.899597	3277.233882	8728.645906
11.039500	0.000000	-0.001059	0.000194	-0.001213	4244.366419	15353.251624	3264.177720	8744.604883
11.537500	0.002118	0.000681	-0.003172	0.000380	4245.822140	15357.392840	3261.053180	8723.660915
12.037000	-0.006355	-0.001304	0.001687	-0.001362	4227.297429	15350.523681	3265.219584	8746.561148
12.537000	-0.000899	-0.001220	0.006122	-0.001400	4242.396405	15353.988409	3268.080477	8747.071525
13.035000	0.000015	-0.001318	0.011005	-0.000232	4241.693372	15318.308954	3270.478028	8731.695872
13.535500	-0.000553	0.000605	0.008229	0.000343	4238.540668	15356.305241	3268.314069	8724.144912
14.044000	0.002572	-0.000953	0.011550	-0.001188	4251.441462	15355.531780	3271.452500	8744.268400
14.536000	0.002799	-0.001309	0.001210	0.001395	4244.896374	15272.864358	3263.171093	8710.353999
15.036000	0.001669	-0.002393	0.012107	-0.000247	4246.315039	15288.500121	3271.202763	8731.890945
15.536500	0.001105	-0.000567	-0.005138	-0.000409	4245.200928	15344.442613	3260.316654	8734.022791
16.040000	0.001565	0.000605	0.003729	0.000504	4243.945904	15351.742696	3265.332058	8722.030365
16.537500	0.006852	0.000614	0.011062	0.001159	4256.837853	15333.550286	3269.614689	8713.440992
17.038000	-0.002937	-0.001360	0.009375	0.003416	4223.591944	15214.908132	3267.077534	8683.943449
17.534500	-0.001301	-0.000768	-0.000666	-0.003815	4247.975163	15435.144302	3265.283447	8778.985538
18.035000	0.000870	0.000062	0.001017	-0.001337	4247.124349	15388.427847	3264.778636	8746.242834
18.535500	-0.001786	-0.000381	0.022707	0.000865	4233.712771	15313.791361	3277.437039	8717.293719
19.036000	-0.005539	-0.001311	-0.001244	0.000462	4224.551604	15299.003639	3262.211873	8722.583757
19.536000	-0.000575	-0.000208	0.009847	0.000583	4237.816785	15326.582414	3269.201679	8720.985514
20.036500	-0.002359	-0.000705	0.004936	0.001595	4230.139403	15284.191729	3265.405837	8707.731809
20.537000	-0.005457	-0.001071	0.009653	0.000320	4225.160810	15309.708538	3269.246315	8724.442260
21.037000	-0.003038	-0.001078	0.008216	0.000592	4231.026038	15301.880027	3268.145546	8720.875180
21.537500	-0.001364	0.001179	0.007993	0.001928	4231.951261	15327.771583	3267.144858	8703.368223
22.038000	0.002518	0.001034	0.005323	0.002073	4242.241016	15319.640433	3265.348360	8701.483699
22.535000	-0.001264	-0.001045	0.018538	0.000784	4235.366620	15297.408944	3274.733995	8718.350241
23.035500	-0.000439	-0.000405	0.008489	0.001449	4235.810209	15296.730149	3267.770561	8709.647495
23.535500	-0.002856	-0.001962	0.004611	-0.000052	4233.291317	15295.133439	3266.249122	8729.333583
24.036000	0.000123	-0.001596	0.003571	-0.000097	4241.617777	15306.682369	3265.613659	8729.916304
24.536000	-0.001187	-0.001095	0.013802	0.000403	4236.625152	15306.715218	3271.882861	8723.348078
25.037000	-0.003337	-0.001940	0.013380	-0.000210	4232.404583	15300.183909	3272.007128	8731.400151
25.537000	-0.002898	-0.001596	0.010824	0.000049	4232.898767	15302.565634	3270.178182	8727.996318
26.037000	-0.001124	-0.000696	0.011498	0.000365	4236.905990	15319.009209	3270.410860	8723.856530
26.535000	-0.000264	0.000088	0.005046	0.001217	4236.926939	15317.090305	3265.716734	8712.681667
27.038000	0.001765	-0.000373	-0.009101	0.001292	4242.318834	15302.036986	3256.800381	8711.702392
27.536000	0.000068	0.000508	0.007621	0.001045	4238.316354	15333.780305	3267.473331	8714.940091
28.035500	-0.001891	-0.000363	0.009048	-0.001831	4240.847104	15390.379875	3270.246555	8752.754718
28.536000	0.002414	-0.001454	0.000516	-0.001560	4252.038613	15351.907474	3264.602143	8749.182132
29.050000	0.002339	-0.000917	0.012543	-0.000887	4249.955058	15348.051721	3271.903449	8740.314153
29.536500	-0.002145	-0.000990	-0.002902	-0.000942	4237.693314	15347.532742	3262.052147	8741.033290
30.037000	0.002131	-0.000435	0.002893	0.002082	4241.147557	15278.099235	3263.800170	8701.360191
30.537000	0.002207	-0.000926	0.010755	0.000524	4245.668776	15308.044006	3269.826711	8721.762887
31.037000	-0.001668	-0.000759	0.017437	0.001896	4231.208998	15274.224237	3273.281911	8703.794105
31.540500	0.004206	0.000739	-0.006886	0.003034	4244.251544	15284.305658	3257.092120	8688.920948
32.035000	-0.000938	-0.000873	0.003800	0.003358	4229.203212	15230.130549	3263.566666	8684.703012
32.543000	-0.002454	-0.000625	0.001616	-0.000465	4235.529816	15344.397734	3264.605448	8734.760457
33.035000	-0.001698	-0.000195	0.008188	-0.000112	4236.638591	15346.556837	3268.580865	8730.122956
33.536000	0.000294	-0.000567	-0.002767	-0.000087	4242.063689	15335.377527	3261.599769	8729.789725
34.036000	-0.001167	-0.002568	0.018510	0.001143	4234.647727	15244.675087	3274.479972	8713.650836
34.536500	0.001043	-0.000892	0.011597	0.000117	4243.570745	15320.473569	3270.635586	8727.108909
35.036500	0.000069	-0.000128	0.001612	0.002044	4235.567910	15287.795398	3263.014896	8701.858989
35.536500	0.003351	-0.000437	0.005261	0.001584	4245.902923	15292.030585	3265.620114	8707.878031
36.034500	0.000146	-0.002056	-0.004854	0.001242	4237.988134	15256.222387	3259.464125	8712.357159
36.538000	0.000001	-0.000428	-0.000133	0.001454	4237.005004	15295.930540	3262.286788	8709.574579
37.035000	0.003352	0.000178	0.017956	0.000918	4247.754653	15328.036941	3274.263440	8716.602407
37.536500	-0.003803	-0.001470	0.003906	0.000778	4228.424337	15285.664145	3265.270519	8718.436362
38.035500	0.005210	-0.002168	0.026989	-0.000298	4256.321733	15296.271851	3281.076460	8732.562644
38.536000	-0.000540	-0.000265	0.008951	0.001518	4235.342114	15298.731597	3268.023156	8708.744803
39.036500	0.003108	0.000844	0.027086	0.002865	4241.682206	15292.025000	3279.021739	8691.128086
39.536500	-0.000908	0.001011	0.007672	0.002947	4230.412682	15294.428588	3266.288868	8690.067081
40.065000	0.001002	0.002167	-0.000260	0.003278	4234.740813	15317.600477	3261.061821	8685.744013
40.557000	-0.000522	0.000092	0.004243	0.001642	4235.047886	15305.239450	3264.934678	8707.109051
41.038000	0.003482	0.000774	0.001057	0.001866	4245.484928	15318.142473	3262.777173	8704.190056
41.538000	-0.003230	-0.000832	0.011644	0.000894	4229.674964	15300.320232	3270.162999	8716.916749
42.338000	0.000472	-0.001856	-0.003585	0.000816	4240.061955	15273.750430	3260.521843	8717.940031
43.001000	-0.002234	-0.000840	0.013802	0.002464	4228.104763	15256.057902	3270.543475	8696.369395
43.269000	-0.000774	-0.001489	0.012368	0.000749	4236.811817	15285.921538	3270.725597	8718.808369
43.535500	0.001171	0.000594	0.002176	0.002495	4237.359016	15295.380395	3263.085593	8695.957559
44.036000	0.001072	-0.001044	0.010070	0.001514	4239.790406	15276.946504	3268.745704	8708.794348
44.537000	0.004390	0.000601	-0.005624	-0.001493	4257.368500	15408.089414	3260.689918	8748.288467
45.037000	0.000663	0.000755	0.016165	0.001740	4238.042483	15321.163954	3272.552374	8705.839105
45.540000	-0.000062	-0.001683	0.015517	-0.000616	4242.540332	15318.814200	3273.669600	8736.738741
46.035000	-0.000997	-0.000642	0.012055	0.005450	4223.334180	15178.239112	3267.491371	8657.489732
46.535000	-0.003459	-0.001095	0.007591	-0.000178	4231.982635	15323.048252	3268.238483	8730.979020
47.035500	0.000588	-0.001964	0.002383	0.002140	4236.731479	15233.684817	3263.440971	8700.600865
47.536000	-0.001219	-0.000415	-0.000526	-0.000223	4238.263289	15343.470939	3263.096110	8731.575762
48.036000	0.001686	-0.000071	0.020431	0.004489	4233.296011	15220.933040	3273.544576	8669.978666
48.536500	-0.003063	0.000810	0.007178	0.004322	4220.785939	15250.212456	3265.096970	8672.146096
49.036500	-0.000154	0.000749	-0.002075	0.004590	4227.980155	15241.031830	3259.109573	8668.668865
49.537500	-0.001374	0.000327	0.001739	0.000290	4236.423714	15349.954072	3264.204315	8724.835926
50.034500	0.002787	0.001008	0.002945	0.006151	4231.757036	15204.672279	3261.269557	8648.409863
50.537500	0.002220	0.000107	0.016143	-0.003121	4255.853835	15440.290335	3275.729726	8769.797139
51.035000	0.000895	-0.003071	0.002022	-0.001338	4247.195053	15300.104898	3265.417559	8746.246775
51.535500	-0.000794	-0.000591	0.005549	-0.002175	4244.831748	15393.674827	3268.210235	8757.292350
52.035500	-0.048414	-0.030158	0.052575	0.373071	3495.975954	7938.776545	3120.110931	5439.877775
52.536000	-0.042324	-0.020698	0.006646	0.143751	3822.995675	11487.028653	3189.021851	7120.886914
53.036500	0.010353	-0.002959	0.000154	-0.041245	4392.338162	16477.978930	3290.724469	9297.058384
53.537000	0.008387	-0.002377	0.024232	-0.049593	4412.334849	16755.956360	3314.118343	9418.825640
54.036500	0.001444	-0.002635	0.013738	-0.007224	4265.194750	15479.061695	3276.853269	8824.347635
54.537000	0.022103	0.004309	0.047486	0.017339	4254.242674	14986.807323	3283.006847	8505.350187
55.040500	0.043337	0.016600	0.060191	0.006165	4348.200504	15646.820542	3299.626621	8648.222160
55.535000	0.072346	0.027091	0.092358	0.061105	4272.465302	14426.005864	3283.756817	7979.812680
56.035000	0.077649	0.035799	0.089214	0.086032	4218.078454	14010.726067	3265.304929	7703.327376
56.535500	0.105249	0.042734	0.131563	0.128499	4178.483163	13153.414446	3265.229722	7267.350063
57.036000	0.134837	0.059359	0.132656	0.165362	4159.595053	12695.565289	3243.387188	6921.972899
57.536000	0.158589	0.066674	0.173873	0.204647	4120.313012	12014.404207	3244.521454	6584.784101
58.036500	0.180297	0.079573	0.200747	0.255558	4050.154393	11267.127348	3230.761077	6190.811411
58.536500	0.195625	0.089525	0.194760	0.283365	4021.584845	10938.064168	3212.658939	5994.354079
59.036000	0.218409	0.099535	0.222311	0.314793	4002.269401	10560.769673	3210.670404	5786.936058
59.537000	0.233757	0.110398	0.249730	0.342878	3974.499826	10270.606871	3210.330880	5613.868218
60.037000	0.235422	0.115041	0.251949	0.368730	3923.959525	9928.726967	3198.606512	5464.155309
60.535000	0.252208	0.123591	0.250827	0.383166	3928.745820	9836.763691	3191.229241	5384.351793
61.035000	0.263650	0.130880	0.264090	0.399842	3918.118408	9692.668246	3189.645678	5295.408642
61.535500	0.267487	0.134091	0.271118	0.410411	3904.635237	9581.873078	3188.016653	5240.781770
62.035500	0.272638	0.139171	0.284278	0.421607	3892.702453	9491.186513	3188.918173	5184.339533
62.536500	0.275680	0.140563	0.283246	0.415780	3910.265725	9598.368197	3191.138336	5213.533143
63.036000	0.285639	0.147475	0.278498	0.411194	3939.854619	9772.778252	3191.063352	5236.787213
63.536000	0.289498	0.149589	0.293914	0.413744	3942.567044	9766.078338	3197.139847	5223.825861
64.036000	0.282152	0.146003	0.279064	0.414555	3925.799792	9698.899205	3189.766639	5219.721962
64.540000	0.286120	0.148154	0.273896	0.411784	3939.628872	9774.141738	3188.661291	5233.780323
65.034500	0.283759	0.146522	0.286659	0.411834	3934.656850	9748.340088	3194.593380	5233.526142
65.535500	0.290692	0.149282	0.305490	0.416577	3939.173178	9718.039742	3201.373488	5209.519094
66.035500	0.286841	0.150892	0.308355	0.421566	3921.085435	9666.726831	3200.337339	5184.545886
66.536000	0.298370	0.155030	0.286399	0.427255	3932.993119	9643.309688	3187.300870	5156.417549
67.036000	0.293215	0.155654	0.311645	0.430371	3916.174136	9605.856917	3197.669911	5141.166703
67.536500	0.292843	0.156406	0.320956	0.435158	3905.845299	9545.655600	3199.855148	5117.948759
68.036500	0.287952	0.155217	0.322743	0.435980	3894.549885	9515.867312	3200.324188	5113.989067
68.536500	0.299634	0.156679	0.306548	0.440397	3908.939158	9472.353523	3190.527057	5092.832728
69.037000	0.297012	0.159197	0.314778	0.444221	3896.160798	9453.214378	3192.582605	5074.689296
69.535000	0.296518	0.158210	0.318826	0.445864	3891.966564	9414.844552	3193.713429	5066.945371
70.035000	0.286464	0.155460	0.323989	0.451583	3861.630466	9292.839770	3193.451367	5040.206220
70.535000	0.296232	0.156231	0.298063	0.446255	3890.641380	9380.466052	3183.979025	5065.105519
71.035000	0.299126	0.157560	0.322717	0.450476	3888.049363	9338.762750	3193.373458	5045.353617
71.535000	0.290057	0.153903	0.319031	0.450026	3871.414278	9292.838616	3191.856150	5047.450055
72.036000	0.290016	0.154269	0.313013	0.454113	3863.561645	9239.989768	3187.189514	5028.489153
72.536500	0.292520	0.157705	0.318054	0.456196	3864.359245	9259.143178	3188.544083	5018.893583
73.037000	0.295447	0.153326	0.289681	0.456466	3869.410025	9193.554163	3175.805807	5017.655615
73.537000	0.298200	0.156526	0.328168	0.457753	3872.210397	9220.463133	3192.516263	5011.755720
74.037000	0.295823	0.158137	0.305269	0.467647	3849.065254	9104.779819	3177.711320	4966.961695
74.537500	0.298631	0.156056	0.291944	0.458742	3871.142532	9199.917544	3175.800247	5007.228376
75.035000	0.291707	0.156429	0.296539	0.463424	3849.264815	9139.672172	3175.762756	4985.955417
75.535000	0.303024	0.160515	0.316362	0.466214	3865.281652	9157.733770	3183.235063	4973.387640
76.035500	0.295832	0.157834	0.304397	0.466655	3850.929781	9114.335136	3177.763908	4971.409807
76.536000	0.297600	0.156214	0.305592	0.466557	3854.414510	9093.270862	3178.326729	4971.845617
77.036000	0.294349	0.155741	0.326958	0.470212	3841.590447	9036.552144	3186.208811	4955.516437
77.536500	0.303883	0.161558	0.322628	0.472502	3855.048272	9084.991121	3183.225304	4945.356736
78.037000	0.303242	0.157314	0.332239	0.475441	3848.370423	8986.779765	3186.232859	4932.392857
78.540000	0.302861	0.159531	0.308511	0.472310	3853.493783	9059.741684	3177.095084	4946.202963
79.037500	0.296773	0.159429	0.332317	0.474598	3837.983828	9027.010577	3186.651343	4936.098490
79.534500	0.305728	0.158916	0.304422	0.473581	3856.484872	9033.904365	3174.787458	4940.585347
80.035500	0.299495	0.158851	0.303532	0.474219	3843.692135	9024.303105	3174.134625	4937.771544
80.535000	0.307712	0.159459	0.308446	0.476743	3854.275623	8998.213007	3175.156659	4926.676035
81.035500	0.305638	0.158933	0.329953	0.476352	3851.133295	8996.381024	3184.785645	4928.390149
81.535500	0.298882	0.156895	0.311468	0.475141	3840.861129	8985.152458	3177.149393	4933.709546
82.036000	0.292813	0.156202	0.316175	0.480537	3820.034726	8903.187306	3176.851268	4910.119986
82.536500	0.300801	0.156723	0.319198	0.476870	3841.211139	8959.437051	3179.768141	4926.119573
83.037000	0.304332	0.162145	0.334716	0.482963	3836.506762	8950.393828	3183.954083	4899.608161
83.537000	0.301361	0.160380	0.327100	0.481838	3833.133944	8941.772392	3181.061326	4904.475448
84.034500	0.302887	0.158483	0.305978	0.484621	3830.846678	8879.135717	3170.773052	4892.456855
84.535000	0.299728	0.159313	0.311717	0.482742	3828.525025	8915.313681	3173.990977	4900.564575
85.035000	0.307723	0.159228	0.332585	0.483645	3841.481798	8902.094561	3182.695464	4896.663540
85.535500	0.296080	0.157789	0.315890	0.482518	3822.342644	8897.930255	3175.873423	4901.532630
86.036000	0.307001	0.159972	0.307598	0.485888	3836.036937	8882.088058	3170.920832	4887.011628
86.536000	0.310994	0.157503	0.328331	0.484459	3846.020261	8868.259815	3180.447948	4893.157371
87.036500	0.307422	0.155600	0.305067	0.484383	3839.571569	8844.032773	3170.492054	4893.485430
87.536500	0.302077	0.158267	0.286018	0.485708	3827.407208	8861.827768	3162.172398	4887.788009
88.039500	0.314544	0.159626	0.322764	0.490794	3840.878373	8812.571238	3175.271388	4866.079330
88.537000	0.308081	0.156368	0.323698	0.484989	3839.667223	8846.181898	3178.184646	4890.876629
89.034500	0.314337	0.159995	0.332912	0.492580	3837.218145	8793.949772	3178.893527	4858.516280
89.535000	0.305104	0.160778	0.327551	0.491245	3822.876897	8821.796524	3177.140459	4864.164248
90.035500	0.315527	0.156873	0.301563	0.491997	3840.472779	8760.733121	3165.903551	4860.979913
90.535500	0.311377	0.155156	0.317176	0.489422	3837.579963	8771.939055	3173.471138	4871.908264
91.036000	0.305963	0.157695	0.326614	0.491022	3824.827642	8784.217024	3176.831662	4865.111245
91.536000	0.314697	0.162021	0.341626	0.494506	3834.353542	8795.256093	3181.885160	4850.394239
92.037000	0.310229	0.159248	0.316644	0.495465	3824.507673	8746.497979	3170.698740	4846.362531
92.537000	0.310048	0.156239	0.336388	0.490367	3833.422588	8773.745806	3181.397700	4867.890457
93.037500	0.308454	0.159725	0.324506	0.496114	3820.149403	8744.275593	3173.742513	4843.642251
93.535000	0.308207	0.159794	0.330051	0.494156	3823.223843	8770.682832	3176.962848	4851.867889
94.034000	0.311689	0.158486	0.316708	0.494088	3829.639432	8754.506227	3171.303184	4852.154017
94.535000	0.312294	0.157889	0.344145	0.493744	3831.364627	8751.212502	3183.348141	4853.603029
95.036000	0.315804	0.159966	0.340280	0.495973	3833.697546	8749.235517	3180.639537	4844.233366
95.536000	0.318653	0.159039	0.322411	0.495997	3838.866411	8736.875699	3172.902756	4844.132595
96.036500	0.309113	0.156403	0.319010	0.493601	3825.856820	8733.757573	3172.477508	4854.202927
96.536500	0.319246	0.157585	0.331152	0.494564	3842.594724	8736.597303	3177.262849	4850.148391
97.036500	0.316059	0.160525	0.328830	0.500073	3826.713612	8703.341760	3173.897884	4827.120976
