sample name	sample
index	1305
start time	 04-29-2021  04:01:07 PM


Wavelength (nm)	Absorbance
494.344910	NaN
494.563924	NaN
494.782919	NaN
495.001897	NaN
495.220856	NaN
495.439797	0.668761
495.658719	0.611227
495.877624	0.265830
496.096510	0.164803
496.315378	0.311116
496.534227	0.176442
496.753059	0.188623
496.971872	0.212407
497.190667	0.035473
497.409444	0.032106
497.628203	0.028010
497.846943	0.025078
498.065665	0.027233
498.284369	0.027394
498.503055	0.027070
498.721723	0.026209
498.940372	0.025149
499.159003	0.023618
499.377616	0.023584
499.596210	0.023133
499.814787	0.023095
500.033345	0.021783
500.251885	0.020702
500.470406	0.021180
500.688910	0.020582
500.907395	0.020680
501.125862	0.021309
501.344311	0.021435
501.562742	0.022243
501.781154	0.022269
501.999548	0.022907
502.217924	0.023181
502.436282	0.022560
502.654621	0.022567
502.872942	0.022208
503.091245	0.021012
503.309530	0.021029
503.527797	0.019430
503.746045	0.019836
503.964275	0.019333
504.182487	0.019704
504.400681	0.019917
504.618856	0.019738
504.837013	0.019641
505.055152	0.020649
505.273273	0.020790
505.491376	0.021092
505.709460	0.021334
505.927526	0.021444
506.145574	0.019907
506.363604	0.019714
506.581615	0.020681
506.799608	0.021529
507.017583	0.021582
507.235540	0.019854
507.453478	0.020155
507.671399	0.020115
507.889301	0.020026
508.107185	0.021361
508.325050	0.022038
508.542898	0.021609
508.760727	0.021596
508.978538	0.022101
509.196330	0.023372
509.414105	0.022970
509.631861	0.021700
509.849599	0.021714
510.067319	0.020915
510.285021	0.020322
510.502704	0.020473
510.720369	0.020232
510.938016	0.018801
511.155645	0.018622
511.373255	0.018405
511.590848	0.018792
511.808422	0.018571
512.025977	0.018491
512.243515	0.018424
512.461034	0.018438
512.678536	0.018019
512.896018	0.018683
513.113483	0.018438
513.330930	0.019125
513.548358	0.019329
513.765768	0.019093
513.983160	0.019502
514.200533	0.019391
514.417889	0.019836
514.635226	0.020309
514.852545	0.019972
515.069845	0.020621
515.287128	0.020036
515.504392	0.020767
515.721638	0.020753
515.938866	0.019986
516.156075	0.020021
516.373267	0.018948
516.590440	0.018700
516.807594	0.019220
517.024731	0.018683
517.241850	0.019100
517.458950	0.018568
517.676032	0.018582
517.893095	0.019438
518.110141	0.019522
518.327168	0.019928
518.544177	0.019211
518.761168	0.019336
518.978141	0.019430
519.195095	0.019801
519.412031	0.019600
519.628949	0.019840
519.845849	0.019844
520.062731	0.019686
520.279594	0.019878
520.496439	0.020723
520.713266	0.019920
520.930074	0.019943
521.146865	0.019587
521.363637	0.019909
521.580391	0.019508
521.797127	0.018997
522.013844	0.019121
522.230543	0.019057
522.447224	0.019130
522.663887	0.019642
522.880532	0.019523
523.097158	0.019759
523.313766	0.020311
523.530356	0.020494
523.746928	0.020452
523.963481	0.020763
524.180017	0.020586
524.396534	0.020185
524.613032	0.020931
524.829513	0.020832
525.045975	0.020608
525.262420	0.020259
525.478845	0.020258
525.695253	0.020272
525.911643	0.019841
526.128014	0.019931
526.344367	0.020469
526.560702	0.019809
526.777018	0.020339
526.993316	0.020693
527.209597	0.021248
527.425858	0.021820
527.642102	0.022038
527.858328	0.022645
528.074535	0.022801
528.290724	0.022822
528.506894	0.022896
528.723047	0.023546
528.939181	0.023552
529.155297	0.023227
529.371395	0.022882
529.587475	0.023173
529.803536	0.023056
530.019579	0.023350
530.235604	0.023259
530.451611	0.023167
530.667600	0.022376
530.883570	0.021607
531.099522	0.021221
531.315456	0.020668
531.531372	0.020810
531.747269	0.020172
531.963148	0.020076
532.179009	0.020181
532.394852	0.020393
532.610676	0.020142
532.826482	0.021391
533.042271	0.021379
533.258040	0.021176
533.473792	0.020953
533.689525	0.021335
533.905240	0.021577
534.120937	0.021425
534.336616	0.021522
534.552277	0.021979
534.767919	0.021340
534.983543	0.021843
535.199149	0.022125
535.414736	0.022236
535.630306	0.022917
535.845857	0.022623
536.061390	0.022761
536.276904	0.023026
536.492401	0.023189
536.707879	0.023539
536.923339	0.023427
537.138781	0.024283
537.354204	0.024262
537.569610	0.023627
537.784997	0.023874
538.000366	0.023460
538.215716	0.023193
538.431049	0.022551
538.646363	0.022493
538.861659	0.022332
539.076937	0.021976
539.292196	0.021820
539.507438	0.021739
539.722661	0.021305
539.937866	0.021362
540.153052	0.021192
540.368221	0.021883
540.583371	0.021654
540.798503	0.021775
541.013617	0.021597
541.228712	0.021905
541.443789	0.022144
541.658848	0.022770
541.873889	0.023193
542.088912	0.023495
542.303916	0.023251
542.518902	0.023675
542.733870	0.023820
542.948820	0.024027
543.163752	0.024464
543.378665	0.024998
543.593560	0.025099
543.808437	0.024957
544.023295	0.024905
544.238136	0.025268
544.452958	0.025209
544.667762	0.025180
544.882548	0.026022
545.097315	0.025836
545.312064	0.025757
545.526795	0.025339
545.741508	0.026052
545.956203	0.026455
546.170879	0.025987
546.385537	0.026054
546.600177	0.026200
546.814799	0.025892
547.029402	0.025525
547.243988	0.025211
547.458555	0.025498
547.673103	0.025256
547.887634	0.025245
548.102146	0.025467
548.316640	0.025861
548.531116	0.026037
548.745574	0.026040
548.960013	0.026370
549.174435	0.026682
549.388838	0.026490
549.603222	0.026181
549.817589	0.026037
550.031937	0.026221
550.246267	0.025774
550.460579	0.025159
550.674873	0.025203
550.889148	0.025332
551.103405	0.025552
551.317644	0.025554
551.531865	0.025483
551.746068	0.025362
551.960252	0.025434
552.174418	0.025642
552.388566	0.026141
552.602696	0.025834
552.816807	0.025589
553.030900	0.025379
553.244975	0.025549
553.459032	0.025822
553.673070	0.026169
553.887091	0.025978
554.101093	0.025974
554.315077	0.026136
554.529042	0.026391
554.742990	0.026608
554.956919	0.026885
555.170830	0.026975
555.384722	0.027284
555.598597	0.027026
555.812453	0.027336
556.026291	0.027389
556.240111	0.027141
556.453913	0.027163
556.667696	0.027162
556.881461	0.026822
557.095208	0.027120
557.308937	0.026761
557.522647	0.027054
557.736339	0.027004
557.950013	0.026764
558.163669	0.026761
558.377307	0.026886
558.590926	0.026688
558.804527	0.026728
559.018110	0.026461
559.231675	0.026632
559.445221	0.026517
559.658749	0.026673
559.872259	0.026698
560.085751	0.026782
560.299225	0.026537
560.512680	0.026791
560.726117	0.026625
560.939536	0.026723
561.152937	0.026499
561.366319	0.026280
561.579683	0.026002
561.793029	0.026278
562.006357	0.026124
562.219667	0.026361
562.432958	0.026365
562.646231	0.026456
562.859486	0.026334
563.072723	0.026680
563.285941	0.027233
563.499141	0.027179
563.712323	0.026980
563.925487	0.027234
564.138632	0.026982
564.351760	0.026947
564.564869	0.027039
564.777960	0.027178
564.991032	0.027184
565.204087	0.026972
565.417123	0.027059
565.630141	0.027322
565.843140	0.027613
566.056122	0.027466
566.269085	0.027649
566.482030	0.027588
566.694957	0.027352
566.907866	0.026950
567.120756	0.026575
567.333628	0.026753
567.546482	0.026486
567.759318	0.025896
567.972135	0.025941
568.184935	0.025611
568.397716	0.025662
568.610478	0.025610
568.823223	0.025774
569.035949	0.026002
569.248657	0.025751
569.461347	0.025888
569.674019	0.026117
569.886672	0.026121
570.099308	0.026120
570.311925	0.025924
570.524523	0.025998
570.737104	0.026283
570.949666	0.025996
571.162210	0.025955
571.374736	0.025686
571.587244	0.025834
571.799733	0.025736
572.012205	0.025588
572.224658	0.025460
572.437092	0.025333
572.649509	0.025060
572.861907	0.025534
573.074287	0.025561
573.286649	0.025499
573.498993	0.025106
573.711318	0.025208
573.923625	0.025256
574.135914	0.025570
574.348185	0.025716
574.560438	0.025592
574.772672	0.025021
574.984888	0.024941
575.197086	0.025224
575.409266	0.025616
575.621427	0.025786
575.833570	0.025667
576.045695	0.025611
576.257802	0.025161
576.469890	0.025415
576.681961	0.025618
576.894013	0.025761
577.106046	0.025219
577.318062	0.024890
577.530059	0.024544
577.742039	0.024648
577.954000	0.024247
578.165942	0.024485
578.377867	0.024419
578.589773	0.024283
578.801661	0.023938
579.013531	0.024083
579.225382	0.024171
579.437216	0.024168
579.649031	0.024077
579.860828	0.024449
580.072606	0.024329
580.284367	0.024293
580.496109	0.024013
580.707833	0.023853
580.919539	0.024059
581.131227	0.024116
581.342896	0.024046
581.554547	0.024087
581.766180	0.024039
581.977795	0.024377
582.189391	0.024334
582.400969	0.024633
582.612529	0.024675
582.824071	0.024581
583.035595	0.024353
583.247100	0.024484
583.458587	0.024539
583.670056	0.024589
583.881506	0.024266
584.092939	0.024188
584.304353	0.024130
584.515749	0.024565
584.727127	0.024513
584.938486	0.024753
585.149828	0.025117
585.361151	0.025187
585.572456	0.025150
585.783742	0.025417
585.995011	0.025566
586.206261	0.025416
586.417493	0.025563
586.628706	0.026043
586.839902	0.025743
587.051079	0.025618
587.262238	0.025589
587.473379	0.025675
587.684502	0.025534
587.895606	0.025553
588.106692	0.026086
588.317760	0.025817
588.528810	0.025547
588.739841	0.025826
588.950855	0.025892
589.161850	0.025938
589.372827	0.025904
589.583785	0.026220
589.794726	0.026092
590.005648	0.025801
590.216552	0.025703
590.427437	0.026003
590.638305	0.026031
590.849154	0.025897
591.059985	0.025995
591.270798	0.026104
591.481592	0.026144
591.692369	0.026126
591.903127	0.026157
592.113867	0.026422
592.324588	0.026159
592.535292	0.025966
592.745977	0.026304
592.956644	0.026250
593.167293	0.026133
593.377923	0.026075
593.588536	0.026037
593.799130	0.026218
594.009706	0.026168
594.220263	0.026178
594.430803	0.026466
594.641324	0.026166
594.851827	0.026121
595.062312	0.026318
595.272778	0.026410
595.483227	0.026618
595.693657	0.026711
595.904069	0.026782
596.114462	0.027006
596.324838	0.027041
596.535195	0.027161
596.745534	0.027484
596.955855	0.027522
597.166157	0.027436
597.376441	0.027462
597.586707	0.027394
597.796955	0.027391
598.007185	0.027156
598.217396	0.027053
598.427589	0.027182
598.637764	0.026753
598.847921	0.026639
599.058060	0.026712
599.268180	0.026702
599.478282	0.026610
599.688366	0.026730
599.898431	0.026679
600.108479	0.026762
600.318508	0.026684
600.528519	0.026971
600.738511	0.026604
600.948486	0.026704
601.158442	0.026667
601.368380	0.026742
601.578300	0.026623
601.788202	0.026735
601.998085	0.026501
602.207950	0.026575
602.417797	0.026631
602.627626	0.027205
602.837436	0.027034
603.047228	0.026839
603.257002	0.026835
603.466758	0.026960
603.676496	0.027034
603.886215	0.027346
604.095916	0.027267
604.305599	0.027353
604.515264	0.027394
604.724910	0.027434
604.934538	0.028006
605.144148	0.028283
605.353740	0.028273
605.563314	0.028220
605.772869	0.027968
605.982406	0.027946
606.191925	0.027855
606.401425	0.027535
606.610908	0.027559
606.820372	0.027214
607.029818	0.026993
607.239246	0.027030
607.448655	0.027225
607.658047	0.027020
607.867420	0.027335
608.076775	0.027479
608.286111	0.027703
608.495430	0.027822
608.704730	0.027937
608.914012	0.027947
609.123275	0.027894
609.332521	0.027963
609.541748	0.028397
609.750957	0.028233
609.960148	0.028358
610.169321	0.028396
610.378475	0.028351
610.587611	0.028393
610.796729	0.028409
611.005829	0.028512
611.214910	0.028451
611.423974	0.028461
611.633019	0.028186
611.842045	0.027878
612.051054	0.027832
612.260044	0.027803
612.469017	0.027718
612.677970	0.027927
612.886906	0.028143
613.095824	0.028345
613.304723	0.028525
613.513604	0.028986
613.722467	0.029368
613.931311	0.029365
614.140138	0.029575
614.348946	0.029837
614.557736	0.029625
614.766507	0.029323
614.975261	0.029202
615.183996	0.029276
615.392713	0.029113
615.601412	0.028922
615.810092	0.029195
616.018754	0.029061
616.227399	0.028896
616.436024	0.029126
616.644632	0.029205
616.853222	0.029188
617.061793	0.029022
617.270346	0.028943
617.478880	0.028804
617.687397	0.028632
617.895895	0.028581
618.104375	0.028842
618.312837	0.028869
618.521281	0.028871
618.729706	0.028772
618.938113	0.028655
619.146502	0.028536
619.354873	0.028660
619.563226	0.028461
619.771560	0.028281
619.979876	0.027745
620.188174	0.027500
620.396453	0.027446
620.604715	0.027280
620.812958	0.027241
621.021183	0.027170
621.229390	0.027020
621.437578	0.027141
621.645748	0.027436
621.853900	0.027604
622.062034	0.027568
622.270150	0.027432
622.478247	0.027449
622.686326	0.027574
622.894387	0.027603
623.102430	0.027635
623.310454	0.027642
623.518461	0.027462
623.726449	0.027167
623.934418	0.027165
624.142370	0.027263
624.350303	0.027388
624.558218	0.027335
624.766115	0.027443
624.973994	0.027268
625.181855	0.027241
625.389697	0.027251
625.597521	0.027375
625.805327	0.027531
626.013114	0.027636
626.220883	0.027778
626.428634	0.028109
626.636367	0.028268
626.844082	0.028398
627.051778	0.028561
627.259457	0.028742
627.467117	0.029044
627.674758	0.029067
627.882382	0.028954
628.089987	0.028666
628.297574	0.028152
628.505143	0.028093
628.712694	0.028095
628.920226	0.027817
629.127740	0.027836
629.335236	0.027637
629.542714	0.027742
629.750174	0.027835
629.957615	0.027978
630.165038	0.028129
630.372443	0.027978
630.579829	0.028080
630.787198	0.028089
630.994548	0.027917
631.201880	0.028213
631.409194	0.028107
631.616489	0.028123
631.823766	0.028056
632.031025	0.028140
632.238266	0.028225
632.445489	0.028155
632.652693	0.028238
632.859879	0.028344
633.067047	0.028249
633.274197	0.028253
633.481329	0.028365
633.688442	0.028334
633.895537	0.028223
634.102614	0.028331
634.309672	0.028440
634.516713	0.028550
634.723735	0.028391
634.930739	0.028504
635.137724	0.028416
635.344692	0.028009
635.551641	0.028280
635.758572	0.028653
635.965485	0.028659
636.172379	0.028757
636.379256	0.028800
636.586114	0.028835
636.792954	0.028693
636.999775	0.028881
637.206579	0.029268
637.413364	0.029314
637.620131	0.029177
637.826880	0.029229
638.033610	0.029119
638.240323	0.029216
638.447017	0.029289
638.653692	0.029441
638.860350	0.029254
639.066990	0.029236
639.273611	0.029149
639.480214	0.028806
639.686798	0.028751
639.893365	0.028615
640.099913	0.028320
640.306443	0.028267
640.512955	0.028028
640.719449	0.028182
640.925924	0.028170
641.132381	0.028012
641.338820	0.028318
641.545241	0.028323
641.751644	0.028478
641.958028	0.028590
642.164394	0.028816
642.370742	0.028973
642.577071	0.029135
642.783383	0.029182
642.989676	0.029356
643.195951	0.029547
643.402207	0.029609
643.608446	0.029879
643.814666	0.030169
644.020868	0.030005
644.227052	0.029924
644.433218	0.030010
644.639365	0.029963
644.845494	0.029809
645.051605	0.029548
645.257698	0.029537
645.463772	0.029344
645.669828	0.029009
645.875866	0.029028
646.081886	0.029108
646.287888	0.028983
646.493871	0.029089
646.699836	0.029155
646.905783	0.029086
647.111712	0.028948
647.317622	0.029028
647.523514	0.029277
647.729388	0.029330
647.935244	0.029243
648.141082	0.029239
648.346901	0.029141
648.552702	0.029159
648.758485	0.029419
648.964250	0.029511
649.169996	0.029529
649.375724	0.029502
649.581434	0.029587
649.787126	0.029898
649.992800	0.030009
650.198455	0.030139
650.404092	0.030411
650.609711	0.030464
650.815311	0.030585
651.020894	0.030609
651.226458	0.030557
651.432004	0.030716
651.637532	0.030601
651.843041	0.030557
652.048532	0.030492
652.254006	0.030575
652.459460	0.030597
652.664897	0.030758
652.870315	0.030694
653.075716	0.030758
653.281097	0.030682
653.486461	0.030566
653.691807	0.030629
653.897134	0.030637
654.102443	0.030502
654.307734	0.030737
654.513006	0.030616
654.718261	0.030789
654.923497	0.030783
655.128715	0.030666
655.333915	0.030847
655.539096	0.030670
655.744259	0.030725
655.949404	0.030655
656.154531	0.030355
656.359640	0.030440
656.564730	0.030412
656.769802	0.030557
656.974856	0.030661
657.179892	0.030658
657.384909	0.030823
657.589908	0.031003
657.794889	0.031053
657.999852	0.031062
658.204797	0.031086
658.409723	0.031240
658.614631	0.031275
658.819521	0.031404
659.024393	0.031410
659.229246	0.031389
659.434081	0.031160
659.638898	0.031299
659.843697	0.031451
660.048478	0.031307
660.253240	0.031374
660.457984	0.031173
660.662710	0.030957
660.867417	0.031225
661.072107	0.031233
661.276778	0.031552
661.481431	0.031556
661.686066	0.031649
661.890682	0.031855
662.095281	0.031988
662.299861	0.032312
662.504422	0.032449
662.708966	0.032354
662.913491	0.032459
663.117999	0.032331
663.322488	0.032347
663.526958	0.032463
663.731411	0.032568
663.935845	0.032556
664.140261	0.032639
664.344659	0.032884
664.549038	0.032890
664.753400	0.033038
664.957743	0.033241
665.162068	0.033417
665.366375	0.033195
665.570663	0.033143
665.774933	0.033012
665.979185	0.032814
666.183419	0.032871
666.387635	0.032826
666.591832	0.032693
666.796011	0.032642
667.000172	0.032522
667.204315	0.032558
667.408439	0.032673
667.612545	0.032651
667.816634	0.032850
668.020703	0.032736
668.224755	0.032782
668.428788	0.032720
668.632803	0.032676
668.836800	0.032550
669.040779	0.032571
669.244739	0.032474
669.448681	0.032447
669.652605	0.032472
669.856511	0.032557
670.060399	0.032572
670.264268	0.032733
670.468119	0.032890
670.671952	0.033012
670.875767	0.033274
671.079563	0.033272
671.283341	0.033498
671.487101	0.033546
671.690843	0.033668
671.894567	0.033921
672.098272	0.033996
672.301959	0.033901
672.505628	0.033966
672.709278	0.033930
672.912911	0.034022
673.116525	0.033894
673.320121	0.033807
673.523699	0.033618
673.727258	0.033505
673.930799	0.033495
674.134322	0.033625
674.337827	0.033689
674.541314	0.033607
674.744782	0.033734
674.948232	0.033747
675.151664	0.033781
675.355078	0.033894
675.558474	0.033922
675.761851	0.033974
675.965210	0.033898
676.168551	0.033957
676.371873	0.033925
676.575178	0.033903
676.778464	0.033960
676.981732	0.034022
677.184981	0.033985
677.388213	0.033957
677.591426	0.033939
677.794621	0.033980
677.997798	0.033840
678.200956	0.033999
678.404097	0.033946
678.607219	0.033904
678.810323	0.033919
679.013408	0.034036
679.216476	0.034119
679.419525	0.034110
679.622556	0.034125
679.825569	0.034292
680.028563	0.034291
680.231540	0.034423
680.434498	0.034602
680.637438	0.034803
680.840359	0.034980
681.043263	0.035119
681.246148	0.035139
681.449015	0.035069
681.651864	0.035116
681.854694	0.035073
682.057506	0.035168
682.260301	0.035267
682.463076	0.035221
682.665834	0.034993
682.868573	0.034889
683.071295	0.035033
683.273998	0.035183
683.476682	0.035144
683.679349	0.035207
683.881997	0.035131
684.084627	0.035088
684.287239	0.035062
684.489833	0.035167
684.692408	0.035166
684.894965	0.035013
685.097504	0.035063
685.300025	0.035227
685.502527	0.035332
685.705012	0.035506
685.907478	0.035537
686.109925	0.035516
686.312355	0.035629
686.514766	0.035843
686.717159	0.036110
686.919534	0.036209
687.121891	0.036322
687.324230	0.036243
687.526550	0.036236
687.728852	0.036156
687.931136	0.036147
688.133401	0.036085
688.335649	0.036134
688.537878	0.035951
688.740089	0.035998
688.942281	0.035985
689.144456	0.036084
689.346612	0.036143
689.548750	0.036269
689.750870	0.036469
689.952971	0.036471
690.155055	0.036443
690.357120	0.036511
690.559167	0.036464
690.761195	0.036403
690.963206	0.036433
691.165198	0.036306
691.367172	0.036266
691.569128	0.036281
691.771065	0.036394
691.972984	0.036376
692.174885	0.036497
692.376768	0.036429
692.578633	0.036439
692.780479	0.036288
692.982308	0.036238
693.184118	0.036105
693.385909	0.035961
693.587683	0.035919
693.789438	0.035892
693.991175	0.035698
694.192894	0.035698
694.394595	0.035766
694.596277	0.035914
694.797941	0.036009
694.999587	0.036106
695.201215	0.036150
695.402824	0.036278
695.604416	0.036335
695.805989	0.036606
696.007543	0.036749
696.209080	0.036688
696.410598	0.036741
696.612099	0.036681
696.813580	0.036955
697.015044	0.036961
697.216490	0.036851
697.417917	0.036846
697.619326	0.036870
697.820717	0.036880
698.022089	0.036809
698.223444	0.036670
698.424780	0.036681
698.626098	0.036428
698.827397	0.036451
699.028679	0.036311
699.229942	0.036267
699.431187	0.036127
699.632414	0.036123
699.833622	0.036236
700.034813	0.036439
700.235985	0.036412
700.437139	0.036436
700.638274	0.036487
700.839392	0.036694
701.040491	0.036585
701.241572	0.036470
701.442635	0.036473
701.643679	0.036392
701.844706	0.036356
702.045714	0.036379
702.246704	0.036368
702.447675	0.036466
702.648629	0.036323
702.849564	0.036400
703.050481	0.036556
703.251380	0.036553
703.452260	0.036685
703.653122	0.036655
703.853966	0.036644
704.054792	0.036901
704.255600	0.036677
704.456389	0.036934
704.657160	0.036976
704.857913	0.037143
705.058648	0.037204
705.259365	0.037059
705.460063	0.037162
705.660743	0.037347
705.861405	0.037179
706.062048	0.037386
706.262674	0.037308
706.463281	0.037308
706.663870	0.037329
706.864441	0.037438
707.064993	0.037555
707.265527	0.037417
707.466043	0.037393
707.666541	0.037487
707.867021	0.037294
708.067482	0.037309
708.267925	0.037470
708.468350	0.037400
708.668757	0.037298
708.869145	0.037360
709.069516	0.037606
709.269868	0.037543
709.470201	0.037481
709.670517	0.037624
709.870814	0.037682
710.071093	0.037598
710.271354	0.037676
710.471597	0.037674
710.671821	0.037674
710.872028	0.037495
711.072216	0.037665
711.272385	0.037602
711.472537	0.037737
711.672670	0.037449
711.872785	0.037466
712.072882	0.037363
712.272961	0.037239
712.473021	0.037304
712.673063	0.037324
712.873087	0.037166
713.073093	0.037089
713.273081	0.036786
713.473050	0.036810
713.673001	0.036599
713.872934	0.036408
714.072849	0.036415
714.272745	0.036119
714.472623	0.036164
714.672483	0.036103
714.872325	0.036111
715.072148	0.036006
715.271954	0.035979
715.471741	0.035968
715.671509	0.035946
715.871260	0.035803
716.070992	0.036031
716.270707	0.035934
716.470403	0.035836
716.670080	0.035826
716.869740	0.036100
717.069381	0.036253
717.269004	0.036376
717.468609	0.036520
717.668195	0.036702
717.867764	0.036517
718.067314	0.036386
718.266846	0.036521
718.466360	0.036349
718.665855	0.036303
718.865332	0.035967
719.064791	0.035687
719.264232	0.035545
719.463655	0.035418
719.663059	0.035213
719.862445	0.035212
720.061813	0.034947
720.261163	0.034943
720.460494	0.034727
720.659807	0.034736
720.859102	0.034676
721.058379	0.034695
721.257638	0.034460
721.456878	0.034609
721.656100	0.034558
721.855304	0.034766
722.054490	0.034823
722.253657	0.034927
722.452806	0.035059
722.651937	0.035183
722.851050	0.035240
723.050145	0.035412
723.249221	0.035236
723.448279	0.035319
723.647319	0.035327
723.846340	0.035337
724.045344	0.035259
724.244329	0.035277
724.443296	0.035160
724.642245	0.034983
724.841175	0.034980
725.040088	0.035186
725.238982	0.035093
725.437857	0.034965
725.636715	0.034947
725.835554	0.034890
726.034376	0.034820
726.233179	0.034918
726.431963	0.034881
726.630730	0.034731
726.829478	0.034544
727.028208	0.034481
727.226920	0.034373
727.425614	0.034433
727.624289	0.034500
727.822946	0.034379
728.021585	0.034358
728.220206	0.034361
728.418808	0.034215
728.617392	0.034022
728.815958	0.033997
729.014506	0.033908
729.213036	0.033617
729.411547	0.033302
729.610040	0.033266
729.808515	0.033239
730.006972	0.033158
730.205410	0.033537
730.403831	0.033819
730.602233	0.033703
730.800616	0.033869
730.998982	0.034046
731.197329	0.034275
731.395658	0.034386
731.593969	0.034455
731.792262	0.034452
731.990536	0.034292
732.188793	0.034315
732.387031	0.034512
732.585250	0.034549
732.783452	0.034540
732.981635	0.034688
733.179800	0.034566
733.377947	0.034586
733.576076	0.034590
733.774186	0.034714
733.972278	0.034730
734.170352	0.034580
734.368408	0.034394
734.566446	0.034352
734.764465	0.034087
734.962466	0.034139
735.160449	0.034179
735.358413	0.034361
735.556360	0.034073
735.754288	0.033815
735.952198	0.033871
736.150090	0.033913
736.347963	0.034019
736.545818	0.033845
736.743655	0.034094
736.941474	0.034152
737.139275	0.033895
737.337057	0.033884
737.534821	0.033792
737.732567	0.033776
737.930295	0.033868
738.128005	0.033807
738.325696	0.033911
738.523369	0.033835
738.721024	0.033590
738.918660	0.033765
739.116279	0.033947
739.313879	0.034147
739.511461	0.034221
739.709024	0.034057
739.906570	0.033890
740.104097	0.033958
740.301606	0.033982
740.499097	0.033906
740.696569	0.033783
740.894024	0.033676
741.091460	0.033576
741.288878	0.033362
741.486277	0.033368
741.683659	0.033337
741.881022	0.033133
742.078367	0.032644
742.275694	0.032464
742.473002	0.032401
742.670293	0.032289
742.867565	0.032133
743.064819	0.032154
743.262054	0.032177
743.459272	0.032237
743.656471	0.032248
743.853652	0.032288
744.050815	0.032483
744.247959	0.032427
744.445085	0.032486
744.642194	0.032554
744.839283	0.032519
745.036355	0.032335
745.233408	0.032195
745.430444	0.032299
745.627461	0.032321
745.824459	0.032410
746.021440	0.032597
746.218402	0.032623
746.415346	0.032729
746.612272	0.032737
746.809180	0.032835
747.006069	0.033103
747.202940	0.033205
747.399793	0.033427
747.596628	0.033274
747.793444	0.033176
747.990243	0.033114
748.187023	0.033012
748.383784	0.033059
748.580528	0.033050
748.777253	0.032934
748.973960	0.032970
749.170649	0.032922
749.367320	0.032994
749.563973	0.033162
749.760607	0.033323
749.957223	0.033479
750.153821	0.033587
750.350400	0.033664
750.546962	0.033964
750.743505	0.033841
750.940030	0.033903
751.136536	0.033977
751.333025	0.033655
751.529495	0.033575
751.725947	0.033409
751.922381	0.033115
752.118796	0.033098
752.315194	0.032651
752.511573	0.032589
752.707934	0.032374
752.904276	0.032162
753.100601	0.032281
753.296907	0.032002
753.493195	0.031956
753.689465	0.032058
753.885716	0.031880
754.081949	0.031894
754.278164	0.031992
754.474361	0.032020
754.670540	0.032003
754.866700	0.031838
755.062843	0.031990
755.258967	0.032038
755.455072	0.031855
755.651160	0.032086
755.847229	0.032142
756.043280	0.031793
756.239313	0.031901
756.435328	0.031935
756.631324	0.031950
756.827302	0.031880
757.023262	0.031565
757.219204	0.031908
757.415127	0.031552
757.611033	0.031554
757.806920	0.031628
758.002788	0.031439
758.198639	0.031305
758.394471	0.031399
758.590286	0.031457
758.786081	0.031661
758.981859	0.031336
759.177619	0.031283
759.373360	0.031183
759.569083	0.031362
759.764788	0.031663
759.960474	0.031649
760.156143	0.031585
760.351793	0.031428
760.547425	0.031377
760.743038	0.031501
760.938634	0.031520
761.134211	0.031349
761.329770	0.031095
761.525311	0.030817
761.720833	0.030810
761.916338	0.030709
762.111824	0.030675
762.307292	0.030841
762.502741	0.030619
762.698173	0.030713
762.893586	0.030849
763.088981	0.030934
763.284358	0.030876
763.479716	0.030924
763.675057	0.030912
763.870379	0.030951
764.065683	0.030883
764.260968	0.031094
764.456236	0.031105
764.651485	0.031060
764.846716	0.031185
765.041929	0.031121
765.237123	0.031138
765.432299	0.031219
765.627457	0.031212
765.822597	0.031092
766.017719	0.030729
766.212822	0.030555
766.407907	0.030580
766.602974	0.030419
766.798023	0.030364
766.993054	0.030237
767.188066	0.029921
767.383060	0.029930
767.578036	0.029877
767.772993	0.030237
767.967933	0.030320
768.162854	0.030384
768.357757	0.030467
768.552642	0.030662
768.747508	0.030732
768.942356	0.031010
769.137186	0.031063
769.331998	0.031034
769.526792	0.031174
769.721567	0.031141
769.916324	0.031219
770.111063	0.031117
770.305784	0.031093
770.500486	0.031106
770.695171	0.031106
770.889837	0.031227
771.084484	0.031290
771.279114	0.030840
771.473725	0.031037
771.668318	0.031066
771.862893	0.030892
772.057450	0.030794
772.251988	0.030944
772.446509	0.030876
772.641011	0.030751
772.835494	0.030521
773.029960	0.030662
773.224407	0.030279
773.418836	0.030047
773.613247	0.030218
773.807640	0.030062
774.002014	0.029671
774.196370	0.029447
774.390708	0.029188
774.585028	0.029291
774.779330	0.029092
774.973613	0.029178
775.167878	0.028955
775.362125	0.028771
775.556354	0.028736
775.750564	0.028601
775.944756	0.028827
776.138930	0.028872
776.333086	0.028832
776.527223	0.028901
776.721343	0.028770
776.915444	0.028739
777.109526	0.028842
777.303591	0.028965
777.497637	0.029238
777.691666	0.028966
777.885676	0.029111
778.079667	0.029005
778.273641	0.029111
778.467596	0.029218
778.661533	0.029484
778.855452	0.029449
779.049352	0.029498
779.243235	0.029428
779.437099	0.029561
779.630945	0.029436
779.824773	0.029693
780.018582	0.029552
780.212373	0.029775
780.406146	0.029704
780.599901	0.029973
780.793638	0.029784
780.987356	0.029923
781.181056	0.030085
781.374738	0.030010
781.568402	0.030047
781.762047	0.030110
781.955674	0.030146
782.149283	0.030263
782.342874	0.029910
782.536447	0.030225
782.730001	0.030084
782.923537	0.029905
783.117055	0.030148
783.310555	0.030243
783.504036	0.030356
783.697499	0.030345
783.890944	0.030371
784.084371	0.030548
784.277780	0.030551
784.471170	0.030888
784.664542	0.031071
784.857896	0.031060
785.051231	0.030913
785.244549	0.031076
785.437848	0.030855
785.631129	0.030904
785.824392	0.030830
786.017636	0.030743
786.210863	0.030606
786.404071	0.030496
786.597260	0.030749
786.790432	0.030888
786.983585	0.030736
787.176721	0.030976
787.369838	0.030722
787.562936	0.030726
787.756017	0.030737
787.949079	0.030879
788.142123	0.030956
788.335149	0.030787
788.528156	0.030828
788.721146	0.031036
788.914117	0.031240
789.107070	0.031571
789.300005	0.031922
789.492921	0.031910
789.685819	0.031980
789.878699	0.032104
790.071561	0.032124
790.264405	0.032008
790.457230	0.032021
790.650037	0.031724
790.842826	0.031621
791.035597	0.031375
791.228349	0.031515
791.421084	0.031181
791.613800	0.031267
791.806497	0.031234
791.999177	0.031339
792.191838	0.031319
792.384481	0.031555
792.577106	0.031494
792.769713	0.031571
792.962301	0.031792
793.154871	0.032128
793.347423	0.031929
793.539957	0.032071
793.732473	0.031940
793.924970	0.031973
794.117449	0.031716
794.309910	0.031725
794.502353	0.031659
794.694777	0.031422
794.887183	0.031184
795.079571	0.031308
795.271941	0.031037
795.464293	0.031006
795.656626	0.030652
795.848941	0.030695
796.041238	0.030775
796.233516	0.030815
796.425777	0.030730
796.618019	0.030690
796.810243	0.030466
797.002449	0.030373
797.194636	0.030288
797.386805	0.030307
797.578956	0.030310
797.771089	0.030122
797.963204	0.029968
798.155300	0.029883
798.347378	0.029973
798.539438	0.030277
798.731480	0.030580
798.923503	0.030808
799.115509	0.031040
799.307496	0.031143
799.499465	0.031199
799.691415	0.031284
799.883348	0.031352
800.075262	0.031181
800.267158	0.031086
800.459035	0.030839
800.650895	0.030626
800.842736	0.030418
801.034559	0.030528
801.226364	0.030604
801.418150	0.030707
801.609919	0.030689
801.801669	0.030719
801.993401	0.030726
802.185114	0.030881
802.376810	0.031118
802.568487	0.031446
802.760146	0.031198
802.951787	0.031339
803.143409	0.031373
803.335014	0.031573
803.526600	0.031872
803.718168	0.032065
803.909717	0.032229
804.101249	0.032205
804.292762	0.032174
804.484257	0.032264
804.675734	0.032198
804.867192	0.032348
805.058632	0.032437
805.250054	0.032369
805.441458	0.032152
805.632844	0.032199
805.824211	0.032292
806.015561	0.032124
806.206891	0.032161
806.398204	0.032051
806.589499	0.031934
806.780775	0.032016
806.972033	0.031893
807.163273	0.031976
807.354495	0.031882
807.545698	0.031763
807.736883	0.031952
807.928050	0.031983
808.119199	0.031988
808.310329	0.031930
808.501441	0.031486
808.692535	0.031473
808.883611	0.031273
809.074669	0.030930
809.265708	0.030839
809.456729	0.030820
809.647732	0.030830
809.838717	0.030995
810.029683	0.030856
810.220632	0.030819
810.411562	0.030857
810.602474	0.030842
810.793367	0.031126
810.984242	0.030995
811.175100	0.030766
811.365938	0.030628
811.556759	0.030495
811.747562	0.030717
811.938346	0.030756
812.129112	0.030736
812.319860	0.030753
812.510589	0.030503
812.701300	0.030703
812.891994	0.030923
813.082668	0.031011
813.273325	0.031046
813.463964	0.031086
813.654584	0.031431
813.845186	0.031414
814.035769	0.031484
814.226335	0.031745
814.416882	0.031853
814.607411	0.031860
814.797922	0.031953
814.988415	0.032128
815.178889	0.032109
815.369345	0.032125
815.559783	0.032224
815.750203	0.032336
815.940605	0.032338
816.130988	0.032480
816.321353	0.032428
816.511700	0.032448
816.702028	0.032330
816.892339	0.032437
817.082631	0.032162
817.272905	0.032269
817.463161	0.032333
817.653398	0.032365
817.843617	0.032421
818.033819	0.032624
818.224001	0.032482
818.414166	0.032611
818.604312	0.032344
818.794440	0.032454
818.984550	0.032331
819.174642	0.032312
819.364716	0.032322
819.554771	0.032155
819.744808	0.032084
819.934827	0.032298
820.124827	0.032158
820.314810	0.032255
820.504774	0.032457
820.694720	0.032600
820.884647	0.032512
821.074557	0.032255
821.264448	0.032211
821.454321	0.032032
821.644176	0.031958
821.834012	0.031951
822.023831	0.031864
822.213631	0.031549
822.403413	0.031495
822.593176	0.031529
822.782922	0.031865
822.972649	0.032025
823.162358	0.032176
823.352049	0.032171
823.541721	0.032308
823.731376	0.032511
823.921012	0.032520
824.110629	0.032793
824.300229	0.032997
824.489811	0.032991
824.679374	0.033110
824.868919	0.033224
825.058445	0.033330
825.247954	0.033223
825.437444	0.032957
825.626916	0.033047
825.816370	0.032989
826.005806	0.033045
826.195223	0.032920
826.384622	0.032636
826.574003	0.032567
826.763366	0.032415
826.952711	0.032514
827.142037	0.032891
827.331345	0.033081
827.520635	0.032957
827.709906	0.032873
827.899160	0.032974
828.088395	0.032988
828.277612	0.032968
828.466810	0.032905
828.655991	0.032910
828.845153	0.032728
829.034297	0.032761
829.223423	0.032666
829.412531	0.032739
829.601620	0.032709
829.790691	0.032750
829.979744	0.032708
830.168779	0.032884
830.357795	0.032951
830.546793	0.033088
830.735773	0.033108
830.924735	0.033095
831.113679	0.032964
831.302604	0.032938
831.491511	0.033223
831.680400	0.033346
831.869271	0.033493
832.058123	0.033468
832.246957	0.033599
832.435773	0.033371
832.624571	0.033604
832.813351	0.033775
833.002112	0.033657
833.190855	0.033441
833.379580	0.033617
833.568287	0.033514
833.756975	0.033342
833.945645	0.033443
834.134297	0.033478
834.322931	0.033332
834.511547	0.033445
834.700144	0.033696
834.888723	0.034073
835.077284	0.033871
835.265826	0.034119
835.454351	0.034494
835.642857	0.034506
835.831345	0.034922
836.019815	0.035172
836.208266	0.035162
836.396699	0.035127
836.585114	0.035052
836.773511	0.035140
836.961890	0.035080
837.150250	0.035131
837.338592	0.035023
837.526916	0.034897
837.715222	0.034883
837.903510	0.034757
838.091779	0.035084
838.280030	0.034869
838.468263	0.035062
838.656477	0.034970
838.844674	0.034743
839.032852	0.034951
839.221012	0.035120
839.409153	0.035050
839.597277	0.035157
839.785382	0.034955
839.973469	0.035000
840.161538	0.034781
840.349589	0.034797
840.537621	0.034896
840.725635	0.034713
840.913631	0.034351
841.101609	0.034321
841.289568	0.034077
841.477509	0.034076
841.665432	0.034089
841.853337	0.034069
842.041224	0.034236
842.229092	0.034356
842.416942	0.034168
842.604774	0.034335
842.792588	0.034393
842.980383	0.034320
843.168160	0.034093
843.355919	0.034182
843.543660	0.034237
843.731382	0.034138
843.919087	0.034117
844.106773	0.034444
844.294441	0.034607
844.482090	0.034700
844.669722	0.035009
844.857335	0.035575
845.044930	0.035527
845.232507	0.035540
845.420065	0.035799
845.607605	0.035879
845.795127	0.035753
845.982631	0.035665
846.170117	0.035506
846.357584	0.035369
846.545033	0.035201
846.732464	0.035257
846.919877	0.035498
847.107272	0.035351
847.294648	0.035229
847.482006	0.035257
847.669346	0.035417
847.856667	0.035498
848.043971	0.035696
848.231256	0.035649
848.418523	0.035586
848.605771	0.035573
848.793002	0.035669
848.980214	0.035655
849.167408	0.035924
849.354584	0.036016
849.541742	0.036238
849.728881	0.036461
849.916002	0.036711
850.103105	0.037119
850.290190	0.037178
850.477256	0.037082
850.664304	0.037251
850.851334	0.037148
851.038346	0.037169
851.225340	0.037325
851.412315	0.037327
851.599272	0.037579
851.786211	0.037648
851.973132	0.037648
852.160034	0.037803
852.346918	0.038213
852.533784	0.038444
852.720632	0.038491
852.907462	0.038567
853.094273	0.038737
853.281066	0.038614
853.467841	0.038593
853.654598	0.038466
853.841336	0.038476
854.028056	0.038231
854.214758	0.038074
854.401442	0.038313
854.588107	0.038264
854.774755	0.038378
854.961384	0.038430
855.147995	0.038371
855.334587	0.038491
855.521162	0.038580
855.707718	0.038722
855.894256	0.038855
856.080775	0.038681
856.267277	0.038813
856.453760	0.038705
856.640225	0.038633
856.826672	0.038762
857.013101	0.039037
857.199511	0.038948
857.385903	0.039080
857.572277	0.039195
857.758633	0.039254
857.944970	0.039145
858.131290	0.039183
858.317591	0.039321
858.503873	0.039153
858.690138	0.039136
858.876384	0.039057
859.062612	0.038906
859.248822	0.038804
859.435014	0.038599
859.621188	0.038520
859.807343	0.038280
859.993480	0.038085
860.179599	0.038421
860.365699	0.038466
860.551781	0.038823
860.737846	0.038722
860.923891	0.038732
861.109919	0.038988
861.295929	0.039058
861.481920	0.039129
861.667893	0.038972
861.853848	0.038785
862.039784	0.038642
862.225702	0.038408
862.411603	0.038218
862.597484	0.038113
862.783348	0.037916
862.969193	0.037884
863.155021	0.037800
863.340830	0.037944
863.526620	0.037906
863.712393	0.038100
863.898147	0.038093
864.083883	0.038468
864.269601	0.038610
864.455301	0.038661
864.640982	0.038466
864.826645	0.038548
865.012290	0.038406
865.197917	0.038166
865.383526	0.038026
865.569116	0.037847
865.754688	0.037653
865.940242	0.037593
866.125777	0.037456
866.311295	0.037518
866.496794	0.037577
866.682275	0.037819
866.867737	0.038039
867.053182	0.038198
867.238608	0.038591
867.424016	0.038654
867.609406	0.038626
867.794778	0.038892
867.980131	0.039182
868.165466	0.038993
868.350783	0.038923
868.536082	0.038998
868.721362	0.038834
868.906625	0.038800
869.091869	0.039131
869.277094	0.039373
869.462302	0.039541
869.647491	0.039520
869.832662	0.039859
870.017815	0.039888
870.202950	0.040015
870.388066	0.039891
870.573165	0.039662
870.758245	0.039258
870.943306	0.038901
871.128350	0.038610
871.313375	0.038434
871.498382	0.038251
871.683371	0.038188
871.868342	0.038039
872.053294	0.038239
872.238229	0.038295
872.423144	0.038493
872.608042	0.038756
872.792922	0.038842
872.977783	0.039110
873.162626	0.039056
873.347451	0.039538
873.532258	0.039301
873.717046	0.038988
873.901816	0.039018
874.086568	0.038718
874.271302	0.038823
874.456017	0.038588
874.640715	0.038216
874.825394	0.038364
875.010055	0.037896
875.194697	0.038210
875.379322	0.038529
875.563928	0.038692
875.748516	0.038980
875.933085	0.038642
876.117637	0.038621
876.302170	0.038902
876.486685	0.038801
876.671182	0.038991
876.855661	0.039058
877.040121	0.039067
877.224563	0.038965
877.408987	0.038907
877.593393	0.039162
877.777780	0.039221
877.962150	0.039360
878.146501	0.039604
878.330833	0.039462
878.515148	0.039563
878.699444	0.039349
878.883722	0.039248
879.067982	0.039288
879.252224	0.039621
879.436447	0.039745
879.620653	0.039577
879.804840	0.039595
879.989008	0.039594
880.173159	0.039546
880.357291	0.039690
880.541405	0.040136
880.725501	0.040293
880.909579	0.040132
881.093638	0.040120
881.277680	0.040132
881.461703	0.039986
881.645707	0.040073
881.829694	0.039671
882.013662	0.039536
882.197612	0.039251
882.381544	0.039011
882.565458	0.038475
882.749353	0.038481
882.933230	0.038468
883.117089	0.038500
883.300930	0.038411
883.484753	0.038749
883.668557	0.038806
883.852343	0.038780
884.036111	0.038808
884.219861	0.038882
884.403592	0.038798
884.587305	0.038902
884.771000	0.038725
884.954677	0.038849
885.138335	0.038490
885.321976	0.038396
885.505598	0.038370
885.689201	0.038382
885.872787	0.038524
886.056354	0.038784
886.239904	0.038667
886.423434	0.038917
886.606947	0.038673
886.790442	0.039082
886.973918	0.039277
887.157376	0.039245
887.340816	0.039266
887.524237	0.039308
887.707641	0.039244
887.891026	0.039285
888.074393	0.039190
888.257741	0.039317
888.441072	0.039142
888.624384	0.038700
888.807678	0.039254
888.990954	0.039179
889.174211	0.039002
889.357451	0.038867
889.540672	0.038835
889.723875	0.039129
889.907059	0.039362
890.090226	0.039076
890.273374	0.039397
890.456504	0.038912
890.639616	0.038979
890.822709	0.039058
891.005785	0.038768
891.188842	0.038597
891.371881	0.038207
891.554901	0.037953
891.737904	0.038070
891.920888	0.037734
892.103854	0.037718
892.286802	0.037649
892.469731	0.037915
892.652643	0.038287
892.835536	0.038242
893.018410	0.038121
893.201267	0.038174
893.384106	0.038094
893.566926	0.038411
893.749728	0.038293
893.932511	0.038108
894.115277	0.037727
894.298024	0.037798
894.480753	0.037281
894.663464	0.037275
894.846157	0.037220
895.028831	0.036980
895.211487	0.036881
895.394125	0.036786
895.576745	0.036723
895.759346	0.036667
895.941930	0.036363
896.124495	0.036626
896.307041	0.036540
896.489570	0.036263
896.672080	0.036342
896.854573	0.036553
897.037046	0.036528
897.219502	0.036528
897.401940	0.036434
897.584359	0.036231
897.766760	0.036286
897.949143	0.035943
898.131507	0.036181
898.313854	0.036706
898.496182	0.036293
898.678492	0.036575
898.860783	0.036288
899.043057	0.036249
899.225312	0.036765
899.407549	0.036844
899.589768	0.036956
899.771968	0.036662
899.954151	0.035844
900.136315	0.035594
900.318461	0.034929
900.500588	0.035140
900.682698	0.035141
900.864789	0.034648
901.046862	0.034464
901.228917	0.034634
901.410953	0.034325
901.592971	0.034454
901.774972	0.034730
901.956953	0.034911
902.138917	0.034745
902.320862	0.034419
902.502790	0.034362
902.684699	0.034341
902.866589	0.034094
903.048462	0.034096
903.230316	0.033994
903.412152	0.033878
903.593970	0.033385
903.775770	0.033593
903.957551	0.033688
904.139314	0.033620
904.321059	0.033368
904.502786	0.033306
904.684494	0.033321
904.866185	0.033377
905.047857	0.033022
905.229510	0.033195
905.411146	0.032482
905.592763	0.032547
905.774363	0.032215
905.955943	0.032217
906.137506	0.032371
906.319051	0.032189
906.500577	0.032102
906.682085	0.032194
906.863575	0.032226
907.045046	0.032997
907.226500	0.032831
907.407935	0.033227
907.589352	0.033479
907.770750	0.033387
907.952131	0.033384
908.133493	0.033321
908.314837	0.033608
908.496163	0.033525
908.677470	0.033262
908.858760	0.033387
909.040031	0.033039
909.221284	0.032411
909.402518	0.032362
909.583735	0.032793
909.764933	0.032855
909.946113	0.032617
910.127275	0.032269
910.308418	0.032010
910.489544	0.031763
910.670651	0.031779
910.851740	0.032067
911.032810	0.031806
911.213863	0.031059
911.394897	0.030634
911.575913	0.030531
911.756911	0.030952
911.937890	0.031135
912.118851	0.031150
912.299794	0.030953
912.480719	0.030997
912.661626	0.031062
912.842514	0.031283
913.023384	0.031245
913.204236	0.031113
913.385070	0.030447
913.565886	0.029766
913.746683	0.029414
913.927462	0.029462
914.108223	0.029532
914.288965	0.029355
914.469690	0.029455
914.650396	0.029608
914.831084	0.029513
915.011754	0.029888
915.192405	0.029694
915.373038	0.029497
915.553653	0.029398
915.734250	0.028965
915.914829	0.028304
916.095389	0.028312
916.275931	0.028118
916.456455	0.027982
916.636961	0.027810
916.817448	0.028146
916.997917	0.028345
917.178368	0.028151
917.358801	0.027952
917.539216	0.028369
917.719612	0.027593
917.899990	0.027887
918.080350	0.027811
918.260692	0.027687
918.441015	0.026790
918.621320	0.026116
918.801607	0.025257
918.981876	0.024813
919.162127	0.024447
919.342359	0.024575
919.522573	0.023768
919.702769	0.023225
919.882947	0.023026
920.063106	0.023704
920.243247	0.024034
920.423370	0.024578
920.603475	0.024641
920.783562	0.024296
920.963630	0.023839
921.143680	0.023830
921.323712	0.023628
921.503725	0.023440
921.683721	0.022765
921.863698	0.022136
922.043657	0.021835
922.223598	0.021569
922.403520	0.021449
922.583424	0.021142
922.763311	0.021464
922.943178	0.021818
923.123028	0.021470
923.302859	0.021773
923.482673	0.021976
923.662467	0.021857
923.842244	0.022196
924.022003	0.022728
924.201743	0.022488
924.381465	0.021761
924.561169	0.021835
924.740854	0.021439
924.920522	0.020846
925.100171	0.020935
925.279802	0.020983
925.459414	0.020677
925.639009	0.019599
925.818585	0.019585
925.998143	0.019190
926.177683	0.018640
926.357205	0.018800
926.536708	0.018718
926.716193	0.018503
926.895660	0.018137
927.075109	0.017216
927.254539	0.017081
927.433951	0.017346
927.613345	0.017696
927.792721	0.017667
927.972079	0.017414
928.151418	0.017064
928.330739	0.016292
928.510042	0.016106
928.689327	0.016539
928.868593	0.016877
929.047841	0.016328
929.227071	0.016521
929.406283	0.015887
929.585476	0.015712
929.764652	0.015249
929.943809	0.014739
930.122948	0.014520
930.302068	0.014101
930.481171	0.013916
930.660255	0.013881
930.839321	0.012507
931.018369	0.012620
931.197398	0.012204
931.376409	0.012555
931.555402	0.012922
931.734377	0.012574
931.913334	0.012367
932.092272	0.011830
932.271192	0.011620
932.450094	0.011595
932.628978	0.010997
932.807844	0.010577
932.986691	0.009851
933.165520	0.009678
933.344331	0.009391
933.523123	0.008854
933.701898	0.008420
933.880654	0.008217
934.059392	0.007896
934.238111	0.007699
934.416813	0.007631
934.595496	0.007782
934.774161	0.007082
934.952808	0.006220
935.131437	0.006125
935.310047	0.005724
935.488639	0.005027
935.667213	0.005206
935.845769	0.004639
936.024306	0.004546
936.202825	0.003974
936.381326	0.003444
936.559809	0.003470
936.738274	0.002722
936.916720	0.002795
937.095148	0.003248
937.273558	0.002645
937.451950	0.002101
937.630323	0.001850
937.808678	0.002471
937.987015	0.002681
938.165334	0.002166
938.343635	0.002904
938.521917	0.003211
938.700181	0.002690
938.878427	0.002445
939.056655	0.001527
939.234864	0.001267
939.413055	0.000326
939.591228	0.000050
939.769383	0.000276
939.947519	-0.000320
940.125638	-0.001547
940.303738	-0.002565
940.481820	-0.003683
940.659883	-0.002489
940.837929	-0.003401
941.015956	-0.003888
941.193965	-0.004369
941.371955	-0.004276
941.549928	-0.004308
941.727882	-0.004027
941.905818	-0.003560
942.083736	-0.002691
942.261636	-0.003164
942.439517	-0.003216
942.617380	-0.004342
942.795225	-0.004199
942.973052	-0.004151
943.150860	-0.004929
943.328651	-0.005696
943.506423	-0.006422
943.684176	-0.007365
943.861912	-0.007421
944.039629	-0.006223
944.217328	-0.006203
944.395009	-0.005464
944.572672	-0.006029
944.750317	-0.007261
944.927943	-0.007334
945.105551	-0.007316
945.283141	-0.005371
945.460712	-0.007300
945.638265	-0.008462
945.815801	-0.008214
945.993317	-0.008888
946.170816	-0.008994
946.348297	-0.007560
946.525759	-0.007714
946.703203	-0.007761
946.880629	-0.009384
947.058036	-0.008149
947.235425	-0.007736
947.412797	-0.006768
947.590149	-0.007026
947.767484	-0.007424
947.944800	-0.007965
948.122099	-0.007535
948.299379	-0.006788
948.476640	-0.006207
948.653884	-0.005024
948.831109	-0.006156
949.008316	-0.007247
949.185505	-0.007144
949.362676	-0.007403
949.539828	-0.006973
949.716962	-0.006927
949.894078	-0.007680
950.071176	-0.009425
950.248256	-0.011500
950.425317	-0.010624
950.602360	-0.010001
950.779385	-0.010055
950.956391	-0.009500
951.133380	-0.009392
951.310350	-0.008796
951.487302	-0.009083
951.664235	-0.007175
951.841151	-0.006124
952.018048	-0.007722
952.194927	-0.007911
952.371788	-0.008972
952.548631	-0.007957
952.725455	-0.009232
952.902261	-0.009912
953.079049	-0.008550
953.255819	-0.009325
953.432570	-0.009084
953.609303	-0.008402
953.786018	-0.008969
953.962715	-0.007199
954.139394	-0.007995
954.316054	-0.007558
954.492696	-0.007975
954.669320	-0.008555
954.845926	-0.009153
955.022513	-0.009708
955.199083	-0.008575
955.375634	-0.006937
955.552166	-0.007952
955.728681	-0.007460
955.905177	-0.006811
956.081655	-0.006024
956.258115	-0.006414
956.434557	-0.005244
956.610980	-0.004081
956.787385	-0.004093
956.963772	-0.004733
957.140141	-0.005833
957.316492	-0.006342
957.492824	-0.007011
957.669138	-0.006962
957.845434	-0.004845
958.021712	-0.005114
958.197971	-0.004579
958.374212	-0.003673
958.550435	-0.002623
958.726640	-0.000346
958.902826	0.000109
959.078995	0.000572
959.255145	0.001007
959.431277	-0.000028
959.607390	0.001037
959.783486	0.000636
959.959563	0.001828
960.135622	0.000467
960.311662	-0.000009
960.487685	0.002007
960.663689	0.003729
960.839675	0.002949
961.015643	0.003826
961.191593	0.001109
961.367524	0.002916
961.543437	0.001774
961.719332	0.003495
961.895209	0.003619
962.071067	0.001683
962.246907	0.004017
962.422730	0.006915
962.598533	0.005034
962.774319	0.008130
962.950086	0.007584
963.125835	0.008510
963.301566	0.009936
963.477279	0.012966
963.652973	0.011869
963.828650	0.010601
964.004308	0.008442
964.179947	0.010066
964.355569	0.013067
964.531172	0.012043
964.706757	0.011942
964.882324	0.010455
965.057873	0.007574
965.233403	0.009297
965.408916	0.008539
965.584410	0.009095
965.759885	0.007275
965.935343	0.004509
966.110782	0.006430
966.286203	0.006466
966.461606	0.007676
966.636991	0.009909
966.812357	0.009504
966.987705	0.008042
967.163035	0.007818
967.338347	0.009802
967.513641	0.010978
967.688916	0.008922
967.864173	0.008864
968.039412	0.007688
968.214632	0.007400
968.389835	0.008048
968.565019	0.010476
968.740185	0.009533
968.915333	0.008478
969.090462	0.006507
969.265573	0.008786
969.440667	0.009484
969.615741	0.011308
969.790798	0.009785
969.965836	0.008800
970.140856	0.007424
970.315858	0.009799
970.490842	0.012020
970.665808	0.012900
970.840755	0.009806
971.015684	0.010178
971.190595	0.007450
971.365487	0.009350
971.540362	0.011613
971.715218	0.012474
971.890056	0.011112
972.064875	0.009228
972.239677	0.010659
972.414460	0.012393
972.589225	0.012127
972.763972	0.013371
972.938700	0.012795
973.113411	0.013483
973.288103	0.013068
973.462777	0.013843
973.637432	0.015359
973.812070	0.014850
973.986689	0.015507
974.161290	0.015285
974.335873	0.017580
974.510437	0.017968
974.684984	0.016236
974.859512	0.017786
975.034022	0.019404
975.208513	0.017271
975.382987	0.014830
975.557442	0.012018
975.731879	0.010462
975.906298	0.007323
976.080698	0.008265
976.255080	0.007130
976.429445	0.008179
976.603790	0.008240
976.778118	0.007377
976.952427	0.007718
977.126719	0.009370
977.300992	0.011141
977.475246	0.011584
977.649483	0.010264
977.823701	0.010775
977.997901	0.008105
978.172083	0.005090
978.346247	0.006559
978.520392	0.008905
978.694519	0.009981
978.868628	0.009450
979.042719	0.010871
979.216791	0.011639
979.390845	0.012208
979.564882	0.011925
979.738899	0.012334
979.912899	0.013457
980.086880	0.010944
980.260843	0.010725
980.434788	0.011497
980.608715	0.011949
980.782623	0.009396
980.956514	0.011378
981.130386	0.010790
981.304240	0.009047
981.478075	0.007755
981.651892	0.007811
981.825692	0.008302
981.999472	0.007870
982.173235	0.008204
982.346980	0.007277
982.520706	0.005716
982.694414	0.006522
982.868104	0.008401
983.041775	0.008321
983.215428	0.009762
983.389064	0.009801
983.562680	0.009146
983.736279	0.007817
983.909860	0.009183
984.083422	0.008910
984.256966	0.010291
984.430491	0.010510
984.603999	0.011584
984.777488	0.008554
984.950959	0.009433
985.124412	0.008597
985.297847	0.008976
985.471263	0.009773
985.644661	0.008888
985.818041	0.005756
985.991403	0.006760
986.164747	0.007181
986.338072	0.009641
986.511379	0.007692
986.684668	0.007814
986.857938	0.007088
987.031191	0.005478
987.204425	0.006482
987.377641	0.008814
987.550839	0.007933
987.724018	0.007877
987.897179	0.007058
988.070322	0.007254
988.243447	0.007008
988.416554	0.006178
988.589642	0.008718
988.762712	0.008513
988.935764	0.009054
989.108798	0.008061
989.281813	0.008527
989.454811	0.009346
989.627790	0.010265
989.800751	0.009348
989.973693	0.008913
990.146617	0.007317
990.319524	0.006648
990.492412	0.006071
990.665281	0.006097
990.838133	0.005395
991.010966	0.004379
991.183781	0.003961
991.356578	0.005395
991.529356	0.006628
991.702117	0.006035
991.874859	0.006283
992.047583	0.005704
992.220288	0.006482
992.392976	0.006822
992.565645	0.007577
992.738296	0.007158
992.910929	0.007668
993.083543	0.006972
993.256139	0.008668
993.428718	0.007354
993.601277	0.006412
993.773819	0.004981
993.946342	0.003927
994.118848	0.003027
994.291335	0.001645
994.463803	0.002511
994.636254	0.001913
994.808686	0.001348
994.981100	0.004101
995.153496	0.004460
995.325874	0.005788
995.498233	0.006680
995.670574	0.008170
995.842897	0.009933
996.015202	0.007510
996.187488	0.008549
996.359757	0.006596
996.532007	0.004894
996.704239	0.006433
996.876452	0.007169
997.048648	0.007278
997.220825	0.007617
997.392984	0.008889
997.565124	0.008863
997.737247	0.009732
997.909351	0.013032
998.081437	0.012483
998.253505	0.010541
998.425554	0.009558
998.597586	0.007116
998.769599	0.005698
998.941594	0.003939
999.113571	0.004533
999.285529	0.003633
999.457469	0.002123
999.629391	0.002878
999.801295	0.004488
999.973181	0.004653
1000.145048	0.006769
1000.316897	0.005480
1000.488728	0.006176
1000.660541	0.007307
1000.832335	0.008285
1001.004111	0.007173
1001.175869	0.006339
1001.347609	0.002093
1001.519331	0.001442
1001.691034	0.000749
1001.862719	0.002470
1002.034386	0.000877
1002.206035	-0.000445
1002.377665	-0.001982
1002.549277	-0.001143
1002.720871	-0.001292
1002.892447	0.001978
1003.064004	0.002309
1003.235544	0.002780
1003.407065	0.001683
1003.578568	0.002651
1003.750052	0.003171
1003.921519	0.004881
1004.092967	0.005431
1004.264397	0.004791
1004.435809	0.004005
1004.607202	0.003100
1004.778577	0.001918
1004.949934	0.003177
1005.121273	0.001240
1005.292594	0.001936
1005.463896	0.002894
1005.635180	0.001769
1005.806446	0.003537
1005.977694	0.003921
1006.148923	0.003644
1006.320135	0.006810
1006.491328	0.007148
1006.662503	0.009496
1006.833659	0.007992
1007.004798	0.006279
1007.175918	0.006360
1007.347020	0.005287
1007.518103	0.006284
1007.689169	0.007730
1007.860216	0.005265
1008.031245	0.003367
1008.202256	0.002751
1008.373248	0.004138
1008.544223	0.004341
1008.715179	0.004626
1008.886117	0.004925
1009.057036	0.003298
1009.227938	0.003455
1009.398821	0.003566
1009.569686	0.004282
1009.740533	0.003513
1009.911361	0.002235
1010.082172	0.001764
1010.252964	0.001581
1010.423738	0.002041
1010.594493	0.002595
1010.765231	0.002099
1010.935950	0.002055
1011.106651	0.001683
1011.277334	0.001248
1011.447998	-0.000734
1011.618645	-0.002907
1011.789273	-0.002179
1011.959882	-0.003545
1012.130474	-0.002732
1012.301048	-0.002701
1012.471603	-0.003057
1012.642140	-0.002860
1012.812658	-0.004256
1012.983159	-0.000639
1013.153641	0.000471
1013.324105	-0.000664
1013.494551	-0.001402
1013.664979	-0.002877
1013.835388	-0.002645
1014.005779	-0.002937
1014.176152	-0.004105
1014.346507	-0.003442
1014.516843	-0.005083
1014.687162	-0.004567
1014.857462	-0.004703
1015.027744	-0.003835
1015.198007	-0.004284
1015.368252	-0.004773
1015.538480	-0.004873
1015.708689	-0.003586
1015.878879	-0.002730
1016.049052	-0.002742
1016.219206	-0.003006
1016.389342	-0.002448
1016.559460	-0.001198
1016.729559	-0.000014
1016.899641	0.001135
1017.069704	0.002402
1017.239749	0.002416
1017.409775	0.003735
1017.579784	0.003475
1017.749774	0.003533
1017.919746	0.003257
1018.089700	0.002184
1018.259635	0.000844
1018.429553	-0.001728
1018.599452	-0.001729
1018.769333	-0.000085
1018.939195	-0.001847
1019.109040	-0.001696
1019.278866	-0.001616
1019.448674	-0.000727
1019.618464	-0.000869
1019.788235	0.001308
1019.957989	0.002381
1020.127724	-0.000880
1020.297441	-0.003981
1020.467139	-0.004056
1020.636820	-0.002578
1020.806482	-0.002937
1020.976126	-0.003733
1021.145752	-0.002889
1021.315359	-0.003655
1021.484948	-0.002898
1021.654519	-0.002546
1021.824072	-0.002299
1021.993607	-0.002489
1022.163123	-0.004591
1022.332621	-0.004194
1022.502101	-0.005162
1022.671563	-0.007413
1022.841007	-0.007847
1023.010432	-0.008406
1023.179839	-0.008228
1023.349228	-0.006883
1023.518598	-0.005150
1023.687951	-0.003057
1023.857285	-0.002277
1024.026601	-0.001536
1024.195899	0.000367
1024.365178	0.000728
1024.534439	0.000978
1024.703682	0.001905
1024.872907	0.002156
1025.042114	0.002274
1025.211302	0.001445
1025.380472	0.000534
1025.549624	0.000451
1025.718758	0.000560
1025.887873	0.000174
1026.056970	0.000317
1026.226049	0.001322
1026.395110	0.000752
1026.564153	-0.000305
1026.733177	-0.001778
1026.902183	-0.001668
1027.071171	-0.001653
1027.240141	-0.001898
1027.409092	-0.002055
1027.578026	-0.002904
1027.746940	-0.002441
1027.915837	-0.002552
1028.084716	-0.001941
1028.253576	-0.000684
1028.422418	-0.000045
1028.591242	-0.001389
1028.760048	-0.003223
1028.928835	-0.002794
1029.097604	-0.002712
1029.266355	-0.003600
1029.435088	-0.003468
1029.603803	-0.005145
1029.772499	-0.004850
1029.941177	-0.006570
1030.109837	-0.004554
1030.278478	-0.002111
1030.447102	-0.000717
1030.615707	-0.000542
1030.784294	-0.000704
1030.952863	-0.001058
1031.121413	0.001429
1031.289945	-0.000485
1031.458460	0.000586
1031.626955	0.000442
1031.795433	-0.000239
1031.963892	-0.001320
1032.132334	-0.002221
1032.300756	-0.002397
1032.469161	-0.002098
1032.637548	-0.003278
1032.805916	-0.000961
1032.974266	-0.001584
1033.142598	-0.002892
1033.310911	-0.003683
1033.479207	-0.004166
1033.647484	-0.003360
1033.815743	-0.004229
1033.983983	-0.004570
1034.152206	-0.003942
1034.320410	-0.006618
1034.488596	-0.005899
1034.656764	-0.004983
1034.824914	-0.004694
1034.993045	-0.005722
1035.161158	-0.005338
1035.329253	-0.004321
1035.497330	-0.002816
1035.665388	-0.004450
1035.833428	-0.002936
1036.001450	-0.004208
1036.169454	-0.004770
1036.337440	-0.004599
1036.505407	-0.003213
1036.673356	-0.004903
1036.841287	-0.005774
1037.009200	-0.007081
1037.177094	-0.006232
1037.344970	-0.007765
1037.512828	-0.006818
1037.680668	-0.006027
1037.848489	-0.006498
1038.016293	-0.007735
1038.184078	-0.006945
1038.351845	-0.006780
1038.519593	-0.006492
1038.687324	-0.005943
1038.855036	-0.004720
1039.022730	-0.005354
1039.190406	-0.006184
1039.358063	-0.005686
1039.525702	-0.006767
1039.693323	-0.006038
1039.860926	-0.006421
1040.028511	-0.007417
1040.196077	-0.008341
1040.363625	-0.008573
1040.531155	-0.008631
1040.698667	-0.008754
1040.866161	-0.009594
1041.033636	-0.009100
1041.201093	-0.010002
1041.368532	-0.009036
1041.535952	-0.009168
1041.703355	-0.009407
1041.870739	-0.009467
1042.038105	-0.008854
1042.205452	-0.007704
1042.372782	-0.007773
1042.540093	-0.007570
1042.707386	-0.008123
1042.874661	-0.008612
1043.041918	-0.009112
1043.209156	-0.009638
1043.376376	-0.007631
1043.543578	-0.007747
1043.710762	-0.008857
1043.877927	-0.007745
1044.045074	-0.006663
1044.212203	-0.005625
1044.379314	-0.004174
1044.546407	-0.003384
1044.713481	-0.002830
1044.880537	-0.005535
1045.047575	-0.007187
1045.214595	-0.007161
1045.381596	-0.007913
1045.548579	-0.009053
1045.715544	-0.009245
1045.882491	-0.011143
1046.049420	-0.011728
1046.216330	-0.011901
1046.383222	-0.009383
1046.550096	-0.007210
1046.716951	-0.006741
1046.883789	-0.006446
1047.050608	-0.007004
1047.217409	-0.008681
1047.384192	-0.008543
1047.550956	-0.008243
1047.717703	-0.008339
1047.884431	-0.010574
1048.051140	-0.011667
1048.217832	-0.010726
1048.384505	-0.010469
1048.551161	-0.010283
1048.717798	-0.007936
1048.884416	-0.007076
1049.051017	-0.006962
1049.217599	-0.006643
1049.384163	-0.007321
1049.550709	-0.005812
1049.717237	-0.006847
1049.883746	-0.007383
1050.050237	-0.005422
1050.216710	-0.006698
1050.383165	-0.007497
1050.549601	-0.007285
1050.716019	-0.007625
1050.882420	-0.005761
1051.048801	-0.007963
1051.215165	-0.009831
1051.381510	-0.008575
1051.547837	-0.010133
1051.714146	-0.010840
1051.880437	-0.009779
1052.046709	-0.009493
1052.212964	-0.008014
1052.379200	-0.008947
1052.545417	-0.007899
1052.711617	-0.006503
1052.877798	-0.006278
1053.043961	-0.005474
1053.210106	-0.002773
1053.376233	-0.005585
1053.542341	-0.007460
1053.708432	-0.008944
1053.874504	-0.007444
1054.040557	-0.008129
1054.206593	-0.010747
1054.372610	-0.013614
1054.538609	-0.012950
1054.704590	-0.014941
1054.870553	-0.014356
1055.036497	-0.012839
1055.202424	-0.011752
1055.368331	-0.013392
1055.534221	-0.013116
1055.700093	-0.011485
1055.865946	-0.009768
1056.031781	-0.010154
1056.197598	-0.009471
1056.363397	-0.008060
1056.529177	-0.010279
1056.694939	-0.011004
1056.860683	-0.011647
1057.026409	-0.009818
1057.192116	-0.009472
1057.357806	-0.011411
1057.523477	-0.012973
1057.689130	-0.012529
1057.854764	-0.013542
1058.020381	-0.011838
1058.185979	-0.011385
1058.351559	-0.011860
1058.517120	-0.013031
1058.682664	-0.011352
1058.848189	-0.010647
1059.013696	-0.009177
1059.179185	-0.009339
1059.344656	-0.007621
1059.510108	-0.007977
1059.675542	-0.008743
1059.840958	-0.008169
1060.006356	-0.009359
1060.171735	-0.009784
1060.337096	-0.008055
1060.502439	-0.008193
1060.667764	-0.008785
1060.833071	-0.008988
1060.998359	-0.009354
1061.163629	-0.009820
1061.328881	-0.008470
1061.494115	-0.010062
1061.659330	-0.008949
1061.824527	-0.009262
1061.989706	-0.007585
1062.154867	-0.008848
1062.320010	-0.011362
1062.485134	-0.009679
1062.650240	-0.008082
1062.815328	-0.008003
1062.980398	-0.006701
1063.145449	-0.007170
1063.310482	-0.006940
1063.475497	-0.008674
1063.640494	-0.007245
1063.805473	-0.005480
1063.970433	-0.006199
1064.135375	-0.006199
1064.300299	-0.005930
1064.465204	-0.006017
1064.630092	-0.008583
1064.794961	-0.009517
1064.959812	-0.010377
1065.124645	-0.010011
1065.289459	-0.010897
1065.454256	-0.009977
1065.619034	-0.012592
1065.783793	-0.014550
1065.948535	-0.015798
1066.113258	-0.012197
1066.277964	-0.012915
1066.442651	-0.012479
1066.607319	-0.012574
1066.771970	-0.012597
1066.936602	-0.014181
1067.101216	-0.012119
1067.265812	-0.010631
1067.430389	-0.009769
1067.594949	-0.011674
1067.759490	-0.010950
1067.924013	-0.009970
1068.088518	-0.010157
1068.253004	-0.009045
1068.417472	-0.008078
1068.581922	-0.006286
1068.746354	-0.006472
1068.910768	-0.004590
1069.075163	-0.003546
1069.239540	-0.002535
1069.403899	-0.004313
1069.568240	-0.004119
1069.732562	-0.005189
1069.896866	-0.005459
1070.061152	-0.005807
1070.225420	-0.005887
1070.389670	-0.004438
1070.553901	-0.003473
1070.718114	-0.003486
1070.882309	-0.002819
1071.046486	-0.003290
1071.210644	-0.002408
1071.374784	-0.001866
1071.538906	-0.002114
1071.703010	-0.000567
1071.867096	-0.000376
1072.031163	-0.002764
1072.195212	-0.003518
1072.359243	-0.003656
1072.523256	-0.003853
1072.687250	-0.003670
1072.851226	-0.004924
1073.015184	-0.002915
1073.179124	-0.005762
1073.343045	-0.007693
1073.506949	-0.008705
1073.670834	-0.009487
1073.834701	-0.008123
1073.998549	-0.007515
1074.162380	-0.005789
1074.326192	-0.004726
1074.489986	-0.006589
1074.653761	-0.007472
1074.817519	-0.005945
1074.981258	-0.003975
1075.144979	-0.003496
1075.308682	-0.004700
1075.472367	-0.005286
1075.636033	-0.008236
1075.799681	-0.007479
1075.963311	-0.009531
1076.126923	-0.006759
1076.290516	-0.008522
1076.454092	-0.007803
1076.617649	-0.006161
1076.781187	-0.003718
1076.944708	-0.001860
1077.108210	-0.000806
1077.271695	-0.001440
1077.435160	0.001321
1077.598608	0.001745
1077.762038	0.002213
1077.925449	0.001050
1078.088842	0.000974
1078.252217	0.000455
1078.415573	-0.000524
1078.578912	0.003399
1078.742232	0.003972
1078.905534	0.003082
1079.068817	0.001526
1079.232083	0.002256
1079.395330	0.002542
1079.558559	0.001327
1079.721770	0.000413
1079.884962	0.001696
1080.048136	-0.000800
1080.211293	-0.002105
1080.374430	-0.003809
1080.537550	-0.002169
1080.700651	-0.002742
1080.863735	-0.001617
1081.026800	-0.000852
1081.189846	-0.001567
1081.352875	-0.002167
1081.515885	-0.002942
1081.678877	-0.001715
1081.841851	-0.000058
1082.004807	-0.001469
1082.167744	0.000310
1082.330663	-0.000675
1082.493564	-0.000576
1082.656447	0.003846
1082.819312	0.002605
1082.982158	0.001650
1083.144986	0.002252
1083.307796	0.003839
1083.470587	0.006596
1083.633361	0.005358
1083.796116	0.003899
1083.958853	0.003113
1084.121571	-0.001568
1084.284272	0.000182
1084.446954	0.003240
1084.609618	0.005582
1084.772264	0.004437
1084.934892	0.003187
1085.097501	0.002245
1085.260092	0.002812
1085.422665	0.001419
1085.585220	0.003094
1085.747756	0.002220
1085.910274	0.001826
1086.072774	0.000926
1086.235256	0.000670
1086.397720	0.000162
1086.560165	0.000027
1086.722592	-0.000732
1086.885001	0.001296
1087.047392	0.000853
1087.209764	0.001349
1087.372119	-0.000544
1087.534455	-0.002014
1087.696772	-0.000653
1087.859072	-0.000943
1088.021353	0.002138
1088.183616	0.004593
1088.345861	0.004662
1088.508088	0.005128
1088.670296	0.004980
1088.832486	0.003162
1088.994658	0.002578
1089.156812	0.001070
1089.318948	0.001833
1089.481065	-0.001157
1089.643164	-0.003457
1089.805245	-0.004427
1089.967308	-0.008148
1090.129352	-0.006349
1090.291378	-0.002397
1090.453386	-0.001317
1090.615376	-0.003427
1090.777347	-0.004531
1090.939301	-0.004191
1091.101236	-0.002845
1091.263153	-0.001273
1091.425051	0.003865
1091.586932	0.003600
1091.748794	0.002131
1091.910638	0.005373
1092.072463	0.005052
1092.234271	0.004102
1092.396060	0.003791
1092.557831	0.005099
1092.719584	0.004301
1092.881319	0.002426
1093.043035	0.002921
1093.204733	0.003649
1093.366413	0.000285
1093.528075	0.001276
1093.689718	0.000345
1093.851343	0.000037
1094.012950	0.000637
1094.174539	0.002107
1094.336110	0.004504
1094.497662	0.004565
1094.659196	0.005200
1094.820712	0.004838
1094.982210	0.009178
1095.143689	0.013026
1095.305151	0.015401
1095.466594	0.015629
1095.628018	0.019676
1095.789425	0.016479
1095.950813	0.018672
1096.112183	0.016287
1096.273535	0.018236
1096.434869	0.014071
1096.596184	0.012502
1096.757482	0.013032
1096.918761	0.009029
1097.080021	0.002860
1097.241264	0.003850
1097.402488	-0.001285
1097.563694	0.000215
1097.724882	-0.003632
1097.886052	-0.006084
1098.047203	-0.003889
1098.208336	-0.006339
1098.369451	-0.001360
1098.530548	-0.000454
1098.691627	-0.002574
1098.852687	-0.000441
1099.013729	-0.001394
1099.174753	0.001424
1099.335758	0.002649
1099.496746	0.000655
1099.657715	0.001154
1099.818666	0.001809
1099.979599	-0.000523
1100.140513	0.001413
1100.301409	0.003395
1100.462287	0.005663
1100.623147	0.002543
1100.783989	-0.001169
1100.944812	0.001990
1101.105617	0.002736
1101.266404	-0.000706
1101.427173	0.005927
1101.587923	0.004758
1101.748656	0.003602
1101.909370	0.003218
1102.070066	0.006255
1102.230743	0.013155
1102.391403	0.011550
1102.552044	0.008894
1102.712667	0.008151
1102.873271	0.004697
1103.033858	0.003882
1103.194426	0.000725
1103.354976	-0.003427
1103.515508	-0.006114
1103.676021	-0.007110
1103.836517	-0.008236
1103.996994	-0.007876
1104.157453	-0.011078
1104.317893	-0.012858
1104.478316	-0.009211
1104.638720	-0.013853
1104.799106	-0.010609
1104.959474	-0.004614
1105.119823	-0.005859
1105.280155	-0.004821
1105.440468	0.000066
1105.600763	0.004793
1105.761039	0.004283
1105.921298	0.000320
1106.081538	0.002892
1106.241760	0.003682
1106.401964	-0.001290
1106.562149	0.000080
1106.722316	-0.002887
1106.882465	-0.006532
1107.042596	-0.009262
1107.202709	-0.007387
1107.362803	-0.008517
1107.522879	-0.007592
1107.682937	-0.009261
1107.842977	-0.009398
1108.002999	-0.009212
1108.163002	-0.008665
1108.322987	-0.005501
1108.482954	-0.004848
1108.642902	-0.002953
1108.802833	0.000543
1108.962745	-0.001935
1109.122639	0.001329
1109.282515	0.001462
1109.442372	0.005741
1109.602211	0.010464
1109.762032	0.010492
1109.921835	0.009997
1110.081620	0.006126
1110.241386	0.005713
1110.401134	0.007253
1110.560864	0.004412
1110.720576	0.006398
1110.880269	-0.000882
1111.039945	-0.004753
1111.199602	-0.007184
1111.359240	-0.007588
1111.518861	-0.006026
1111.678463	-0.006030
1111.838047	-0.000848
1111.997613	-0.002146
1112.157161	-0.004923
1112.316690	-0.002189
1112.476202	-0.004184
1112.635695	0.002296
1112.795169	-0.000195
1112.954626	0.000034
1113.114064	-0.001898
1113.273484	-0.002516
1113.432886	-0.001736
1113.592270	0.005418
1113.751635	0.001337
1113.910983	0.003198
1114.070312	-0.007770
1114.229622	-0.004391
1114.388915	-0.007413
1114.548189	-0.004794
1114.707445	-0.008925
1114.866683	-0.011426
1115.025903	-0.017172
1115.185104	-0.014959
1115.344287	-0.011423
1115.503452	-0.008181
1115.662599	-0.007259
1115.821727	-0.002725
1115.980838	-0.000838
1116.139930	0.000193
1116.299004	0.003479
1116.458059	0.003051
1116.617097	0.002541
1116.776116	0.000495
1116.935117	0.004142
1117.094099	0.002231
1117.253064	-0.002382
1117.412010	-0.004420
1117.570938	-0.001769
1117.729848	-0.001898
1117.888740	0.002826
1118.047613	0.004700
1118.206468	-0.001849
1118.365305	-0.003599
1118.524124	-0.004272
1118.682924	0.000838
1118.841707	0.004419
1119.000471	0.000612
1119.159216	0.001550
1119.317944	-0.002126
1119.476653	-0.001514
1119.635344	0.005762
1119.794017	0.009146
1119.952672	0.010693
1120.111308	0.001955
1120.269927	0.001420
1120.428527	0.002303
1120.587108	0.009729
1120.745672	0.006547
1120.904217	0.007879
1121.062744	0.006451
1121.221253	-0.002403
1121.379744	-0.005565
1121.538216	0.003320
1121.696671	0.000495
1121.855107	0.004908
1122.013524	-0.004631
1122.171924	-0.001378
1122.330305	-0.004227
1122.488668	-0.008596
1122.647013	-0.001610
1122.805340	0.000039
1122.963648	-0.010602
1123.121938	-0.009685
1123.280210	-0.018583
1123.438464	-0.015387
1123.596700	-0.019554
1123.754917	-0.017705
1123.913116	-0.015002
1124.071297	-0.017246
1124.229459	-0.016482
1124.387604	-0.005486
1124.545730	-0.007461
1124.703838	-0.002036
1124.861928	-0.009249
1125.019999	-0.006325
1125.178052	-0.009343
1125.336088	-0.011694
1125.494104	-0.007976
1125.652103	-0.007516
1125.810083	-0.014383
1125.968045	-0.015895
1126.125989	-0.017543
1126.283915	-0.013566
1126.441823	-0.009738
1126.599712	-0.006357
1126.757583	-0.008888
1126.915436	-0.015929
1127.073270	-0.011942
1127.231087	-0.001284
1127.388885	-0.000389
1127.546665	-0.002991
1127.704426	-0.006934
1127.862170	-0.009940
1128.019895	-0.014213
1128.177602	-0.007667
1128.335291	-0.004741
1128.492961	-0.011356
1128.650614	-0.021283
1128.808248	-0.018437
1128.965864	-0.017558
1129.123461	-0.013022
1129.281041	-0.011084
1129.438602	-0.009824
1129.596145	-0.013471
1129.753670	-0.015086
1129.911176	-0.012856
1130.068665	-0.015262
1130.226135	-0.024926
1130.383587	-0.018033
1130.541020	-0.022623
1130.698436	-0.023501
1130.855833	-0.021947
1131.013212	-0.018388
1131.170573	-0.018031
1131.327915	-0.013938
1131.485239	-0.004419
1131.642545	0.000923
1131.799833	-0.001673
1131.957103	0.000924
1132.114354	0.006260
1132.271588	0.008399
1132.428803	0.004685
1132.585999	0.005110
1132.743178	-0.003364
1132.900338	-0.008582
1133.057480	-0.008493
1133.214604	-0.011283
1133.371710	-0.011123
1133.528797	-0.018598
1133.685866	-0.024552
1133.842917	-0.023542
1133.999950	-0.014082
1134.156964	-0.006761
1134.313960	-0.002798
1134.470938	-0.000902
1134.627898	-0.001724
1134.784840	0.004923
1134.941763	0.011579
1135.098668	0.016711
1135.255555	0.017136
1135.412424	0.010229
1135.569274	0.006934
1135.726107	0.003511
1135.882921	0.000864
1136.039716	-0.000661
1136.196494	-0.009689
1136.353253	-0.018937
1136.509995	-0.019118
1136.666717	-0.010929
1136.823422	-0.019677
1136.980109	-0.021680
1137.136777	-0.020349
1137.293427	-0.017672
1137.450059	-0.010697
1137.606672	-0.005134
1137.763267	-0.000450
1137.919844	-0.002552
1138.076403	-0.006082
1138.232944	-0.001890
1138.389466	0.000704
1138.545971	0.006620
1138.702457	0.006644
1138.858924	0.001240
1139.015374	-0.002492
1139.171805	-0.009235
1139.328218	-0.011946
1139.484613	-0.010377
1139.640990	-0.001700
1139.797348	-0.002061
1139.953688	-0.003849
1140.110010	-0.005634
1140.266314	-0.002770
1140.422600	0.002511
1140.578867	0.007491
1140.735116	0.004478
1140.891347	-0.001086
1141.047559	-0.007888
1141.203754	-0.007950
1141.359930	-0.012724
1141.516088	-0.007894
1141.672228	0.003519
1141.828349	0.004698
1141.984452	0.001934
1142.140537	0.007979
1142.296604	0.000972
1142.452653	-0.003111
1142.608683	-0.002499
1142.764695	0.004048
1142.920689	0.000740
1143.076665	-0.009044
1143.232622	-0.013566
1143.388562	-0.014343
1143.544483	-0.014272
1143.700385	-0.011191
1143.856270	-0.003586
1144.012136	0.000046
1144.167985	-0.003148
1144.323814	-0.001315
1144.479626	-0.002701
1144.635420	-0.001003
1144.791195	0.005685
1144.946952	0.001845
1145.102691	0.009750
1145.258411	0.009372
1145.414113	-0.001974
1145.569798	-0.003275
1145.725463	0.000917
1145.881111	-0.004154
1146.036741	-0.001215
1146.192352	-0.004184
1146.347945	0.003630
1146.503519	-0.002416
1146.659076	-0.009286
1146.814614	0.000907
1146.970134	0.002611
1147.125636	-0.008278
1147.281120	-0.004388
1147.436585	-0.009033
1147.592032	-0.003457
1147.747461	-0.006958
1147.902872	-0.005459
1148.058265	-0.008697
1148.213639	-0.008655
1148.368995	-0.007970
1148.524333	0.002693
1148.679653	0.007673
1148.834954	0.002521
1148.990237	0.000734
1149.145502	-0.002430
1149.300749	-0.010045
1149.455977	-0.001698
1149.611188	-0.002960
1149.766380	-0.003681
1149.921553	-0.013460
1150.076709	-0.022522
1150.231846	-0.018300
1150.386966	-0.029791
1150.542066	-0.029264
1150.697149	-0.016632
1150.852214	-0.013539
1151.007260	-0.008208
1151.162288	-0.013603
1151.317298	-0.017884
1151.472289	-0.021101
1151.627263	-0.024601
1151.782218	-0.025653
1151.937155	-0.015820
1152.092073	-0.014997
1152.246974	-0.020474
1152.401856	-0.025070
1152.556720	-0.028581
1152.711566	-0.022784
1152.866393	-0.005810
1153.021203	0.001397
1153.175994	0.002719
1153.330767	-0.001863
1153.485521	-0.012328
1153.640258	-0.009316
1153.794976	-0.022998
1153.949676	-0.018477
1154.104358	-0.015114
1154.259021	-0.027390
1154.413667	-0.027317
1154.568294	-0.017151
1154.722903	-0.021446
1154.877493	-0.025031
1155.032066	-0.034677
1155.186620	-0.021198
1155.341156	-0.017796
1155.495674	-0.012979
1155.650173	-0.019650
1155.804654	-0.025599
1155.959118	-0.032738
1156.113562	-0.028479
1156.267989	-0.026476
1156.422397	-0.015125
1156.576788	-0.019629
1156.731160	-0.025143
1156.885513	-0.032903
1157.039849	-0.020418
1157.194166	-0.012606
1157.348465	-0.007259
1157.502746	-0.023608
1157.657009	-0.019990
1157.811253	-0.024161
1157.965479	-0.012304
1158.119687	-0.010993
1158.273877	-0.007772
1158.428048	0.007029
1158.582201	0.002783
1158.736337	-0.003017
1158.890453	0.020532
1159.044552	0.024146
1159.198632	0.029162
1159.352694	0.010789
1159.506738	0.011825
1159.660764	0.013708
1159.814771	-0.004326
1159.968761	-0.001886
1160.122732	0.004353
1160.276685	-0.007725
1160.430619	-0.005397
1160.584535	-0.016615
1160.738434	-0.015758
1160.892313	-0.016826
1161.046175	-0.007672
1161.200019	-0.008663
1161.353844	-0.014791
1161.507651	-0.018683
1161.661440	-0.010354
1161.815210	-0.019251
1161.968962	0.004613
1162.122697	0.019920
1162.276412	0.017927
1162.430110	-0.005296
1162.583789	-0.016157
1162.737451	-0.007441
1162.891094	-0.011586
1163.044718	-0.017396
1163.198325	-0.021798
1163.351913	-0.044995
1163.505483	-0.045392
1163.659035	-0.041080
1163.812569	-0.026613
1163.966084	-0.011154
1164.119581	-0.022000
1164.273060	-0.015821
1164.426521	-0.014503
1164.579964	0.002360
1164.733388	0.011112
1164.886794	0.011827
1165.040182	0.012079
1165.193551	-0.001940
1165.346903	-0.002733
1165.500236	-0.002576
1165.653551	-0.003029
1165.806848	-0.003296
1165.960126	-0.010145
1166.113386	-0.008843
1166.266628	-0.021763
1166.419852	-0.017436
1166.573058	-0.013427
1166.726245	-0.007946
1166.879414	-0.000011
1167.032565	0.000430
1167.185698	0.017284
1167.338812	0.011364
1167.491909	0.018983
1167.644987	0.035753
1167.798046	0.026160
1167.951088	0.013754
1168.104111	0.019277
1168.257117	0.031773
1168.410103	0.032959
1168.563072	0.010626
1168.716023	0.020796
1168.868955	0.002225
1169.021869	-0.016740
1169.174765	-0.025646
1169.327642	-0.007019
1169.480501	-0.026325
1169.633343	-0.043683
1169.786165	-0.050231
1169.938970	-0.040590
1170.091757	-0.046316
1170.244525	-0.049024
1170.397275	-0.043167
1170.550007	-0.040652
1170.702720	-0.041785
1170.855415	-0.036368
1171.008092	-0.030543
1171.160751	-0.019160
1171.313392	-0.021366
1171.466014	-0.002302
1171.618619	0.024937
1171.771205	0.024937
1171.923772	0.024937
