sample name	sample
index	1192
start time	 04-26-2021  12:16:51 PM
880	0.030688
Peak Time (s)	92.535
Peak Height 	0.03069
calc peak height	90,93
Baseline Time (s)	9.537
Baseline Value 	-0.00643
subtract baseline	10,4
Abs	0.006039
Peak Time (s)	91.537
Peak Height 	0.006039
calc peak height	90,93
Baseline Time (s)	11.534
Baseline Value 	0.004415
subtract baseline	10,3
PK_550	-0.014840
Peak Time (s)	90.037
Peak Height 	-0.01484
calc peak height	90,93
Baseline Time (s)	8.536
Baseline Value 	2.6886E-4
subtract baseline	10,2
PK_880	0.004169
Peak Time (s)	90.037
Peak Height 	0.004169
calc peak height	90,93
Baseline Time (s)	9.537
Baseline Value 	0.001892
subtract baseline	10,1


Time (s)	A880-A510	A880-A775	A880-A975	A880	I510	I775	I975	I880	
0.042000	0.002877	-0.000049	0.000946	0.002451	6178.694618	43542.424703	3868.607431	22518.029208
0.537000	-0.004508	-0.000923	-0.004663	0.004036	6111.870823	43313.086843	3852.426126	22446.548702
1.040000	-0.002899	-0.000156	-0.007903	0.006089	6108.600478	43193.690252	3840.691241	22354.380303
1.537500	-0.002569	0.000063	-0.000011	0.002395	6138.375839	43558.170934	3866.567651	22520.562596
2.035500	-0.002299	-0.000236	0.004307	0.000424	6155.076439	43714.874892	3880.901523	22609.773979
2.535000	-0.001787	-0.000337	-0.004022	0.000341	6159.531698	43713.188204	3862.146931	22613.562963
3.041000	-0.005343	-0.000873	-0.005079	0.005008	6098.572834	43227.457578	3849.335394	22402.857674
3.536000	0.000410	0.000521	-0.003916	0.001020	6170.906907	43729.966352	3860.857275	22582.757093
4.036000	-0.000584	0.000444	-0.000998	0.000635	6166.339936	43759.003499	3868.318550	22600.233607
4.539500	-0.001390	-0.000113	-0.005027	0.000158	6163.872725	43751.455764	3860.296640	22621.866329
5.042000	-0.001782	0.000210	0.004062	0.005080	6124.297889	43321.473500	3869.713226	22399.665396
5.537000	-0.000515	0.000828	0.000573	0.000934	6164.616272	43766.993107	3871.207020	22586.684960
6.034500	0.000311	0.000225	0.002407	0.000144	6176.745207	43784.526497	3877.189665	22622.482953
6.535000	-0.002399	-0.000312	-0.002999	-0.000590	6161.915310	43803.021875	3866.558941	22655.845558
7.035000	-0.000396	0.000523	-0.000205	0.000684	6167.376970	43761.728842	3870.005723	22597.989533
7.536000	-0.000680	0.000801	0.000417	0.000654	6165.473756	43790.783091	3871.489136	22599.364819
8.035000	-0.001581	0.000656	-0.002240	0.000483	6160.007106	43793.187888	3865.848942	22607.102366
8.536000	-0.001602	0.000000	0.000443	-0.000132	6164.455349	43789.297326	3873.334849	22635.025251
9.041500	-0.001297	-0.000025	-0.003606	0.000012	6165.663682	43773.476552	3863.826892	22628.500735
9.536500	0.000000	0.000709	-0.001901	0.000000	6175.489986	43843.621813	3867.709750	22629.040922
10.039500	0.000551	0.000272	0.002262	-0.000105	6180.426186	43812.397785	3877.429419	22633.827411
10.537000	-0.000625	-0.000304	0.000888	-0.000673	6175.844442	43811.610316	3875.584172	22659.613278
11.034500	0.000309	-0.000277	-0.001714	0.000069	6177.296112	43744.364112	3867.976615	22625.904176
11.534500	0.000556	0.000209	0.000000	0.000194	6178.214615	43778.335126	3871.584931	22620.218151
12.035000	-0.000656	-0.000033	0.004282	-0.000174	6171.864295	43790.122423	3882.218824	22636.927732
12.538000	-0.001825	-0.000386	0.002103	-0.000506	6165.583739	43788.200590	3877.982015	22652.036236
13.036000	-0.000537	-0.000005	-0.003193	-0.000430	6174.683442	43816.840413	3865.759155	22648.565748
13.536500	0.001157	0.000398	-0.000094	-0.000450	6187.596292	43856.810555	3872.839195	22649.513075
14.036500	-0.002761	-0.000686	-0.002350	0.001385	6144.459205	43582.574180	3863.562953	22566.217022
14.542000	-0.000497	0.000642	-0.002039	0.002356	6154.110257	43616.017883	3862.074961	22522.329654
15.036500	-0.000619	0.000010	0.000822	0.000090	6170.164249	43769.431833	3873.695253	22624.971736
15.537500	0.001484	0.000160	-0.000859	-0.000615	6191.310868	43849.807728	3871.471406	22656.977676
16.038000	-0.000259	0.000350	-0.000019	-0.000809	6179.628783	43886.036650	3873.824787	22665.806550
16.535000	0.000634	0.000379	0.001225	-0.000720	6185.682949	43880.432612	3876.462918	22661.764944
17.035500	-0.000328	0.000458	-0.001869	-0.002213	6189.697534	44028.929357	3872.810500	22729.830008
17.536000	-0.001218	-0.000165	0.002174	0.000489	6162.675113	43715.423590	3875.867941	22606.823913
18.036000	-0.001033	0.000925	-0.000038	0.001668	6155.245367	43707.026899	3868.152351	22553.416962
18.539000	0.001618	0.000026	0.001629	0.001119	6179.243249	43674.315219	3873.188032	22578.295594
19.036500	-0.001877	0.000344	-0.004261	0.001059	6153.484597	43709.696412	3859.992352	22580.989676
19.537000	-0.001583	-0.000109	-0.000290	0.000904	6156.846003	43681.770430	3869.314057	22588.026440
20.037000	-0.001728	0.000293	0.001488	0.001057	6154.621684	43705.138848	3873.009594	22581.106089
20.537500	-0.001610	-0.000097	-0.001418	0.000422	6160.250937	43728.144934	3867.848442	22609.902933
21.035500	0.000768	0.000297	-0.004159	0.001190	6172.319495	43692.968985	3859.928868	22575.054106
21.535500	-0.001581	0.001542	0.004017	0.002607	6144.147685	43676.851377	3875.241567	22510.984051
22.035500	0.000030	-0.000138	-0.000057	0.000894	6169.002854	43679.949946	3869.865448	22588.482521
22.535500	-0.002822	0.000064	0.000397	0.000553	6150.210942	43730.970875	3871.671034	22603.938156
23.036500	-0.001175	0.000600	0.002838	0.001285	6157.046601	43712.542844	3875.567561	22570.764789
23.536500	-0.000442	0.000518	0.006829	0.001462	6161.199974	43688.191802	3884.316218	22562.733414
24.036500	-0.001190	0.001045	0.001326	0.001461	6155.615337	43737.791493	3871.719044	22562.782203
24.536500	-0.001757	-0.000204	-0.003849	0.000447	6158.964440	43715.719527	3862.298998	22608.765498
25.034500	0.000773	0.000380	0.002089	0.001143	6172.708043	43705.197918	3874.181215	22577.177077
25.535000	0.000142	0.000595	0.002535	0.001505	6165.259076	43691.454674	3874.374233	22560.808433
26.035500	0.000161	0.000064	0.001395	0.000627	6171.992658	43723.973926	3873.777380	22600.594424
26.535500	-0.001583	0.000103	0.002102	0.001249	6154.270044	43669.299284	3873.970691	22572.406108
27.036000	-0.000779	0.000074	0.002411	0.002624	6150.001993	43537.774322	3871.542413	22510.234837
27.536000	-0.001093	0.000511	0.002156	-0.000555	6171.445953	43877.322580	3878.215451	22654.269395
28.039000	-0.000794	-0.000536	-0.004313	-0.001204	6178.575790	43839.797207	3864.976049	22683.800177
28.536500	-0.000673	0.000440	-0.003778	-0.000870	6176.969818	43900.286588	3865.429545	22668.577368
29.036500	-0.004436	-0.000424	-0.001112	0.004223	6111.018725	43342.141660	3859.958613	22438.138248
29.537000	-0.000214	-0.000538	-0.000745	-0.001574	6185.733198	43874.520716	3873.916072	22700.671561
30.037500	-0.000352	0.000033	-0.001820	-0.001053	6180.770168	43879.215263	3870.284310	22676.941645
30.535500	-0.003038	0.000695	-0.000441	0.002659	6132.934733	43592.609036	3864.997084	22508.635119
31.035500	-0.000414	0.000334	-0.003881	0.001974	6157.588464	43623.005201	3858.791347	22539.592870
31.535500	-0.000052	0.000160	0.006505	-0.001158	6183.817533	43901.062649	3889.622311	22681.730899
32.036000	-0.001009	0.000234	0.005546	-0.001089	6176.088668	43901.454608	3887.241956	22678.543951
32.536000	-0.000112	-0.000023	0.003230	-0.001336	6184.709109	43900.616418	3882.472021	22689.812184
33.036000	0.001379	0.000618	-0.001162	0.003292	6161.134706	43526.205836	3861.941675	22480.068840
33.536500	0.002431	0.001023	0.007371	-0.001536	6205.455174	44018.291659	3892.505979	22698.918549
34.036500	-0.001135	-0.000596	-0.004449	0.000859	6160.534541	43640.363541	3860.021737	22590.077183
34.533500	-0.001566	0.000052	-0.001019	0.001519	6152.374587	43639.167250	3866.269612	22560.182422
35.037500	-0.001324	0.000361	0.002291	0.001466	6154.572572	43673.037061	3873.904728	22562.551784
35.537500	-0.001880	0.000084	-0.001175	0.001397	6150.941396	43653.635524	3866.192219	22565.698732
36.035500	-0.000668	0.000446	-0.001213	0.001528	6159.021408	43675.296965	3865.808369	22559.770891
36.538500	-0.001333	0.000511	0.003239	0.001688	6152.858098	43666.427638	3875.564256	22552.534273
37.036000	-0.002875	0.000351	-0.001191	0.001490	6142.832481	43669.837819	3865.944358	22561.460038
37.536000	0.001037	-0.000235	-0.002942	0.001278	6173.676201	43634.853821	3862.469844	22571.072754
38.037000	-0.001121	0.000589	-0.003271	0.001851	6153.225549	43658.441949	3860.438723	22545.163256
38.537000	-0.003194	-0.000729	0.002649	0.000838	6145.307351	43629.768745	3876.157201	22591.002978
39.037000	-0.001052	0.000714	0.000635	0.001806	6154.071026	43674.272226	3869.365594	22547.167469
39.537500	-0.000833	0.000172	-0.002312	0.001781	6155.893852	43625.820450	3862.754973	22548.291041
40.035000	-0.004268	0.000289	-0.000242	0.001564	6131.924380	43657.116365	3867.923872	22558.110501
40.535500	-0.001505	0.000984	-0.003182	0.002336	6146.730956	43649.900072	3859.547274	22523.208188
41.035500	-0.001962	-0.000757	-0.001023	0.000795	6154.827272	43631.246764	3867.898258	22592.970219
41.535500	-0.002713	0.000313	-0.000483	0.001642	6142.912424	43652.172482	3867.204027	22554.620607
42.039000	0.000164	0.000852	-0.001164	0.002038	6161.424783	43665.528547	3864.765077	22536.676006
42.536500	-0.000331	0.000881	0.000607	0.001941	6158.449851	43677.300940	3868.994965	22541.073403
43.037000	-0.000944	0.000496	-0.001043	0.001612	6156.320445	43672.067675	3866.002884	22555.939672
43.537000	0.000220	0.000041	0.002449	-0.001113	6185.529734	43885.567219	3880.167476	22679.655730
44.037500	-0.000394	0.001124	-0.000573	-0.000439	6175.826358	43924.131376	3871.720559	22648.973637
44.537500	0.001386	-0.000172	-0.000937	-0.001490	6197.181630	43900.989608	3873.285790	22696.817299
45.035000	-0.001125	0.000216	-0.000122	0.001351	6156.922685	43670.294084	3868.679780	22567.774625
45.540000	0.001624	0.000304	-0.003338	-0.000596	6192.223986	43861.641352	3865.805288	22656.119924
46.036000	0.001772	0.000242	-0.001523	-0.001321	6198.827277	43924.126011	3871.567132	22689.123698
46.536000	-0.000171	-0.000325	0.004739	-0.001789	6187.681768	43914.893126	3886.995524	22710.477425
47.036500	-0.001879	0.000060	-0.001566	0.001974	6146.643009	43597.244860	3864.003230	22539.584355
47.536500	-0.000962	0.000272	0.003785	0.001959	6153.596755	43618.533147	3876.190183	22540.251540
48.036500	-0.000111	0.000265	0.001180	-0.000856	6181.097153	43882.429648	3876.669690	22667.942337
48.539500	-0.001267	0.000157	0.001361	-0.001163	6174.709283	43901.226896	3877.788481	22681.938879
49.037500	0.001518	0.000685	0.005848	-0.000144	6188.013348	43854.950117	3885.757940	22635.586617
49.534500	0.001167	0.000438	-0.000519	-0.002566	6203.678051	44060.414862	3876.696130	22745.927112
50.035000	-0.000736	-0.000119	0.003892	-0.000456	6173.380097	43808.573948	3881.970584	22649.744786
50.535500	0.001885	0.000866	0.004924	0.002555	6170.451065	43618.346690	3877.431227	22513.311542
51.035500	0.011593	-0.024529	0.000166	0.285275	4648.826181	22945.439638	3396.301734	13130.363939
51.538500	0.002332	-0.027349	-0.004372	-0.075842	6819.523921	48602.069541	4048.822982	26392.936181
52.036000	-0.013158	-0.029743	-0.017812	-0.131839	7201.723792	54601.742861	4168.779580	29625.623915
52.536500	-0.002581	-0.020278	0.005946	-0.078253	6797.070101	49610.192817	4083.481719	26523.723052
53.037000	-0.003974	-0.009496	-0.005115	-0.019863	6297.173418	44763.688414	3906.165828	23552.176673
53.537000	-0.001465	-0.014825	0.003943	0.002224	6147.872291	42204.524350	3875.948484	22528.294552
54.035000	-0.007047	-0.015590	-0.008698	-0.016151	6244.669082	43829.724063	3889.134473	23376.456359
54.534500	-0.009164	-0.009279	-0.010544	-0.039820	6414.334988	46752.745605	3940.950777	24523.236227
55.035000	-0.008243	-0.008388	-0.008631	-0.052190	6523.241592	48111.534651	3976.299304	25147.892708
55.535500	-0.004533	-0.006671	-0.009066	-0.094380	6926.031843	52918.069755	4086.563121	27417.318605
56.035500	-0.004239	-0.007521	-0.008053	-0.088593	6875.563283	52160.053097	4073.415004	27092.870790
56.536500	-0.000067	-0.006057	-0.005765	-0.082735	6860.189942	51664.347455	4063.673766	26768.744352
57.036500	-0.002500	-0.005514	-0.009672	-0.070156	6725.977515	50332.359456	4019.721503	26087.426799
57.537000	-0.001339	-0.006037	-0.001030	-0.060398	6651.182210	49223.433844	4016.807487	25572.320380
58.037000	-0.000954	-0.006415	-0.005071	-0.056974	6625.098351	48819.931641	3997.495566	25394.296938
58.537500	-0.000833	-0.006474	-0.001175	-0.049400	6561.883992	48020.411249	3988.100531	25005.435367
59.034500	-0.001920	-0.006771	-0.006806	-0.036245	6444.061880	46645.225448	3941.347330	24345.970661
59.535000	-0.001666	-0.007002	-0.005808	-0.033105	6420.653687	46307.223819	3936.141629	24191.499271
60.035500	-0.000191	-0.006425	-0.002450	-0.015329	6291.323902	44623.015401	3901.775388	23337.731786
60.535500	0.002650	-0.009460	-0.001177	-0.037992	6495.838430	46550.413067	3959.462396	24432.385029
61.038500	-0.002367	-0.009888	-0.000855	-0.012731	6254.357338	44045.180414	3899.425604	23215.848995
61.537000	-0.002753	-0.007474	-0.007865	0.000348	6152.256946	43047.784174	3853.511196	22613.240020
62.036500	-0.004118	-0.008234	-0.002058	-0.007210	6198.823621	43680.730348	3883.822527	22959.273516
62.537500	-0.003464	-0.008462	-0.007138	-0.007861	6208.720579	43720.378844	3873.674665	22989.344730
63.037000	-0.005391	-0.009654	-0.004199	-0.011619	6222.657468	43962.151815	3889.057097	23163.903963
63.534500	-0.004291	-0.009879	-0.007860	-0.010815	6224.917213	43865.025714	3878.775054	23126.455057
64.035000	-0.001774	-0.010388	-0.003061	-0.009196	6231.779256	43664.933157	3886.086878	23051.185025
64.535500	-0.001602	-0.010210	-0.000003	-0.007426	6219.575468	43515.905622	3889.064671	22969.231255
65.035500	0.000438	-0.010981	-0.003517	-0.004908	6215.936832	43209.732841	3875.197310	22853.222247
65.535500	0.001954	-0.011311	-0.003638	-0.004466	6224.120996	43138.131003	3873.913301	22832.922903
66.036000	0.001564	-0.011458	-0.003016	-0.003595	6214.513967	43043.985093	3873.345814	22792.989910
66.536500	0.002928	-0.012608	0.001216	-0.003651	6225.334961	42943.115777	3883.165495	22795.572782
67.036500	0.001121	-0.012420	-0.005184	-0.002559	6203.279127	42859.942395	3866.071637	22745.633254
67.537000	0.001233	-0.011994	-0.000350	-0.002564	6204.160376	42899.509684	3877.077346	22745.828991
68.037000	0.004000	-0.011935	0.006314	-0.002594	6225.455913	42907.754616	3892.510110	22747.231620
68.537500	0.004219	-0.010625	0.007609	-0.001412	6218.104133	42919.500074	3892.769918	22693.268328
69.035500	0.005423	-0.011224	0.001820	-0.001188	6225.583535	42843.831379	3878.895637	22683.079987
69.535500	0.005350	-0.011088	0.007741	-0.002625	6236.015339	42988.642148	3895.902118	22748.641168
70.036000	0.003294	-0.009813	0.001909	-0.001892	6214.715899	43038.712332	3880.714891	22715.165457
70.539000	0.005604	-0.010638	0.002012	-0.003357	6243.565840	43097.760645	3884.320436	22782.088718
71.036500	0.005358	-0.010419	0.003357	-0.003627	6243.759768	43143.144979	3888.050539	22794.493669
71.536500	0.006651	-0.010066	0.002257	-0.004085	6257.220014	43218.260820	3886.564491	22815.451384
72.037000	0.006257	-0.009822	0.005733	-0.004325	6256.038115	43263.113303	3895.183925	22826.461557
72.537000	0.003625	-0.010054	-0.001572	-0.004770	6239.224567	43282.890813	3879.331472	22846.874000
73.037500	0.005869	-0.009760	0.000173	-0.003805	6249.049931	43220.709159	3881.121738	22802.635171
73.535500	0.004552	-0.010157	0.000044	-0.004734	6246.061214	43270.008720	3882.960530	22845.224409
74.035000	0.002639	-0.011192	-0.000130	-0.005614	6238.139557	43255.687426	3884.587748	22885.693441
74.535500	0.003712	-0.011439	0.001520	-0.004345	6236.634971	43115.129660	3885.465977	22827.386299
75.038500	0.002950	-0.011524	-0.006851	-0.004102	6228.944743	43084.751310	3865.789881	22816.230201
75.536000	0.005227	-0.011740	0.004779	-0.003591	6242.479250	43017.663932	3891.261027	22792.844108
76.036000	0.006334	-0.011225	0.005213	-0.002251	6240.685772	42941.609284	3889.161223	22731.564545
76.536500	0.004993	-0.011351	0.004024	-0.001503	6224.707425	42861.092013	3884.687158	22697.438704
77.037000	0.003485	-0.011332	0.000432	0.000136	6200.768190	42712.383248	3872.700728	22622.847711
77.537000	0.005054	-0.012221	0.003423	0.000303	6211.409288	42615.848729	3879.153860	22615.295728
78.038000	0.007842	-0.010908	0.008540	0.002696	6214.413865	42517.211759	3885.414440	22506.944827
78.535000	0.007992	-0.011837	0.003556	0.003589	6208.764256	42351.484372	3871.950982	22466.689787
79.035500	0.003833	-0.012015	0.002095	0.004497	6170.505167	42253.128270	3866.575621	22425.855363
79.535000	0.007134	-0.011462	0.002715	0.005971	6184.244867	42169.745286	3864.644787	22359.690648
80.036000	0.006726	-0.012420	0.006539	0.006125	6180.014812	42069.431937	3872.969555	22352.788833
80.536500	0.004510	-0.011509	0.005235	0.009237	6140.133248	41871.570646	3862.960540	22213.900825
81.036500	0.005353	-0.012126	0.005915	0.009468	6144.696711	41795.594807	3863.973485	22203.647510
81.537000	0.007993	-0.012101	0.009050	0.010512	6156.606372	41704.570924	3868.706152	22157.305445
82.037000	0.006572	-0.013224	0.002796	0.010504	6146.061373	41605.191493	3854.640058	22157.683110
82.534500	0.007366	-0.012448	0.003402	0.011712	6142.978038	41566.653795	3853.296317	22104.181193
83.035000	0.006209	-0.014061	-0.000347	0.012589	6127.867847	41345.749925	3843.020281	22065.424831
83.535500	0.006130	-0.013027	0.007894	0.014231	6115.144182	41292.047031	3857.710203	21993.139097
84.035500	0.005214	-0.013101	0.004382	0.014616	6105.553557	41251.558294	3849.010002	21976.230625
84.538500	0.006884	-0.012713	0.002415	0.017461	6096.917503	41035.361972	3838.370705	21851.668217
85.036000	0.004602	-0.012622	0.010832	0.016486	6087.337550	41129.002122	3859.242004	21894.252284
85.536000	0.007248	-0.013084	0.005078	0.017170	6101.727268	41028.331715	3844.888750	21864.372593
86.036500	0.006047	-0.012988	0.001967	0.018271	6084.861940	40940.267350	3835.611681	21816.386710
86.536500	0.004673	-0.014641	0.001884	0.020323	6059.908497	40617.432383	3830.943169	21727.220060
87.037000	0.005122	-0.013453	0.003241	0.019799	6066.970596	40766.257310	3835.055178	21749.943176
87.537500	0.004246	-0.014268	-0.002947	0.019915	6059.767140	40685.189876	3821.342275	21744.892158
88.035000	0.004361	-0.014524	-0.001216	0.020156	6058.859408	40642.063596	3824.567723	21734.467149
88.535500	0.005118	-0.013984	0.000822	0.024717	6031.397992	40294.473287	3819.116329	21537.715295
89.035500	0.003203	-0.013934	0.007111	0.023245	6028.211197	40425.711101	3835.983361	21600.991610
89.536000	0.004785	-0.014463	0.004493	0.023751	6035.945991	40336.442406	3829.157120	21579.212391
90.036500	0.004169	-0.014840	0.004100	0.024480	6026.282439	40241.259307	3826.717344	21547.888201
90.536500	0.001494	-0.015013	0.001657	0.027983	5982.260694	39926.763187	3813.893413	21398.085741
91.037000	0.002838	-0.014971	0.004482	0.026739	6000.628780	40036.507652	3822.651538	21451.161777
91.537000	0.003982	-0.014998	0.006039	0.026703	6009.030045	40037.226310	3826.100867	21452.677748
92.037500	0.003957	-0.015226	0.004573	0.027386	6003.988604	39959.479114	3821.449569	21423.544512
92.534500	0.001358	-0.015764	0.004404	0.030688	5962.234213	39633.517782	3813.985300	21283.259291
93.035500	0.006490	-0.014272	0.009467	0.029381	6007.819538	39870.872991	3827.728842	21338.649246
93.535500	0.003219	-0.016024	-0.002174	0.028813	5988.603652	39770.328543	3803.965388	21362.805495
94.038500	0.003076	-0.016321	0.004145	0.028971	5986.466836	39731.686548	3817.111561	21356.067798
94.536500	0.001883	-0.016833	-0.004166	0.033664	5945.057068	39293.354523	3789.577207	21157.755361
95.036500	0.003829	-0.016214	0.004455	0.031302	5975.311099	39543.742211	3812.780542	21257.302027
95.536500	0.004664	-0.017143	0.004756	0.030329	5988.100180	39547.499763	3815.508460	21298.475577
96.037000	0.003183	-0.017160	0.011358	0.031050	5972.535283	39485.273138	3828.212325	21267.954239
