sample name	sample
index	710
start time	 03-25-2021  11:05:16 AM


Wavelength (nm)	Absorbance
494.344910	-0.011032
494.563924	-0.011032
494.782919	-0.011032
495.001897	0.087436
495.220856	-0.016322
495.439797	-0.019025
495.658719	-0.003840
495.877624	-0.007673
496.096510	-0.022561
496.315378	-0.020928
496.534227	-0.015919
496.753059	-0.010110
496.971872	-0.006745
497.190667	0.020923
497.409444	0.025447
497.628203	0.024674
497.846943	0.027329
498.065665	0.029273
498.284369	0.029747
498.503055	0.029593
498.721723	0.029701
498.940372	0.030680
499.159003	0.030713
499.377616	0.032098
499.596210	0.032257
499.814787	0.032341
500.033345	0.031637
500.251885	0.032119
500.470406	0.032101
500.688910	0.032301
500.907395	0.031224
501.125862	0.030846
501.344311	0.030372
501.562742	0.031701
501.781154	0.031911
501.999548	0.032421
502.217924	0.032571
502.436282	0.033440
502.654621	0.033754
502.872942	0.034531
503.091245	0.035232
503.309530	0.035116
503.527797	0.034262
503.746045	0.033999
503.964275	0.033800
504.182487	0.033681
504.400681	0.033037
504.618856	0.032402
504.837013	0.031794
505.055152	0.032412
505.273273	0.032207
505.491376	0.033232
505.709460	0.033567
505.927526	0.033346
506.145574	0.032866
506.363604	0.033433
506.581615	0.033889
506.799608	0.034039
507.017583	0.033707
507.235540	0.033514
507.453478	0.032574
507.671399	0.031951
507.889301	0.032611
508.107185	0.032660
508.325050	0.032881
508.542898	0.033218
508.760727	0.033335
508.978538	0.032991
509.196330	0.033237
509.414105	0.033496
509.631861	0.033882
509.849599	0.033905
510.067319	0.034106
510.285021	0.033290
510.502704	0.032958
510.720369	0.032813
510.938016	0.033483
511.155645	0.033735
511.373255	0.033770
511.590848	0.032959
511.808422	0.032899
512.025977	0.032625
512.243515	0.032794
512.461034	0.032800
512.678536	0.033216
512.896018	0.032883
513.113483	0.032789
513.330930	0.033046
513.548358	0.033961
513.765768	0.034096
513.983160	0.034056
514.200533	0.034600
514.417889	0.034445
514.635226	0.034001
514.852545	0.034081
515.069845	0.034289
515.287128	0.033762
515.504392	0.033304
515.721638	0.032838
515.938866	0.033687
516.156075	0.033274
516.373267	0.033299
516.590440	0.033571
516.807594	0.033345
517.024731	0.033228
517.241850	0.033547
517.458950	0.034183
517.676032	0.034645
517.893095	0.034460
518.110141	0.034836
518.327168	0.035212
518.544177	0.035125
518.761168	0.035480
518.978141	0.035523
519.195095	0.035426
519.412031	0.035759
519.628949	0.035560
519.845849	0.035543
520.062731	0.035153
520.279594	0.034723
520.496439	0.034743
520.713266	0.034958
520.930074	0.035289
521.146865	0.035309
521.363637	0.035381
521.580391	0.035327
521.797127	0.035414
522.013844	0.035320
522.230543	0.035529
522.447224	0.035722
522.663887	0.035464
522.880532	0.035369
523.097158	0.035437
523.313766	0.034283
523.530356	0.034118
523.746928	0.034222
523.963481	0.034646
524.180017	0.034637
524.396534	0.034893
524.613032	0.034349
524.829513	0.034387
525.045975	0.034245
525.262420	0.035102
525.478845	0.035458
525.695253	0.035378
525.911643	0.035594
526.128014	0.035844
526.344367	0.035778
526.560702	0.036382
526.777018	0.035909
526.993316	0.036240
527.209597	0.035964
527.425858	0.036099
527.642102	0.036367
527.858328	0.036150
528.074535	0.035914
528.290724	0.036066
528.506894	0.036265
528.723047	0.036765
528.939181	0.036983
529.155297	0.037512
529.371395	0.037549
529.587475	0.037333
529.803536	0.037685
530.019579	0.037815
530.235604	0.037175
530.451611	0.037193
530.667600	0.037075
530.883570	0.037363
531.099522	0.037044
531.315456	0.037501
531.531372	0.037571
531.747269	0.036959
531.963148	0.037219
532.179009	0.037525
532.394852	0.037369
532.610676	0.037226
532.826482	0.036508
533.042271	0.036718
533.258040	0.036244
533.473792	0.036267
533.689525	0.036750
533.905240	0.036245
534.120937	0.036335
534.336616	0.036604
534.552277	0.037286
534.767919	0.037573
534.983543	0.037493
535.199149	0.037514
535.414736	0.037644
535.630306	0.037961
535.845857	0.038595
536.061390	0.039215
536.276904	0.039186
536.492401	0.038884
536.707879	0.039014
536.923339	0.038756
537.138781	0.038714
537.354204	0.038497
537.569610	0.038193
537.784997	0.038174
538.000366	0.038013
538.215716	0.037890
538.431049	0.038379
538.646363	0.038299
538.861659	0.038770
539.076937	0.039015
539.292196	0.039529
539.507438	0.039433
539.722661	0.039824
539.937866	0.039571
540.153052	0.039696
540.368221	0.039234
540.583371	0.039207
540.798503	0.039350
541.013617	0.039356
541.228712	0.038714
541.443789	0.038601
541.658848	0.038265
541.873889	0.038700
542.088912	0.038482
542.303916	0.038490
542.518902	0.038912
542.733870	0.038923
542.948820	0.039236
543.163752	0.039500
543.378665	0.039672
543.593560	0.039792
543.808437	0.039529
544.023295	0.039651
544.238136	0.040056
544.452958	0.039748
544.667762	0.039550
544.882548	0.039325
545.097315	0.039356
545.312064	0.039906
545.526795	0.039977
545.741508	0.040030
545.956203	0.039911
546.170879	0.039879
546.385537	0.040248
546.600177	0.040547
546.814799	0.040359
547.029402	0.040813
547.243988	0.040580
547.458555	0.040435
547.673103	0.040563
547.887634	0.040672
548.102146	0.040470
548.316640	0.040183
548.531116	0.040124
548.745574	0.040252
548.960013	0.040207
549.174435	0.040018
549.388838	0.040113
549.603222	0.039957
549.817589	0.040303
550.031937	0.040455
550.246267	0.040826
550.460579	0.040768
550.674873	0.041095
550.889148	0.040847
551.103405	0.041296
551.317644	0.041258
551.531865	0.041452
551.746068	0.041379
551.960252	0.041452
552.174418	0.041084
552.388566	0.041246
552.602696	0.041115
552.816807	0.041338
553.030900	0.041124
553.244975	0.041339
553.459032	0.041152
553.673070	0.041507
553.887091	0.041802
554.101093	0.041995
554.315077	0.041962
554.529042	0.042159
554.742990	0.042139
554.956919	0.042206
555.170830	0.041856
555.384722	0.041934
555.598597	0.041550
555.812453	0.041223
556.026291	0.040968
556.240111	0.040920
556.453913	0.041101
556.667696	0.041298
556.881461	0.041274
557.095208	0.041595
557.308937	0.041819
557.522647	0.041943
557.736339	0.041862
557.950013	0.042161
558.163669	0.042209
558.377307	0.042202
558.590926	0.041956
558.804527	0.042468
559.018110	0.042711
559.231675	0.042926
559.445221	0.043339
559.658749	0.044119
559.872259	0.044356
560.085751	0.044164
560.299225	0.044167
560.512680	0.044607
560.726117	0.044158
560.939536	0.044124
561.152937	0.043994
561.366319	0.043932
561.579683	0.043388
561.793029	0.043278
562.006357	0.043771
562.219667	0.043774
562.432958	0.043846
562.646231	0.044307
562.859486	0.044115
563.072723	0.044233
563.285941	0.044111
563.499141	0.044479
563.712323	0.044469
563.925487	0.044454
564.138632	0.044418
564.351760	0.044194
564.564869	0.043955
564.777960	0.044110
564.991032	0.044300
565.204087	0.044418
565.417123	0.044241
565.630141	0.044460
565.843140	0.044399
566.056122	0.044462
566.269085	0.044349
566.482030	0.044272
566.694957	0.044233
566.907866	0.044076
567.120756	0.043889
567.333628	0.043850
567.546482	0.044045
567.759318	0.044011
567.972135	0.043936
568.184935	0.044318
568.397716	0.044312
568.610478	0.044391
568.823223	0.044435
569.035949	0.044757
569.248657	0.044682
569.461347	0.044653
569.674019	0.044694
569.886672	0.044843
570.099308	0.044693
570.311925	0.044937
570.524523	0.044912
570.737104	0.044930
570.949666	0.044979
571.162210	0.045187
571.374736	0.045331
571.587244	0.045549
571.799733	0.045219
572.012205	0.045376
572.224658	0.045366
572.437092	0.045447
572.649509	0.045694
572.861907	0.045609
573.074287	0.045886
573.286649	0.045648
573.498993	0.045751
573.711318	0.046305
573.923625	0.046261
574.135914	0.046396
574.348185	0.046474
574.560438	0.046074
574.772672	0.045980
574.984888	0.045484
575.197086	0.045382
575.409266	0.045242
575.621427	0.045060
575.833570	0.045191
576.045695	0.045047
576.257802	0.045308
576.469890	0.045576
576.681961	0.045890
576.894013	0.046452
577.106046	0.046731
577.318062	0.046890
577.530059	0.046911
577.742039	0.046952
577.954000	0.046925
578.165942	0.046816
578.377867	0.046642
578.589773	0.046263
578.801661	0.045783
579.013531	0.045516
579.225382	0.045210
579.437216	0.045285
579.649031	0.045342
579.860828	0.045336
580.072606	0.045236
580.284367	0.045496
580.496109	0.045548
580.707833	0.045671
580.919539	0.045913
581.131227	0.046199
581.342896	0.046547
581.554547	0.046475
581.766180	0.046692
581.977795	0.046567
582.189391	0.046820
582.400969	0.047298
582.612529	0.047257
582.824071	0.047351
583.035595	0.047567
583.247100	0.047399
583.458587	0.047445
583.670056	0.047570
583.881506	0.048119
584.092939	0.048041
584.304353	0.047814
584.515749	0.048100
584.727127	0.048161
584.938486	0.047944
585.149828	0.047712
585.361151	0.047561
585.572456	0.047341
585.783742	0.047341
585.995011	0.047319
586.206261	0.047504
586.417493	0.047563
586.628706	0.047636
586.839902	0.047581
587.051079	0.047755
587.262238	0.047758
587.473379	0.048005
587.684502	0.047863
587.895606	0.047945
588.106692	0.047790
588.317760	0.047806
588.528810	0.047470
588.739841	0.047596
588.950855	0.047634
589.161850	0.047761
589.372827	0.047905
589.583785	0.047831
589.794726	0.047786
590.005648	0.047489
590.216552	0.047346
590.427437	0.047580
590.638305	0.047621
590.849154	0.047521
591.059985	0.047729
591.270798	0.047670
591.481592	0.047728
591.692369	0.047734
591.903127	0.048029
592.113867	0.048319
592.324588	0.048446
592.535292	0.048435
592.745977	0.048558
592.956644	0.048640
593.167293	0.048636
593.377923	0.048506
593.588536	0.048573
593.799130	0.048706
594.009706	0.048743
594.220263	0.048531
594.430803	0.048568
594.641324	0.048618
594.851827	0.048447
595.062312	0.048503
595.272778	0.048450
595.483227	0.048532
595.693657	0.048489
595.904069	0.048662
596.114462	0.048669
596.324838	0.048615
596.535195	0.048652
596.745534	0.048549
596.955855	0.048689
597.166157	0.048743
597.376441	0.048856
597.586707	0.048889
597.796955	0.048617
598.007185	0.048695
598.217396	0.048811
598.427589	0.048777
598.637764	0.049113
598.847921	0.048976
599.058060	0.049132
599.268180	0.049031
599.478282	0.049110
599.688366	0.049192
599.898431	0.049472
600.108479	0.049632
600.318508	0.049805
600.528519	0.049724
600.738511	0.049505
600.948486	0.049781
601.158442	0.049732
601.368380	0.049793
601.578300	0.049666
601.788202	0.049587
601.998085	0.049680
602.207950	0.049749
602.417797	0.049638
602.627626	0.049928
602.837436	0.049958
603.047228	0.050208
603.257002	0.050401
603.466758	0.050616
603.676496	0.050796
603.886215	0.050901
604.095916	0.050938
604.305599	0.051262
604.515264	0.051266
604.724910	0.051061
604.934538	0.050823
605.144148	0.050803
605.353740	0.050647
605.563314	0.050479
605.772869	0.050305
605.982406	0.050203
606.191925	0.049905
606.401425	0.049946
606.610908	0.050010
606.820372	0.050002
607.029818	0.049924
607.239246	0.050310
607.448655	0.050392
607.658047	0.050345
607.867420	0.050331
608.076775	0.050624
608.286111	0.050660
608.495430	0.050885
608.704730	0.050947
608.914012	0.050925
609.123275	0.050712
609.332521	0.050734
609.541748	0.050685
609.750957	0.050655
609.960148	0.050510
610.169321	0.050454
610.378475	0.050274
610.587611	0.050469
610.796729	0.050290
611.005829	0.050310
611.214910	0.050311
611.423974	0.050502
611.633019	0.050693
611.842045	0.050954
612.051054	0.051165
612.260044	0.051333
612.469017	0.051264
612.677970	0.051603
612.886906	0.051928
613.095824	0.051859
613.304723	0.051947
613.513604	0.052036
613.722467	0.051781
613.931311	0.051838
614.140138	0.051537
614.348946	0.051586
614.557736	0.051330
614.766507	0.051326
614.975261	0.051641
615.183996	0.051489
615.392713	0.051437
615.601412	0.051600
615.810092	0.051472
616.018754	0.051815
616.227399	0.051712
616.436024	0.052106
616.644632	0.051949
616.853222	0.051858
617.061793	0.051891
617.270346	0.052129
617.478880	0.052024
617.687397	0.051960
617.895895	0.052171
618.104375	0.052340
618.312837	0.052382
618.521281	0.052354
618.729706	0.052247
618.938113	0.052586
619.146502	0.052563
619.354873	0.052787
619.563226	0.052988
619.771560	0.052846
619.979876	0.052742
620.188174	0.052814
620.396453	0.052969
620.604715	0.052964
620.812958	0.052709
621.021183	0.052624
621.229390	0.052728
621.437578	0.052796
621.645748	0.052795
621.853900	0.053062
622.062034	0.053232
622.270150	0.053248
622.478247	0.053435
622.686326	0.053933
622.894387	0.054190
623.102430	0.054072
623.310454	0.054142
623.518461	0.054261
623.726449	0.054360
623.934418	0.054227
624.142370	0.054207
624.350303	0.054203
624.558218	0.053886
624.766115	0.053745
624.973994	0.053667
625.181855	0.053613
625.389697	0.053572
625.597521	0.053398
625.805327	0.053038
626.013114	0.052771
626.220883	0.052648
626.428634	0.052775
626.636367	0.052719
626.844082	0.052861
627.051778	0.052937
627.259457	0.052925
627.467117	0.052925
627.674758	0.053190
627.882382	0.053484
628.089987	0.053712
628.297574	0.053632
628.505143	0.053680
628.712694	0.053690
628.920226	0.053675
629.127740	0.053662
629.335236	0.053580
629.542714	0.053630
629.750174	0.053462
629.957615	0.053693
630.165038	0.053864
630.372443	0.053807
630.579829	0.053847
630.787198	0.053855
630.994548	0.053889
631.201880	0.053986
631.409194	0.054144
631.616489	0.054407
631.823766	0.054143
632.031025	0.054035
632.238266	0.054172
632.445489	0.054264
632.652693	0.054092
632.859879	0.054305
633.067047	0.054501
633.274197	0.054176
633.481329	0.053978
633.688442	0.054351
633.895537	0.054226
634.102614	0.054327
634.309672	0.054401
634.516713	0.054565
634.723735	0.054352
634.930739	0.054287
635.137724	0.054482
635.344692	0.054475
635.551641	0.054151
635.758572	0.054373
635.965485	0.054394
636.172379	0.054297
636.379256	0.054506
636.586114	0.054600
636.792954	0.054510
636.999775	0.054499
637.206579	0.054850
637.413364	0.055245
637.620131	0.055219
637.826880	0.055174
638.033610	0.055132
638.240323	0.055169
638.447017	0.055189
638.653692	0.055332
638.860350	0.055529
639.066990	0.055419
639.273611	0.055102
639.480214	0.055202
639.686798	0.055124
639.893365	0.055310
640.099913	0.055349
640.306443	0.055376
640.512955	0.055530
640.719449	0.055517
640.925924	0.055585
641.132381	0.055642
641.338820	0.055573
641.545241	0.055584
641.751644	0.055631
641.958028	0.055510
642.164394	0.055398
642.370742	0.055211
642.577071	0.055147
642.783383	0.055090
642.989676	0.055285
643.195951	0.055335
643.402207	0.055500
643.608446	0.055546
643.814666	0.055720
644.020868	0.055907
644.227052	0.056158
644.433218	0.056207
644.639365	0.056379
644.845494	0.056171
645.051605	0.056108
645.257698	0.056053
645.463772	0.055885
645.669828	0.055704
645.875866	0.055615
646.081886	0.055540
646.287888	0.055560
646.493871	0.055627
646.699836	0.055646
646.905783	0.055764
647.111712	0.055951
647.317622	0.056003
647.523514	0.056061
647.729388	0.056399
647.935244	0.056372
648.141082	0.056452
648.346901	0.056363
648.552702	0.056440
648.758485	0.056575
648.964250	0.056739
649.169996	0.056905
649.375724	0.056925
649.581434	0.056876
649.787126	0.057003
649.992800	0.056961
650.198455	0.056958
650.404092	0.057112
650.609711	0.057108
650.815311	0.056831
651.020894	0.056692
651.226458	0.056700
651.432004	0.056599
651.637532	0.056513
651.843041	0.056591
652.048532	0.056665
652.254006	0.056738
652.459460	0.056521
652.664897	0.056550
652.870315	0.056552
653.075716	0.056588
653.281097	0.056629
653.486461	0.056492
653.691807	0.056339
653.897134	0.056416
654.102443	0.056219
654.307734	0.056567
654.513006	0.056590
654.718261	0.056786
654.923497	0.056973
655.128715	0.057106
655.333915	0.057313
655.539096	0.057440
655.744259	0.057480
655.949404	0.057473
656.154531	0.057368
656.359640	0.057456
656.564730	0.057464
656.769802	0.057322
656.974856	0.057270
657.179892	0.057328
657.384909	0.057415
657.589908	0.057427
657.794889	0.057542
657.999852	0.057536
658.204797	0.057499
658.409723	0.057518
658.614631	0.057592
658.819521	0.057770
659.024393	0.057973
659.229246	0.058116
659.434081	0.058219
659.638898	0.058311
659.843697	0.058473
660.048478	0.058557
660.253240	0.058467
660.457984	0.058508
660.662710	0.058318
660.867417	0.058246
661.072107	0.058229
661.276778	0.057983
661.481431	0.057822
661.686066	0.057712
661.890682	0.057777
662.095281	0.057865
662.299861	0.057951
662.504422	0.057885
662.708966	0.057920
662.913491	0.057930
663.117999	0.057936
663.322488	0.058197
663.526958	0.058264
663.731411	0.058431
663.935845	0.058380
664.140261	0.058288
664.344659	0.058521
664.549038	0.058472
664.753400	0.058334
664.957743	0.058550
665.162068	0.058479
665.366375	0.058411
665.570663	0.058333
665.774933	0.058497
665.979185	0.058439
666.183419	0.058535
666.387635	0.058609
666.591832	0.058657
666.796011	0.058861
667.000172	0.058953
667.204315	0.059069
667.408439	0.058945
667.612545	0.058963
667.816634	0.059170
668.020703	0.059042
668.224755	0.059048
668.428788	0.059131
668.632803	0.058908
668.836800	0.059011
669.040779	0.059112
669.244739	0.059222
669.448681	0.059356
669.652605	0.059322
669.856511	0.059358
670.060399	0.059513
670.264268	0.059479
670.468119	0.059523
670.671952	0.059460
670.875767	0.059393
671.079563	0.059279
671.283341	0.059272
671.487101	0.059448
671.690843	0.059567
671.894567	0.059410
672.098272	0.059660
672.301959	0.059769
672.505628	0.059813
672.709278	0.059909
672.912911	0.060065
673.116525	0.060146
673.320121	0.060028
673.523699	0.060026
673.727258	0.060251
673.930799	0.060255
674.134322	0.060398
674.337827	0.060588
674.541314	0.060649
674.744782	0.060913
674.948232	0.060903
675.151664	0.060997
675.355078	0.061080
675.558474	0.060941
675.761851	0.060742
675.965210	0.060706
676.168551	0.060564
676.371873	0.060692
676.575178	0.060532
676.778464	0.060719
676.981732	0.060870
677.184981	0.060915
677.388213	0.060951
677.591426	0.061209
677.794621	0.061164
677.997798	0.061348
678.200956	0.061382
678.404097	0.061463
678.607219	0.061400
678.810323	0.061450
679.013408	0.061528
679.216476	0.061834
679.419525	0.061908
679.622556	0.061901
679.825569	0.061864
680.028563	0.061830
680.231540	0.061953
680.434498	0.062023
680.637438	0.062094
680.840359	0.062137
681.043263	0.061941
681.246148	0.061927
681.449015	0.062083
681.651864	0.062029
681.854694	0.062012
682.057506	0.061902
682.260301	0.061952
682.463076	0.061897
682.665834	0.061890
682.868573	0.061908
683.071295	0.061969
683.273998	0.062032
683.476682	0.062119
683.679349	0.062123
683.881997	0.062205
684.084627	0.062050
684.287239	0.062069
684.489833	0.062107
684.692408	0.062180
684.894965	0.062081
685.097504	0.062141
685.300025	0.062437
685.502527	0.062657
685.705012	0.062619
685.907478	0.062571
686.109925	0.062505
686.312355	0.062525
686.514766	0.062698
686.717159	0.062894
686.919534	0.062932
687.121891	0.062783
687.324230	0.062708
687.526550	0.062789
687.728852	0.062921
687.931136	0.062908
688.133401	0.062759
688.335649	0.062497
688.537878	0.062388
688.740089	0.062405
688.942281	0.062150
689.144456	0.061964
689.346612	0.062023
689.548750	0.062039
689.750870	0.062115
689.952971	0.062279
690.155055	0.062561
690.357120	0.062745
690.559167	0.062653
690.761195	0.062830
690.963206	0.062894
691.165198	0.062830
691.367172	0.062893
691.569128	0.062955
691.771065	0.063089
691.972984	0.063061
692.174885	0.063001
692.376768	0.063115
692.578633	0.063292
692.780479	0.063404
692.982308	0.063397
693.184118	0.063444
693.385909	0.063423
693.587683	0.063485
693.789438	0.063375
693.991175	0.063373
694.192894	0.063370
694.394595	0.063100
694.596277	0.063115
694.797941	0.063236
694.999587	0.063262
695.201215	0.063505
695.402824	0.063466
695.604416	0.063637
695.805989	0.063813
696.007543	0.063739
696.209080	0.063902
696.410598	0.063810
696.612099	0.063760
696.813580	0.063837
697.015044	0.063746
697.216490	0.063638
697.417917	0.063479
697.619326	0.063498
697.820717	0.063643
698.022089	0.063571
698.223444	0.063874
698.424780	0.064079
698.626098	0.064195
698.827397	0.064288
699.028679	0.064538
699.229942	0.064591
699.431187	0.064531
699.632414	0.064607
699.833622	0.064868
700.034813	0.064736
700.235985	0.064741
700.437139	0.064564
700.638274	0.064568
700.839392	0.064581
701.040491	0.064927
701.241572	0.065089
701.442635	0.065050
701.643679	0.065110
701.844706	0.065251
702.045714	0.065273
702.246704	0.065521
702.447675	0.065507
702.648629	0.065433
702.849564	0.065400
703.050481	0.065433
703.251380	0.065499
703.452260	0.065554
703.653122	0.065620
703.853966	0.065663
704.054792	0.065540
704.255600	0.065604
704.456389	0.065560
704.657160	0.065337
704.857913	0.065148
705.058648	0.065107
705.259365	0.064920
705.460063	0.064720
705.660743	0.064615
705.861405	0.064501
706.062048	0.064346
706.262674	0.064477
706.463281	0.064652
706.663870	0.064590
706.864441	0.064492
707.064993	0.064537
707.265527	0.064757
707.466043	0.064838
707.666541	0.064988
707.867021	0.065075
708.067482	0.064954
708.267925	0.064890
708.468350	0.065231
708.668757	0.065345
708.869145	0.065461
709.069516	0.065172
709.269868	0.065168
709.470201	0.065125
709.670517	0.065106
709.870814	0.065234
710.071093	0.065099
710.271354	0.064819
710.471597	0.064822
710.671821	0.064878
710.872028	0.065130
711.072216	0.065112
711.272385	0.065253
711.472537	0.065287
711.672670	0.065109
711.872785	0.065264
712.072882	0.065335
712.272961	0.065217
712.473021	0.065105
712.673063	0.064916
712.873087	0.064886
713.073093	0.064771
713.273081	0.064786
713.473050	0.064868
713.673001	0.064840
713.872934	0.064848
714.072849	0.065039
714.272745	0.065137
714.472623	0.065270
714.672483	0.065272
714.872325	0.065437
715.072148	0.065472
715.271954	0.065635
715.471741	0.065699
715.671509	0.065724
715.871260	0.065702
716.070992	0.065627
716.270707	0.065596
716.470403	0.065612
716.670080	0.065381
716.869740	0.065254
717.069381	0.064992
717.269004	0.064868
717.468609	0.064663
717.668195	0.064490
717.867764	0.064306
718.067314	0.064221
718.266846	0.064085
718.466360	0.063939
718.665855	0.063798
718.865332	0.063739
719.064791	0.063625
719.264232	0.063535
719.463655	0.063649
719.663059	0.063800
719.862445	0.063866
720.061813	0.063908
720.261163	0.063975
720.460494	0.064177
720.659807	0.064313
720.859102	0.064325
721.058379	0.064674
721.257638	0.064662
721.456878	0.064521
721.656100	0.064407
721.855304	0.064404
722.054490	0.064447
722.253657	0.064420
722.452806	0.064512
722.651937	0.064638
722.851050	0.064288
723.050145	0.064003
723.249221	0.063971
723.448279	0.064109
723.647319	0.064232
723.846340	0.064329
724.045344	0.064155
724.244329	0.064094
724.443296	0.064250
724.642245	0.064491
724.841175	0.064728
725.040088	0.064894
725.238982	0.064771
725.437857	0.064654
725.636715	0.064674
725.835554	0.064806
726.034376	0.064626
726.233179	0.064479
726.431963	0.064294
726.630730	0.064358
726.829478	0.064036
727.028208	0.063978
727.226920	0.063973
727.425614	0.063714
727.624289	0.063635
727.822946	0.063521
728.021585	0.063533
728.220206	0.063525
728.418808	0.063314
728.617392	0.063486
728.815958	0.063483
729.014506	0.063371
729.213036	0.063349
729.411547	0.063294
729.610040	0.063358
729.808515	0.063117
730.006972	0.063206
730.205410	0.063215
730.403831	0.063234
730.602233	0.063285
730.800616	0.063278
730.998982	0.063259
731.197329	0.063214
731.395658	0.063171
731.593969	0.063129
731.792262	0.063109
731.990536	0.063064
732.188793	0.062908
732.387031	0.062791
732.585250	0.062816
732.783452	0.062744
732.981635	0.062693
733.179800	0.062511
733.377947	0.062714
733.576076	0.062670
733.774186	0.062784
733.972278	0.062872
734.170352	0.063021
734.368408	0.062800
734.566446	0.062931
734.764465	0.062895
734.962466	0.063137
735.160449	0.063107
735.358413	0.063086
735.556360	0.063002
735.754288	0.062860
735.952198	0.062689
736.150090	0.062750
736.347963	0.062603
736.545818	0.062556
736.743655	0.062524
736.941474	0.062242
737.139275	0.061957
737.337057	0.061660
737.534821	0.061597
737.732567	0.061553
737.930295	0.061671
738.128005	0.061582
738.325696	0.061445
738.523369	0.061323
738.721024	0.061342
738.918660	0.061623
739.116279	0.061662
739.313879	0.061705
739.511461	0.061546
739.709024	0.061331
739.906570	0.061411
740.104097	0.061348
740.301606	0.061349
740.499097	0.061208
740.696569	0.061071
740.894024	0.061151
741.091460	0.060947
741.288878	0.060916
741.486277	0.060859
741.683659	0.060637
741.881022	0.060753
742.078367	0.060670
742.275694	0.060702
742.473002	0.060687
742.670293	0.060485
742.867565	0.060711
743.064819	0.060780
743.262054	0.060940
743.459272	0.061088
743.656471	0.061157
743.853652	0.061287
744.050815	0.061455
744.247959	0.061277
744.445085	0.061484
744.642194	0.061414
744.839283	0.061591
745.036355	0.061602
745.233408	0.061629
745.430444	0.061606
745.627461	0.061636
745.824459	0.061509
746.021440	0.061622
746.218402	0.061353
746.415346	0.061520
746.612272	0.061324
746.809180	0.061102
747.006069	0.060992
747.202940	0.061067
747.399793	0.060879
747.596628	0.060736
747.793444	0.060714
747.990243	0.060714
748.187023	0.060567
748.383784	0.060496
748.580528	0.060495
748.777253	0.060325
748.973960	0.060194
749.170649	0.060267
749.367320	0.060297
749.563973	0.060199
749.760607	0.060266
749.957223	0.060093
750.153821	0.060005
750.350400	0.060147
750.546962	0.060486
750.743505	0.060342
750.940030	0.060198
751.136536	0.060358
751.333025	0.060344
751.529495	0.060571
751.725947	0.060601
751.922381	0.060675
752.118796	0.060617
752.315194	0.060398
752.511573	0.060527
752.707934	0.060610
752.904276	0.060522
753.100601	0.060552
753.296907	0.060444
753.493195	0.060499
753.689465	0.060618
753.885716	0.060668
754.081949	0.060819
754.278164	0.060908
754.474361	0.060728
754.670540	0.060686
754.866700	0.060928
755.062843	0.061019
755.258967	0.061081
755.455072	0.060948
755.651160	0.060847
755.847229	0.060788
756.043280	0.060780
756.239313	0.060943
756.435328	0.061049
756.631324	0.060790
756.827302	0.060757
757.023262	0.060686
757.219204	0.060725
757.415127	0.060575
757.611033	0.060605
757.806920	0.060394
758.002788	0.060158
758.198639	0.059950
758.394471	0.059985
758.590286	0.059912
758.786081	0.059975
758.981859	0.059796
759.177619	0.060122
759.373360	0.059875
759.569083	0.060045
759.764788	0.060093
759.960474	0.060189
760.156143	0.060075
760.351793	0.060010
760.547425	0.059811
760.743038	0.059797
760.938634	0.059780
761.134211	0.059986
761.329770	0.059862
761.525311	0.059948
761.720833	0.059978
761.916338	0.059826
762.111824	0.059575
762.307292	0.059759
762.502741	0.059976
762.698173	0.059741
762.893586	0.059863
763.088981	0.059988
763.284358	0.059928
763.479716	0.059943
763.675057	0.060174
763.870379	0.060433
764.065683	0.060480
764.260968	0.060495
764.456236	0.060392
764.651485	0.060150
764.846716	0.059905
765.041929	0.059919
765.237123	0.059729
765.432299	0.059570
765.627457	0.059541
765.822597	0.059143
766.017719	0.059124
766.212822	0.059162
766.407907	0.059101
766.602974	0.059256
766.798023	0.059134
766.993054	0.059111
767.188066	0.059210
767.383060	0.059076
767.578036	0.059317
767.772993	0.059210
767.967933	0.059232
768.162854	0.059330
768.357757	0.059226
768.552642	0.059311
768.747508	0.059368
768.942356	0.059575
769.137186	0.059712
769.331998	0.059705
769.526792	0.059649
769.721567	0.059543
769.916324	0.059367
770.111063	0.059475
770.305784	0.059572
770.500486	0.059810
770.695171	0.059637
770.889837	0.059752
771.084484	0.059895
771.279114	0.059882
771.473725	0.060012
771.668318	0.060188
771.862893	0.060214
772.057450	0.059976
772.251988	0.059747
772.446509	0.059800
772.641011	0.059498
772.835494	0.059457
773.029960	0.059630
773.224407	0.059641
773.418836	0.059767
773.613247	0.059848
773.807640	0.060097
774.002014	0.060265
774.196370	0.060405
774.390708	0.060601
774.585028	0.060401
774.779330	0.060354
774.973613	0.060477
775.167878	0.060299
775.362125	0.060071
775.556354	0.059870
775.750564	0.059766
775.944756	0.059520
776.138930	0.059536
776.333086	0.059625
776.527223	0.059637
776.721343	0.059481
776.915444	0.059552
777.109526	0.059635
777.303591	0.059638
777.497637	0.059698
777.691666	0.059667
777.885676	0.059584
778.079667	0.059547
778.273641	0.059663
778.467596	0.059703
778.661533	0.059626
778.855452	0.059750
779.049352	0.059822
779.243235	0.059747
779.437099	0.059642
779.630945	0.059587
779.824773	0.059668
780.018582	0.059543
780.212373	0.059530
780.406146	0.059616
780.599901	0.059413
780.793638	0.059621
780.987356	0.059553
781.181056	0.059970
781.374738	0.060155
781.568402	0.060091
781.762047	0.060067
781.955674	0.060133
782.149283	0.060216
782.342874	0.060310
782.536447	0.060211
782.730001	0.060264
782.923537	0.060063
783.117055	0.060059
783.310555	0.060190
783.504036	0.060201
783.697499	0.060233
783.890944	0.060072
784.084371	0.060143
784.277780	0.060323
784.471170	0.060333
784.664542	0.060460
784.857896	0.060470
785.051231	0.060441
785.244549	0.060571
785.437848	0.060682
785.631129	0.060794
785.824392	0.060560
786.017636	0.060530
786.210863	0.060509
786.404071	0.060292
786.597260	0.060227
786.790432	0.060152
786.983585	0.060081
787.176721	0.059926
787.369838	0.060029
787.562936	0.060282
787.756017	0.060228
787.949079	0.060466
788.142123	0.060559
788.335149	0.060447
788.528156	0.060528
788.721146	0.060465
788.914117	0.060745
789.107070	0.060565
789.300005	0.060763
789.492921	0.060785
789.685819	0.060467
789.878699	0.060465
790.071561	0.060687
790.264405	0.060757
790.457230	0.060988
790.650037	0.060980
790.842826	0.061221
791.035597	0.061116
791.228349	0.061170
791.421084	0.061281
791.613800	0.061511
791.806497	0.061595
791.999177	0.061516
792.191838	0.061355
792.384481	0.061245
792.577106	0.061152
792.769713	0.061058
792.962301	0.061045
793.154871	0.061187
793.347423	0.061038
793.539957	0.061178
793.732473	0.061177
793.924970	0.061274
794.117449	0.061292
794.309910	0.061399
794.502353	0.061594
794.694777	0.061509
794.887183	0.061368
795.079571	0.061368
795.271941	0.061014
795.464293	0.061132
795.656626	0.061175
795.848941	0.061073
796.041238	0.061185
796.233516	0.061259
796.425777	0.061528
796.618019	0.061884
796.810243	0.062054
797.002449	0.062086
797.194636	0.062255
797.386805	0.062344
797.578956	0.062578
797.771089	0.062702
797.963204	0.062810
798.155300	0.062693
798.347378	0.062796
798.539438	0.062884
798.731480	0.063276
798.923503	0.063043
799.115509	0.062942
799.307496	0.062826
799.499465	0.062427
799.691415	0.062263
799.883348	0.062228
800.075262	0.062025
800.267158	0.061709
800.459035	0.061504
800.650895	0.061490
800.842736	0.061425
801.034559	0.061424
801.226364	0.061796
801.418150	0.061828
801.609919	0.061914
801.801669	0.062149
801.993401	0.062247
802.185114	0.062316
802.376810	0.062711
802.568487	0.062859
802.760146	0.062919
802.951787	0.062927
803.143409	0.063084
803.335014	0.063353
803.526600	0.063366
803.718168	0.063644
803.909717	0.063522
804.101249	0.063384
804.292762	0.063448
804.484257	0.063552
804.675734	0.063442
804.867192	0.063295
805.058632	0.063197
805.250054	0.063219
805.441458	0.063348
805.632844	0.063593
805.824211	0.063786
806.015561	0.063732
806.206891	0.063750
806.398204	0.063899
806.589499	0.063946
806.780775	0.063902
806.972033	0.063804
807.163273	0.063753
807.354495	0.063694
807.545698	0.063601
807.736883	0.063780
807.928050	0.063992
808.119199	0.063914
808.310329	0.063822
808.501441	0.063888
808.692535	0.063957
808.883611	0.064029
809.074669	0.064132
809.265708	0.063994
809.456729	0.063951
809.647732	0.063884
809.838717	0.063849
810.029683	0.064359
810.220632	0.064409
810.411562	0.064495
810.602474	0.064432
810.793367	0.064578
810.984242	0.064672
811.175100	0.064978
811.365938	0.064920
811.556759	0.065022
811.747562	0.064716
811.938346	0.064916
812.129112	0.064888
812.319860	0.064958
812.510589	0.064818
812.701300	0.064686
812.891994	0.064473
813.082668	0.064720
813.273325	0.064736
813.463964	0.064777
813.654584	0.064541
813.845186	0.064395
814.035769	0.064351
814.226335	0.064494
814.416882	0.064691
814.607411	0.064831
814.797922	0.064678
814.988415	0.064697
815.178889	0.065039
815.369345	0.065146
815.559783	0.065399
815.750203	0.065325
815.940605	0.065291
816.130988	0.065449
816.321353	0.065480
816.511700	0.065805
816.702028	0.066177
816.892339	0.065980
817.082631	0.065910
817.272905	0.065917
817.463161	0.066144
817.653398	0.066260
817.843617	0.066263
818.033819	0.066256
818.224001	0.066065
818.414166	0.065763
818.604312	0.065594
818.794440	0.065857
818.984550	0.066050
819.174642	0.066120
819.364716	0.066186
819.554771	0.066235
819.744808	0.066194
819.934827	0.066233
820.124827	0.066333
820.314810	0.066592
820.504774	0.066452
820.694720	0.066356
820.884647	0.066403
821.074557	0.066426
821.264448	0.066597
821.454321	0.066642
821.644176	0.066534
821.834012	0.066714
822.023831	0.066601
822.213631	0.066548
822.403413	0.066619
822.593176	0.066802
822.782922	0.066688
822.972649	0.066458
823.162358	0.066588
823.352049	0.066801
823.541721	0.066902
823.731376	0.067195
823.921012	0.067449
824.110629	0.067588
824.300229	0.067379
824.489811	0.067641
824.679374	0.067963
824.868919	0.068095
825.058445	0.068030
825.247954	0.067682
825.437444	0.067564
825.626916	0.067528
825.816370	0.067406
826.005806	0.067437
826.195223	0.067532
826.384622	0.067426
826.574003	0.067273
826.763366	0.067468
826.952711	0.067614
827.142037	0.067769
827.331345	0.068049
827.520635	0.068068
827.709906	0.068211
827.899160	0.068108
828.088395	0.068108
828.277612	0.068322
828.466810	0.068366
828.655991	0.068518
828.845153	0.068413
829.034297	0.068462
829.223423	0.068530
829.412531	0.068500
829.601620	0.068443
829.790691	0.068617
829.979744	0.068608
830.168779	0.068669
830.357795	0.068767
830.546793	0.069008
830.735773	0.068860
830.924735	0.068750
831.113679	0.068956
831.302604	0.069139
831.491511	0.068989
831.680400	0.068862
831.869271	0.069042
832.058123	0.069187
832.246957	0.069117
832.435773	0.069320
832.624571	0.069473
832.813351	0.069447
833.002112	0.069668
833.190855	0.070211
833.379580	0.070411
833.568287	0.070320
833.756975	0.070152
833.945645	0.070273
834.134297	0.070216
834.322931	0.070282
834.511547	0.070217
834.700144	0.070173
834.888723	0.069893
835.077284	0.070019
835.265826	0.070009
835.454351	0.070248
835.642857	0.070199
835.831345	0.070407
836.019815	0.070724
836.208266	0.070896
836.396699	0.071068
836.585114	0.071341
836.773511	0.071449
836.961890	0.071539
837.150250	0.071638
837.338592	0.071949
837.526916	0.072003
837.715222	0.071990
837.903510	0.072099
838.091779	0.072111
838.280030	0.072323
838.468263	0.072323
838.656477	0.072306
838.844674	0.072303
839.032852	0.072491
839.221012	0.072494
839.409153	0.072589
839.597277	0.072580
839.785382	0.072535
839.973469	0.072296
840.161538	0.072364
840.349589	0.072628
840.537621	0.072630
840.725635	0.072459
840.913631	0.072512
841.101609	0.072677
841.289568	0.072698
841.477509	0.072847
841.665432	0.073040
841.853337	0.073234
842.041224	0.073238
842.229092	0.073356
842.416942	0.073364
842.604774	0.073394
842.792588	0.073617
842.980383	0.073855
843.168160	0.073970
843.355919	0.074035
843.543660	0.074080
843.731382	0.074310
843.919087	0.074533
844.106773	0.074595
844.294441	0.074653
844.482090	0.074557
844.669722	0.074626
844.857335	0.074976
845.044930	0.075131
845.232507	0.075200
845.420065	0.074998
845.607605	0.074928
845.795127	0.075170
845.982631	0.075547
846.170117	0.075655
846.357584	0.075617
846.545033	0.075335
846.732464	0.075390
846.919877	0.075438
847.107272	0.075588
847.294648	0.075725
847.482006	0.075733
847.669346	0.075595
847.856667	0.075696
848.043971	0.075914
848.231256	0.076122
848.418523	0.076077
848.605771	0.076020
848.793002	0.076226
848.980214	0.076375
849.167408	0.076588
849.354584	0.076951
849.541742	0.077026
849.728881	0.077292
849.916002	0.076967
850.103105	0.077176
850.290190	0.077354
850.477256	0.077327
850.664304	0.077530
850.851334	0.077520
851.038346	0.077449
851.225340	0.077389
851.412315	0.076966
851.599272	0.077452
851.786211	0.077394
851.973132	0.077562
852.160034	0.077640
852.346918	0.077691
852.533784	0.077551
852.720632	0.077388
852.907462	0.077609
853.094273	0.078068
853.281066	0.078221
853.467841	0.078315
853.654598	0.078403
853.841336	0.078623
854.028056	0.078555
854.214758	0.078915
854.401442	0.079259
854.588107	0.079385
854.774755	0.079534
854.961384	0.079599
855.147995	0.079514
855.334587	0.079728
855.521162	0.079787
855.707718	0.080057
855.894256	0.080039
856.080775	0.079872
856.267277	0.079932
856.453760	0.079972
856.640225	0.080230
856.826672	0.080590
857.013101	0.080447
857.199511	0.080365
857.385903	0.080465
857.572277	0.080805
857.758633	0.081150
857.944970	0.081373
858.131290	0.081555
858.317591	0.081460
858.503873	0.081439
858.690138	0.081839
858.876384	0.081887
859.062612	0.081948
859.248822	0.081966
859.435014	0.081920
859.621188	0.081726
859.807343	0.081720
859.993480	0.081774
860.179599	0.082039
860.365699	0.082100
860.551781	0.082481
860.737846	0.082452
860.923891	0.082621
861.109919	0.082793
861.295929	0.083060
861.481920	0.083268
861.667893	0.083468
861.853848	0.083527
862.039784	0.083523
862.225702	0.083638
862.411603	0.083709
862.597484	0.083687
862.783348	0.083958
862.969193	0.084144
863.155021	0.083989
863.340830	0.084019
863.526620	0.083854
863.712393	0.084193
863.898147	0.084488
864.083883	0.084541
864.269601	0.084430
864.455301	0.084325
864.640982	0.084183
864.826645	0.084368
865.012290	0.084362
865.197917	0.084659
865.383526	0.084312
865.569116	0.084031
865.754688	0.084137
865.940242	0.084386
866.125777	0.084410
866.311295	0.084626
866.496794	0.084709
866.682275	0.084678
866.867737	0.084581
867.053182	0.084787
867.238608	0.084801
867.424016	0.085133
867.609406	0.084959
867.794778	0.084965
867.980131	0.084854
868.165466	0.084731
868.350783	0.084995
868.536082	0.085144
868.721362	0.085175
868.906625	0.085250
869.091869	0.085154
869.277094	0.085232
869.462302	0.085289
869.647491	0.085464
869.832662	0.085545
870.017815	0.085429
870.202950	0.085743
870.388066	0.085975
870.573165	0.085904
870.758245	0.085962
870.943306	0.086208
871.128350	0.086536
871.313375	0.086608
871.498382	0.086853
871.683371	0.086779
871.868342	0.086757
872.053294	0.087001
872.238229	0.087542
872.423144	0.087654
872.608042	0.087701
872.792922	0.087884
872.977783	0.087744
873.162626	0.087949
873.347451	0.088403
873.532258	0.088430
873.717046	0.088266
873.901816	0.088026
874.086568	0.087884
874.271302	0.087844
874.456017	0.087375
874.640715	0.087775
874.825394	0.087610
875.010055	0.087673
875.194697	0.087599
875.379322	0.087752
875.563928	0.087948
875.748516	0.088173
875.933085	0.088049
876.117637	0.088077
876.302170	0.087950
876.486685	0.087959
876.671182	0.087746
876.855661	0.087830
877.040121	0.087717
877.224563	0.087519
877.408987	0.087652
877.593393	0.087554
877.777780	0.088022
877.962150	0.088231
878.146501	0.088460
878.330833	0.088566
878.515148	0.088751
878.699444	0.089039
878.883722	0.089338
879.067982	0.089123
879.252224	0.089493
879.436447	0.089361
879.620653	0.089167
879.804840	0.089081
879.989008	0.089124
880.173159	0.089035
880.357291	0.088704
880.541405	0.088899
880.725501	0.089099
880.909579	0.089349
881.093638	0.089286
881.277680	0.089184
881.461703	0.089288
881.645707	0.089444
881.829694	0.089711
882.013662	0.089856
882.197612	0.089643
882.381544	0.089588
882.565458	0.089420
882.749353	0.089736
882.933230	0.089857
883.117089	0.089885
883.300930	0.089800
883.484753	0.089385
883.668557	0.089593
883.852343	0.089692
884.036111	0.090078
884.219861	0.090137
884.403592	0.089863
884.587305	0.089921
884.771000	0.089772
884.954677	0.089619
885.138335	0.090197
885.321976	0.089768
885.505598	0.089630
885.689201	0.089240
885.872787	0.089319
886.056354	0.089593
886.239904	0.089622
886.423434	0.089828
886.606947	0.090013
886.790442	0.089683
886.973918	0.089536
887.157376	0.089352
887.340816	0.089357
887.524237	0.089075
887.707641	0.088710
887.891026	0.088709
888.074393	0.088487
888.257741	0.088154
888.441072	0.088295
888.624384	0.088792
888.807678	0.088889
888.990954	0.088991
889.174211	0.088776
889.357451	0.089091
889.540672	0.089139
889.723875	0.088763
889.907059	0.088889
890.090226	0.088552
890.273374	0.088429
890.456504	0.088612
890.639616	0.088508
890.822709	0.089063
891.005785	0.088848
891.188842	0.088548
891.371881	0.088862
891.554901	0.088736
891.737904	0.088977
891.920888	0.088967
892.103854	0.089012
892.286802	0.089213
892.469731	0.089176
892.652643	0.089418
892.835536	0.089756
893.018410	0.089877
893.201267	0.090081
893.384106	0.090112
893.566926	0.090039
893.749728	0.089682
893.932511	0.089430
894.115277	0.089519
894.298024	0.089167
894.480753	0.088857
894.663464	0.089102
894.846157	0.089147
895.028831	0.089167
895.211487	0.089250
895.394125	0.089536
895.576745	0.089398
895.759346	0.089155
895.941930	0.089072
896.124495	0.089169
896.307041	0.088762
896.489570	0.088711
896.672080	0.088370
896.854573	0.088280
897.037046	0.088282
897.219502	0.088428
897.401940	0.088560
897.584359	0.088592
897.766760	0.088391
897.949143	0.088564
898.131507	0.088594
898.313854	0.088770
898.496182	0.088632
898.678492	0.088587
898.860783	0.088506
899.043057	0.088454
899.225312	0.088252
899.407549	0.088459
899.589768	0.088630
899.771968	0.088815
899.954151	0.088838
900.136315	0.088669
900.318461	0.088517
900.500588	0.088615
900.682698	0.088278
900.864789	0.088605
901.046862	0.088542
901.228917	0.088363
901.410953	0.088183
901.592971	0.087819
901.774972	0.087973
901.956953	0.087936
902.138917	0.087866
902.320862	0.087968
902.502790	0.087779
902.684699	0.087644
902.866589	0.087527
903.048462	0.087137
903.230316	0.087117
903.412152	0.086926
903.593970	0.086707
903.775770	0.086347
903.957551	0.086213
904.139314	0.086002
904.321059	0.086188
904.502786	0.086108
904.684494	0.085868
904.866185	0.085456
905.047857	0.085667
905.229510	0.085672
905.411146	0.085767
905.592763	0.085668
905.774363	0.085984
905.955943	0.085915
906.137506	0.085771
906.319051	0.085775
906.500577	0.086161
906.682085	0.085934
906.863575	0.085611
907.045046	0.085258
907.226500	0.085234
907.407935	0.085047
907.589352	0.084919
907.770750	0.084630
907.952131	0.084555
908.133493	0.084478
908.314837	0.084524
908.496163	0.084997
908.677470	0.085048
908.858760	0.085134
909.040031	0.084846
909.221284	0.084761
909.402518	0.084555
909.583735	0.084716
909.764933	0.084429
909.946113	0.084026
910.127275	0.083626
910.308418	0.083343
910.489544	0.082967
910.670651	0.082806
910.851740	0.082255
911.032810	0.082295
911.213863	0.081894
911.394897	0.081664
911.575913	0.081437
911.756911	0.081244
911.937890	0.081524
912.118851	0.081160
912.299794	0.081005
912.480719	0.080928
912.661626	0.080574
912.842514	0.080271
913.023384	0.079886
913.204236	0.079733
913.385070	0.079474
913.565886	0.079151
913.746683	0.079033
913.927462	0.078741
914.108223	0.078665
914.288965	0.078780
914.469690	0.078863
914.650396	0.078624
914.831084	0.078630
915.011754	0.078695
915.192405	0.078587
915.373038	0.078603
915.553653	0.078373
915.734250	0.078069
915.914829	0.077804
916.095389	0.077769
916.275931	0.078061
916.456455	0.077319
916.636961	0.077089
916.817448	0.076430
916.997917	0.076121
917.178368	0.076186
917.358801	0.075977
917.539216	0.075908
917.719612	0.075653
917.899990	0.075278
918.080350	0.075471
918.260692	0.075082
918.441015	0.074942
918.621320	0.074790
918.801607	0.074755
918.981876	0.074351
919.162127	0.073698
919.342359	0.073399
919.522573	0.073156
919.702769	0.072980
919.882947	0.072515
920.063106	0.072831
920.243247	0.072689
920.423370	0.072201
920.603475	0.072576
920.783562	0.073150
920.963630	0.073374
921.143680	0.073314
921.323712	0.073424
921.503725	0.073561
921.683721	0.073203
921.863698	0.072940
922.043657	0.072752
922.223598	0.071908
922.403520	0.071448
922.583424	0.070891
922.763311	0.070674
922.943178	0.070236
923.123028	0.070170
923.302859	0.070133
923.482673	0.069796
923.662467	0.069653
923.842244	0.069543
924.022003	0.068765
924.201743	0.068415
924.381465	0.068242
924.561169	0.068063
924.740854	0.067676
924.920522	0.067658
925.100171	0.067654
925.279802	0.067469
925.459414	0.067192
925.639009	0.068162
925.818585	0.067901
925.998143	0.067625
926.177683	0.067146
926.357205	0.066521
926.536708	0.065784
926.716193	0.065504
926.895660	0.064975
927.075109	0.065058
927.254539	0.063886
927.433951	0.063624
927.613345	0.063327
927.792721	0.063381
927.972079	0.063324
928.151418	0.062600
928.330739	0.062271
928.510042	0.062043
928.689327	0.061967
928.868593	0.061907
929.047841	0.062007
929.227071	0.061822
929.406283	0.061263
929.585476	0.061445
929.764652	0.061470
929.943809	0.061538
930.122948	0.061587
930.302068	0.060870
930.481171	0.060239
930.660255	0.059705
930.839321	0.059659
931.018369	0.059106
931.197398	0.058557
931.376409	0.058541
931.555402	0.057956
931.734377	0.057360
931.913334	0.057506
932.092272	0.057701
932.271192	0.057429
932.450094	0.056795
932.628978	0.057299
932.807844	0.057022
932.986691	0.056238
933.165520	0.055728
933.344331	0.055674
933.523123	0.055311
933.701898	0.054700
933.880654	0.054606
934.059392	0.054136
934.238111	0.053286
934.416813	0.052840
934.595496	0.053229
934.774161	0.053062
934.952808	0.052492
935.131437	0.051619
935.310047	0.051519
935.488639	0.051014
935.667213	0.051262
935.845769	0.050972
936.024306	0.050837
936.202825	0.050446
936.381326	0.050267
936.559809	0.050773
936.738274	0.051144
936.916720	0.051304
937.095148	0.050284
937.273558	0.049229
937.451950	0.049498
937.630323	0.049066
937.808678	0.047943
937.987015	0.047715
938.165334	0.046749
938.343635	0.046315
938.521917	0.045528
938.700181	0.046125
938.878427	0.047097
939.056655	0.046780
939.234864	0.046673
939.413055	0.047142
939.591228	0.046451
939.769383	0.045864
939.947519	0.045556
940.125638	0.044561
940.303738	0.044601
940.481820	0.043448
940.659883	0.043046
940.837929	0.042893
941.015956	0.042615
941.193965	0.043370
941.371955	0.043958
941.549928	0.043507
941.727882	0.043789
941.905818	0.043445
942.083736	0.042594
942.261636	0.042552
942.439517	0.042000
942.617380	0.041881
942.795225	0.040325
942.973052	0.039222
943.150860	0.038767
943.328651	0.037665
943.506423	0.037626
943.684176	0.037834
943.861912	0.037238
944.039629	0.036792
944.217328	0.035570
944.395009	0.036171
944.572672	0.036554
944.750317	0.037310
944.927943	0.037992
945.105551	0.037100
945.283141	0.037608
945.460712	0.036723
945.638265	0.036509
945.815801	0.038106
945.993317	0.037646
946.170816	0.036852
946.348297	0.035590
946.525759	0.035250
946.703203	0.034984
946.880629	0.033842
947.058036	0.033034
947.235425	0.033071
947.412797	0.031989
947.590149	0.031512
947.767484	0.032712
947.944800	0.032802
948.122099	0.032352
948.299379	0.032964
948.476640	0.033093
948.653884	0.033589
948.831109	0.033401
949.008316	0.032373
949.185505	0.032675
949.362676	0.030999
949.539828	0.030182
949.716962	0.030127
949.894078	0.029300
950.071176	0.028420
950.248256	0.028318
950.425317	0.027453
950.602360	0.027255
950.779385	0.026413
950.956391	0.026038
951.133380	0.027198
951.310350	0.026483
951.487302	0.025475
951.664235	0.025771
951.841151	0.025235
952.018048	0.025838
952.194927	0.025949
952.371788	0.025202
952.548631	0.025221
952.725455	0.024186
952.902261	0.023428
953.079049	0.023975
953.255819	0.023611
953.432570	0.023509
953.609303	0.022511
953.786018	0.022013
953.962715	0.022154
954.139394	0.021110
954.316054	0.020463
954.492696	0.020760
954.669320	0.021352
954.845926	0.023180
955.022513	0.023816
955.199083	0.024673
955.375634	0.025311
955.552166	0.026010
955.728681	0.026224
955.905177	0.027102
956.081655	0.027912
956.258115	0.026719
956.434557	0.026109
956.610980	0.025289
956.787385	0.024631
956.963772	0.024565
957.140141	0.023983
957.316492	0.025346
957.492824	0.025273
957.669138	0.023479
957.845434	0.023698
958.021712	0.024624
958.197971	0.023511
958.374212	0.024484
958.550435	0.023915
958.726640	0.024707
958.902826	0.023283
959.078995	0.022702
959.255145	0.023524
959.431277	0.024858
959.607390	0.022721
959.783486	0.022858
959.959563	0.021818
960.135622	0.021570
960.311662	0.022272
960.487685	0.022082
960.663689	0.023487
960.839675	0.024989
961.015643	0.024752
961.191593	0.024579
961.367524	0.026149
961.543437	0.026283
961.719332	0.026014
961.895209	0.025523
962.071067	0.025989
962.246907	0.024687
962.422730	0.022879
962.598533	0.021573
962.774319	0.021692
962.950086	0.021709
963.125835	0.019866
963.301566	0.020599
963.477279	0.019671
963.652973	0.018973
963.828650	0.018706
964.004308	0.019595
964.179947	0.020814
964.355569	0.021558
964.531172	0.021414
964.706757	0.022699
964.882324	0.023690
965.057873	0.024079
965.233403	0.026127
965.408916	0.027514
965.584410	0.029079
965.759885	0.028087
965.935343	0.026841
966.110782	0.026912
966.286203	0.027203
966.461606	0.025693
966.636991	0.025092
966.812357	0.025700
966.987705	0.024720
967.163035	0.024085
967.338347	0.023302
967.513641	0.023885
967.688916	0.023808
967.864173	0.024557
968.039412	0.025022
968.214632	0.025576
968.389835	0.023217
968.565019	0.024349
968.740185	0.024970
968.915333	0.025555
969.090462	0.026489
969.265573	0.027237
969.440667	0.026569
969.615741	0.028193
969.790798	0.027697
969.965836	0.030439
970.140856	0.029068
970.315858	0.028711
970.490842	0.028107
970.665808	0.026247
970.840755	0.026130
971.015684	0.026950
971.190595	0.026617
971.365487	0.026919
971.540362	0.026042
971.715218	0.026218
971.890056	0.025753
972.064875	0.026075
972.239677	0.028328
972.414460	0.028213
972.589225	0.027049
972.763972	0.025558
972.938700	0.024326
973.113411	0.023330
973.288103	0.024169
973.462777	0.024457
973.637432	0.023724
973.812070	0.021183
973.986689	0.020888
974.161290	0.023422
974.335873	0.023041
974.510437	0.023942
974.684984	0.024945
974.859512	0.024682
975.034022	0.023191
975.208513	0.022596
975.382987	0.025730
975.557442	0.026202
975.731879	0.024230
975.906298	0.026190
976.080698	0.027277
976.255080	0.025851
976.429445	0.025734
976.603790	0.027435
976.778118	0.029540
976.952427	0.027652
977.126719	0.026922
977.300992	0.028886
977.475246	0.028127
977.649483	0.026998
977.823701	0.029200
977.997901	0.030927
978.172083	0.030040
978.346247	0.029666
978.520392	0.028573
978.694519	0.030476
978.868628	0.029410
979.042719	0.028647
979.216791	0.030283
979.390845	0.029854
979.564882	0.028390
979.738899	0.026778
979.912899	0.026749
980.086880	0.027194
980.260843	0.025676
980.434788	0.025053
980.608715	0.025079
980.782623	0.023534
980.956514	0.023319
981.130386	0.024424
981.304240	0.025609
981.478075	0.025842
981.651892	0.025370
981.825692	0.026349
981.999472	0.026819
982.173235	0.028591
982.346980	0.029218
982.520706	0.028132
982.694414	0.027175
982.868104	0.028370
983.041775	0.027460
983.215428	0.029001
983.389064	0.028212
983.562680	0.026887
983.736279	0.026739
983.909860	0.027503
984.083422	0.026489
984.256966	0.027806
984.430491	0.027804
984.603999	0.029725
984.777488	0.030561
984.950959	0.030550
985.124412	0.031548
985.297847	0.029591
985.471263	0.028094
985.644661	0.027905
985.818041	0.026292
985.991403	0.025973
986.164747	0.023761
986.338072	0.022038
986.511379	0.022608
986.684668	0.021839
986.857938	0.022611
987.031191	0.023694
987.204425	0.026336
987.377641	0.025261
987.550839	0.025687
987.724018	0.027596
987.897179	0.028265
988.070322	0.028382
988.243447	0.029397
988.416554	0.029609
988.589642	0.030232
988.762712	0.029030
988.935764	0.031491
989.108798	0.032040
989.281813	0.032356
989.454811	0.032452
989.627790	0.031273
989.800751	0.031723
989.973693	0.031939
990.146617	0.030658
990.319524	0.030783
990.492412	0.030934
990.665281	0.029953
990.838133	0.028615
991.010966	0.028944
991.183781	0.031546
991.356578	0.031153
991.529356	0.030310
991.702117	0.030653
991.874859	0.030091
992.047583	0.029605
992.220288	0.028750
992.392976	0.030463
992.565645	0.029631
992.738296	0.027445
992.910929	0.028411
993.083543	0.029267
993.256139	0.030134
993.428718	0.029819
993.601277	0.028557
993.773819	0.031092
993.946342	0.030510
994.118848	0.030836
994.291335	0.030358
994.463803	0.030734
994.636254	0.029677
994.808686	0.028420
994.981100	0.030333
995.153496	0.030408
995.325874	0.027739
995.498233	0.025900
995.670574	0.026860
995.842897	0.028147
996.015202	0.026344
996.187488	0.027853
996.359757	0.028260
996.532007	0.028022
996.704239	0.028017
996.876452	0.029069
997.048648	0.030827
997.220825	0.030719
997.392984	0.029887
997.565124	0.030310
997.737247	0.029667
997.909351	0.028654
998.081437	0.028398
998.253505	0.028875
998.425554	0.028733
998.597586	0.029759
998.769599	0.030376
998.941594	0.031868
999.113571	0.031747
999.285529	0.031840
999.457469	0.033246
999.629391	0.032133
999.801295	0.031737
999.973181	0.031642
1000.145048	0.029477
1000.316897	0.028164
1000.488728	0.027525
1000.660541	0.027945
1000.832335	0.028156
1001.004111	0.026518
1001.175869	0.028118
1001.347609	0.028270
1001.519331	0.027895
1001.691034	0.029518
1001.862719	0.029168
1002.034386	0.029415
1002.206035	0.029062
1002.377665	0.028416
1002.549277	0.031263
1002.720871	0.029982
1002.892447	0.031148
1003.064004	0.032487
1003.235544	0.031868
1003.407065	0.032267
1003.578568	0.030735
1003.750052	0.032957
1003.921519	0.032495
1004.092967	0.032031
1004.264397	0.034286
1004.435809	0.034690
1004.607202	0.032019
1004.778577	0.032163
1004.949934	0.032189
1005.121273	0.032884
1005.292594	0.031953
1005.463896	0.032825
1005.635180	0.030322
1005.806446	0.028274
1005.977694	0.026673
1006.148923	0.027719
1006.320135	0.027447
1006.491328	0.025523
1006.662503	0.025423
1006.833659	0.024205
1007.004798	0.026398
1007.175918	0.027619
1007.347020	0.028164
1007.518103	0.027800
1007.689169	0.027713
1007.860216	0.027471
1008.031245	0.029516
1008.202256	0.031190
1008.373248	0.030588
1008.544223	0.028907
1008.715179	0.028895
1008.886117	0.028897
1009.057036	0.029372
1009.227938	0.028889
1009.398821	0.028698
1009.569686	0.027108
1009.740533	0.026289
1009.911361	0.027905
1010.082172	0.027214
1010.252964	0.028246
1010.423738	0.029207
1010.594493	0.028754
1010.765231	0.030923
1010.935950	0.031085
1011.106651	0.032785
1011.277334	0.032527
1011.447998	0.030245
1011.618645	0.030091
1011.789273	0.029933
1011.959882	0.028982
1012.130474	0.030285
1012.301048	0.030096
1012.471603	0.030792
1012.642140	0.029738
1012.812658	0.028962
1012.983159	0.030957
1013.153641	0.029847
1013.324105	0.028838
1013.494551	0.029926
1013.664979	0.029754
1013.835388	0.029231
1014.005779	0.028969
1014.176152	0.030676
1014.346507	0.030620
1014.516843	0.030060
1014.687162	0.031801
1014.857462	0.031527
1015.027744	0.030385
1015.198007	0.030086
1015.368252	0.030618
1015.538480	0.030478
1015.708689	0.029956
1015.878879	0.030925
1016.049052	0.031052
1016.219206	0.030585
1016.389342	0.030804
1016.559460	0.029866
1016.729559	0.029546
1016.899641	0.028401
1017.069704	0.027935
1017.239749	0.027352
1017.409775	0.028264
1017.579784	0.028424
1017.749774	0.027802
1017.919746	0.029023
1018.089700	0.029553
1018.259635	0.029790
1018.429553	0.031238
1018.599452	0.032350
1018.769333	0.031537
1018.939195	0.032717
1019.109040	0.032198
1019.278866	0.032643
1019.448674	0.032835
1019.618464	0.033567
1019.788235	0.034141
1019.957989	0.033321
1020.127724	0.032324
1020.297441	0.033866
1020.467139	0.032128
1020.636820	0.031227
1020.806482	0.031690
1020.976126	0.031791
1021.145752	0.031097
1021.315359	0.030069
1021.484948	0.030357
1021.654519	0.030599
1021.824072	0.029942
1021.993607	0.029558
1022.163123	0.030292
1022.332621	0.029040
1022.502101	0.028400
1022.671563	0.028929
1022.841007	0.028732
1023.010432	0.029208
1023.179839	0.027249
1023.349228	0.027353
1023.518598	0.026886
1023.687951	0.026746
1023.857285	0.027578
1024.026601	0.028860
1024.195899	0.029391
1024.365178	0.029950
1024.534439	0.028890
1024.703682	0.029872
1024.872907	0.029938
1025.042114	0.030577
1025.211302	0.032044
1025.380472	0.032303
1025.549624	0.032456
1025.718758	0.031880
1025.887873	0.031200
1026.056970	0.030797
1026.226049	0.031634
1026.395110	0.031270
1026.564153	0.030759
1026.733177	0.029228
1026.902183	0.028981
1027.071171	0.028143
1027.240141	0.028491
1027.409092	0.030300
1027.578026	0.031484
1027.746940	0.031670
1027.915837	0.032685
1028.084716	0.032144
1028.253576	0.030481
1028.422418	0.031206
1028.591242	0.030729
1028.760048	0.030189
1028.928835	0.028945
1029.097604	0.027931
1029.266355	0.026725
1029.435088	0.024832
1029.603803	0.025861
1029.772499	0.027785
1029.941177	0.027134
1030.109837	0.027152
1030.278478	0.026644
1030.447102	0.027575
1030.615707	0.028052
1030.784294	0.027989
1030.952863	0.028902
1031.121413	0.026968
1031.289945	0.026775
1031.458460	0.028101
1031.626955	0.027756
1031.795433	0.028390
1031.963892	0.028648
1032.132334	0.029424
1032.300756	0.031450
1032.469161	0.031513
1032.637548	0.033566
1032.805916	0.032639
1032.974266	0.030957
1033.142598	0.032216
1033.310911	0.030838
1033.479207	0.029515
1033.647484	0.028336
1033.815743	0.028819
1033.983983	0.029678
1034.152206	0.028704
1034.320410	0.030571
1034.488596	0.032198
1034.656764	0.030976
1034.824914	0.032299
1034.993045	0.033324
1035.161158	0.034622
1035.329253	0.032916
1035.497330	0.032582
1035.665388	0.034358
1035.833428	0.033469
1036.001450	0.032286
1036.169454	0.032248
1036.337440	0.031814
1036.505407	0.030525
1036.673356	0.028964
1036.841287	0.029152
1037.009200	0.029759
1037.177094	0.027771
1037.344970	0.027867
1037.512828	0.027687
1037.680668	0.028677
1037.848489	0.029645
1038.016293	0.029099
1038.184078	0.029556
1038.351845	0.028961
1038.519593	0.027105
1038.687324	0.026735
1038.855036	0.026448
1039.022730	0.026887
1039.190406	0.025096
1039.358063	0.024007
1039.525702	0.025657
1039.693323	0.026364
1039.860926	0.026627
1040.028511	0.027269
1040.196077	0.028438
1040.363625	0.028269
1040.531155	0.028355
1040.698667	0.029928
1040.866161	0.029789
1041.033636	0.029511
1041.201093	0.030549
1041.368532	0.031777
1041.535952	0.033264
1041.703355	0.032470
1041.870739	0.033069
1042.038105	0.032120
1042.205452	0.030516
1042.372782	0.031323
1042.540093	0.030817
1042.707386	0.030135
1042.874661	0.031451
1043.041918	0.030357
1043.209156	0.030206
1043.376376	0.030265
1043.543578	0.032305
1043.710762	0.032531
1043.877927	0.031558
1044.045074	0.032233
1044.212203	0.031289
1044.379314	0.028592
1044.546407	0.028271
1044.713481	0.029152
1044.880537	0.028875
1045.047575	0.027554
1045.214595	0.028713
1045.381596	0.029146
1045.548579	0.028449
1045.715544	0.029235
1045.882491	0.030296
1046.049420	0.029053
1046.216330	0.028790
1046.383222	0.029218
1046.550096	0.029565
1046.716951	0.028352
1046.883789	0.027900
1047.050608	0.027560
1047.217409	0.027018
1047.384192	0.025571
1047.550956	0.026890
1047.717703	0.027241
1047.884431	0.028023
1048.051140	0.028848
1048.217832	0.028664
1048.384505	0.029168
1048.551161	0.029099
1048.717798	0.031035
1048.884416	0.031370
1049.051017	0.031305
1049.217599	0.031803
1049.384163	0.030022
1049.550709	0.030227
1049.717237	0.030102
1049.883746	0.031049
1050.050237	0.031551
1050.216710	0.031204
1050.383165	0.033395
1050.549601	0.034208
1050.716019	0.034301
1050.882420	0.035789
1051.048801	0.035022
1051.215165	0.035012
1051.381510	0.034346
1051.547837	0.034519
1051.714146	0.032942
1051.880437	0.032269
1052.046709	0.031861
1052.212964	0.031542
1052.379200	0.031115
1052.545417	0.029200
1052.711617	0.030529
1052.877798	0.030225
1053.043961	0.029709
1053.210106	0.028207
1053.376233	0.029607
1053.542341	0.028979
1053.708432	0.028613
1053.874504	0.027876
1054.040557	0.029669
1054.206593	0.028490
1054.372610	0.029190
1054.538609	0.030440
1054.704590	0.031279
1054.870553	0.028922
1055.036497	0.030035
1055.202424	0.029769
1055.368331	0.030952
1055.534221	0.030975
1055.700093	0.032380
1055.865946	0.032258
1056.031781	0.029846
1056.197598	0.032048
1056.363397	0.031951
1056.529177	0.032020
1056.694939	0.031690
1056.860683	0.030812
1057.026409	0.030816
1057.192116	0.030091
1057.357806	0.029020
1057.523477	0.030237
1057.689130	0.029426
1057.854764	0.030548
1058.020381	0.029420
1058.185979	0.029756
1058.351559	0.031103
1058.517120	0.030811
1058.682664	0.030795
1058.848189	0.031552
1059.013696	0.032954
1059.179185	0.032046
1059.344656	0.030914
1059.510108	0.031532
1059.675542	0.030779
1059.840958	0.030871
1060.006356	0.031186
1060.171735	0.031815
1060.337096	0.032933
1060.502439	0.032279
1060.667764	0.032681
1060.833071	0.031431
1060.998359	0.031503
1061.163629	0.033120
1061.328881	0.033299
1061.494115	0.032826
1061.659330	0.032827
1061.824527	0.034155
1061.989706	0.035202
1062.154867	0.036440
1062.320010	0.039224
1062.485134	0.039714
1062.650240	0.038978
1062.815328	0.038567
1062.980398	0.038473
1063.145449	0.037051
1063.310482	0.034868
1063.475497	0.032579
1063.640494	0.031843
1063.805473	0.029973
1063.970433	0.029203
1064.135375	0.028040
1064.300299	0.025770
1064.465204	0.026185
1064.630092	0.027473
1064.794961	0.026372
1064.959812	0.028169
1065.124645	0.027771
1065.289459	0.028223
1065.454256	0.027660
1065.619034	0.028882
1065.783793	0.030318
1065.948535	0.030013
1066.113258	0.030381
1066.277964	0.032503
1066.442651	0.030051
1066.607319	0.029863
1066.771970	0.031012
1066.936602	0.031169
1067.101216	0.032258
1067.265812	0.032527
1067.430389	0.031422
1067.594949	0.030560
1067.759490	0.028263
1067.924013	0.030470
1068.088518	0.030941
1068.253004	0.029048
1068.417472	0.029739
1068.581922	0.029556
1068.746354	0.028931
1068.910768	0.029331
1069.075163	0.028865
1069.239540	0.031526
1069.403899	0.031245
1069.568240	0.030519
1069.732562	0.032602
1069.896866	0.031866
1070.061152	0.030428
1070.225420	0.031639
1070.389670	0.032610
1070.553901	0.033271
1070.718114	0.032065
1070.882309	0.032615
1071.046486	0.033383
1071.210644	0.032260
1071.374784	0.032623
1071.538906	0.031555
1071.703010	0.028484
1071.867096	0.027013
1072.031163	0.028682
1072.195212	0.028270
1072.359243	0.028151
1072.523256	0.027381
1072.687250	0.027162
1072.851226	0.026702
1073.015184	0.029018
1073.179124	0.032035
1073.343045	0.034846
1073.506949	0.033754
1073.670834	0.033607
1073.834701	0.031676
1073.998549	0.031277
1074.162380	0.031904
1074.326192	0.033338
1074.489986	0.032523
1074.653761	0.031103
1074.817519	0.029555
1074.981258	0.028368
1075.144979	0.028593
1075.308682	0.029442
1075.472367	0.028697
1075.636033	0.026907
1075.799681	0.026547
1075.963311	0.025083
1076.126923	0.026724
1076.290516	0.025070
1076.454092	0.026007
1076.617649	0.026075
1076.781187	0.025681
1076.944708	0.027619
1077.108210	0.028500
1077.271695	0.027452
1077.435160	0.027390
1077.598608	0.027882
1077.762038	0.029846
1077.925449	0.030063
1078.088842	0.032949
1078.252217	0.033846
1078.415573	0.035643
1078.578912	0.035875
1078.742232	0.036143
1078.905534	0.038289
1079.068817	0.037423
1079.232083	0.036166
1079.395330	0.036896
1079.558559	0.033332
1079.721770	0.031586
1079.884962	0.029759
1080.048136	0.030044
1080.211293	0.028804
1080.374430	0.029382
1080.537550	0.028725
1080.700651	0.030571
1080.863735	0.029370
1081.026800	0.030197
1081.189846	0.031057
1081.352875	0.029405
1081.515885	0.029122
1081.678877	0.029776
1081.841851	0.028397
1082.004807	0.029960
1082.167744	0.030253
1082.330663	0.029516
1082.493564	0.028573
1082.656447	0.027745
1082.819312	0.029372
1082.982158	0.029789
1083.144986	0.030142
1083.307796	0.032216
1083.470587	0.030601
1083.633361	0.030048
1083.796116	0.030584
1083.958853	0.030533
1084.121571	0.030663
1084.284272	0.030306
1084.446954	0.030869
1084.609618	0.032657
1084.772264	0.027968
1084.934892	0.027648
1085.097501	0.027736
1085.260092	0.030287
1085.422665	0.030893
1085.585220	0.032036
1085.747756	0.029609
1085.910274	0.029973
1086.072774	0.029241
1086.235256	0.031268
1086.397720	0.032570
1086.560165	0.033455
1086.722592	0.029482
1086.885001	0.028691
1087.047392	0.028887
1087.209764	0.028577
1087.372119	0.027650
1087.534455	0.025526
1087.696772	0.024415
1087.859072	0.023831
1088.021353	0.021275
1088.183616	0.023865
1088.345861	0.024058
1088.508088	0.025473
1088.670296	0.027004
1088.832486	0.025801
1088.994658	0.027636
1089.156812	0.029717
1089.318948	0.028576
1089.481065	0.027308
1089.643164	0.025658
1089.805245	0.024970
1089.967308	0.024732
1090.129352	0.028078
1090.291378	0.030202
1090.453386	0.030344
1090.615376	0.030324
1090.777347	0.029603
1090.939301	0.031610
1091.101236	0.032150
1091.263153	0.034359
1091.425051	0.033850
1091.586932	0.029533
1091.748794	0.027318
1091.910638	0.028252
1092.072463	0.028542
1092.234271	0.029971
1092.396060	0.032658
1092.557831	0.031755
1092.719584	0.030356
1092.881319	0.029080
1093.043035	0.029411
1093.204733	0.029910
1093.366413	0.029223
1093.528075	0.029904
1093.689718	0.027768
1093.851343	0.023952
1094.012950	0.025141
1094.174539	0.024530
1094.336110	0.026133
1094.497662	0.026489
1094.659196	0.027859
1094.820712	0.024575
1094.982210	0.024729
1095.143689	0.024969
1095.305151	0.027408
1095.466594	0.028761
1095.628018	0.033859
1095.789425	0.032365
1095.950813	0.033305
1096.112183	0.032391
1096.273535	0.034879
1096.434869	0.033521
1096.596184	0.033895
1096.757482	0.032394
1096.918761	0.032425
1097.080021	0.025939
1097.241264	0.027150
1097.402488	0.026981
1097.563694	0.027134
1097.724882	0.029195
1097.886052	0.028256
1098.047203	0.027026
1098.208336	0.025797
1098.369451	0.024338
1098.530548	0.029430
1098.691627	0.028363
1098.852687	0.027376
1099.013729	0.026472
1099.174753	0.020727
1099.335758	0.023058
1099.496746	0.024674
1099.657715	0.024404
1099.818666	0.024794
1099.979599	0.022111
1100.140513	0.023222
1100.301409	0.023555
1100.462287	0.022048
1100.623147	0.026783
1100.783989	0.026639
1100.944812	0.028957
1101.105617	0.032161
1101.266404	0.031986
1101.427173	0.032309
1101.587923	0.031527
1101.748656	0.032407
1101.909370	0.032025
1102.070066	0.030039
1102.230743	0.029800
1102.391403	0.029631
1102.552044	0.027476
1102.712667	0.025983
1102.873271	0.025562
1103.033858	0.026391
1103.194426	0.026404
1103.354976	0.027427
1103.515508	0.029285
1103.676021	0.026718
1103.836517	0.023353
1103.996994	0.023217
1104.157453	0.023010
1104.317893	0.019583
1104.478316	0.017479
1104.638720	0.018926
1104.799106	0.020879
1104.959474	0.017834
1105.119823	0.020499
1105.280155	0.022991
1105.440468	0.023343
1105.600763	0.024140
1105.761039	0.029143
1105.921298	0.030339
1106.081538	0.031282
1106.241760	0.030745
1106.401964	0.031785
1106.562149	0.030945
1106.722316	0.030276
1106.882465	0.031216
1107.042596	0.033930
1107.202709	0.034623
1107.362803	0.033852
1107.522879	0.033230
1107.682937	0.032216
1107.842977	0.035055
1108.002999	0.032800
1108.163002	0.031984
1108.322987	0.030497
1108.482954	0.026843
1108.642902	0.026634
1108.802833	0.026188
1108.962745	0.024911
1109.122639	0.024739
1109.282515	0.022817
1109.442372	0.024642
1109.602211	0.025957
1109.762032	0.027842
1109.921835	0.028316
1110.081620	0.024822
1110.241386	0.027462
1110.401134	0.029922
1110.560864	0.029311
1110.720576	0.031100
1110.880269	0.031537
1111.039945	0.029400
1111.199602	0.030815
1111.359240	0.030975
1111.518861	0.033246
1111.678463	0.033370
1111.838047	0.029934
1111.997613	0.032403
1112.157161	0.027535
1112.316690	0.027890
1112.476202	0.033682
1112.635695	0.032462
1112.795169	0.033474
1112.954626	0.031732
1113.114064	0.030242
1113.273484	0.029010
1113.432886	0.028477
1113.592270	0.029892
1113.751635	0.026307
1113.910983	0.025136
1114.070312	0.022665
1114.229622	0.023273
1114.388915	0.024887
1114.548189	0.025893
1114.707445	0.025731
1114.866683	0.024660
1115.025903	0.025345
1115.185104	0.031633
1115.344287	0.028084
1115.503452	0.028984
1115.662599	0.027839
1115.821727	0.027995
1115.980838	0.024615
1116.139930	0.027352
1116.299004	0.026049
1116.458059	0.028411
1116.617097	0.024436
1116.776116	0.024514
1116.935117	0.023762
1117.094099	0.026691
1117.253064	0.026593
1117.412010	0.028896
1117.570938	0.026221
1117.729848	0.031089
1117.888740	0.029278
1118.047613	0.032562
1118.206468	0.032101
1118.365305	0.033507
1118.524124	0.027067
1118.682924	0.025590
1118.841707	0.025840
1119.000471	0.029846
1119.159216	0.026414
1119.317944	0.027312
1119.476653	0.026854
1119.635344	0.029978
1119.794017	0.029783
1119.952672	0.035607
1120.111308	0.035503
1120.269927	0.034660
1120.428527	0.030722
1120.587108	0.033508
1120.745672	0.032230
1120.904217	0.026838
1121.062744	0.025698
1121.221253	0.025907
1121.379744	0.021884
1121.538216	0.021756
1121.696671	0.022092
1121.855107	0.022119
1122.013524	0.019619
1122.171924	0.021010
1122.330305	0.023169
1122.488668	0.024009
1122.647013	0.022736
1122.805340	0.025076
1122.963648	0.028008
1123.121938	0.024803
1123.280210	0.026230
1123.438464	0.024214
1123.596700	0.024508
1123.754917	0.024141
1123.913116	0.023084
1124.071297	0.025359
1124.229459	0.025602
1124.387604	0.021880
1124.545730	0.022434
1124.703838	0.019804
1124.861928	0.022721
1125.019999	0.020508
1125.178052	0.024360
1125.336088	0.024198
1125.494104	0.019255
1125.652103	0.017498
1125.810083	0.022907
1125.968045	0.023818
1126.125989	0.027736
1126.283915	0.027932
1126.441823	0.028513
1126.599712	0.025665
1126.757583	0.023677
1126.915436	0.027518
1127.073270	0.027418
1127.231087	0.023437
1127.388885	0.027824
1127.546665	0.027692
1127.704426	0.024767
1127.862170	0.027480
1128.019895	0.028162
1128.177602	0.026399
1128.335291	0.024533
1128.492961	0.029056
1128.650614	0.026586
1128.808248	0.022040
1128.965864	0.022895
1129.123461	0.023096
1129.281041	0.020333
1129.438602	0.018249
1129.596145	0.026609
1129.753670	0.030356
1129.911176	0.026911
1130.068665	0.029136
1130.226135	0.028788
1130.383587	0.023646
1130.541020	0.021128
1130.698436	0.027485
1130.855833	0.028238
1131.013212	0.022457
1131.170573	0.014463
1131.327915	0.011307
1131.485239	0.010597
1131.642545	0.012322
1131.799833	0.013397
1131.957103	0.017813
1132.114354	0.014754
1132.271588	0.015269
1132.428803	0.016449
1132.585999	0.021924
1132.743178	0.020753
1132.900338	0.018972
1133.057480	0.019332
1133.214604	0.025243
1133.371710	0.023736
1133.528797	0.024895
1133.685866	0.026241
1133.842917	0.022614
1133.999950	0.022494
1134.156964	0.026293
1134.313960	0.030984
1134.470938	0.028401
1134.627898	0.023924
1134.784840	0.025042
1134.941763	0.023196
1135.098668	0.021088
1135.255555	0.022683
1135.412424	0.023855
1135.569274	0.022692
1135.726107	0.021529
1135.882921	0.023180
1136.039716	0.023393
1136.196494	0.028911
1136.353253	0.028818
1136.509995	0.029980
1136.666717	0.030516
1136.823422	0.030222
1136.980109	0.034593
1137.136777	0.030584
1137.293427	0.035646
1137.450059	0.038554
1137.606672	0.036332
1137.763267	0.036536
1137.919844	0.036350
1138.076403	0.037435
1138.232944	0.034356
1138.389466	0.032127
1138.545971	0.031960
1138.702457	0.027982
1138.858924	0.029825
1139.015374	0.025769
1139.171805	0.025015
1139.328218	0.028026
1139.484613	0.024283
1139.640990	0.027815
1139.797348	0.031662
1139.953688	0.032489
1140.110010	0.025922
1140.266314	0.021564
1140.422600	0.020544
1140.578867	0.020249
1140.735116	0.019255
1140.891347	0.024168
1141.047559	0.026287
1141.203754	0.024588
1141.359930	0.028468
1141.516088	0.040486
1141.672228	0.038578
1141.828349	0.039214
1141.984452	0.037846
1142.140537	0.036137
1142.296604	0.034516
1142.452653	0.031287
1142.608683	0.028765
1142.764695	0.023826
1142.920689	0.021173
1143.076665	0.029181
1143.232622	0.025621
1143.388562	0.029277
1143.544483	0.027534
1143.700385	0.021611
1143.856270	0.023369
1144.012136	0.022292
1144.167985	0.022707
1144.323814	0.018257
1144.479626	0.010773
1144.635420	0.016103
1144.791195	0.008638
1144.946952	0.009040
1145.102691	0.014157
1145.258411	0.008995
1145.414113	0.007328
1145.569798	0.012893
1145.725463	0.015652
1145.881111	0.015272
1146.036741	0.017790
1146.192352	0.020205
1146.347945	0.021483
1146.503519	0.022962
1146.659076	0.025414
1146.814614	0.029951
1146.970134	0.030748
1147.125636	0.027998
1147.281120	0.028540
1147.436585	0.026904
1147.592032	0.026898
1147.747461	0.023558
1147.902872	0.020745
1148.058265	0.018169
1148.213639	0.015514
1148.368995	0.013060
1148.524333	0.015323
1148.679653	0.017736
1148.834954	0.013276
1148.990237	0.015272
1149.145502	0.018689
1149.300749	0.021605
1149.455977	0.026374
1149.611188	0.027395
1149.766380	0.022192
1149.921553	0.020065
1150.076709	0.015196
1150.231846	0.018092
1150.386966	0.015022
1150.542066	0.013389
1150.697149	0.018412
1150.852214	0.016908
1151.007260	0.016344
1151.162288	0.021183
1151.317298	0.021563
1151.472289	0.024780
1151.627263	0.021281
1151.782218	0.023608
1151.937155	0.028026
1152.092073	0.026972
1152.246974	0.026630
1152.401856	0.022750
1152.556720	0.026725
1152.711566	0.022206
1152.866393	0.019652
1153.021203	0.023408
1153.175994	0.026618
1153.330767	0.027389
1153.485521	0.021100
1153.640258	0.025181
1153.794976	0.027218
1153.949676	0.020713
1154.104358	0.028351
1154.259021	0.030868
1154.413667	0.030824
1154.568294	0.025291
1154.722903	0.023066
1154.877493	0.024517
1155.032066	0.024485
1155.186620	0.027757
1155.341156	0.034394
1155.495674	0.029930
1155.650173	0.030098
1155.804654	0.028632
1155.959118	0.030988
1156.113562	0.027297
1156.267989	0.029012
1156.422397	0.031487
1156.576788	0.024695
1156.731160	0.020549
1156.885513	0.021389
1157.039849	0.020033
1157.194166	0.020223
1157.348465	0.016034
1157.502746	0.019675
1157.657009	0.016345
1157.811253	0.009074
1157.965479	0.014628
1158.119687	0.011262
1158.273877	0.016261
1158.428048	0.014105
1158.582201	0.012483
1158.736337	0.012607
1158.890453	0.006546
1159.044552	0.010050
1159.198632	0.011993
1159.352694	0.008127
1159.506738	0.009226
1159.660764	0.002616
1159.814771	0.007223
1159.968761	0.010426
1160.122732	0.017111
1160.276685	0.020250
1160.430619	0.025585
1160.584535	0.026352
1160.738434	0.031247
1160.892313	0.036925
1161.046175	0.040406
1161.200019	0.034374
1161.353844	0.034234
1161.507651	0.029264
1161.661440	0.029631
1161.815210	0.020283
1161.968962	0.015410
1162.122697	0.018971
1162.276412	0.015032
1162.430110	0.024146
1162.583789	0.029783
1162.737451	0.031096
1162.891094	0.033654
1163.044718	0.027159
1163.198325	0.030907
1163.351913	0.037409
1163.505483	0.027830
1163.659035	0.029559
1163.812569	0.023955
1163.966084	0.020835
1164.119581	0.011474
1164.273060	0.013026
1164.426521	0.023231
1164.579964	0.022527
1164.733388	0.016073
1164.886794	0.022586
1165.040182	0.014468
1165.193551	0.008388
1165.346903	0.014827
1165.500236	0.019668
1165.653551	0.016262
1165.806848	0.010798
1165.960126	0.006020
1166.113386	0.001803
1166.266628	0.001923
1166.419852	0.008970
1166.573058	0.012267
1166.726245	0.005689
1166.879414	0.006713
1167.032565	0.008471
1167.185698	0.007694
1167.338812	0.013762
1167.491909	0.024641
1167.644987	0.019527
1167.798046	0.023462
1167.951088	0.022855
1168.104111	0.023074
1168.257117	0.020557
1168.410103	0.022921
1168.563072	0.023581
1168.716023	0.020880
1168.868955	0.016505
1169.021869	0.011765
1169.174765	0.004619
1169.327642	-0.001557
1169.480501	-0.003923
1169.633343	-0.003666
1169.786165	0.000243
1169.938970	0.003710
1170.091757	0.004350
1170.244525	0.005528
1170.397275	0.015397
1170.550007	0.013181
1170.702720	0.016509
1170.855415	0.012229
1171.008092	0.019023
1171.160751	0.015369
1171.313392	0.016624
1171.466014	-0.050692
1171.618619	0.045423
1171.771205	0.045423
1171.923772	0.045423
