sample name	sample
index	569
start time	 03-16-2021  02:53:21 PM


Wavelength (nm)	Absorbance
494.344910	-0.109918
494.563924	-0.109918
494.782919	-0.109918
495.001897	0.049955
495.220856	-0.064738
495.439797	-0.055552
495.658719	-0.038093
495.877624	-0.034576
496.096510	-0.044513
496.315378	-0.044349
496.534227	-0.043779
496.753059	-0.030932
496.971872	-0.024928
497.190667	-0.002238
497.409444	0.001158
497.628203	0.001389
497.846943	0.005564
498.065665	0.007189
498.284369	0.008865
498.503055	0.010148
498.721723	0.010160
498.940372	0.009168
499.159003	0.007419
499.377616	0.008075
499.596210	0.007769
499.814787	0.007651
500.033345	0.006869
500.251885	0.006523
500.470406	0.005113
500.688910	0.004753
500.907395	0.004594
501.125862	0.005481
501.344311	0.005414
501.562742	0.004722
501.781154	0.004079
501.999548	0.004625
502.217924	0.003736
502.436282	0.004837
502.654621	0.004783
502.872942	0.006386
503.091245	0.005660
503.309530	0.005866
503.527797	0.007046
503.746045	0.006884
503.964275	0.006848
504.182487	0.006895
504.400681	0.006482
504.618856	0.006679
504.837013	0.005486
505.055152	0.006415
505.273273	0.006841
505.491376	0.005884
505.709460	0.006850
505.927526	0.006962
506.145574	0.007172
506.363604	0.007196
506.581615	0.006763
506.799608	0.007036
507.017583	0.006810
507.235540	0.005974
507.453478	0.005710
507.671399	0.005291
507.889301	0.005525
508.107185	0.005983
508.325050	0.006777
508.542898	0.006469
508.760727	0.007651
508.978538	0.008229
509.196330	0.008125
509.414105	0.009461
509.631861	0.008290
509.849599	0.007824
510.067319	0.008044
510.285021	0.006440
510.502704	0.006163
510.720369	0.005316
510.938016	0.003760
511.155645	0.004041
511.373255	0.003737
511.590848	0.005036
511.808422	0.004260
512.025977	0.003004
512.243515	0.003098
512.461034	0.003382
512.678536	0.002830
512.896018	0.003539
513.113483	0.002766
513.330930	0.001664
513.548358	0.001311
513.765768	0.001719
513.983160	0.001781
514.200533	0.002950
514.417889	0.003543
514.635226	0.003831
514.852545	0.004293
515.069845	0.005430
515.287128	0.006796
515.504392	0.006786
515.721638	0.006637
515.938866	0.007361
516.156075	0.007077
516.373267	0.006799
516.590440	0.006667
516.807594	0.006692
517.024731	0.006411
517.241850	0.006305
517.458950	0.006197
517.676032	0.006665
517.893095	0.006038
518.110141	0.005338
518.327168	0.005917
518.544177	0.006390
518.761168	0.006182
518.978141	0.005535
519.195095	0.005135
519.412031	0.005043
519.628949	0.004981
519.845849	0.004738
520.062731	0.005466
520.279594	0.005118
520.496439	0.004518
520.713266	0.004363
520.930074	0.004452
521.146865	0.004635
521.363637	0.005011
521.580391	0.004776
521.797127	0.005889
522.013844	0.005521
522.230543	0.004992
522.447224	0.004901
522.663887	0.005021
522.880532	0.004716
523.097158	0.003793
523.313766	0.003452
523.530356	0.003442
523.746928	0.002977
523.963481	0.002526
524.180017	0.002518
524.396534	0.002483
524.613032	0.002701
524.829513	0.003166
525.045975	0.003612
525.262420	0.004265
525.478845	0.003842
525.695253	0.003940
525.911643	0.004467
526.128014	0.005100
526.344367	0.005033
526.560702	0.004798
526.777018	0.004339
526.993316	0.004362
527.209597	0.003867
527.425858	0.004964
527.642102	0.004685
527.858328	0.003979
528.074535	0.003791
528.290724	0.004328
528.506894	0.004236
528.723047	0.004337
528.939181	0.004671
529.155297	0.004702
529.371395	0.004195
529.587475	0.004882
529.803536	0.005011
530.019579	0.004427
530.235604	0.004236
530.451611	0.003903
530.667600	0.004426
530.883570	0.004124
531.099522	0.003948
531.315456	0.003598
531.531372	0.002293
531.747269	0.002150
531.963148	0.002348
532.179009	0.002227
532.394852	0.002544
532.610676	0.002524
532.826482	0.003216
533.042271	0.003533
533.258040	0.003929
533.473792	0.004005
533.689525	0.004267
533.905240	0.004547
534.120937	0.004125
534.336616	0.004236
534.552277	0.003984
534.767919	0.003446
534.983543	0.002902
535.199149	0.002700
535.414736	0.002950
535.630306	0.003043
535.845857	0.002807
536.061390	0.002795
536.276904	0.003233
536.492401	0.002902
536.707879	0.002339
536.923339	0.001942
537.138781	0.002084
537.354204	0.002692
537.569610	0.002854
537.784997	0.003617
538.000366	0.004238
538.215716	0.003474
538.431049	0.003382
538.646363	0.003858
538.861659	0.004444
539.076937	0.004343
539.292196	0.004239
539.507438	0.004281
539.722661	0.003480
539.937866	0.003395
540.153052	0.003667
540.368221	0.004227
540.583371	0.004122
540.798503	0.003849
541.013617	0.003748
541.228712	0.003629
541.443789	0.003451
541.658848	0.003527
541.873889	0.002910
542.088912	0.002493
542.303916	0.002295
542.518902	0.002581
542.733870	0.003156
542.948820	0.003150
543.163752	0.002928
543.378665	0.003307
543.593560	0.003868
543.808437	0.004290
544.023295	0.004819
544.238136	0.004838
544.452958	0.004531
544.667762	0.003805
544.882548	0.004039
545.097315	0.004427
545.312064	0.003852
545.526795	0.003409
545.741508	0.003434
545.956203	0.003121
546.170879	0.003162
546.385537	0.003172
546.600177	0.003617
546.814799	0.003196
547.029402	0.002721
547.243988	0.003018
547.458555	0.003276
547.673103	0.003406
547.887634	0.003218
548.102146	0.002732
548.316640	0.002589
548.531116	0.002326
548.745574	0.002931
548.960013	0.003161
549.174435	0.002899
549.388838	0.002430
549.603222	0.002458
549.817589	0.002740
550.031937	0.002853
550.246267	0.002504
550.460579	0.002364
550.674873	0.001884
550.889148	0.001667
551.103405	0.001852
551.317644	0.001904
551.531865	0.001890
551.746068	0.002170
551.960252	0.002097
552.174418	0.002520
552.388566	0.002695
552.602696	0.002535
552.816807	0.002773
553.030900	0.002685
553.244975	0.002775
553.459032	0.002661
553.673070	0.002599
553.887091	0.002879
554.101093	0.002638
554.315077	0.002482
554.529042	0.002464
554.742990	0.002434
554.956919	0.002298
555.170830	0.002300
555.384722	0.001954
555.598597	0.001607
555.812453	0.001908
556.026291	0.002353
556.240111	0.002452
556.453913	0.002638
556.667696	0.002591
556.881461	0.002560
557.095208	0.002553
557.308937	0.002619
557.522647	0.002416
557.736339	0.002040
557.950013	0.001697
558.163669	0.001648
558.377307	0.001414
558.590926	0.001246
558.804527	0.001241
559.018110	0.001400
559.231675	0.001636
559.445221	0.002323
559.658749	0.002357
559.872259	0.002352
560.085751	0.002392
560.299225	0.002364
560.512680	0.002688
560.726117	0.002693
560.939536	0.002336
561.152937	0.002214
561.366319	0.001878
561.579683	0.001911
561.793029	0.002213
562.006357	0.002580
562.219667	0.002718
562.432958	0.002524
562.646231	0.002681
562.859486	0.002908
563.072723	0.002997
563.285941	0.002814
563.499141	0.002530
563.712323	0.002444
563.925487	0.002094
564.138632	0.002568
564.351760	0.002542
564.564869	0.002528
564.777960	0.002310
564.991032	0.002229
565.204087	0.002609
565.417123	0.002832
565.630141	0.002786
565.843140	0.002881
566.056122	0.002507
566.269085	0.002361
566.482030	0.002167
566.694957	0.002067
566.907866	0.002063
567.120756	0.001921
567.333628	0.001834
567.546482	0.001685
567.759318	0.001636
567.972135	0.001610
568.184935	0.001849
568.397716	0.002065
568.610478	0.002000
568.823223	0.001668
569.035949	0.001214
569.248657	0.001667
569.461347	0.001994
569.674019	0.002071
569.886672	0.002236
570.099308	0.002283
570.311925	0.001966
570.524523	0.001773
570.737104	0.001918
570.949666	0.002125
571.162210	0.001732
571.374736	0.001446
571.587244	0.000957
571.799733	0.000834
572.012205	0.000495
572.224658	0.000922
572.437092	0.001346
572.649509	0.001205
572.861907	0.001182
573.074287	0.001107
573.286649	0.001121
573.498993	0.001465
573.711318	0.001768
573.923625	0.001851
574.135914	0.001823
574.348185	0.001722
574.560438	0.001891
574.772672	0.002243
574.984888	0.002586
575.197086	0.002689
575.409266	0.002413
575.621427	0.001678
575.833570	0.001683
576.045695	0.001880
576.257802	0.002030
576.469890	0.002264
576.681961	0.002053
576.894013	0.001690
577.106046	0.001162
577.318062	0.001395
577.530059	0.001468
577.742039	0.001442
577.954000	0.000894
578.165942	0.000922
578.377867	0.001042
578.589773	0.000940
578.801661	0.000833
579.013531	0.001193
579.225382	0.001189
579.437216	0.001571
579.649031	0.001718
579.860828	0.001812
580.072606	0.001938
580.284367	0.001627
580.496109	0.001847
580.707833	0.002210
580.919539	0.002782
581.131227	0.003077
581.342896	0.003244
581.554547	0.003363
581.766180	0.003526
581.977795	0.003126
582.189391	0.003645
582.400969	0.003421
582.612529	0.002741
582.824071	0.002175
583.035595	0.001890
583.247100	0.001468
583.458587	0.001287
583.670056	0.001391
583.881506	0.001325
584.092939	0.001137
584.304353	0.001230
584.515749	0.001878
584.727127	0.001995
584.938486	0.001662
585.149828	0.001927
585.361151	0.001910
585.572456	0.001722
585.783742	0.001906
585.995011	0.001467
586.206261	0.001452
586.417493	0.001404
586.628706	0.001494
586.839902	0.002005
587.051079	0.001989
587.262238	0.001798
587.473379	0.001809
587.684502	0.001800
587.895606	0.001849
588.106692	0.001592
588.317760	0.001313
588.528810	0.001006
588.739841	0.000851
588.950855	0.001063
589.161850	0.001031
589.372827	0.001080
589.583785	0.001021
589.794726	0.001132
590.005648	0.001168
590.216552	0.001513
590.427437	0.001229
590.638305	0.001413
590.849154	0.000995
591.059985	0.000738
591.270798	0.000220
591.481592	0.000111
591.692369	-0.000164
591.903127	-0.000196
592.113867	-0.000663
592.324588	-0.000163
592.535292	-0.000352
592.745977	-0.000160
592.956644	0.000669
593.167293	0.000899
593.377923	0.000801
593.588536	0.001214
593.799130	0.001387
594.009706	0.001522
594.220263	0.001725
594.430803	0.001608
594.641324	0.001471
594.851827	0.001684
595.062312	0.001923
595.272778	0.002409
595.483227	0.002461
595.693657	0.002420
595.904069	0.002251
596.114462	0.002004
596.324838	0.002142
596.535195	0.002108
596.745534	0.001687
596.955855	0.001665
597.166157	0.001496
597.376441	0.001207
597.586707	0.000834
597.796955	0.001376
598.007185	0.001323
598.217396	0.001477
598.427589	0.001546
598.637764	0.001407
598.847921	0.001447
599.058060	0.001488
599.268180	0.001772
599.478282	0.001744
599.688366	0.001420
599.898431	0.001393
600.108479	0.001317
600.318508	0.001227
600.528519	0.001304
600.738511	0.000872
600.948486	0.000694
601.158442	0.000564
601.368380	0.001237
601.578300	0.001082
601.788202	0.001070
601.998085	0.001067
602.207950	0.000913
602.417797	0.000967
602.627626	0.000973
602.837436	0.001021
603.047228	0.000974
603.257002	0.000658
603.466758	0.000796
603.676496	0.000508
603.886215	0.000367
604.095916	0.000188
604.305599	0.000268
604.515264	0.000629
604.724910	0.000682
604.934538	0.000464
605.144148	0.000589
605.353740	0.000685
605.563314	0.000885
605.772869	0.000918
605.982406	0.001332
606.191925	0.001002
606.401425	0.000954
606.610908	0.000758
606.820372	0.000778
607.029818	0.000576
607.239246	0.000659
607.448655	0.000983
607.658047	0.001073
607.867420	0.000825
608.076775	0.000682
608.286111	0.000457
608.495430	0.000549
608.704730	0.000501
608.914012	0.000802
609.123275	0.000471
609.332521	0.000338
609.541748	0.000436
609.750957	0.000611
609.960148	0.000797
610.169321	0.001106
610.378475	0.000857
610.587611	0.001162
610.796729	0.000697
611.005829	0.000799
611.214910	0.000637
611.423974	0.000185
611.633019	-0.000008
611.842045	0.000129
612.051054	-0.000211
612.260044	-0.000159
612.469017	-0.000776
612.677970	-0.000490
612.886906	-0.000467
613.095824	-0.000466
613.304723	-0.000212
613.513604	-0.000129
613.722467	-0.000474
613.931311	-0.000426
614.140138	-0.000331
614.348946	0.000157
614.557736	0.000143
614.766507	0.000453
614.975261	0.000588
615.183996	0.000704
615.392713	0.000817
615.601412	0.001138
615.810092	0.001091
616.018754	0.001556
616.227399	0.001447
616.436024	0.001445
616.644632	0.000918
616.853222	0.000751
617.061793	0.000716
617.270346	0.000821
617.478880	0.000653
617.687397	0.000739
617.895895	0.000076
618.104375	0.000113
618.312837	0.000016
618.521281	0.000065
618.729706	0.000037
618.938113	-0.000074
619.146502	-0.000288
619.354873	-0.000041
619.563226	0.000075
619.771560	0.000395
619.979876	0.000396
620.188174	0.000631
620.396453	0.000742
620.604715	0.000824
620.812958	0.000536
621.021183	0.000612
621.229390	0.000324
621.437578	0.000198
621.645748	0.000205
621.853900	0.000211
622.062034	0.000132
622.270150	0.000261
622.478247	0.000311
622.686326	0.000628
622.894387	0.000680
623.102430	0.000838
623.310454	0.000905
623.518461	0.000797
623.726449	0.000968
623.934418	0.000805
624.142370	0.000847
624.350303	0.000867
624.558218	0.000892
624.766115	0.000461
624.973994	0.000440
625.181855	0.000332
625.389697	0.000136
625.597521	0.000011
625.805327	0.000190
626.013114	-0.000011
626.220883	-0.000118
626.428634	-0.000403
626.636367	-0.000081
626.844082	-0.000117
627.051778	-0.000147
627.259457	0.000251
627.467117	0.000137
627.674758	0.000038
627.882382	0.000119
628.089987	0.000190
628.297574	0.000310
628.505143	0.000320
628.712694	0.000434
628.920226	0.000406
629.127740	0.000379
629.335236	0.000354
629.542714	0.000218
629.750174	0.000084
629.957615	0.000199
630.165038	0.000019
630.372443	-0.000021
630.579829	-0.000078
630.787198	0.000102
630.994548	0.000065
631.201880	0.000384
631.409194	0.000456
631.616489	0.000479
631.823766	0.000309
632.031025	0.000563
632.238266	0.000620
632.445489	0.000224
632.652693	0.000268
632.859879	0.000144
633.067047	0.000043
633.274197	-0.000044
633.481329	0.000104
633.688442	-0.000214
633.895537	-0.000203
634.102614	-0.000161
634.309672	0.000186
634.516713	0.000050
634.723735	-0.000074
634.930739	-0.000086
635.137724	0.000081
635.344692	-0.000047
635.551641	0.000345
635.758572	0.000196
635.965485	-0.000060
636.172379	-0.000222
636.379256	-0.000442
636.586114	-0.000256
636.792954	-0.000501
636.999775	-0.000550
637.206579	-0.000346
637.413364	-0.000334
637.620131	-0.000154
637.826880	0.000005
638.033610	0.000211
638.240323	0.000406
638.447017	0.000406
638.653692	0.000552
638.860350	0.000606
639.066990	0.000639
639.273611	0.000567
639.480214	0.000563
639.686798	0.000613
639.893365	0.000631
640.099913	0.000851
640.306443	0.000826
640.512955	0.000940
640.719449	0.001002
640.925924	0.000855
641.132381	0.000861
641.338820	0.000901
641.545241	0.000832
641.751644	0.000623
641.958028	0.000541
642.164394	0.000574
642.370742	0.000203
642.577071	0.000101
642.783383	0.000073
642.989676	0.000123
643.195951	0.000045
643.402207	0.000059
643.608446	0.000222
643.814666	0.000274
644.020868	0.000220
644.227052	0.000607
644.433218	0.000720
644.639365	0.000792
644.845494	0.000531
645.051605	0.000525
645.257698	0.000607
645.463772	0.000560
645.669828	0.000478
645.875866	0.000592
646.081886	0.000440
646.287888	0.000246
646.493871	0.000339
646.699836	0.000592
646.905783	0.000578
647.111712	0.000583
647.317622	0.000672
647.523514	0.000698
647.729388	0.000659
647.935244	0.000549
648.141082	0.000631
648.346901	0.000463
648.552702	0.000315
648.758485	0.000476
648.964250	0.000445
649.169996	0.000498
649.375724	0.000493
649.581434	0.000432
649.787126	0.000540
649.992800	0.000586
650.198455	0.000920
650.404092	0.001032
650.609711	0.000890
650.815311	0.000809
651.020894	0.000594
651.226458	0.000612
651.432004	0.000636
651.637532	0.000523
651.843041	0.000332
652.048532	0.000121
652.254006	0.000129
652.459460	0.000013
652.664897	0.000075
652.870315	0.000104
653.075716	0.000156
653.281097	0.000156
653.486461	0.000245
653.691807	0.000344
653.897134	0.000358
654.102443	0.000478
654.307734	0.000601
654.513006	0.000455
654.718261	0.000421
654.923497	0.000328
655.128715	0.000401
655.333915	0.000480
655.539096	0.000524
655.744259	0.000433
655.949404	0.000323
656.154531	0.000220
656.359640	0.000456
656.564730	0.000522
656.769802	0.000452
656.974856	0.000452
657.179892	0.000414
657.384909	0.000295
657.589908	0.000425
657.794889	0.000480
657.999852	0.000755
658.204797	0.000870
658.409723	0.000807
658.614631	0.001012
658.819521	0.000977
659.024393	0.000986
659.229246	0.001243
659.434081	0.001109
659.638898	0.000980
659.843697	0.000813
660.048478	0.000547
660.253240	0.000574
660.457984	0.000347
660.662710	0.000297
660.867417	0.000316
661.072107	0.000062
661.276778	0.000034
661.481431	-0.000069
661.686066	-0.000175
661.890682	-0.000079
662.095281	0.000001
662.299861	0.000097
662.504422	0.000017
662.708966	0.000153
662.913491	0.000283
663.117999	0.000170
663.322488	0.000321
663.526958	0.000056
663.731411	-0.000131
663.935845	-0.000315
664.140261	-0.000306
664.344659	-0.000280
664.549038	-0.000651
664.753400	-0.000714
664.957743	-0.000640
665.162068	-0.000610
665.366375	-0.000381
665.570663	-0.000346
665.774933	-0.000354
665.979185	-0.000403
666.183419	-0.000338
666.387635	-0.000123
666.591832	-0.000081
666.796011	-0.000243
667.000172	-0.000210
667.204315	-0.000168
667.408439	-0.000055
667.612545	-0.000016
667.816634	-0.000036
668.020703	0.000134
668.224755	0.000057
668.428788	0.000044
668.632803	0.000172
668.836800	-0.000022
669.040779	0.000004
669.244739	0.000070
669.448681	0.000131
669.652605	0.000164
669.856511	-0.000070
670.060399	-0.000074
670.264268	-0.000075
670.468119	0.000103
670.671952	0.000222
670.875767	0.000373
671.079563	0.000109
671.283341	0.000193
671.487101	0.000265
671.690843	0.000388
671.894567	0.000531
672.098272	0.000438
672.301959	0.000466
672.505628	0.000320
672.709278	0.000120
672.912911	0.000277
673.116525	0.000199
673.320121	0.000053
673.523699	0.000034
673.727258	0.000009
673.930799	0.000205
674.134322	0.000121
674.337827	0.000211
674.541314	0.000269
674.744782	0.000261
674.948232	0.000124
675.151664	0.000120
675.355078	0.000074
675.558474	0.000034
675.761851	-0.000108
675.965210	-0.000154
676.168551	-0.000193
676.371873	-0.000173
676.575178	-0.000301
676.778464	-0.000153
676.981732	-0.000107
677.184981	-0.000136
677.388213	-0.000156
677.591426	-0.000192
677.794621	-0.000053
677.997798	0.000231
678.200956	0.000382
678.404097	0.000671
678.607219	0.000870
678.810323	0.001054
679.013408	0.001141
679.216476	0.001220
679.419525	0.001315
679.622556	0.001183
679.825569	0.001007
680.028563	0.000943
680.231540	0.000812
680.434498	0.000669
680.637438	0.000413
680.840359	0.000384
681.043263	0.000433
681.246148	0.000377
681.449015	0.000306
681.651864	0.000237
681.854694	0.000143
682.057506	0.000269
682.260301	0.000255
682.463076	0.000416
682.665834	0.000316
682.868573	0.000076
683.071295	0.000001
683.273998	0.000193
683.476682	0.000142
683.679349	0.000160
683.881997	-0.000192
684.084627	-0.000255
684.287239	-0.000276
684.489833	-0.000265
684.692408	-0.000147
684.894965	-0.000010
685.097504	-0.000145
685.300025	-0.000205
685.502527	-0.000128
685.705012	0.000053
685.907478	0.000016
686.109925	-0.000029
686.312355	-0.000017
686.514766	-0.000045
686.717159	-0.000282
686.919534	-0.000118
687.121891	0.000056
687.324230	-0.000075
687.526550	-0.000075
687.728852	-0.000053
687.931136	0.000004
688.133401	0.000146
688.335649	0.000244
688.537878	0.000552
688.740089	0.000312
688.942281	0.000275
689.144456	0.000423
689.346612	0.000377
689.548750	0.000430
689.750870	0.000684
689.952971	0.000636
690.155055	0.000532
690.357120	0.000472
690.559167	0.000325
690.761195	0.000511
690.963206	0.000433
691.165198	0.000488
691.367172	0.000433
691.569128	0.000024
691.771065	-0.000070
691.972984	-0.000144
692.174885	-0.000408
692.376768	-0.000060
692.578633	-0.000107
692.780479	-0.000190
692.982308	-0.000110
693.184118	-0.000122
693.385909	-0.000110
693.587683	-0.000145
693.789438	-0.000136
693.991175	0.000237
694.192894	-0.000057
694.394595	-0.000269
694.596277	-0.000225
694.797941	-0.000313
694.999587	-0.000147
695.201215	-0.000031
695.402824	-0.000084
695.604416	0.000027
695.805989	-0.000101
696.007543	0.000102
696.209080	0.000155
696.410598	0.000261
696.612099	0.000311
696.813580	0.000193
697.015044	0.000146
697.216490	0.000262
697.417917	0.000217
697.619326	0.000150
697.820717	0.000266
698.022089	0.000361
698.223444	0.000233
698.424780	0.000247
698.626098	0.000104
698.827397	0.000001
699.028679	-0.000187
699.229942	-0.000218
699.431187	-0.000039
699.632414	-0.000245
699.833622	-0.000401
700.034813	-0.000284
700.235985	-0.000399
700.437139	-0.000400
700.638274	-0.000371
700.839392	-0.000194
701.040491	-0.000323
701.241572	-0.000496
701.442635	-0.000482
701.643679	-0.000465
701.844706	-0.000612
702.045714	-0.000616
702.246704	-0.000592
702.447675	-0.000625
702.648629	-0.000701
702.849564	-0.000496
703.050481	-0.000439
703.251380	-0.000580
703.452260	-0.000570
703.653122	-0.000586
703.853966	-0.000631
704.054792	-0.000668
704.255600	-0.000571
704.456389	-0.000498
704.657160	-0.000465
704.857913	-0.000630
705.058648	-0.000435
705.259365	-0.000528
705.460063	-0.000484
705.660743	-0.000128
705.861405	-0.000076
706.062048	-0.000008
706.262674	-0.000145
706.463281	-0.000338
706.663870	-0.000195
706.864441	-0.000126
707.064993	0.000000
707.265527	0.000031
707.466043	-0.000200
707.666541	-0.000058
707.867021	-0.000193
708.067482	-0.000189
708.267925	0.000076
708.468350	0.000009
708.668757	-0.000159
708.869145	-0.000164
709.069516	-0.000142
709.269868	-0.000177
709.470201	-0.000313
709.670517	-0.000321
709.870814	-0.000047
710.071093	-0.000254
710.271354	-0.000153
710.471597	-0.000035
710.671821	-0.000034
710.872028	-0.000023
711.072216	0.000043
711.272385	0.000177
711.472537	0.000122
711.672670	-0.000069
711.872785	-0.000045
712.072882	-0.000221
712.272961	-0.000112
712.473021	-0.000286
712.673063	-0.000408
712.873087	-0.000292
713.073093	-0.000473
713.273081	-0.000387
713.473050	-0.000473
713.673001	-0.000575
713.872934	-0.000586
714.072849	-0.000834
714.272745	-0.000642
714.472623	-0.000641
714.672483	-0.000769
714.872325	-0.000698
715.072148	-0.000827
715.271954	-0.000797
715.471741	-0.000762
715.671509	-0.000725
715.871260	-0.000629
716.070992	-0.000955
716.270707	-0.001008
716.470403	-0.001021
716.670080	-0.000984
716.869740	-0.000892
717.069381	-0.000837
717.269004	-0.000962
717.468609	-0.000952
717.668195	-0.000924
717.867764	-0.000763
718.067314	-0.000745
718.266846	-0.000730
718.466360	-0.000980
718.665855	-0.001119
718.865332	-0.001341
719.064791	-0.001171
719.264232	-0.001106
719.463655	-0.001182
719.663059	-0.001079
719.862445	-0.001072
720.061813	-0.001107
720.261163	-0.000816
720.460494	-0.000950
720.659807	-0.001036
720.859102	-0.001217
721.058379	-0.001268
721.257638	-0.001510
721.456878	-0.001578
721.656100	-0.001684
721.855304	-0.001712
722.054490	-0.001836
722.253657	-0.001605
722.452806	-0.001431
722.651937	-0.001377
722.851050	-0.001554
723.050145	-0.001504
723.249221	-0.001601
723.448279	-0.001645
723.647319	-0.001727
723.846340	-0.001894
724.045344	-0.001929
724.244329	-0.001964
724.443296	-0.002003
724.642245	-0.001960
724.841175	-0.001922
725.040088	-0.001678
725.238982	-0.001536
725.437857	-0.001651
725.636715	-0.001637
725.835554	-0.001399
726.034376	-0.001431
726.233179	-0.001422
726.431963	-0.001397
726.630730	-0.001306
726.829478	-0.001526
727.028208	-0.001470
727.226920	-0.001401
727.425614	-0.001476
727.624289	-0.001685
727.822946	-0.001677
728.021585	-0.001575
728.220206	-0.001551
728.418808	-0.001660
728.617392	-0.001720
728.815958	-0.001929
729.014506	-0.002083
729.213036	-0.002163
729.411547	-0.002244
729.610040	-0.002330
729.808515	-0.002329
730.006972	-0.002390
730.205410	-0.002530
730.403831	-0.002337
730.602233	-0.002269
730.800616	-0.002261
730.998982	-0.002296
731.197329	-0.002451
731.395658	-0.002476
731.593969	-0.002764
731.792262	-0.002801
731.990536	-0.002715
732.188793	-0.003016
732.387031	-0.003207
732.585250	-0.003179
732.783452	-0.003028
732.981635	-0.002871
733.179800	-0.002920
733.377947	-0.002811
733.576076	-0.002726
733.774186	-0.002740
733.972278	-0.002657
734.170352	-0.002691
734.368408	-0.002848
734.566446	-0.002962
734.764465	-0.003215
734.962466	-0.003276
735.160449	-0.003267
735.358413	-0.003462
735.556360	-0.003679
735.754288	-0.003910
735.952198	-0.003901
736.150090	-0.003814
736.347963	-0.003746
736.545818	-0.003505
736.743655	-0.003488
736.941474	-0.003595
737.139275	-0.003571
737.337057	-0.003380
737.534821	-0.003267
737.732567	-0.003355
737.930295	-0.003430
738.128005	-0.003517
738.325696	-0.003613
738.523369	-0.003574
738.721024	-0.003618
738.918660	-0.003509
739.116279	-0.003586
739.313879	-0.003511
739.511461	-0.003439
739.709024	-0.003380
739.906570	-0.003352
740.104097	-0.003514
740.301606	-0.003479
740.499097	-0.003424
740.696569	-0.003690
740.894024	-0.003763
741.091460	-0.003805
741.288878	-0.003768
741.486277	-0.003515
741.683659	-0.003393
741.881022	-0.003224
742.078367	-0.003176
742.275694	-0.003231
742.473002	-0.003233
742.670293	-0.003285
742.867565	-0.003396
743.064819	-0.003243
743.262054	-0.003447
743.459272	-0.003576
743.656471	-0.003715
743.853652	-0.003730
744.050815	-0.003713
744.247959	-0.003363
744.445085	-0.003198
744.642194	-0.002950
744.839283	-0.003264
745.036355	-0.003212
745.233408	-0.003144
745.430444	-0.003044
745.627461	-0.002943
745.824459	-0.002898
746.021440	-0.003119
746.218402	-0.003077
746.415346	-0.003053
746.612272	-0.002887
746.809180	-0.002946
747.006069	-0.003029
747.202940	-0.002974
747.399793	-0.002967
747.596628	-0.003021
747.793444	-0.002987
747.990243	-0.003133
748.187023	-0.003301
748.383784	-0.003204
748.580528	-0.003063
748.777253	-0.002855
748.973960	-0.002987
749.170649	-0.002958
749.367320	-0.003062
749.563973	-0.002887
749.760607	-0.002719
749.957223	-0.002722
750.153821	-0.002754
750.350400	-0.002958
750.546962	-0.002954
750.743505	-0.002721
750.940030	-0.002714
751.136536	-0.002508
751.333025	-0.002753
751.529495	-0.002706
751.725947	-0.002496
751.922381	-0.002560
752.118796	-0.002398
752.315194	-0.002599
752.511573	-0.002749
752.707934	-0.002951
752.904276	-0.002803
753.100601	-0.002672
753.296907	-0.002635
753.493195	-0.002902
753.689465	-0.002729
753.885716	-0.002722
754.081949	-0.002659
754.278164	-0.002656
754.474361	-0.002535
754.670540	-0.002647
754.866700	-0.002670
755.062843	-0.002798
755.258967	-0.002685
755.455072	-0.002544
755.651160	-0.002481
755.847229	-0.002283
756.043280	-0.002220
756.239313	-0.002112
756.435328	-0.002027
756.631324	-0.002089
756.827302	-0.001821
757.023262	-0.001851
757.219204	-0.001993
757.415127	-0.002034
757.611033	-0.002232
757.806920	-0.002153
758.002788	-0.002164
758.198639	-0.002059
758.394471	-0.002044
758.590286	-0.002273
758.786081	-0.002396
758.981859	-0.002355
759.177619	-0.002314
759.373360	-0.002315
759.569083	-0.002382
759.764788	-0.002236
759.960474	-0.002442
760.156143	-0.002289
760.351793	-0.002204
760.547425	-0.001922
760.743038	-0.001997
760.938634	-0.002084
761.134211	-0.001882
761.329770	-0.001893
761.525311	-0.002115
761.720833	-0.001953
761.916338	-0.001955
762.111824	-0.001924
762.307292	-0.001963
762.502741	-0.002038
762.698173	-0.001872
762.893586	-0.001873
763.088981	-0.001854
763.284358	-0.001659
763.479716	-0.001776
763.675057	-0.001686
763.870379	-0.001777
764.065683	-0.001841
764.260968	-0.001809
764.456236	-0.002076
764.651485	-0.002102
764.846716	-0.002056
765.041929	-0.002138
765.237123	-0.002096
765.432299	-0.002082
765.627457	-0.002038
765.822597	-0.001808
766.017719	-0.001621
766.212822	-0.001233
766.407907	-0.001164
766.602974	-0.000977
766.798023	-0.000992
766.993054	-0.000861
767.188066	-0.001038
767.383060	-0.000880
767.578036	-0.001123
767.772993	-0.000922
767.967933	-0.001192
768.162854	-0.001143
768.357757	-0.001252
768.552642	-0.001290
768.747508	-0.001313
768.942356	-0.001238
769.137186	-0.001238
769.331998	-0.001108
769.526792	-0.001384
769.721567	-0.001298
769.916324	-0.001363
770.111063	-0.001566
770.305784	-0.001682
770.500486	-0.001891
770.695171	-0.001839
770.889837	-0.001794
771.084484	-0.001900
771.279114	-0.001742
771.473725	-0.001913
771.668318	-0.001830
771.862893	-0.001626
772.057450	-0.001451
772.251988	-0.001184
772.446509	-0.001239
772.641011	-0.001402
772.835494	-0.001339
773.029960	-0.001451
773.224407	-0.001371
773.418836	-0.001307
773.613247	-0.001071
773.807640	-0.001056
774.002014	-0.001227
774.196370	-0.001151
774.390708	-0.001004
774.585028	-0.000854
774.779330	-0.000823
774.973613	-0.000529
775.167878	-0.000669
775.362125	-0.000865
775.556354	-0.000716
775.750564	-0.000435
775.944756	-0.000683
776.138930	-0.000654
776.333086	-0.000589
776.527223	-0.000396
776.721343	-0.000461
776.915444	-0.000332
777.109526	-0.000193
777.303591	-0.000206
777.497637	-0.000367
777.691666	-0.000053
777.885676	-0.000175
778.079667	-0.000113
778.273641	-0.000261
778.467596	-0.000084
778.661533	-0.000133
778.855452	-0.000154
779.049352	-0.000240
779.243235	-0.000126
779.437099	-0.000136
779.630945	-0.000150
779.824773	-0.000316
780.018582	-0.000302
780.212373	-0.000497
780.406146	-0.000416
780.599901	-0.000266
780.793638	-0.000317
780.987356	-0.000232
781.181056	-0.000055
781.374738	0.000179
781.568402	0.000267
781.762047	0.000178
781.955674	0.000024
782.149283	-0.000031
782.342874	-0.000088
782.536447	0.000099
782.730001	-0.000021
782.923537	-0.000096
783.117055	-0.000263
783.310555	-0.000211
783.504036	0.000089
783.697499	0.000339
783.890944	0.000400
784.084371	0.000315
784.277780	0.000090
784.471170	0.000258
784.664542	0.000121
784.857896	0.000195
785.051231	0.000136
785.244549	-0.000029
785.437848	-0.000132
785.631129	-0.000198
785.824392	-0.000242
786.017636	-0.000090
786.210863	-0.000167
786.404071	-0.000094
786.597260	-0.000076
786.790432	-0.000183
786.983585	-0.000286
787.176721	-0.000293
787.369838	-0.000443
787.562936	-0.000482
787.756017	-0.000480
787.949079	-0.000359
788.142123	-0.000247
788.335149	-0.000266
788.528156	-0.000057
788.721146	0.000112
788.914117	0.000157
789.107070	0.000302
789.300005	0.000474
789.492921	0.000613
789.685819	0.000553
789.878699	0.000494
790.071561	0.000629
790.264405	0.000743
790.457230	0.000627
790.650037	0.000995
790.842826	0.001092
791.035597	0.000831
791.228349	0.000706
791.421084	0.000568
791.613800	0.000621
791.806497	0.000589
791.999177	0.000497
792.191838	0.000484
792.384481	0.000061
792.577106	-0.000164
792.769713	0.000021
792.962301	0.000162
793.154871	0.000220
793.347423	0.000091
793.539957	-0.000113
793.732473	-0.000371
793.924970	-0.000339
794.117449	-0.000267
794.309910	-0.000006
794.502353	0.000059
794.694777	-0.000164
794.887183	-0.000152
795.079571	-0.000134
795.271941	0.000071
795.464293	0.000327
795.656626	0.000332
795.848941	0.000233
796.041238	0.000065
796.233516	-0.000048
796.425777	-0.000011
796.618019	0.000047
796.810243	0.000133
797.002449	0.000030
797.194636	-0.000160
797.386805	0.000021
797.578956	0.000080
797.771089	0.000136
797.963204	0.000231
798.155300	0.000248
798.347378	0.000205
798.539438	0.000330
798.731480	0.000475
798.923503	0.000401
799.115509	0.000365
799.307496	0.000448
799.499465	0.000532
799.691415	0.000613
799.883348	0.000693
800.075262	0.000468
800.267158	0.000317
800.459035	0.000221
800.650895	0.000415
800.842736	0.000285
801.034559	0.000277
801.226364	0.000046
801.418150	-0.000098
801.609919	-0.000089
801.801669	0.000159
801.993401	0.000083
802.185114	0.000235
802.376810	0.000256
802.568487	0.000340
802.760146	0.000377
802.951787	0.000560
803.143409	0.000626
803.335014	0.000654
803.526600	0.000660
803.718168	0.000646
803.909717	0.000556
804.101249	0.000574
804.292762	0.000272
804.484257	0.000080
804.675734	0.000311
804.867192	0.000336
805.058632	0.000308
805.250054	0.000080
805.441458	0.000348
805.632844	0.000369
805.824211	0.000340
806.015561	0.000448
806.206891	0.000590
806.398204	0.000457
806.589499	0.000317
806.780775	0.000335
806.972033	0.000687
807.163273	0.000329
807.354495	0.000222
807.545698	0.000222
807.736883	0.000358
807.928050	0.000397
808.119199	0.000368
808.310329	0.000605
808.501441	0.000752
808.692535	0.000636
808.883611	0.000758
809.074669	0.000779
809.265708	0.000818
809.456729	0.000824
809.647732	0.000943
809.838717	0.000946
810.029683	0.000879
810.220632	0.000756
810.411562	0.000499
810.602474	0.000466
810.793367	0.000400
810.984242	0.000145
811.175100	0.000219
811.365938	0.000144
811.556759	-0.000074
811.747562	-0.000229
811.938346	-0.000515
812.129112	-0.000582
812.319860	-0.000541
812.510589	-0.000450
812.701300	-0.000126
812.891994	-0.000233
813.082668	-0.000265
813.273325	-0.000054
813.463964	-0.000112
813.654584	0.000170
813.845186	0.000408
814.035769	0.000434
814.226335	0.000352
814.416882	0.000080
814.607411	-0.000089
814.797922	-0.000112
814.988415	0.000001
815.178889	-0.000014
815.369345	0.000049
815.559783	-0.000165
815.750203	-0.000148
815.940605	-0.000144
816.130988	-0.000083
816.321353	0.000044
816.511700	-0.000012
816.702028	-0.000069
816.892339	-0.000184
817.082631	-0.000257
817.272905	-0.000101
817.463161	0.000002
817.653398	0.000092
817.843617	-0.000033
818.033819	-0.000115
818.224001	-0.000280
818.414166	-0.000441
818.604312	-0.000342
818.794440	-0.000455
818.984550	-0.000385
819.174642	-0.000480
819.364716	-0.000641
819.554771	-0.000367
819.744808	-0.000228
819.934827	-0.000134
820.124827	-0.000071
820.314810	-0.000017
820.504774	0.000084
820.694720	-0.000174
820.884647	-0.000150
821.074557	0.000018
821.264448	0.000015
821.454321	0.000052
821.644176	0.000140
821.834012	-0.000110
822.023831	-0.000205
822.213631	-0.000440
822.403413	-0.000358
822.593176	-0.000440
822.782922	-0.000624
822.972649	-0.000889
823.162358	-0.001104
823.352049	-0.001228
823.541721	-0.001228
823.731376	-0.000981
823.921012	-0.000920
824.110629	-0.000992
824.300229	-0.001221
824.489811	-0.001352
824.679374	-0.001227
824.868919	-0.001155
825.058445	-0.001339
825.247954	-0.001239
825.437444	-0.001395
825.626916	-0.001416
825.816370	-0.001477
826.005806	-0.001359
826.195223	-0.001314
826.384622	-0.001372
826.574003	-0.001422
826.763366	-0.001194
826.952711	-0.001269
827.142037	-0.001134
827.331345	-0.001337
827.520635	-0.001133
827.709906	-0.001003
827.899160	-0.000973
828.088395	-0.000950
828.277612	-0.001141
828.466810	-0.001281
828.655991	-0.001439
828.845153	-0.001771
829.034297	-0.001814
829.223423	-0.001909
829.412531	-0.002280
829.601620	-0.002394
829.790691	-0.002516
829.979744	-0.002226
830.168779	-0.002157
830.357795	-0.002047
830.546793	-0.002037
830.735773	-0.001964
830.924735	-0.001963
831.113679	-0.001702
831.302604	-0.001758
831.491511	-0.001729
831.680400	-0.001923
831.869271	-0.002049
832.058123	-0.002050
832.246957	-0.002004
832.435773	-0.002052
832.624571	-0.001977
832.813351	-0.002125
833.002112	-0.002115
833.190855	-0.002238
833.379580	-0.002429
833.568287	-0.002492
833.756975	-0.002430
833.945645	-0.002589
834.134297	-0.002579
834.322931	-0.002385
834.511547	-0.002281
834.700144	-0.002327
834.888723	-0.002314
835.077284	-0.002495
835.265826	-0.002389
835.454351	-0.002694
835.642857	-0.002864
835.831345	-0.002936
836.019815	-0.003225
836.208266	-0.003428
836.396699	-0.003303
836.585114	-0.003123
836.773511	-0.002809
836.961890	-0.003144
837.150250	-0.003058
837.338592	-0.002909
837.526916	-0.002614
837.715222	-0.002589
837.903510	-0.002425
838.091779	-0.002456
838.280030	-0.002905
838.468263	-0.002941
838.656477	-0.002631
838.844674	-0.002718
839.032852	-0.002518
839.221012	-0.002746
839.409153	-0.002878
839.597277	-0.003003
839.785382	-0.003048
839.973469	-0.002843
840.161538	-0.002560
840.349589	-0.002956
840.537621	-0.002794
840.725635	-0.003117
840.913631	-0.003056
841.101609	-0.003237
841.289568	-0.003373
841.477509	-0.003378
841.665432	-0.003558
841.853337	-0.003610
842.041224	-0.003260
842.229092	-0.003128
842.416942	-0.003002
842.604774	-0.003102
842.792588	-0.003020
842.980383	-0.002810
843.168160	-0.002950
843.355919	-0.002651
843.543660	-0.002875
843.731382	-0.002896
843.919087	-0.002857
844.106773	-0.002781
844.294441	-0.002834
844.482090	-0.002744
844.669722	-0.002794
844.857335	-0.002784
845.044930	-0.002796
845.232507	-0.002779
845.420065	-0.002660
845.607605	-0.002895
845.795127	-0.003058
845.982631	-0.003049
846.170117	-0.003013
846.357584	-0.003167
846.545033	-0.003133
846.732464	-0.003180
846.919877	-0.003164
847.107272	-0.003157
847.294648	-0.003278
847.482006	-0.003243
847.669346	-0.003105
847.856667	-0.003111
848.043971	-0.002889
848.231256	-0.002749
848.418523	-0.002595
848.605771	-0.002736
848.793002	-0.002822
848.980214	-0.002595
849.167408	-0.002318
849.354584	-0.002481
849.541742	-0.002416
849.728881	-0.002587
849.916002	-0.002545
850.103105	-0.002736
850.290190	-0.002538
850.477256	-0.002686
850.664304	-0.002590
850.851334	-0.002600
851.038346	-0.002537
851.225340	-0.002619
851.412315	-0.002481
851.599272	-0.002757
851.786211	-0.002605
851.973132	-0.002730
852.160034	-0.002531
852.346918	-0.002759
852.533784	-0.002914
852.720632	-0.002957
852.907462	-0.002754
853.094273	-0.002569
853.281066	-0.002231
853.467841	-0.002242
853.654598	-0.002015
853.841336	-0.001985
854.028056	-0.001889
854.214758	-0.001679
854.401442	-0.001412
854.588107	-0.002015
854.774755	-0.002320
854.961384	-0.002519
855.147995	-0.002427
855.334587	-0.002495
855.521162	-0.002311
855.707718	-0.002200
855.894256	-0.002356
856.080775	-0.002340
856.267277	-0.001887
856.453760	-0.001802
856.640225	-0.001464
856.826672	-0.001379
857.013101	-0.001292
857.199511	-0.001496
857.385903	-0.001767
857.572277	-0.001788
857.758633	-0.001674
857.944970	-0.001425
858.131290	-0.001249
858.317591	-0.001448
858.503873	-0.001226
858.690138	-0.001332
858.876384	-0.001322
859.062612	-0.001094
859.248822	-0.001117
859.435014	-0.001516
859.621188	-0.001779
859.807343	-0.001877
859.993480	-0.001658
860.179599	-0.002050
860.365699	-0.001972
860.551781	-0.001816
860.737846	-0.001794
860.923891	-0.001512
861.109919	-0.001361
861.295929	-0.000965
861.481920	-0.000957
861.667893	-0.001349
861.853848	-0.001375
862.039784	-0.001447
862.225702	-0.001401
862.411603	-0.001493
862.597484	-0.001613
862.783348	-0.001749
862.969193	-0.002019
863.155021	-0.001869
863.340830	-0.001251
863.526620	-0.001111
863.712393	-0.001067
863.898147	-0.001242
864.083883	-0.000919
864.269601	-0.000994
864.455301	-0.000602
864.640982	-0.000578
864.826645	-0.000509
865.012290	-0.000455
865.197917	-0.000484
865.383526	-0.000568
865.569116	-0.000479
865.754688	-0.000627
865.940242	-0.000595
866.125777	-0.000607
866.311295	-0.000536
866.496794	-0.000568
866.682275	-0.000853
866.867737	-0.000902
867.053182	-0.000593
867.238608	-0.000500
867.424016	-0.000652
867.609406	-0.000519
867.794778	-0.000453
867.980131	-0.000540
868.165466	-0.000664
868.350783	-0.000913
868.536082	-0.000790
868.721362	-0.001299
868.906625	-0.001358
869.091869	-0.001095
869.277094	-0.001157
869.462302	-0.001382
869.647491	-0.001445
869.832662	-0.001435
870.017815	-0.001258
870.202950	-0.001296
870.388066	-0.000955
870.573165	-0.001125
870.758245	-0.000999
870.943306	-0.001037
871.128350	-0.000893
871.313375	-0.000830
871.498382	-0.000741
871.683371	-0.000998
871.868342	-0.000974
872.053294	-0.001077
872.238229	-0.000975
872.423144	-0.001191
872.608042	-0.001167
872.792922	-0.001170
872.977783	-0.000941
873.162626	-0.000893
873.347451	-0.000451
873.532258	-0.000248
873.717046	-0.000060
873.901816	-0.000102
874.086568	0.000148
874.271302	0.000119
874.456017	-0.000053
874.640715	0.000108
874.825394	-0.000027
875.010055	-0.000509
875.194697	-0.000783
875.379322	-0.000783
875.563928	-0.000799
875.748516	-0.001169
875.933085	-0.000982
876.117637	-0.001064
876.302170	-0.001250
876.486685	-0.000875
876.671182	-0.000758
876.855661	-0.000976
877.040121	-0.001106
877.224563	-0.001106
877.408987	-0.000975
877.593393	-0.000981
877.777780	-0.000760
877.962150	-0.000933
878.146501	-0.001418
878.330833	-0.001299
878.515148	-0.001022
878.699444	-0.000843
878.883722	-0.000686
879.067982	-0.000796
879.252224	-0.000834
879.436447	-0.000719
879.620653	-0.000634
879.804840	-0.000304
879.989008	-0.000116
880.173159	-0.000134
880.357291	-0.000238
880.541405	-0.000520
880.725501	-0.000161
880.909579	0.000111
881.093638	-0.000188
881.277680	-0.000415
881.461703	-0.000559
881.645707	-0.000410
881.829694	-0.000169
882.013662	0.000129
882.197612	0.000541
882.381544	0.000445
882.565458	0.000051
882.749353	0.000325
882.933230	0.000627
883.117089	0.000749
883.300930	0.000517
883.484753	-0.000030
883.668557	-0.000221
883.852343	-0.000192
884.036111	0.000047
884.219861	0.000269
884.403592	0.000300
884.587305	0.000075
884.771000	0.000226
884.954677	-0.000074
885.138335	0.000423
885.321976	0.000666
885.505598	0.000616
885.689201	0.000238
885.872787	0.000246
886.056354	0.000308
886.239904	0.000277
886.423434	-0.000186
886.606947	0.000116
886.790442	0.000056
886.973918	-0.000332
887.157376	-0.000237
887.340816	-0.000302
887.524237	-0.000807
887.707641	-0.000772
887.891026	-0.000857
888.074393	-0.000279
888.257741	-0.000185
888.441072	-0.000093
888.624384	-0.000119
888.807678	-0.000292
888.990954	0.000331
889.174211	0.000773
889.357451	0.000792
889.540672	0.001138
889.723875	0.000705
889.907059	0.000857
890.090226	0.000972
890.273374	0.001100
890.456504	0.000987
890.639616	0.000679
890.822709	0.000779
891.005785	0.000474
891.188842	0.000705
891.371881	0.000592
891.554901	0.000248
891.737904	0.000062
891.920888	0.000204
892.103854	0.000783
892.286802	0.000677
892.469731	0.000291
892.652643	0.000653
892.835536	0.000420
893.018410	0.000753
893.201267	0.001124
893.384106	0.001042
893.566926	0.001186
893.749728	0.000619
893.932511	0.000470
894.115277	0.000777
894.298024	0.000729
894.480753	0.000821
894.663464	0.000464
894.846157	0.000428
895.028831	0.000687
895.211487	0.000222
895.394125	0.000145
895.576745	0.000193
895.759346	0.000337
895.941930	0.000062
896.124495	-0.000045
896.307041	0.000099
896.489570	-0.000015
896.672080	-0.000237
896.854573	-0.000142
897.037046	-0.000104
897.219502	0.000227
897.401940	0.000043
897.584359	0.000131
897.766760	0.000213
897.949143	0.000924
898.131507	0.001050
898.313854	0.001032
898.496182	0.001054
898.678492	0.001383
898.860783	0.000767
899.043057	0.000606
899.225312	0.000736
899.407549	0.000405
899.589768	-0.000129
899.771968	-0.000752
899.954151	-0.000475
900.136315	-0.000146
900.318461	-0.000047
900.500588	0.000318
900.682698	0.000527
900.864789	0.000689
901.046862	0.000971
901.228917	0.000826
901.410953	0.001235
901.592971	0.001123
901.774972	0.000960
901.956953	0.001045
902.138917	0.000877
902.320862	0.000820
902.502790	0.000644
902.684699	0.000347
902.866589	0.000435
903.048462	0.000551
903.230316	0.000325
903.412152	0.000147
903.593970	-0.000480
903.775770	-0.000428
903.957551	-0.000421
904.139314	-0.000479
904.321059	-0.000209
904.502786	0.000083
904.684494	0.000218
904.866185	0.000450
905.047857	0.000319
905.229510	0.000819
905.411146	0.000686
905.592763	0.000758
905.774363	0.000616
905.955943	0.000431
906.137506	0.000376
906.319051	0.000341
906.500577	0.000255
906.682085	0.000513
906.863575	0.000392
907.045046	0.000540
907.226500	0.000509
907.407935	0.000586
907.589352	0.000593
907.770750	0.000397
907.952131	0.000161
908.133493	0.000119
908.314837	0.000302
908.496163	0.000205
908.677470	0.000364
908.858760	0.000735
909.040031	0.000684
909.221284	0.000806
909.402518	0.000806
909.583735	0.000934
909.764933	0.000974
909.946113	0.000798
910.127275	0.000915
910.308418	0.000860
910.489544	0.000207
910.670651	-0.000063
910.851740	-0.000347
911.032810	-0.000371
911.213863	-0.000660
911.394897	-0.000810
911.575913	-0.000729
911.756911	-0.000805
911.937890	-0.000871
912.118851	-0.000647
912.299794	-0.000361
912.480719	-0.000200
912.661626	-0.000464
912.842514	-0.000191
913.023384	0.000086
913.204236	-0.000033
913.385070	-0.000169
913.565886	-0.000101
913.746683	-0.000057
913.927462	0.000258
914.108223	0.000552
914.288965	0.000182
914.469690	-0.000045
914.650396	-0.000607
914.831084	-0.000890
915.011754	-0.001073
915.192405	-0.001685
915.373038	-0.001876
915.553653	-0.002178
915.734250	-0.002860
915.914829	-0.002308
916.095389	-0.002498
916.275931	-0.001910
916.456455	-0.001604
916.636961	-0.001756
916.817448	-0.001331
916.997917	-0.001468
917.178368	-0.002161
917.358801	-0.001647
917.539216	-0.002032
917.719612	-0.002238
917.899990	-0.003009
918.080350	-0.003364
918.260692	-0.003033
918.441015	-0.002892
918.621320	-0.002927
918.801607	-0.002490
918.981876	-0.002886
919.162127	-0.002477
919.342359	-0.001932
919.522573	-0.001992
919.702769	-0.002283
919.882947	-0.002275
920.063106	-0.002438
920.243247	-0.002961
920.423370	-0.002802
920.603475	-0.003002
920.783562	-0.003533
920.963630	-0.004030
921.143680	-0.003833
921.323712	-0.003631
921.503725	-0.003817
921.683721	-0.003891
921.863698	-0.003522
922.043657	-0.003623
922.223598	-0.003457
922.403520	-0.003318
922.583424	-0.003398
922.763311	-0.003420
922.943178	-0.003885
923.123028	-0.004425
923.302859	-0.004870
923.482673	-0.004754
923.662467	-0.004955
923.842244	-0.005537
924.022003	-0.005882
924.201743	-0.005716
924.381465	-0.005806
924.561169	-0.005533
924.740854	-0.005745
924.920522	-0.006086
925.100171	-0.006766
925.279802	-0.006847
925.459414	-0.006822
925.639009	-0.006711
925.818585	-0.007147
925.998143	-0.006963
926.177683	-0.006991
926.357205	-0.007102
926.536708	-0.006337
926.716193	-0.005863
926.895660	-0.005953
927.075109	-0.005695
927.254539	-0.006029
927.433951	-0.005899
927.613345	-0.006836
927.792721	-0.007335
927.972079	-0.006845
928.151418	-0.007449
928.330739	-0.007685
928.510042	-0.007895
928.689327	-0.008090
928.868593	-0.008048
929.047841	-0.008589
929.227071	-0.008485
929.406283	-0.008236
929.585476	-0.008168
929.764652	-0.008425
929.943809	-0.008387
930.122948	-0.008691
930.302068	-0.008964
930.481171	-0.009141
930.660255	-0.008947
930.839321	-0.008575
931.018369	-0.008614
931.197398	-0.008980
931.376409	-0.009181
931.555402	-0.009289
931.734377	-0.009204
931.913334	-0.008766
932.092272	-0.009176
932.271192	-0.009139
932.450094	-0.009565
932.628978	-0.009096
932.807844	-0.009280
932.986691	-0.009218
933.165520	-0.009157
933.344331	-0.009736
933.523123	-0.009795
933.701898	-0.009399
933.880654	-0.009527
934.059392	-0.009652
934.238111	-0.009868
934.416813	-0.009933
934.595496	-0.009577
934.774161	-0.009823
934.952808	-0.009969
935.131437	-0.010368
935.310047	-0.010659
935.488639	-0.010605
935.667213	-0.011394
935.845769	-0.011948
936.024306	-0.012584
936.202825	-0.013232
936.381326	-0.013691
936.559809	-0.013693
936.738274	-0.013803
936.916720	-0.013834
937.095148	-0.014148
937.273558	-0.014038
937.451950	-0.013760
937.630323	-0.012812
937.808678	-0.012285
937.987015	-0.012974
938.165334	-0.012276
938.343635	-0.012259
938.521917	-0.011679
938.700181	-0.011969
938.878427	-0.011627
939.056655	-0.011718
939.234864	-0.013051
939.413055	-0.013824
939.591228	-0.013049
939.769383	-0.013639
939.947519	-0.014009
940.125638	-0.014886
940.303738	-0.015539
940.481820	-0.015708
940.659883	-0.016325
940.837929	-0.016338
941.015956	-0.016034
941.193965	-0.016390
941.371955	-0.016449
941.549928	-0.016994
941.727882	-0.017364
941.905818	-0.016562
942.083736	-0.014887
942.261636	-0.015646
942.439517	-0.015807
942.617380	-0.015771
942.795225	-0.015910
942.973052	-0.016050
943.150860	-0.015567
943.328651	-0.014770
943.506423	-0.015471
943.684176	-0.017432
943.861912	-0.017167
944.039629	-0.016679
944.217328	-0.017140
944.395009	-0.016773
944.572672	-0.016690
944.750317	-0.016902
944.927943	-0.016403
945.105551	-0.016690
945.283141	-0.016771
945.460712	-0.016239
945.638265	-0.015832
945.815801	-0.015940
945.993317	-0.016057
946.170816	-0.015826
946.348297	-0.015753
946.525759	-0.016538
946.703203	-0.015947
946.880629	-0.015328
947.058036	-0.015904
947.235425	-0.016649
947.412797	-0.017445
947.590149	-0.018272
947.767484	-0.018447
947.944800	-0.017975
948.122099	-0.019398
948.299379	-0.019203
948.476640	-0.020031
948.653884	-0.018945
948.831109	-0.018884
949.008316	-0.018321
949.185505	-0.017702
949.362676	-0.017955
949.539828	-0.019014
949.716962	-0.017213
949.894078	-0.017210
950.071176	-0.016509
950.248256	-0.016632
950.425317	-0.016610
950.602360	-0.014760
950.779385	-0.014246
950.956391	-0.014004
951.133380	-0.013278
951.310350	-0.013501
951.487302	-0.015098
951.664235	-0.015040
951.841151	-0.015192
952.018048	-0.016027
952.194927	-0.016964
952.371788	-0.017853
952.548631	-0.017449
952.725455	-0.016644
952.902261	-0.017241
953.079049	-0.015046
953.255819	-0.015106
953.432570	-0.014849
953.609303	-0.014240
953.786018	-0.014309
953.962715	-0.013219
954.139394	-0.014472
954.316054	-0.014974
954.492696	-0.015675
954.669320	-0.016173
954.845926	-0.015641
955.022513	-0.017065
955.199083	-0.015917
955.375634	-0.016393
955.552166	-0.016447
955.728681	-0.016098
955.905177	-0.016301
956.081655	-0.013616
956.258115	-0.013738
956.434557	-0.013885
956.610980	-0.013064
956.787385	-0.013698
956.963772	-0.014239
957.140141	-0.016577
957.316492	-0.015611
957.492824	-0.014953
957.669138	-0.015673
957.845434	-0.014481
958.021712	-0.014218
958.197971	-0.013781
958.374212	-0.011576
958.550435	-0.009573
958.726640	-0.006145
958.902826	-0.006727
959.078995	-0.007364
959.255145	-0.007731
959.431277	-0.009616
959.607390	-0.009379
959.783486	-0.009537
959.959563	-0.009576
960.135622	-0.009950
960.311662	-0.009734
960.487685	-0.009034
960.663689	-0.006623
960.839675	-0.005962
961.015643	-0.004724
961.191593	-0.005306
961.367524	-0.004188
961.543437	-0.006018
961.719332	-0.006032
961.895209	-0.007017
962.071067	-0.006028
962.246907	-0.007137
962.422730	-0.007045
962.598533	-0.005397
962.774319	-0.005050
962.950086	-0.006841
963.125835	-0.004964
963.301566	-0.004659
963.477279	-0.003802
963.652973	-0.003279
963.828650	-0.001988
964.004308	-0.000816
964.179947	-0.001372
964.355569	0.000612
964.531172	0.000558
964.706757	0.000922
964.882324	0.000172
965.057873	0.000859
965.233403	-0.000155
965.408916	-0.000890
965.584410	-0.001955
965.759885	-0.001164
965.935343	-0.003233
966.110782	-0.000111
966.286203	-0.002078
966.461606	-0.000147
966.636991	-0.001409
966.812357	-0.001706
966.987705	-0.003930
967.163035	-0.003305
967.338347	-0.003835
967.513641	-0.002266
967.688916	-0.003922
967.864173	-0.001760
968.039412	-0.005020
968.214632	-0.004191
968.389835	-0.004909
968.565019	-0.002894
968.740185	-0.005518
968.915333	-0.006081
969.090462	-0.006662
969.265573	-0.005598
969.440667	-0.007722
969.615741	-0.003677
969.790798	-0.002398
969.965836	-0.001047
970.140856	-0.002119
970.315858	0.000332
970.490842	0.001668
970.665808	0.002585
970.840755	0.002885
971.015684	0.004067
971.190595	0.003079
971.365487	0.000580
971.540362	0.001864
971.715218	0.002659
971.890056	0.000583
972.064875	0.001360
972.239677	-0.000183
972.414460	-0.000209
972.589225	-0.000647
972.763972	-0.001929
972.938700	-0.000185
973.113411	0.000085
973.288103	-0.000831
973.462777	0.001485
973.637432	0.000403
973.812070	-0.000232
973.986689	-0.001868
974.161290	-0.002685
974.335873	-0.001766
974.510437	-0.002135
974.684984	-0.003028
974.859512	-0.000884
975.034022	-0.002404
975.208513	-0.002651
975.382987	-0.001103
975.557442	-0.000875
975.731879	-0.001085
975.906298	-0.001477
976.080698	-0.003398
976.255080	-0.003825
976.429445	-0.006383
976.603790	-0.006232
976.778118	-0.005739
976.952427	-0.005173
977.126719	-0.003597
977.300992	-0.001845
977.475246	-0.001695
977.649483	-0.000735
977.823701	0.000567
977.997901	0.002630
978.172083	0.003938
978.346247	0.004710
978.520392	0.003392
978.694519	0.002805
978.868628	0.002993
979.042719	0.002291
979.216791	0.005719
979.390845	0.006168
979.564882	0.005514
979.738899	0.007795
979.912899	0.007233
980.086880	0.008663
980.260843	0.007520
980.434788	0.008644
980.608715	0.010206
980.782623	0.008859
980.956514	0.007374
981.130386	0.008556
981.304240	0.005785
981.478075	0.003687
981.651892	0.004428
981.825692	0.004695
981.999472	0.004080
982.173235	0.003235
982.346980	0.003605
982.520706	0.004054
982.694414	0.000589
982.868104	0.000426
983.041775	0.001456
983.215428	0.000624
983.389064	0.000588
983.562680	-0.001612
983.736279	-0.002785
983.909860	-0.005008
984.083422	-0.004629
984.256966	-0.003136
984.430491	-0.002452
984.603999	-0.000479
984.777488	-0.000827
984.950959	0.001339
985.124412	0.003156
985.297847	0.006178
985.471263	0.009697
985.644661	0.008553
985.818041	0.011212
985.991403	0.009971
986.164747	0.009429
986.338072	0.008016
986.511379	0.005237
986.684668	0.004192
986.857938	0.002807
987.031191	0.001095
987.204425	0.001312
987.377641	0.001551
987.550839	0.001885
987.724018	-0.001237
987.897179	-0.000980
988.070322	0.000147
988.243447	0.003407
988.416554	0.003542
988.589642	0.002813
988.762712	0.002246
988.935764	0.000938
989.108798	0.001969
989.281813	0.004077
989.454811	0.002565
989.627790	0.003077
989.800751	-0.000263
989.973693	-0.001168
990.146617	-0.001877
990.319524	0.000295
990.492412	-0.000147
990.665281	-0.000210
990.838133	0.000863
991.010966	0.003017
991.183781	0.002555
991.356578	0.003694
991.529356	0.004596
991.702117	0.006343
991.874859	0.005269
992.047583	0.004439
992.220288	0.004216
992.392976	0.003586
992.565645	0.003591
992.738296	0.006060
992.910929	0.006000
993.083543	0.005695
993.256139	0.006507
993.428718	0.007081
993.601277	0.008803
993.773819	0.007959
993.946342	0.007710
994.118848	0.007395
994.291335	0.005308
994.463803	0.004636
994.636254	0.004474
994.808686	0.001472
994.981100	0.000482
995.153496	-0.000300
995.325874	0.001979
995.498233	0.000947
995.670574	0.002574
995.842897	0.000799
996.015202	0.001801
996.187488	0.003667
996.359757	0.004651
996.532007	0.005096
996.704239	0.005037
996.876452	0.002910
997.048648	0.003208
997.220825	0.002573
997.392984	0.004158
997.565124	0.003900
997.737247	0.001585
997.909351	0.003238
998.081437	0.005184
998.253505	0.004602
998.425554	0.006106
998.597586	0.006837
998.769599	0.006038
998.941594	0.004590
999.113571	0.005308
999.285529	0.006109
999.457469	0.004022
999.629391	0.001521
999.801295	0.001635
999.973181	0.000564
1000.145048	0.000163
1000.316897	0.001293
1000.488728	0.003644
1000.660541	0.001919
1000.832335	0.000334
1001.004111	0.000237
1001.175869	-0.000174
1001.347609	0.000308
1001.519331	-0.000228
1001.691034	0.000170
1001.862719	0.000709
1002.034386	-0.000781
1002.206035	-0.000010
1002.377665	0.001204
1002.549277	0.002829
1002.720871	0.002054
1002.892447	0.000862
1003.064004	0.001904
1003.235544	0.001855
1003.407065	-0.000052
1003.578568	-0.000013
1003.750052	0.001588
1003.921519	-0.000827
1004.092967	-0.000116
1004.264397	0.001777
1004.435809	0.002377
1004.607202	0.002515
1004.778577	0.003561
1004.949934	0.003896
1005.121273	0.004008
1005.292594	0.003198
1005.463896	0.005652
1005.635180	0.003080
1005.806446	0.005091
1005.977694	0.006447
1006.148923	0.006527
1006.320135	0.006496
1006.491328	0.007201
1006.662503	0.008265
1006.833659	0.007085
1007.004798	0.006130
1007.175918	0.006676
1007.347020	0.004751
1007.518103	0.003706
1007.689169	0.003448
1007.860216	0.003737
1008.031245	0.002212
1008.202256	0.001324
1008.373248	0.001330
1008.544223	0.002466
1008.715179	0.003384
1008.886117	0.004282
1009.057036	0.003113
1009.227938	0.004010
1009.398821	0.003224
1009.569686	0.002742
1009.740533	0.002351
1009.911361	0.003027
1010.082172	0.003810
1010.252964	0.003614
1010.423738	0.002877
1010.594493	0.003954
1010.765231	0.002928
1010.935950	0.003943
1011.106651	0.005314
1011.277334	0.005348
1011.447998	0.004297
1011.618645	0.002598
1011.789273	0.003278
1011.959882	0.003675
1012.130474	0.002493
1012.301048	0.002133
1012.471603	0.001305
1012.642140	0.000419
1012.812658	-0.002285
1012.983159	-0.000998
1013.153641	0.000669
1013.324105	0.000397
1013.494551	0.000398
1013.664979	0.001064
1013.835388	0.002157
1014.005779	0.001887
1014.176152	0.003080
1014.346507	0.005896
1014.516843	0.004572
1014.687162	0.004291
1014.857462	0.005257
1015.027744	0.003395
1015.198007	0.004484
1015.368252	0.004111
1015.538480	0.005088
1015.708689	0.006792
1015.878879	0.006037
1016.049052	0.009690
1016.219206	0.010106
1016.389342	0.009281
1016.559460	0.011422
1016.729559	0.011851
1016.899641	0.013644
1017.069704	0.012281
1017.239749	0.010418
1017.409775	0.011954
1017.579784	0.010173
1017.749774	0.010870
1017.919746	0.009594
1018.089700	0.009316
1018.259635	0.008548
1018.429553	0.007506
1018.599452	0.008161
1018.769333	0.008633
1018.939195	0.008027
1019.109040	0.006700
1019.278866	0.005866
1019.448674	0.006969
1019.618464	0.005085
1019.788235	0.003911
1019.957989	0.004612
1020.127724	0.004396
1020.297441	0.003482
1020.467139	0.004768
1020.636820	0.006600
1020.806482	0.005834
1020.976126	0.005758
1021.145752	0.006235
1021.315359	0.007336
1021.484948	0.007250
1021.654519	0.006891
1021.824072	0.007098
1021.993607	0.004756
1022.163123	0.005117
1022.332621	0.004324
1022.502101	0.004266
1022.671563	0.003875
1022.841007	0.003895
1023.010432	0.001427
1023.179839	0.001155
1023.349228	0.001229
1023.518598	0.002913
1023.687951	0.001001
1023.857285	0.002760
1024.026601	0.000722
1024.195899	0.000584
1024.365178	0.000549
1024.534439	0.001340
1024.703682	0.001119
1024.872907	0.002493
1025.042114	0.002692
1025.211302	0.003071
1025.380472	0.001459
1025.549624	0.002907
1025.718758	0.004738
1025.887873	0.006001
1026.056970	0.005392
1026.226049	0.005873
1026.395110	0.005241
1026.564153	0.004888
1026.733177	0.005811
1026.902183	0.007092
1027.071171	0.007055
1027.240141	0.004086
1027.409092	0.003439
1027.578026	0.004226
1027.746940	0.004776
1027.915837	0.005847
1028.084716	0.007274
1028.253576	0.007145
1028.422418	0.007239
1028.591242	0.007570
1028.760048	0.010648
1028.928835	0.011295
1029.097604	0.011084
1029.266355	0.010858
1029.435088	0.008737
1029.603803	0.009150
1029.772499	0.008321
1029.941177	0.007457
1030.109837	0.006590
1030.278478	0.006565
1030.447102	0.005713
1030.615707	0.006751
1030.784294	0.006185
1030.952863	0.006640
1031.121413	0.005709
1031.289945	0.005972
1031.458460	0.005295
1031.626955	0.005938
1031.795433	0.005731
1031.963892	0.006083
1032.132334	0.004134
1032.300756	0.004549
1032.469161	0.002680
1032.637548	0.001981
1032.805916	0.000659
1032.974266	0.002339
1033.142598	0.002712
1033.310911	0.003341
1033.479207	0.002698
1033.647484	0.004018
1033.815743	0.002998
1033.983983	0.006141
1034.152206	0.004966
1034.320410	0.006723
1034.488596	0.006456
1034.656764	0.006720
1034.824914	0.006170
1034.993045	0.006340
1035.161158	0.005931
1035.329253	0.008072
1035.497330	0.007836
1035.665388	0.008475
1035.833428	0.005871
1036.001450	0.005751
1036.169454	0.006115
1036.337440	0.005891
1036.505407	0.005904
1036.673356	0.005660
1036.841287	0.004376
1037.009200	0.004210
1037.177094	0.003600
1037.344970	0.005829
1037.512828	0.004926
1037.680668	0.004842
1037.848489	0.003268
1038.016293	0.002362
1038.184078	0.001133
1038.351845	0.002672
1038.519593	0.002146
1038.687324	0.004200
1038.855036	0.005298
1039.022730	0.005317
1039.190406	0.004418
1039.358063	0.003875
1039.525702	0.005309
1039.693323	0.006660
1039.860926	0.005156
1040.028511	0.005308
1040.196077	0.003840
1040.363625	0.001304
1040.531155	0.001447
1040.698667	-0.000116
1040.866161	0.001729
1041.033636	0.002966
1041.201093	0.004405
1041.368532	0.004539
1041.535952	0.003485
1041.703355	0.003863
1041.870739	0.006240
1042.038105	0.006641
1042.205452	0.007771
1042.372782	0.007063
1042.540093	0.005234
1042.707386	0.004701
1042.874661	0.003786
1043.041918	0.005266
1043.209156	0.005852
1043.376376	0.002607
1043.543578	0.002349
1043.710762	0.001367
1043.877927	0.001992
1044.045074	0.002970
1044.212203	0.001605
1044.379314	0.003746
1044.546407	0.004137
1044.713481	0.003717
1044.880537	0.006544
1045.047575	0.005963
1045.214595	0.007803
1045.381596	0.007664
1045.548579	0.006871
1045.715544	0.007452
1045.882491	0.005372
1046.049420	0.004706
1046.216330	0.004908
1046.383222	0.005649
1046.550096	0.007419
1046.716951	0.008988
1046.883789	0.009856
1047.050608	0.009363
1047.217409	0.009647
1047.384192	0.009881
1047.550956	0.007401
1047.717703	0.007385
1047.884431	0.004727
1048.051140	0.005017
1048.217832	0.001699
1048.384505	0.000682
1048.551161	0.001872
1048.717798	0.000705
1048.884416	0.001576
1049.051017	0.002636
1049.217599	0.004075
1049.384163	0.004117
1049.550709	0.003402
1049.717237	0.005170
1049.883746	0.004221
1050.050237	0.004366
1050.216710	0.005006
1050.383165	0.003687
1050.549601	0.004301
1050.716019	0.004272
1050.882420	0.006166
1051.048801	0.005472
1051.215165	0.004633
1051.381510	0.005507
1051.547837	0.003220
1051.714146	0.003519
1051.880437	0.004194
1052.046709	0.003600
1052.212964	0.002105
1052.379200	0.001634
1052.545417	0.000907
1052.711617	0.000702
1052.877798	0.001132
1053.043961	0.001746
1053.210106	0.001666
1053.376233	0.002794
1053.542341	0.003714
1053.708432	0.003864
1053.874504	0.002812
1054.040557	0.003953
1054.206593	0.005295
1054.372610	0.003616
1054.538609	0.001973
1054.704590	0.002884
1054.870553	0.001708
1055.036497	-0.000288
1055.202424	-0.001383
1055.368331	-0.002005
1055.534221	-0.003115
1055.700093	-0.003356
1055.865946	-0.001376
1056.031781	0.000940
1056.197598	0.000966
1056.363397	-0.000063
1056.529177	0.002526
1056.694939	0.002210
1056.860683	0.002905
1057.026409	0.003988
1057.192116	0.004517
1057.357806	0.003942
1057.523477	0.002316
1057.689130	0.002728
1057.854764	0.003404
1058.020381	0.001406
1058.185979	0.002203
1058.351559	0.002493
1058.517120	0.002278
1058.682664	0.000974
1058.848189	0.000468
1059.013696	-0.001068
1059.179185	-0.001741
1059.344656	-0.000251
1059.510108	0.001913
1059.675542	0.004376
1059.840958	0.003940
1060.006356	0.003582
1060.171735	0.004261
1060.337096	0.005768
1060.502439	0.008179
1060.667764	0.008903
1060.833071	0.008104
1060.998359	0.005381
1061.163629	0.001970
1061.328881	0.001746
1061.494115	0.001893
1061.659330	0.002411
1061.824527	0.000696
1061.989706	0.001684
1062.154867	0.001343
1062.320010	0.000014
1062.485134	0.002109
1062.650240	0.001739
1062.815328	0.001261
1062.980398	0.002492
1063.145449	-0.000551
1063.310482	-0.000325
1063.475497	-0.000695
1063.640494	-0.003484
1063.805473	-0.001535
1063.970433	-0.004002
1064.135375	-0.003940
1064.300299	-0.003745
1064.465204	-0.005254
1064.630092	-0.002746
1064.794961	-0.001461
1064.959812	-0.000885
1065.124645	0.001348
1065.289459	-0.000687
1065.454256	-0.000677
1065.619034	0.000673
1065.783793	0.002676
1065.948535	0.002607
1066.113258	0.002431
1066.277964	0.000123
1066.442651	-0.002170
1066.607319	-0.003436
1066.771970	-0.000481
1066.936602	0.000954
1067.101216	0.000256
1067.265812	-0.000430
1067.430389	-0.000072
1067.594949	0.000255
1067.759490	0.000143
1067.924013	0.002500
1068.088518	0.002354
1068.253004	0.001108
1068.417472	-0.000631
1068.581922	-0.001232
1068.746354	-0.001906
1068.910768	-0.002514
1069.075163	-0.002941
1069.239540	-0.001550
1069.403899	-0.000954
1069.568240	-0.000285
1069.732562	-0.002574
1069.896866	-0.000231
1070.061152	-0.001562
1070.225420	-0.000112
1070.389670	0.002818
1070.553901	0.004246
1070.718114	0.004017
1070.882309	0.002348
1071.046486	0.002397
1071.210644	0.003667
1071.374784	0.004299
1071.538906	0.006926
1071.703010	0.005293
1071.867096	0.002026
1072.031163	0.000779
1072.195212	-0.000648
1072.359243	-0.001098
1072.523256	-0.001626
1072.687250	-0.001495
1072.851226	-0.004273
1073.015184	-0.001833
1073.179124	0.000821
1073.343045	0.002231
1073.506949	0.002321
1073.670834	0.003994
1073.834701	0.003029
1073.998549	0.003771
1074.162380	0.003751
1074.326192	0.006529
1074.489986	0.005364
1074.653761	0.003372
1074.817519	0.003226
1074.981258	0.001215
1075.144979	0.001265
1075.308682	0.002023
1075.472367	0.002721
1075.636033	0.003697
1075.799681	0.003709
1075.963311	0.004210
1076.126923	0.002942
1076.290516	0.001839
1076.454092	0.001911
1076.617649	0.001206
1076.781187	-0.000542
1076.944708	0.000621
1077.108210	0.003815
1077.271695	0.002458
1077.435160	0.001520
1077.598608	0.003760
1077.762038	0.004486
1077.925449	0.006803
1078.088842	0.007802
1078.252217	0.010072
1078.415573	0.007277
1078.578912	0.004597
1078.742232	0.004035
1078.905534	0.004747
1079.068817	0.001618
1079.232083	0.001921
1079.395330	0.001968
1079.558559	0.003491
1079.721770	0.003359
1079.884962	0.002890
1080.048136	0.001058
1080.211293	0.003899
1080.374430	0.000846
1080.537550	0.002268
1080.700651	0.000762
1080.863735	-0.000537
1081.026800	-0.004053
1081.189846	-0.003150
1081.352875	-0.000999
1081.515885	0.000698
1081.678877	-0.001473
1081.841851	-0.002220
1082.004807	-0.002907
1082.167744	-0.000320
1082.330663	0.001064
1082.493564	0.001326
1082.656447	-0.001158
1082.819312	-0.001118
1082.982158	-0.003064
1083.144986	-0.002988
1083.307796	-0.000737
1083.470587	0.000684
1083.633361	-0.001365
1083.796116	-0.001754
1083.958853	0.001217
1084.121571	0.004508
1084.284272	0.004843
1084.446954	0.005682
1084.609618	0.007050
1084.772264	0.006056
1084.934892	0.006097
1085.097501	0.006561
1085.260092	0.005847
1085.422665	0.004127
1085.585220	0.001760
1085.747756	0.001323
1085.910274	0.003206
1086.072774	0.002398
1086.235256	0.004380
1086.397720	0.004121
1086.560165	0.004160
1086.722592	0.001597
1086.885001	0.001441
1087.047392	0.003447
1087.209764	0.002604
1087.372119	-0.001345
1087.534455	-0.002734
1087.696772	-0.006377
1087.859072	-0.006866
1088.021353	-0.007213
1088.183616	-0.005426
1088.345861	-0.005128
1088.508088	-0.005954
1088.670296	-0.006171
1088.832486	-0.004542
1088.994658	-0.003154
1089.156812	-0.000383
1089.318948	-0.001242
1089.481065	-0.002089
1089.643164	-0.000380
1089.805245	-0.003244
1089.967308	-0.004405
1090.129352	-0.003709
1090.291378	-0.002905
1090.453386	-0.003315
1090.615376	-0.005909
1090.777347	-0.006301
1090.939301	-0.005623
1091.101236	-0.005987
1091.263153	-0.000352
1091.425051	-0.000301
1091.586932	-0.001996
1091.748794	-0.001154
1091.910638	-0.003823
1092.072463	-0.001554
1092.234271	-0.001017
1092.396060	-0.001055
1092.557831	-0.001577
1092.719584	-0.005037
1092.881319	-0.003015
1093.043035	-0.003427
1093.204733	-0.004331
1093.366413	-0.000127
1093.528075	-0.002284
1093.689718	-0.002316
1093.851343	-0.000919
1094.012950	-0.001850
1094.174539	-0.000822
1094.336110	-0.000609
1094.497662	-0.000976
1094.659196	-0.002287
1094.820712	-0.003488
1094.982210	-0.004275
1095.143689	-0.002132
1095.305151	-0.004269
1095.466594	-0.002900
1095.628018	-0.004899
1095.789425	-0.005969
1095.950813	-0.004000
1096.112183	-0.004512
1096.273535	-0.006173
1096.434869	-0.003406
1096.596184	-0.004447
1096.757482	-0.005776
1096.918761	-0.005952
1097.080021	-0.001633
1097.241264	0.000532
1097.402488	0.001810
1097.563694	0.004006
1097.724882	0.003961
1097.886052	0.002481
1098.047203	0.004214
1098.208336	0.004332
1098.369451	0.002926
1098.530548	-0.000413
1098.691627	-0.004844
1098.852687	-0.005061
1099.013729	-0.006405
1099.174753	-0.005459
1099.335758	-0.004637
1099.496746	-0.007515
1099.657715	-0.002875
1099.818666	-0.004799
1099.979599	-0.003528
1100.140513	-0.000003
1100.301409	0.000570
1100.462287	-0.000787
1100.623147	0.002798
1100.783989	-0.000215
1100.944812	-0.000296
1101.105617	-0.004061
1101.266404	0.000108
1101.427173	-0.001100
1101.587923	-0.002930
1101.748656	-0.005052
1101.909370	-0.001596
1102.070066	-0.005628
1102.230743	-0.002548
1102.391403	-0.003381
1102.552044	-0.002217
1102.712667	-0.005995
1102.873271	-0.003866
1103.033858	-0.006234
1103.194426	-0.007601
1103.354976	-0.008189
1103.515508	-0.007577
1103.676021	-0.005262
1103.836517	-0.000835
1103.996994	-0.001257
1104.157453	0.001738
1104.317893	-0.000725
1104.478316	0.003281
1104.638720	0.005913
1104.799106	0.004318
1104.959474	0.006221
1105.119823	0.005771
1105.280155	0.003458
1105.440468	0.004641
1105.600763	0.007550
1105.761039	0.004807
1105.921298	0.003741
1106.081538	0.000733
1106.241760	-0.001194
1106.401964	-0.002780
1106.562149	-0.004572
1106.722316	-0.005955
1106.882465	-0.006946
1107.042596	-0.011762
1107.202709	-0.007709
1107.362803	-0.006378
1107.522879	-0.003113
1107.682937	0.001090
1107.842977	0.000011
1108.002999	-0.003625
1108.163002	-0.001853
1108.322987	-0.003151
1108.482954	-0.002491
1108.642902	-0.005194
1108.802833	-0.007388
1108.962745	-0.007528
1109.122639	-0.011142
1109.282515	-0.008719
1109.442372	-0.005264
1109.602211	-0.004474
1109.762032	-0.000455
1109.921835	0.000983
1110.081620	0.003738
1110.241386	0.005103
1110.401134	0.003788
1110.560864	0.004209
1110.720576	0.005929
1110.880269	0.008403
1111.039945	0.012215
1111.199602	0.008556
1111.359240	0.008180
1111.518861	0.008477
1111.678463	0.005146
1111.838047	0.004190
1111.997613	0.000584
1112.157161	-0.002957
1112.316690	-0.004731
1112.476202	-0.012245
1112.635695	-0.011702
1112.795169	-0.012944
1112.954626	-0.013446
1113.114064	-0.014905
1113.273484	-0.014269
1113.432886	-0.009041
1113.592270	-0.009406
1113.751635	-0.011040
1113.910983	-0.008373
1114.070312	-0.005538
1114.229622	-0.005067
1114.388915	-0.005539
1114.548189	-0.001605
1114.707445	-0.002220
1114.866683	-0.001288
1115.025903	-0.000065
1115.185104	0.001330
1115.344287	0.000960
1115.503452	-0.000755
1115.662599	0.001733
1115.821727	-0.001352
1115.980838	-0.004082
1116.139930	-0.003590
1116.299004	-0.004885
1116.458059	-0.004488
1116.617097	-0.003788
1116.776116	-0.001361
1116.935117	0.001515
1117.094099	0.000387
1117.253064	0.004980
1117.412010	0.005690
1117.570938	0.006612
1117.729848	0.009741
1117.888740	0.005944
1118.047613	0.003426
1118.206468	-0.000335
1118.365305	-0.006779
1118.524124	-0.010355
1118.682924	-0.010269
1118.841707	-0.009202
1119.000471	-0.009686
1119.159216	-0.012568
1119.317944	-0.011434
1119.476653	-0.007539
1119.635344	-0.004518
1119.794017	-0.003433
1119.952672	0.001228
1120.111308	0.001134
1120.269927	0.004271
1120.428527	0.005019
1120.587108	0.006267
1120.745672	0.007775
1120.904217	0.004903
1121.062744	0.003222
1121.221253	0.006528
1121.379744	0.003156
1121.538216	-0.000959
1121.696671	-0.003643
1121.855107	-0.004780
1122.013524	-0.003726
1122.171924	-0.003013
1122.330305	-0.003781
1122.488668	-0.004570
1122.647013	-0.005731
1122.805340	-0.003755
1122.963648	-0.003586
1123.121938	-0.002775
1123.280210	-0.003913
1123.438464	-0.007092
1123.596700	-0.009019
1123.754917	-0.005980
1123.913116	-0.007447
1124.071297	-0.010379
1124.229459	-0.013560
1124.387604	-0.010093
1124.545730	-0.010864
1124.703838	-0.010063
1124.861928	-0.006871
1125.019999	-0.004099
1125.178052	-0.006490
1125.336088	-0.007391
1125.494104	-0.003638
1125.652103	-0.006321
1125.810083	-0.008700
1125.968045	-0.010193
1126.125989	-0.007199
1126.283915	-0.009042
1126.441823	-0.005424
1126.599712	-0.005492
1126.757583	-0.003102
1126.915436	-0.002211
1127.073270	0.002943
1127.231087	0.001823
1127.388885	0.000187
1127.546665	0.000678
1127.704426	-0.000681
1127.862170	-0.007994
1128.019895	-0.010008
1128.177602	-0.011711
1128.335291	-0.010710
1128.492961	-0.008389
1128.650614	-0.005793
1128.808248	-0.000854
1128.965864	-0.004103
1129.123461	0.000553
1129.281041	0.001681
1129.438602	0.004842
1129.596145	0.009845
1129.753670	0.008364
1129.911176	0.005582
1130.068665	0.005071
1130.226135	0.002829
1130.383587	0.003319
1130.541020	0.002390
1130.698436	0.003968
1130.855833	0.001250
1131.013212	-0.005442
1131.170573	-0.006064
1131.327915	-0.006115
1131.485239	-0.007574
1131.642545	-0.006162
1131.799833	-0.006504
1131.957103	-0.011816
1132.114354	-0.012011
1132.271588	-0.007084
1132.428803	-0.003919
1132.585999	-0.004779
1132.743178	-0.006050
1132.900338	-0.006454
1133.057480	-0.007777
1133.214604	-0.006518
1133.371710	-0.005923
1133.528797	-0.005400
1133.685866	-0.010618
1133.842917	-0.010672
1133.999950	-0.009795
1134.156964	-0.006531
1134.313960	-0.006659
1134.470938	-0.007638
1134.627898	-0.008447
1134.784840	-0.006841
1134.941763	-0.009038
1135.098668	-0.004774
1135.255555	-0.002956
1135.412424	-0.002576
1135.569274	-0.001666
1135.726107	0.001209
1135.882921	0.002271
1136.039716	0.001904
1136.196494	0.002286
1136.353253	0.002260
1136.509995	0.003650
1136.666717	0.002334
1136.823422	-0.000762
1136.980109	-0.003113
1137.136777	-0.005359
1137.293427	-0.007948
1137.450059	-0.004742
1137.606672	-0.003629
1137.763267	-0.000621
1137.919844	-0.004154
1138.076403	-0.006902
1138.232944	-0.003089
1138.389466	-0.006290
1138.545971	-0.005489
1138.702457	-0.005566
1138.858924	-0.011995
1139.015374	-0.015312
1139.171805	-0.017355
1139.328218	-0.015639
1139.484613	-0.011647
1139.640990	-0.015363
1139.797348	-0.014229
1139.953688	-0.013896
1140.110010	-0.013266
1140.266314	-0.011705
1140.422600	-0.008754
1140.578867	-0.008996
1140.735116	-0.013913
1140.891347	-0.016260
1141.047559	-0.014037
1141.203754	-0.014205
1141.359930	-0.014451
1141.516088	-0.012716
1141.672228	-0.009969
1141.828349	-0.008114
1141.984452	-0.005680
1142.140537	-0.002488
1142.296604	-0.002190
1142.452653	-0.002807
1142.608683	0.000666
1142.764695	-0.000798
1142.920689	0.002942
1143.076665	0.000714
1143.232622	-0.002865
1143.388562	-0.008639
1143.544483	-0.008505
1143.700385	-0.010009
1143.856270	-0.011730
1144.012136	-0.015230
1144.167985	-0.014573
1144.323814	-0.014239
1144.479626	-0.013658
1144.635420	-0.016071
1144.791195	-0.011905
1144.946952	-0.009304
1145.102691	-0.009787
1145.258411	-0.008686
1145.414113	-0.006501
1145.569798	-0.006748
1145.725463	-0.008698
1145.881111	-0.006016
1146.036741	-0.005125
1146.192352	-0.007152
1146.347945	-0.009180
1146.503519	-0.008013
1146.659076	-0.010947
1146.814614	-0.007312
1146.970134	-0.002468
1147.125636	-0.005037
1147.281120	-0.005822
1147.436585	-0.003636
1147.592032	-0.002238
1147.747461	-0.001941
1147.902872	-0.001585
1148.058265	-0.000622
1148.213639	-0.001873
1148.368995	-0.005352
1148.524333	-0.000353
1148.679653	-0.002008
1148.834954	-0.002758
1148.990237	-0.001228
1149.145502	-0.004035
1149.300749	-0.006178
1149.455977	-0.005875
1149.611188	-0.011371
1149.766380	-0.012576
1149.921553	-0.017198
1150.076709	-0.016005
1150.231846	-0.014581
1150.386966	-0.019189
1150.542066	-0.020715
1150.697149	-0.015763
1150.852214	-0.018626
1151.007260	-0.017515
1151.162288	-0.016328
1151.317298	-0.016499
1151.472289	-0.020456
1151.627263	-0.020970
1151.782218	-0.019471
1151.937155	-0.014030
1152.092073	-0.017363
1152.246974	-0.015448
1152.401856	-0.013827
1152.556720	-0.013367
1152.711566	-0.013873
1152.866393	-0.014319
1153.021203	-0.015083
1153.175994	-0.016542
1153.330767	-0.013613
1153.485521	-0.011177
1153.640258	-0.008427
1153.794976	-0.013141
1153.949676	-0.013922
1154.104358	-0.015029
1154.259021	-0.018139
1154.413667	-0.014089
1154.568294	-0.014284
1154.722903	-0.018370
1154.877493	-0.020150
1155.032066	-0.022103
1155.186620	-0.019954
1155.341156	-0.019347
1155.495674	-0.019440
1155.650173	-0.008707
1155.804654	-0.013393
1155.959118	-0.006584
1156.113562	-0.004337
1156.267989	-0.002031
1156.422397	0.003370
1156.576788	0.006244
1156.731160	0.010051
1156.885513	0.013195
1157.039849	0.010045
1157.194166	0.010090
1157.348465	0.007085
1157.502746	0.000734
1157.657009	0.000967
1157.811253	-0.003999
1157.965479	-0.001182
1158.119687	-0.000512
1158.273877	-0.002202
1158.428048	-0.003502
1158.582201	-0.002019
1158.736337	-0.008313
1158.890453	-0.005947
1159.044552	-0.013812
1159.198632	-0.014769
1159.352694	-0.018189
1159.506738	-0.021156
1159.660764	-0.021671
1159.814771	-0.021310
1159.968761	-0.022201
1160.122732	-0.014739
1160.276685	-0.013375
1160.430619	-0.009850
1160.584535	-0.002515
1160.738434	-0.002376
1160.892313	-0.004175
1161.046175	-0.002450
1161.200019	-0.003998
1161.353844	-0.004596
1161.507651	-0.004340
1161.661440	-0.009437
1161.815210	-0.007152
1161.968962	-0.009875
1162.122697	-0.012009
1162.276412	-0.014131
1162.430110	-0.016844
1162.583789	-0.017313
1162.737451	-0.014805
1162.891094	-0.015002
1163.044718	-0.014692
1163.198325	-0.010955
1163.351913	-0.009284
1163.505483	-0.002662
1163.659035	0.003804
1163.812569	0.005089
1163.966084	0.006812
1164.119581	0.005100
1164.273060	0.007248
1164.426521	0.009448
1164.579964	0.009787
1164.733388	0.006343
1164.886794	-0.003815
1165.040182	-0.012998
1165.193551	-0.015354
1165.346903	-0.011573
1165.500236	-0.011514
1165.653551	-0.021127
1165.806848	-0.019289
1165.960126	-0.025004
1166.113386	-0.031514
1166.266628	-0.022238
1166.419852	-0.020784
1166.573058	-0.018291
1166.726245	-0.022596
1166.879414	-0.022548
1167.032565	-0.017854
1167.185698	-0.014552
1167.338812	-0.015064
1167.491909	-0.013516
1167.644987	-0.019978
1167.798046	-0.016682
1167.951088	-0.013985
1168.104111	-0.016172
1168.257117	-0.018890
1168.410103	-0.017475
1168.563072	-0.020288
1168.716023	-0.020030
1168.868955	-0.017608
1169.021869	-0.017484
1169.174765	-0.014823
1169.327642	-0.017778
1169.480501	-0.017237
1169.633343	-0.018709
1169.786165	-0.027319
1169.938970	-0.030142
1170.091757	-0.025537
1170.244525	-0.019361
1170.397275	-0.017700
1170.550007	-0.014028
1170.702720	-0.008142
1170.855415	-0.001225
1171.008092	0.001611
1171.160751	0.008511
1171.313392	0.008946
1171.466014	0.041984
1171.618619	-0.024483
1171.771205	-0.024483
1171.923772	-0.024483
