sample name	sample
index	988
start time	 04-14-2021  04:04:45 PM


Wavelength (nm)	Absorbance
494.344910	-0.378297
494.563924	-0.378297
494.782919	-0.378297
495.001897	0.564187
495.220856	0.123450
495.439797	NaN
495.658719	NaN
495.877624	NaN
496.096510	NaN
496.315378	NaN
496.534227	NaN
496.753059	0.243419
496.971872	0.538892
497.190667	0.016046
497.409444	0.003017
497.628203	0.000049
497.846943	-0.000573
498.065665	0.001139
498.284369	-0.000506
498.503055	-0.001676
498.721723	-0.000929
498.940372	-0.000153
499.159003	-0.000383
499.377616	-0.001580
499.596210	-0.001136
499.814787	-0.000682
500.033345	-0.001999
500.251885	-0.001663
500.470406	-0.000355
500.688910	-0.000288
500.907395	-0.001472
501.125862	-0.001091
501.344311	-0.000525
501.562742	-0.000733
501.781154	-0.001850
501.999548	-0.001358
502.217924	-0.002240
502.436282	-0.003263
502.654621	-0.003267
502.872942	-0.003181
503.091245	-0.003370
503.309530	-0.004027
503.527797	-0.003469
503.746045	-0.003535
503.964275	-0.003531
504.182487	-0.001998
504.400681	-0.001369
504.618856	-0.002166
504.837013	-0.001739
505.055152	-0.002648
505.273273	-0.001313
505.491376	-0.000724
505.709460	0.000414
505.927526	-0.000037
506.145574	-0.000337
506.363604	-0.000811
506.581615	0.000194
506.799608	-0.000238
507.017583	0.000440
507.235540	0.000551
507.453478	0.000048
507.671399	-0.000624
507.889301	0.000086
508.107185	-0.000153
508.325050	-0.001227
508.542898	-0.001993
508.760727	-0.001668
508.978538	-0.001482
509.196330	-0.002434
509.414105	-0.003852
509.631861	-0.003476
509.849599	-0.003179
510.067319	-0.003908
510.285021	-0.001978
510.502704	-0.001195
510.720369	-0.001117
510.938016	-0.001701
511.155645	-0.001798
511.373255	-0.000249
511.590848	-0.000482
511.808422	-0.000861
512.025977	-0.000008
512.243515	-0.001034
512.461034	-0.000967
512.678536	-0.001049
512.896018	-0.000863
513.113483	-0.000838
513.330930	-0.001422
513.548358	-0.001375
513.765768	-0.001236
513.983160	-0.001491
514.200533	-0.001409
514.417889	-0.001629
514.635226	-0.001431
514.852545	-0.001450
515.069845	-0.001932
515.287128	-0.001941
515.504392	-0.001845
515.721638	-0.003105
515.938866	-0.002993
516.156075	-0.003005
516.373267	-0.002917
516.590440	-0.003562
516.807594	-0.003276
517.024731	-0.002237
517.241850	-0.002098
517.458950	-0.002288
517.676032	-0.001399
517.893095	-0.001705
518.110141	-0.002150
518.327168	-0.002505
518.544177	-0.002405
518.761168	-0.002824
518.978141	-0.003353
519.195095	-0.003008
519.412031	-0.002678
519.628949	-0.002841
519.845849	-0.002590
520.062731	-0.001783
520.279594	-0.001335
520.496439	-0.001604
520.713266	-0.000859
520.930074	-0.000339
521.146865	-0.000491
521.363637	-0.000655
521.580391	-0.000229
521.797127	-0.000369
522.013844	-0.000945
522.230543	-0.000997
522.447224	0.000110
522.663887	-0.000353
522.880532	-0.000915
523.097158	-0.000813
523.313766	-0.000959
523.530356	-0.001446
523.746928	-0.001259
523.963481	-0.001034
524.180017	-0.001060
524.396534	-0.002235
524.613032	-0.002280
524.829513	-0.001988
525.045975	-0.002429
525.262420	-0.002179
525.478845	-0.001841
525.695253	-0.001775
525.911643	-0.001766
526.128014	-0.002156
526.344367	-0.001922
526.560702	-0.001620
526.777018	-0.001100
526.993316	-0.001461
527.209597	-0.001458
527.425858	-0.001738
527.642102	-0.001441
527.858328	-0.001696
528.074535	-0.001867
528.290724	-0.001195
528.506894	-0.001399
528.723047	-0.002169
528.939181	-0.001938
529.155297	-0.002384
529.371395	-0.001935
529.587475	-0.002813
529.803536	-0.003177
530.019579	-0.002789
530.235604	-0.002950
530.451611	-0.002859
530.667600	-0.002377
530.883570	-0.001939
531.099522	-0.001836
531.315456	-0.001983
531.531372	-0.001353
531.747269	-0.000304
531.963148	0.000114
532.179009	0.000261
532.394852	-0.000146
532.610676	-0.000218
532.826482	-0.000247
533.042271	0.000237
533.258040	0.000599
533.473792	0.000484
533.689525	0.000202
533.905240	-0.000357
534.120937	-0.000296
534.336616	-0.000010
534.552277	-0.000254
534.767919	-0.000041
534.983543	-0.000652
535.199149	-0.000808
535.414736	-0.000545
535.630306	-0.000801
535.845857	-0.000789
536.061390	-0.001225
536.276904	-0.001040
536.492401	-0.001218
536.707879	-0.002037
536.923339	-0.001403
537.138781	-0.001750
537.354204	-0.001637
537.569610	-0.001440
537.784997	-0.001032
538.000366	-0.000913
538.215716	-0.000866
538.431049	-0.000021
538.646363	0.000475
538.861659	0.000502
539.076937	0.000418
539.292196	0.000497
539.507438	0.000831
539.722661	0.000741
539.937866	0.001029
540.153052	0.001430
540.368221	0.000545
540.583371	0.000955
540.798503	0.001074
541.013617	0.001425
541.228712	0.001077
541.443789	0.000792
541.658848	0.000849
541.873889	0.000908
542.088912	0.000462
542.303916	0.000851
542.518902	0.000899
542.733870	0.000472
542.948820	0.000266
543.163752	0.000440
543.378665	0.000431
543.593560	0.000328
543.808437	0.000224
544.023295	0.000326
544.238136	0.000317
544.452958	0.000051
544.667762	0.000198
544.882548	0.000347
545.097315	0.000098
545.312064	0.000198
545.526795	0.000157
545.741508	0.000341
545.956203	0.000140
546.170879	0.000147
546.385537	0.000148
546.600177	0.000336
546.814799	0.000280
547.029402	0.000406
547.243988	0.000162
547.458555	0.000181
547.673103	0.000233
547.887634	0.000806
548.102146	0.001027
548.316640	0.000876
548.531116	0.000856
548.745574	0.001219
548.960013	0.001711
549.174435	0.001570
549.388838	0.001352
549.603222	0.001093
549.817589	0.001102
550.031937	0.001311
550.246267	0.001253
550.460579	0.001064
550.674873	0.000832
550.889148	0.000472
551.103405	0.001264
551.317644	0.001895
551.531865	0.002255
551.746068	0.002096
551.960252	0.001859
552.174418	0.002489
552.388566	0.002764
552.602696	0.002865
552.816807	0.003069
553.030900	0.003116
553.244975	0.002702
553.459032	0.002635
553.673070	0.002721
553.887091	0.002606
554.101093	0.001947
554.315077	0.001841
554.529042	0.001965
554.742990	0.001765
554.956919	0.001673
555.170830	0.002038
555.384722	0.001733
555.598597	0.001609
555.812453	0.001468
556.026291	0.001689
556.240111	0.001814
556.453913	0.001850
556.667696	0.001937
556.881461	0.001490
557.095208	0.001164
557.308937	0.001606
557.522647	0.001650
557.736339	0.002171
557.950013	0.002304
558.163669	0.002407
558.377307	0.002477
558.590926	0.002493
558.804527	0.002939
559.018110	0.002869
559.231675	0.002785
559.445221	0.002579
559.658749	0.002433
559.872259	0.002407
560.085751	0.002608
560.299225	0.002415
560.512680	0.002460
560.726117	0.002044
560.939536	0.002248
561.152937	0.002172
561.366319	0.002207
561.579683	0.002225
561.793029	0.002168
562.006357	0.002068
562.219667	0.002072
562.432958	0.002268
562.646231	0.002501
562.859486	0.002438
563.072723	0.002422
563.285941	0.002704
563.499141	0.002771
563.712323	0.002502
563.925487	0.002426
564.138632	0.002645
564.351760	0.002749
564.564869	0.002830
564.777960	0.003246
564.991032	0.003178
565.204087	0.003103
565.417123	0.003248
565.630141	0.003386
565.843140	0.003148
566.056122	0.003049
566.269085	0.002844
566.482030	0.002978
566.694957	0.002732
566.907866	0.002982
567.120756	0.003160
567.333628	0.003310
567.546482	0.003695
567.759318	0.003518
567.972135	0.003389
568.184935	0.003394
568.397716	0.003074
568.610478	0.003159
568.823223	0.002978
569.035949	0.002928
569.248657	0.002721
569.461347	0.002523
569.674019	0.002832
569.886672	0.003209
570.099308	0.003309
570.311925	0.003407
570.524523	0.003356
570.737104	0.003343
570.949666	0.003040
571.162210	0.002827
571.374736	0.003157
571.587244	0.003209
571.799733	0.002822
572.012205	0.002274
572.224658	0.002227
572.437092	0.001822
572.649509	0.002222
572.861907	0.002432
573.074287	0.002487
573.286649	0.002338
573.498993	0.002330
573.711318	0.002493
573.923625	0.002942
574.135914	0.002973
574.348185	0.003484
574.560438	0.003132
574.772672	0.002945
574.984888	0.003266
575.197086	0.003114
575.409266	0.003403
575.621427	0.003309
575.833570	0.003308
576.045695	0.003440
576.257802	0.003301
576.469890	0.003608
576.681961	0.003658
576.894013	0.003543
577.106046	0.003788
577.318062	0.003475
577.530059	0.003841
577.742039	0.004028
577.954000	0.004222
578.165942	0.004429
578.377867	0.004307
578.589773	0.004202
578.801661	0.003963
579.013531	0.003844
579.225382	0.003971
579.437216	0.003546
579.649031	0.003147
579.860828	0.002837
580.072606	0.002740
580.284367	0.002766
580.496109	0.002974
580.707833	0.003127
580.919539	0.003001
581.131227	0.003247
581.342896	0.003619
581.554547	0.004047
581.766180	0.004315
581.977795	0.004142
582.189391	0.004099
582.400969	0.004244
582.612529	0.004246
582.824071	0.004773
583.035595	0.004577
583.247100	0.004644
583.458587	0.004367
583.670056	0.004495
583.881506	0.004738
584.092939	0.004795
584.304353	0.004762
584.515749	0.004979
584.727127	0.004520
584.938486	0.004161
585.149828	0.004109
585.361151	0.004288
585.572456	0.004160
585.783742	0.004299
585.995011	0.004459
586.206261	0.004538
586.417493	0.004790
586.628706	0.005105
586.839902	0.005492
587.051079	0.005600
587.262238	0.005717
587.473379	0.005831
587.684502	0.005749
587.895606	0.005778
588.106692	0.005652
588.317760	0.005546
588.528810	0.005571
588.739841	0.005587
588.950855	0.005630
589.161850	0.005508
589.372827	0.005411
589.583785	0.005477
589.794726	0.005220
590.005648	0.005337
590.216552	0.005273
590.427437	0.005124
590.638305	0.004953
590.849154	0.004813
591.059985	0.004796
591.270798	0.004721
591.481592	0.004743
591.692369	0.004852
591.903127	0.005103
592.113867	0.005139
592.324588	0.005046
592.535292	0.005312
592.745977	0.005255
592.956644	0.005434
593.167293	0.005584
593.377923	0.005619
593.588536	0.005693
593.799130	0.005264
594.009706	0.005268
594.220263	0.005480
594.430803	0.005585
594.641324	0.005790
594.851827	0.005882
595.062312	0.006007
595.272778	0.005639
595.483227	0.005622
595.693657	0.006063
595.904069	0.005833
596.114462	0.005700
596.324838	0.005662
596.535195	0.005529
596.745534	0.005427
596.955855	0.005340
597.166157	0.005677
597.376441	0.005569
597.586707	0.005677
597.796955	0.006031
598.007185	0.006152
598.217396	0.006117
598.427589	0.006141
598.637764	0.006156
598.847921	0.006321
599.058060	0.006360
599.268180	0.006763
599.478282	0.006524
599.688366	0.006628
599.898431	0.006630
600.108479	0.006463
600.318508	0.006636
600.528519	0.006728
600.738511	0.006545
600.948486	0.006615
601.158442	0.006531
601.368380	0.006553
601.578300	0.006229
601.788202	0.006252
601.998085	0.006671
602.207950	0.006567
602.417797	0.006588
602.627626	0.006615
602.837436	0.006562
603.047228	0.006363
603.257002	0.006651
603.466758	0.006875
603.676496	0.007042
603.886215	0.006754
604.095916	0.006884
604.305599	0.006996
604.515264	0.007054
604.724910	0.007154
604.934538	0.007467
605.144148	0.007237
605.353740	0.007063
605.563314	0.006915
605.772869	0.006791
605.982406	0.006795
606.191925	0.006517
606.401425	0.006535
606.610908	0.006717
606.820372	0.006541
607.029818	0.006575
607.239246	0.006931
607.448655	0.006958
607.658047	0.007422
607.867420	0.007362
608.076775	0.007487
608.286111	0.007459
608.495430	0.007220
608.704730	0.007252
608.914012	0.007347
609.123275	0.007190
609.332521	0.007054
609.541748	0.006934
609.750957	0.007104
609.960148	0.007368
610.169321	0.007604
610.378475	0.007840
610.587611	0.007813
610.796729	0.007748
611.005829	0.007736
611.214910	0.007996
611.423974	0.007650
611.633019	0.007572
611.842045	0.007240
612.051054	0.007007
612.260044	0.006797
612.469017	0.006872
612.677970	0.006790
612.886906	0.006792
613.095824	0.006840
613.304723	0.007241
613.513604	0.007210
613.722467	0.007260
613.931311	0.007612
614.140138	0.007779
614.348946	0.007670
614.557736	0.007658
614.766507	0.007611
614.975261	0.007613
615.183996	0.007587
615.392713	0.007495
615.601412	0.007742
615.810092	0.007696
616.018754	0.007648
616.227399	0.007755
616.436024	0.007753
616.644632	0.008094
616.853222	0.008110
617.061793	0.008380
617.270346	0.008559
617.478880	0.008693
617.687397	0.008681
617.895895	0.008768
618.104375	0.008868
618.312837	0.009007
618.521281	0.008698
618.729706	0.008683
618.938113	0.008476
619.146502	0.008496
619.354873	0.008405
619.563226	0.008429
619.771560	0.008378
619.979876	0.008234
620.188174	0.008397
620.396453	0.008394
620.604715	0.008511
620.812958	0.008530
621.021183	0.008520
621.229390	0.008471
621.437578	0.008555
621.645748	0.008587
621.853900	0.008441
622.062034	0.008435
622.270150	0.008648
622.478247	0.008805
622.686326	0.008736
622.894387	0.008872
623.102430	0.008802
623.310454	0.008663
623.518461	0.008904
623.726449	0.009351
623.934418	0.009396
624.142370	0.009387
624.350303	0.009291
624.558218	0.009393
624.766115	0.009361
624.973994	0.009477
625.181855	0.009836
625.389697	0.009790
625.597521	0.009695
625.805327	0.009708
626.013114	0.009447
626.220883	0.009452
626.428634	0.009552
626.636367	0.009381
626.844082	0.009524
627.051778	0.009211
627.259457	0.008974
627.467117	0.008893
627.674758	0.008940
627.882382	0.009320
628.089987	0.009275
628.297574	0.009193
628.505143	0.009610
628.712694	0.009497
628.920226	0.009669
629.127740	0.009632
629.335236	0.009754
629.542714	0.009653
629.750174	0.009481
629.957615	0.009666
630.165038	0.009800
630.372443	0.009537
630.579829	0.009428
630.787198	0.009292
630.994548	0.009394
631.201880	0.009601
631.409194	0.009749
631.616489	0.009718
631.823766	0.009579
632.031025	0.009539
632.238266	0.009748
632.445489	0.009864
632.652693	0.010132
632.859879	0.010242
633.067047	0.010120
633.274197	0.010205
633.481329	0.010485
633.688442	0.010489
633.895537	0.010461
634.102614	0.010306
634.309672	0.010243
634.516713	0.009966
634.723735	0.009953
634.930739	0.009768
635.137724	0.009594
635.344692	0.009531
635.551641	0.009446
635.758572	0.009415
635.965485	0.009571
636.172379	0.009784
636.379256	0.010145
636.586114	0.010157
636.792954	0.010445
636.999775	0.010549
637.206579	0.010378
637.413364	0.010709
637.620131	0.010776
637.826880	0.010899
638.033610	0.010832
638.240323	0.010647
638.447017	0.010620
638.653692	0.010667
638.860350	0.010761
639.066990	0.011066
639.273611	0.010927
639.480214	0.011061
639.686798	0.010846
639.893365	0.010977
640.099913	0.010875
640.306443	0.010924
640.512955	0.010804
640.719449	0.010884
640.925924	0.010915
641.132381	0.010980
641.338820	0.010946
641.545241	0.011049
641.751644	0.011134
641.958028	0.011193
642.164394	0.011376
642.370742	0.011537
642.577071	0.011338
642.783383	0.011142
642.989676	0.011045
643.195951	0.010952
643.402207	0.010927
643.608446	0.010845
643.814666	0.010718
644.020868	0.010546
644.227052	0.010484
644.433218	0.010654
644.639365	0.010787
644.845494	0.010924
645.051605	0.011022
645.257698	0.010891
645.463772	0.010972
645.669828	0.011226
645.875866	0.011361
646.081886	0.011316
646.287888	0.011251
646.493871	0.011269
646.699836	0.011253
646.905783	0.011225
647.111712	0.011289
647.317622	0.011114
647.523514	0.011108
647.729388	0.011046
647.935244	0.011104
648.141082	0.011178
648.346901	0.010968
648.552702	0.011038
648.758485	0.011112
648.964250	0.011246
649.169996	0.011504
649.375724	0.011457
649.581434	0.011502
649.787126	0.011573
649.992800	0.011458
650.198455	0.011718
650.404092	0.011716
650.609711	0.011695
650.815311	0.011647
651.020894	0.011521
651.226458	0.011469
651.432004	0.011642
651.637532	0.011618
651.843041	0.011817
652.048532	0.011924
652.254006	0.012123
652.459460	0.012430
652.664897	0.012473
652.870315	0.012623
653.075716	0.013043
653.281097	0.013038
653.486461	0.013286
653.691807	0.013241
653.897134	0.013442
654.102443	0.013443
654.307734	0.013404
654.513006	0.013584
654.718261	0.013621
654.923497	0.013476
655.128715	0.013448
655.333915	0.013149
655.539096	0.013026
655.744259	0.012927
655.949404	0.012923
656.154531	0.013001
656.359640	0.012983
656.564730	0.012917
656.769802	0.013064
656.974856	0.013142
657.179892	0.013218
657.384909	0.013505
657.589908	0.013416
657.794889	0.013350
657.999852	0.013338
658.204797	0.013283
658.409723	0.013195
658.614631	0.012998
658.819521	0.013075
659.024393	0.013145
659.229246	0.013135
659.434081	0.013173
659.638898	0.013192
659.843697	0.013065
660.048478	0.013122
660.253240	0.013273
660.457984	0.013403
660.662710	0.013423
660.867417	0.013477
661.072107	0.013564
661.276778	0.013521
661.481431	0.013662
661.686066	0.013665
661.890682	0.013793
662.095281	0.013967
662.299861	0.013928
662.504422	0.013808
662.708966	0.013842
662.913491	0.013871
663.117999	0.014064
663.322488	0.014197
663.526958	0.014420
663.731411	0.014507
663.935845	0.014568
664.140261	0.014815
664.344659	0.014972
664.549038	0.015015
664.753400	0.014962
664.957743	0.014917
665.162068	0.014819
665.366375	0.014864
665.570663	0.014729
665.774933	0.014656
665.979185	0.014534
666.183419	0.014324
666.387635	0.014475
666.591832	0.014535
666.796011	0.014488
667.000172	0.014401
667.204315	0.014273
667.408439	0.014521
667.612545	0.014477
667.816634	0.014382
668.020703	0.014748
668.224755	0.014665
668.428788	0.014624
668.632803	0.014700
668.836800	0.014925
669.040779	0.015025
669.244739	0.014950
669.448681	0.014946
669.652605	0.015168
669.856511	0.015027
670.060399	0.015096
670.264268	0.015148
670.468119	0.015163
670.671952	0.015228
670.875767	0.015238
671.079563	0.015268
671.283341	0.015422
671.487101	0.015455
671.690843	0.015596
671.894567	0.015452
672.098272	0.015448
672.301959	0.015478
672.505628	0.015293
672.709278	0.015230
672.912911	0.015295
673.116525	0.015315
673.320121	0.015153
673.523699	0.015109
673.727258	0.015403
673.930799	0.015433
674.134322	0.015510
674.337827	0.015618
674.541314	0.015675
674.744782	0.015688
674.948232	0.015856
675.151664	0.016114
675.355078	0.016223
675.558474	0.016067
675.761851	0.016299
675.965210	0.016361
676.168551	0.016490
676.371873	0.016461
676.575178	0.016503
676.778464	0.016319
676.981732	0.016308
677.184981	0.016320
677.388213	0.016357
677.591426	0.016205
677.794621	0.016212
677.997798	0.016289
678.200956	0.016557
678.404097	0.016544
678.607219	0.016566
678.810323	0.016581
679.013408	0.016513
679.216476	0.016580
679.419525	0.016567
679.622556	0.016606
679.825569	0.016521
680.028563	0.016387
680.231540	0.016393
680.434498	0.016513
680.637438	0.016324
680.840359	0.016392
681.043263	0.016409
681.246148	0.016577
681.449015	0.016528
681.651864	0.016566
681.854694	0.016620
682.057506	0.016478
682.260301	0.016402
682.463076	0.016567
682.665834	0.016649
682.868573	0.016740
683.071295	0.016745
683.273998	0.016798
683.476682	0.016827
683.679349	0.016889
683.881997	0.017038
684.084627	0.017141
684.287239	0.017188
684.489833	0.017190
684.692408	0.017167
684.894965	0.017245
685.097504	0.017320
685.300025	0.017368
685.502527	0.017329
685.705012	0.017287
685.907478	0.017343
686.109925	0.017289
686.312355	0.017438
686.514766	0.017570
686.717159	0.017551
686.919534	0.017632
687.121891	0.017521
687.324230	0.017600
687.526550	0.017698
687.728852	0.017623
687.931136	0.017832
688.133401	0.017749
688.335649	0.017577
688.537878	0.017608
688.740089	0.017741
688.942281	0.017825
689.144456	0.017846
689.346612	0.017959
689.548750	0.018093
689.750870	0.018134
689.952971	0.018132
690.155055	0.018320
690.357120	0.018297
690.559167	0.018131
690.761195	0.018099
690.963206	0.018104
691.165198	0.018177
691.367172	0.018165
691.569128	0.018153
691.771065	0.018310
691.972984	0.018301
692.174885	0.018357
692.376768	0.018470
692.578633	0.018586
692.780479	0.018685
692.982308	0.018768
693.184118	0.018948
693.385909	0.018909
693.587683	0.018809
693.789438	0.018893
693.991175	0.018961
694.192894	0.018986
694.394595	0.019014
694.596277	0.019015
694.797941	0.018923
694.999587	0.018818
695.201215	0.018810
695.402824	0.018985
695.604416	0.019008
695.805989	0.018880
696.007543	0.018904
696.209080	0.018815
696.410598	0.018725
696.612099	0.018633
696.813580	0.018680
697.015044	0.018703
697.216490	0.018548
697.417917	0.018516
697.619326	0.018556
697.820717	0.018572
698.022089	0.018596
698.223444	0.018693
698.424780	0.018686
698.626098	0.018622
698.827397	0.018580
699.028679	0.018570
699.229942	0.018633
699.431187	0.018736
699.632414	0.018645
699.833622	0.018780
700.034813	0.018670
700.235985	0.018844
700.437139	0.018973
700.638274	0.018993
700.839392	0.019026
701.040491	0.018965
701.241572	0.018966
701.442635	0.019008
701.643679	0.019152
701.844706	0.019323
702.045714	0.019279
702.246704	0.019208
702.447675	0.019461
702.648629	0.019742
702.849564	0.019745
703.050481	0.019895
703.251380	0.020074
703.452260	0.019948
703.653122	0.020006
703.853966	0.020309
704.054792	0.020307
704.255600	0.020320
704.456389	0.020148
704.657160	0.020326
704.857913	0.020161
705.058648	0.020032
705.259365	0.020106
705.460063	0.019912
705.660743	0.019553
705.861405	0.019553
706.062048	0.019391
706.262674	0.019271
706.463281	0.019220
706.663870	0.019261
706.864441	0.019076
707.064993	0.018848
707.265527	0.018915
707.466043	0.019046
707.666541	0.019068
707.867021	0.019105
708.067482	0.019158
708.267925	0.019047
708.468350	0.019103
708.668757	0.019392
708.869145	0.019621
709.069516	0.019721
709.269868	0.019553
709.470201	0.019577
709.670517	0.019597
709.870814	0.019429
710.071093	0.019543
710.271354	0.019589
710.471597	0.019592
710.671821	0.019599
710.872028	0.019630
711.072216	0.019984
711.272385	0.019879
711.472537	0.019981
711.672670	0.020265
711.872785	0.020246
712.072882	0.020138
712.272961	0.020107
712.473021	0.019984
712.673063	0.019909
712.873087	0.019720
713.073093	0.019759
713.273081	0.019753
713.473050	0.019592
713.673001	0.019411
713.872934	0.019467
714.072849	0.019406
714.272745	0.019518
714.472623	0.019531
714.672483	0.019427
714.872325	0.019449
715.072148	0.019060
715.271954	0.018883
715.471741	0.019021
715.671509	0.019014
715.871260	0.019001
716.070992	0.018798
716.270707	0.018687
716.470403	0.018641
716.670080	0.018573
716.869740	0.018709
717.069381	0.018968
717.269004	0.018864
717.468609	0.018741
717.668195	0.018640
717.867764	0.018752
718.067314	0.018796
718.266846	0.018779
718.466360	0.018765
718.665855	0.018952
718.865332	0.018989
719.064791	0.018985
719.264232	0.018988
719.463655	0.019042
719.663059	0.018883
719.862445	0.018789
720.061813	0.018811
720.261163	0.018917
720.460494	0.018822
720.659807	0.018745
720.859102	0.018773
721.058379	0.018872
721.257638	0.018680
721.456878	0.018706
721.656100	0.018569
721.855304	0.018631
722.054490	0.018441
722.253657	0.018336
722.452806	0.018307
722.651937	0.018320
722.851050	0.018134
723.050145	0.018179
723.249221	0.017986
723.448279	0.018174
723.647319	0.018036
723.846340	0.018125
724.045344	0.018065
724.244329	0.018034
724.443296	0.017998
724.642245	0.018019
724.841175	0.018109
725.040088	0.018339
725.238982	0.018083
725.437857	0.018049
725.636715	0.017857
725.835554	0.017951
726.034376	0.017929
726.233179	0.017608
726.431963	0.017588
726.630730	0.017477
726.829478	0.017467
727.028208	0.017620
727.226920	0.017704
727.425614	0.017838
727.624289	0.017756
727.822946	0.017644
728.021585	0.017922
728.220206	0.017871
728.418808	0.017993
728.617392	0.017836
728.815958	0.017916
729.014506	0.018051
729.213036	0.018065
729.411547	0.017949
729.610040	0.017972
729.808515	0.017940
730.006972	0.017915
730.205410	0.017818
730.403831	0.017975
730.602233	0.017982
730.800616	0.017809
730.998982	0.017655
731.197329	0.017764
731.395658	0.017586
731.593969	0.017597
731.792262	0.017655
731.990536	0.017522
732.188793	0.017493
732.387031	0.017309
732.585250	0.017259
732.783452	0.017398
732.981635	0.017350
733.179800	0.017438
733.377947	0.017243
733.576076	0.017134
733.774186	0.017000
733.972278	0.016955
734.170352	0.016926
734.368408	0.016676
734.566446	0.016515
734.764465	0.016423
734.962466	0.016543
735.160449	0.016454
735.358413	0.016350
735.556360	0.016474
735.754288	0.016326
735.952198	0.016384
736.150090	0.016615
736.347963	0.016594
736.545818	0.016655
736.743655	0.016398
736.941474	0.016435
737.139275	0.016436
737.337057	0.016357
737.534821	0.016277
737.732567	0.016091
737.930295	0.015937
738.128005	0.015865
738.325696	0.015709
738.523369	0.015656
738.721024	0.015637
738.918660	0.015485
739.116279	0.015466
739.313879	0.015484
739.511461	0.015540
739.709024	0.015446
739.906570	0.015414
740.104097	0.015437
740.301606	0.015489
740.499097	0.015486
740.696569	0.015584
740.894024	0.015487
741.091460	0.015579
741.288878	0.015679
741.486277	0.015848
741.683659	0.015823
741.881022	0.015925
742.078367	0.015975
742.275694	0.016081
742.473002	0.016088
742.670293	0.016108
742.867565	0.016064
743.064819	0.015690
743.262054	0.015597
743.459272	0.015583
743.656471	0.015441
743.853652	0.015522
744.050815	0.015275
744.247959	0.015293
744.445085	0.015422
744.642194	0.015309
744.839283	0.015495
745.036355	0.015569
745.233408	0.015631
745.430444	0.015461
745.627461	0.015271
745.824459	0.015309
746.021440	0.015178
746.218402	0.014880
746.415346	0.014741
746.612272	0.014597
746.809180	0.014455
747.006069	0.014214
747.202940	0.014264
747.399793	0.014271
747.596628	0.014227
747.793444	0.014185
747.990243	0.014184
748.187023	0.014217
748.383784	0.014393
748.580528	0.014269
748.777253	0.014467
748.973960	0.014462
749.170649	0.014329
749.367320	0.014346
749.563973	0.014490
749.760607	0.014570
749.957223	0.014515
750.153821	0.014467
750.350400	0.014466
750.546962	0.014457
750.743505	0.014403
750.940030	0.014411
751.136536	0.014470
751.333025	0.014420
751.529495	0.014420
751.725947	0.014484
751.922381	0.014563
752.118796	0.014789
752.315194	0.014802
752.511573	0.014931
752.707934	0.015011
752.904276	0.014968
753.100601	0.014958
753.296907	0.015093
753.493195	0.015041
753.689465	0.015005
753.885716	0.014874
754.081949	0.014782
754.278164	0.014692
754.474361	0.014716
754.670540	0.014782
754.866700	0.014754
755.062843	0.014749
755.258967	0.014707
755.455072	0.014522
755.651160	0.014271
755.847229	0.014250
756.043280	0.014282
756.239313	0.014204
756.435328	0.014024
756.631324	0.013831
756.827302	0.013677
757.023262	0.013644
757.219204	0.013576
757.415127	0.013801
757.611033	0.013732
757.806920	0.013697
758.002788	0.013668
758.198639	0.013639
758.394471	0.013725
758.590286	0.013476
758.786081	0.013430
758.981859	0.013568
759.177619	0.013522
759.373360	0.013411
759.569083	0.013287
759.764788	0.013038
759.960474	0.013070
760.156143	0.013074
760.351793	0.013369
760.547425	0.013231
760.743038	0.013183
760.938634	0.013170
761.134211	0.013419
761.329770	0.013534
761.525311	0.013750
761.720833	0.013780
761.916338	0.013739
762.111824	0.013598
762.307292	0.013902
762.502741	0.013841
762.698173	0.013862
762.893586	0.013725
763.088981	0.013659
763.284358	0.013640
763.479716	0.013573
763.675057	0.013501
763.870379	0.013479
764.065683	0.013378
764.260968	0.013483
764.456236	0.013565
764.651485	0.013686
764.846716	0.013586
765.041929	0.013576
765.237123	0.013793
765.432299	0.014074
765.627457	0.014119
765.822597	0.014104
766.017719	0.013980
766.212822	0.013939
766.407907	0.013869
766.602974	0.013866
766.798023	0.013895
766.993054	0.013776
767.188066	0.013672
767.383060	0.013669
767.578036	0.013743
767.772993	0.013725
767.967933	0.013577
768.162854	0.013513
768.357757	0.013532
768.552642	0.013542
768.747508	0.013499
768.942356	0.013203
769.137186	0.013170
769.331998	0.013031
769.526792	0.012882
769.721567	0.012878
769.916324	0.012859
770.111063	0.012923
770.305784	0.012691
770.500486	0.012643
770.695171	0.012840
770.889837	0.012878
771.084484	0.013081
771.279114	0.013279
771.473725	0.013256
771.668318	0.013319
771.862893	0.013288
772.057450	0.013518
772.251988	0.013598
772.446509	0.013794
772.641011	0.013790
772.835494	0.013662
773.029960	0.013905
773.224407	0.013870
773.418836	0.013718
773.613247	0.013827
773.807640	0.013854
774.002014	0.013766
774.196370	0.013666
774.390708	0.013714
774.585028	0.013816
774.779330	0.013746
774.973613	0.014028
775.167878	0.014189
775.362125	0.014100
775.556354	0.014169
775.750564	0.014155
775.944756	0.014018
776.138930	0.014044
776.333086	0.013960
776.527223	0.014114
776.721343	0.013965
776.915444	0.014004
777.109526	0.014010
777.303591	0.014027
777.497637	0.014020
777.691666	0.014079
777.885676	0.014103
778.079667	0.013965
778.273641	0.013646
778.467596	0.013649
778.661533	0.013630
778.855452	0.013710
779.049352	0.013437
779.243235	0.013592
779.437099	0.013539
779.630945	0.013646
779.824773	0.013630
780.018582	0.013743
780.212373	0.013913
780.406146	0.014145
780.599901	0.014254
780.793638	0.014449
780.987356	0.014415
781.181056	0.014499
781.374738	0.014387
781.568402	0.014512
781.762047	0.014501
781.955674	0.014332
782.149283	0.014004
782.342874	0.013945
782.536447	0.014001
782.730001	0.014164
782.923537	0.014297
783.117055	0.014364
783.310555	0.014406
783.504036	0.014297
783.697499	0.014404
783.890944	0.014470
784.084371	0.014371
784.277780	0.014246
784.471170	0.014031
784.664542	0.014023
784.857896	0.014049
785.051231	0.014091
785.244549	0.014299
785.437848	0.014032
785.631129	0.014040
785.824392	0.014231
786.017636	0.014368
786.210863	0.014268
786.404071	0.014118
786.597260	0.014121
786.790432	0.014053
786.983585	0.013920
787.176721	0.014160
787.369838	0.014197
787.562936	0.014016
787.756017	0.014000
787.949079	0.014202
788.142123	0.014337
788.335149	0.014291
788.528156	0.014279
788.721146	0.014356
788.914117	0.014228
789.107070	0.014372
789.300005	0.014615
789.492921	0.014554
789.685819	0.014535
789.878699	0.014472
790.071561	0.014626
790.264405	0.014755
790.457230	0.014781
790.650037	0.015005
790.842826	0.014970
791.035597	0.014994
791.228349	0.015121
791.421084	0.015344
791.613800	0.015316
791.806497	0.015393
791.999177	0.015488
792.191838	0.015511
792.384481	0.015551
792.577106	0.015444
792.769713	0.015547
792.962301	0.015504
793.154871	0.015381
793.347423	0.015555
793.539957	0.015400
793.732473	0.015456
793.924970	0.015497
794.117449	0.015415
794.309910	0.015658
794.502353	0.015421
794.694777	0.015565
794.887183	0.015663
795.079571	0.015755
795.271941	0.015771
795.464293	0.015817
795.656626	0.015786
795.848941	0.015868
796.041238	0.015707
796.233516	0.015941
796.425777	0.015865
796.618019	0.015930
796.810243	0.015905
797.002449	0.016006
797.194636	0.016083
797.386805	0.016213
797.578956	0.016256
797.771089	0.016402
797.963204	0.016302
798.155300	0.016493
798.347378	0.016371
798.539438	0.016530
798.731480	0.016555
798.923503	0.016563
799.115509	0.016493
799.307496	0.016587
799.499465	0.016822
799.691415	0.016983
799.883348	0.016850
800.075262	0.017028
800.267158	0.016949
800.459035	0.017015
800.650895	0.017022
800.842736	0.017236
801.034559	0.017296
801.226364	0.017030
801.418150	0.017054
801.609919	0.017218
801.801669	0.017290
801.993401	0.017278
802.185114	0.017251
802.376810	0.017430
802.568487	0.017370
802.760146	0.017293
802.951787	0.017410
803.143409	0.017454
803.335014	0.017548
803.526600	0.017448
803.718168	0.017495
803.909717	0.017647
804.101249	0.017632
804.292762	0.017821
804.484257	0.017943
804.675734	0.017979
804.867192	0.017801
805.058632	0.017663
805.250054	0.017744
805.441458	0.017780
805.632844	0.017676
805.824211	0.017615
806.015561	0.017571
806.206891	0.017727
806.398204	0.017751
806.589499	0.018023
806.780775	0.018036
806.972033	0.018108
807.163273	0.018300
807.354495	0.018416
807.545698	0.018716
807.736883	0.018851
807.928050	0.018662
808.119199	0.018813
808.310329	0.018990
808.501441	0.019244
808.692535	0.019378
808.883611	0.019300
809.074669	0.019343
809.265708	0.019263
809.456729	0.019341
809.647732	0.019474
809.838717	0.019520
810.029683	0.019515
810.220632	0.019513
810.411562	0.019530
810.602474	0.019626
810.793367	0.019736
810.984242	0.019693
811.175100	0.019511
811.365938	0.019495
811.556759	0.019429
811.747562	0.019282
811.938346	0.019401
812.129112	0.019401
812.319860	0.019296
812.510589	0.019385
812.701300	0.019499
812.891994	0.019751
813.082668	0.019890
813.273325	0.020018
813.463964	0.020119
813.654584	0.019865
813.845186	0.019920
814.035769	0.019992
814.226335	0.020080
814.416882	0.019854
814.607411	0.019887
814.797922	0.019884
814.988415	0.019958
815.178889	0.019949
815.369345	0.020205
815.559783	0.020157
815.750203	0.020244
815.940605	0.020133
816.130988	0.020215
816.321353	0.019862
816.511700	0.019776
816.702028	0.019858
816.892339	0.019774
817.082631	0.019895
817.272905	0.020152
817.463161	0.020260
817.653398	0.020506
817.843617	0.020606
818.033819	0.020876
818.224001	0.021056
818.414166	0.021171
818.604312	0.021462
818.794440	0.021438
818.984550	0.021249
819.174642	0.021355
819.364716	0.021350
819.554771	0.021447
819.744808	0.021729
819.934827	0.022088
820.124827	0.022106
820.314810	0.022011
820.504774	0.022199
820.694720	0.022411
820.884647	0.022542
821.074557	0.022449
821.264448	0.022687
821.454321	0.022808
821.644176	0.022854
821.834012	0.022878
822.023831	0.023183
822.213631	0.023140
822.403413	0.023365
822.593176	0.023588
822.782922	0.023853
822.972649	0.023951
823.162358	0.023677
823.352049	0.023676
823.541721	0.023797
823.731376	0.023925
823.921012	0.023964
824.110629	0.023987
824.300229	0.023909
824.489811	0.024002
824.679374	0.023956
824.868919	0.024199
825.058445	0.024071
825.247954	0.024072
825.437444	0.024133
825.626916	0.024345
825.816370	0.024608
826.005806	0.024762
826.195223	0.024784
826.384622	0.024754
826.574003	0.024704
826.763366	0.025035
826.952711	0.025049
827.142037	0.024947
827.331345	0.025043
827.520635	0.024790
827.709906	0.024853
827.899160	0.025034
828.088395	0.025295
828.277612	0.025519
828.466810	0.025143
828.655991	0.025303
828.845153	0.025162
829.034297	0.024917
829.223423	0.025142
829.412531	0.024938
829.601620	0.024970
829.790691	0.024747
829.979744	0.024380
830.168779	0.024470
830.357795	0.024771
830.546793	0.025171
830.735773	0.025503
830.924735	0.025283
831.113679	0.025631
831.302604	0.025603
831.491511	0.025847
831.680400	0.026225
831.869271	0.026337
832.058123	0.026244
832.246957	0.026104
832.435773	0.025985
832.624571	0.026047
832.813351	0.025950
833.002112	0.026067
833.190855	0.025950
833.379580	0.026211
833.568287	0.026288
833.756975	0.026283
833.945645	0.026476
834.134297	0.026624
834.322931	0.026753
834.511547	0.027019
834.700144	0.026823
834.888723	0.026995
835.077284	0.027039
835.265826	0.027350
835.454351	0.027282
835.642857	0.027235
835.831345	0.027134
836.019815	0.027342
836.208266	0.027398
836.396699	0.027534
836.585114	0.027691
836.773511	0.027649
836.961890	0.027537
837.150250	0.027675
837.338592	0.027908
837.526916	0.028069
837.715222	0.028071
837.903510	0.027893
838.091779	0.028228
838.280030	0.028443
838.468263	0.028472
838.656477	0.028655
838.844674	0.028638
839.032852	0.028619
839.221012	0.028705
839.409153	0.028860
839.597277	0.028884
839.785382	0.028698
839.973469	0.028683
840.161538	0.028813
840.349589	0.028940
840.537621	0.029137
840.725635	0.029006
840.913631	0.029137
841.101609	0.029337
841.289568	0.029567
841.477509	0.029885
841.665432	0.029795
841.853337	0.030021
842.041224	0.030201
842.229092	0.030248
842.416942	0.030336
842.604774	0.030531
842.792588	0.030503
842.980383	0.030487
843.168160	0.030593
843.355919	0.030840
843.543660	0.030978
843.731382	0.030970
843.919087	0.030857
844.106773	0.031055
844.294441	0.030978
844.482090	0.031081
844.669722	0.031048
844.857335	0.030937
845.044930	0.031107
845.232507	0.031253
845.420065	0.031348
845.607605	0.031839
845.795127	0.032214
845.982631	0.032543
846.170117	0.032460
846.357584	0.032498
846.545033	0.032399
846.732464	0.032238
846.919877	0.032073
847.107272	0.032193
847.294648	0.032143
847.482006	0.031935
847.669346	0.031908
847.856667	0.032070
848.043971	0.032403
848.231256	0.032452
848.418523	0.032631
848.605771	0.032575
848.793002	0.032510
848.980214	0.032582
849.167408	0.032802
849.354584	0.032991
849.541742	0.033005
849.728881	0.033219
849.916002	0.033583
850.103105	0.033640
850.290190	0.033948
850.477256	0.034320
850.664304	0.034510
850.851334	0.034777
851.038346	0.034797
851.225340	0.035025
851.412315	0.034732
851.599272	0.035027
851.786211	0.035144
851.973132	0.035413
852.160034	0.035567
852.346918	0.035565
852.533784	0.035395
852.720632	0.035375
852.907462	0.035285
853.094273	0.035756
853.281066	0.035579
853.467841	0.035664
853.654598	0.035836
853.841336	0.035806
854.028056	0.036033
854.214758	0.036516
854.401442	0.036775
854.588107	0.037019
854.774755	0.036975
854.961384	0.037151
855.147995	0.037398
855.334587	0.037348
855.521162	0.037332
855.707718	0.037478
855.894256	0.037242
856.080775	0.037334
856.267277	0.037264
856.453760	0.037311
856.640225	0.037217
856.826672	0.037434
857.013101	0.037555
857.199511	0.037645
857.385903	0.037585
857.572277	0.037819
857.758633	0.038018
857.944970	0.038376
858.131290	0.038584
858.317591	0.038850
858.503873	0.038772
858.690138	0.038488
858.876384	0.038549
859.062612	0.038458
859.248822	0.038405
859.435014	0.038397
859.621188	0.038422
859.807343	0.038840
859.993480	0.039131
860.179599	0.039162
860.365699	0.039518
860.551781	0.039680
860.737846	0.040021
860.923891	0.040421
861.109919	0.040419
861.295929	0.040355
861.481920	0.039999
861.667893	0.039933
861.853848	0.040045
862.039784	0.040136
862.225702	0.039951
862.411603	0.039822
862.597484	0.039721
862.783348	0.039666
862.969193	0.039705
863.155021	0.039955
863.340830	0.039876
863.526620	0.039945
863.712393	0.039981
863.898147	0.040046
864.083883	0.040220
864.269601	0.040324
864.455301	0.040433
864.640982	0.040839
864.826645	0.041023
865.012290	0.041134
865.197917	0.041229
865.383526	0.041179
865.569116	0.041511
865.754688	0.041473
865.940242	0.041459
866.125777	0.041838
866.311295	0.041848
866.496794	0.041702
866.682275	0.041975
866.867737	0.042259
867.053182	0.042533
867.238608	0.042705
867.424016	0.042806
867.609406	0.042739
867.794778	0.042855
867.980131	0.042864
868.165466	0.043159
868.350783	0.043265
868.536082	0.043138
868.721362	0.043163
868.906625	0.043177
869.091869	0.043319
869.277094	0.043152
869.462302	0.042879
869.647491	0.043121
869.832662	0.042926
870.017815	0.042849
870.202950	0.043032
870.388066	0.043124
870.573165	0.043062
870.758245	0.043066
870.943306	0.043730
871.128350	0.044061
871.313375	0.043990
871.498382	0.044259
871.683371	0.044479
871.868342	0.044359
872.053294	0.044269
872.238229	0.044693
872.423144	0.044772
872.608042	0.044854
872.792922	0.044974
872.977783	0.045320
873.162626	0.045250
873.347451	0.045202
873.532258	0.045460
873.717046	0.045535
873.901816	0.045411
874.086568	0.045888
874.271302	0.045703
874.456017	0.045557
874.640715	0.045399
874.825394	0.045703
875.010055	0.045777
875.194697	0.045788
875.379322	0.045973
875.563928	0.046127
875.748516	0.045852
875.933085	0.045835
876.117637	0.045817
876.302170	0.045644
876.486685	0.045311
876.671182	0.045307
876.855661	0.045064
877.040121	0.045068
877.224563	0.044750
877.408987	0.044572
877.593393	0.044689
877.777780	0.044948
877.962150	0.044848
878.146501	0.044728
878.330833	0.044793
878.515148	0.045201
878.699444	0.045170
878.883722	0.045548
879.067982	0.045787
879.252224	0.045921
879.436447	0.045742
879.620653	0.046123
879.804840	0.046591
879.989008	0.046607
880.173159	0.046269
880.357291	0.046613
880.541405	0.046522
880.725501	0.046504
880.909579	0.046475
881.093638	0.046766
881.277680	0.046687
881.461703	0.046657
881.645707	0.046890
881.829694	0.047354
882.013662	0.047060
882.197612	0.046960
882.381544	0.047088
882.565458	0.047115
882.749353	0.046898
882.933230	0.047278
883.117089	0.047166
883.300930	0.047271
883.484753	0.046876
883.668557	0.047081
883.852343	0.047473
884.036111	0.047497
884.219861	0.047679
884.403592	0.047805
884.587305	0.047275
884.771000	0.047433
884.954677	0.047255
885.138335	0.047799
885.321976	0.047933
885.505598	0.047779
885.689201	0.047738
885.872787	0.047662
886.056354	0.047881
886.239904	0.048113
886.423434	0.048163
886.606947	0.048172
886.790442	0.047694
886.973918	0.047689
887.157376	0.047618
887.340816	0.047702
887.524237	0.047133
887.707641	0.047015
887.891026	0.047074
888.074393	0.047043
888.257741	0.046940
888.441072	0.047162
888.624384	0.047136
888.807678	0.047044
888.990954	0.046860
889.174211	0.047347
889.357451	0.047404
889.540672	0.047323
889.723875	0.047239
889.907059	0.047242
890.090226	0.047079
890.273374	0.046909
890.456504	0.047231
890.639616	0.047555
890.822709	0.047595
891.005785	0.047505
891.188842	0.047784
891.371881	0.047513
891.554901	0.047321
891.737904	0.047248
891.920888	0.047219
892.103854	0.046867
892.286802	0.047217
892.469731	0.046884
892.652643	0.046967
892.835536	0.046693
893.018410	0.046995
893.201267	0.047473
893.384106	0.047798
893.566926	0.047709
893.749728	0.047716
893.932511	0.047130
894.115277	0.047169
894.298024	0.046986
894.480753	0.047133
894.663464	0.047294
894.846157	0.046917
895.028831	0.046723
895.211487	0.046904
895.394125	0.046830
895.576745	0.046965
895.759346	0.047475
895.941930	0.047414
896.124495	0.047221
896.307041	0.047072
896.489570	0.047233
896.672080	0.047317
896.854573	0.047434
897.037046	0.047569
897.219502	0.047519
897.401940	0.047187
897.584359	0.047101
897.766760	0.047144
897.949143	0.047290
898.131507	0.046947
898.313854	0.046910
898.496182	0.046739
898.678492	0.046809
898.860783	0.046727
899.043057	0.046674
899.225312	0.046940
899.407549	0.046710
899.589768	0.046189
899.771968	0.046110
899.954151	0.046000
900.136315	0.045535
900.318461	0.045323
900.500588	0.045212
900.682698	0.045173
900.864789	0.044825
901.046862	0.044602
901.228917	0.044617
901.410953	0.044716
901.592971	0.044607
901.774972	0.044817
901.956953	0.044894
902.138917	0.044576
902.320862	0.044417
902.502790	0.044374
902.684699	0.044921
902.866589	0.045064
903.048462	0.045054
903.230316	0.045330
903.412152	0.045349
903.593970	0.045440
903.775770	0.045759
903.957551	0.045867
904.139314	0.046396
904.321059	0.045947
904.502786	0.045769
904.684494	0.045610
904.866185	0.045339
905.047857	0.045521
905.229510	0.045320
905.411146	0.045017
905.592763	0.044925
905.774363	0.044570
905.955943	0.044870
906.137506	0.045079
906.319051	0.045645
906.500577	0.045735
906.682085	0.045351
906.863575	0.045254
907.045046	0.045131
907.226500	0.045111
907.407935	0.044787
907.589352	0.044345
907.770750	0.044387
907.952131	0.043481
908.133493	0.043374
908.314837	0.043427
908.496163	0.043452
908.677470	0.043930
908.858760	0.043763
909.040031	0.043910
909.221284	0.043838
909.402518	0.043517
909.583735	0.043979
909.764933	0.043767
909.946113	0.043503
910.127275	0.043617
910.308418	0.043251
910.489544	0.043027
910.670651	0.042579
910.851740	0.042608
911.032810	0.042813
911.213863	0.042565
911.394897	0.042655
911.575913	0.042444
911.756911	0.042411
911.937890	0.042334
912.118851	0.042374
912.299794	0.042522
912.480719	0.042583
912.661626	0.041794
912.842514	0.041709
913.023384	0.041576
913.204236	0.041585
913.385070	0.041222
913.565886	0.041019
913.746683	0.040647
913.927462	0.040216
914.108223	0.040276
914.288965	0.040453
914.469690	0.040255
914.650396	0.039946
914.831084	0.039812
915.011754	0.039112
915.192405	0.039014
915.373038	0.039201
915.553653	0.039308
915.734250	0.038383
915.914829	0.038284
916.095389	0.037475
916.275931	0.037321
916.456455	0.036941
916.636961	0.037052
916.817448	0.036709
916.997917	0.036339
917.178368	0.036235
917.358801	0.036538
917.539216	0.036040
917.719612	0.036473
917.899990	0.036149
918.080350	0.036146
918.260692	0.036013
918.441015	0.036040
918.621320	0.035972
918.801607	0.035923
918.981876	0.035787
919.162127	0.035991
919.342359	0.035854
919.522573	0.035519
919.702769	0.035226
919.882947	0.034939
920.063106	0.034780
920.243247	0.034730
920.423370	0.034697
920.603475	0.034467
920.783562	0.034340
920.963630	0.034393
921.143680	0.034405
921.323712	0.034490
921.503725	0.034502
921.683721	0.034259
921.863698	0.033839
922.043657	0.033769
922.223598	0.033663
922.403520	0.033075
922.583424	0.032206
922.763311	0.031925
922.943178	0.032074
923.123028	0.032059
923.302859	0.032118
923.482673	0.032290
923.662467	0.031309
923.842244	0.030810
924.022003	0.031023
924.201743	0.031594
924.381465	0.031497
924.561169	0.031255
924.740854	0.031046
924.920522	0.030698
925.100171	0.030550
925.279802	0.030790
925.459414	0.030886
925.639009	0.030557
925.818585	0.030271
925.998143	0.030347
926.177683	0.029954
926.357205	0.029481
926.536708	0.029089
926.716193	0.028629
926.895660	0.028418
927.075109	0.028419
927.254539	0.028582
927.433951	0.028204
927.613345	0.027989
927.792721	0.027442
927.972079	0.027672
928.151418	0.027347
928.330739	0.026977
928.510042	0.026634
928.689327	0.026136
928.868593	0.025709
929.047841	0.025404
929.227071	0.025101
929.406283	0.024988
929.585476	0.024256
929.764652	0.024336
929.943809	0.024327
930.122948	0.024375
930.302068	0.023966
930.481171	0.023447
930.660255	0.023500
930.839321	0.023613
931.018369	0.024216
931.197398	0.023815
931.376409	0.023444
931.555402	0.023278
931.734377	0.022067
931.913334	0.022112
932.092272	0.022154
932.271192	0.022432
932.450094	0.022033
932.628978	0.020740
932.807844	0.020659
932.986691	0.020318
933.165520	0.020181
933.344331	0.020193
933.523123	0.019871
933.701898	0.019705
933.880654	0.018197
934.059392	0.017378
934.238111	0.017925
934.416813	0.018125
934.595496	0.017462
934.774161	0.016520
934.952808	0.016694
935.131437	0.016271
935.310047	0.016289
935.488639	0.016403
935.667213	0.016628
935.845769	0.016207
936.024306	0.015008
936.202825	0.015259
936.381326	0.014753
936.559809	0.014917
936.738274	0.014400
936.916720	0.013975
937.095148	0.013470
937.273558	0.013101
937.451950	0.012704
937.630323	0.013432
937.808678	0.013131
937.987015	0.013278
938.165334	0.013059
938.343635	0.012485
938.521917	0.011977
938.700181	0.012614
938.878427	0.012210
939.056655	0.011281
939.234864	0.010579
939.413055	0.010739
939.591228	0.011353
939.769383	0.010646
939.947519	0.011527
940.125638	0.011109
940.303738	0.010437
940.481820	0.010024
940.659883	0.010571
940.837929	0.010422
941.015956	0.009742
941.193965	0.008670
941.371955	0.008348
941.549928	0.007470
941.727882	0.007096
941.905818	0.006467
942.083736	0.006453
942.261636	0.005218
942.439517	0.005299
942.617380	0.004951
942.795225	0.005161
942.973052	0.005401
943.150860	0.005025
943.328651	0.005150
943.506423	0.005912
943.684176	0.006169
943.861912	0.006798
944.039629	0.006907
944.217328	0.007009
944.395009	0.006281
944.572672	0.005410
944.750317	0.005389
944.927943	0.004859
945.105551	0.004423
945.283141	0.004195
945.460712	0.004279
945.638265	0.003108
945.815801	0.003068
945.993317	0.001549
946.170816	0.001903
946.348297	0.000754
946.525759	0.000883
946.703203	0.000714
946.880629	-0.000591
947.058036	-0.000710
947.235425	-0.000848
947.412797	-0.001629
947.590149	0.001443
947.767484	0.000864
947.944800	0.001093
948.122099	0.000702
948.299379	0.000529
948.476640	0.000544
948.653884	0.000156
948.831109	-0.000275
949.008316	0.000720
949.185505	-0.000843
949.362676	-0.001293
949.539828	-0.000580
949.716962	-0.001682
949.894078	-0.003322
950.071176	-0.003571
950.248256	-0.004632
950.425317	-0.004618
950.602360	-0.005483
950.779385	-0.003894
950.956391	-0.003443
951.133380	-0.004307
951.310350	-0.003547
951.487302	-0.002859
951.664235	-0.003551
951.841151	-0.003660
952.018048	-0.003563
952.194927	-0.003803
952.371788	-0.005959
952.548631	-0.006732
952.725455	-0.006593
952.902261	-0.005803
953.079049	-0.006150
953.255819	-0.005798
953.432570	-0.005543
953.609303	-0.005554
953.786018	-0.005457
953.962715	-0.006607
954.139394	-0.006652
954.316054	-0.006523
954.492696	-0.007288
954.669320	-0.007452
954.845926	-0.006353
955.022513	-0.006295
955.199083	-0.006935
955.375634	-0.008392
955.552166	-0.006894
955.728681	-0.007920
955.905177	-0.007735
956.081655	-0.008627
956.258115	-0.008707
956.434557	-0.010724
956.610980	-0.010964
956.787385	-0.009426
956.963772	-0.008602
957.140141	-0.009574
957.316492	-0.007394
957.492824	-0.007444
957.669138	-0.005790
957.845434	-0.004516
958.021712	-0.004202
958.197971	-0.004130
958.374212	-0.006316
958.550435	-0.006942
958.726640	-0.006464
958.902826	-0.006914
959.078995	-0.007565
959.255145	-0.008539
959.431277	-0.006730
959.607390	-0.004703
959.783486	-0.004670
959.959563	-0.003618
960.135622	-0.003190
960.311662	-0.002778
960.487685	-0.004318
960.663689	-0.002574
960.839675	-0.001224
961.015643	-0.003744
961.191593	-0.005818
961.367524	-0.004813
961.543437	-0.004363
961.719332	-0.003743
961.895209	-0.004061
962.071067	-0.002939
962.246907	-0.004289
962.422730	-0.004945
962.598533	-0.003437
962.774319	-0.001218
962.950086	-0.002300
963.125835	-0.001635
963.301566	-0.002145
963.477279	-0.000679
963.652973	-0.000283
963.828650	-0.001102
964.004308	-0.002101
964.179947	-0.003760
964.355569	-0.004474
964.531172	-0.003917
964.706757	-0.004764
964.882324	-0.004027
965.057873	-0.004427
965.233403	-0.005475
965.408916	-0.002319
965.584410	-0.003149
965.759885	-0.001663
965.935343	-0.001291
966.110782	-0.002212
966.286203	-0.002755
966.461606	-0.002461
966.636991	-0.003469
966.812357	-0.003347
966.987705	-0.006560
967.163035	-0.005169
967.338347	-0.007955
967.513641	-0.009796
967.688916	-0.009738
967.864173	-0.009140
968.039412	-0.009785
968.214632	-0.009496
968.389835	-0.009582
968.565019	-0.007000
968.740185	-0.007867
968.915333	-0.007041
969.090462	-0.005910
969.265573	-0.005832
969.440667	-0.005437
969.615741	-0.005266
969.790798	-0.004664
969.965836	-0.003021
970.140856	-0.004360
970.315858	-0.002233
970.490842	-0.001560
970.665808	-0.000804
970.840755	-0.001225
971.015684	-0.001056
971.190595	-0.000284
971.365487	-0.001695
971.540362	-0.001515
971.715218	-0.001106
971.890056	-0.002912
972.064875	-0.002216
972.239677	-0.002641
972.414460	-0.002678
972.589225	-0.003763
972.763972	-0.003829
972.938700	-0.005773
973.113411	-0.007150
973.288103	-0.007666
973.462777	-0.007764
973.637432	-0.007764
973.812070	-0.007741
973.986689	-0.006740
974.161290	-0.006825
974.335873	-0.007623
974.510437	-0.005228
974.684984	-0.004718
974.859512	-0.003453
975.034022	-0.004727
975.208513	-0.006022
975.382987	-0.004338
975.557442	-0.003677
975.731879	-0.001185
975.906298	-0.001121
976.080698	0.000966
976.255080	-0.000125
976.429445	-0.000389
976.603790	0.001244
976.778118	0.001089
976.952427	-0.000175
977.126719	0.000931
977.300992	-0.000052
977.475246	-0.000916
977.649483	-0.002253
977.823701	-0.002437
977.997901	-0.003628
978.172083	-0.003356
978.346247	-0.003770
978.520392	-0.004371
978.694519	-0.004862
978.868628	-0.005462
979.042719	-0.004978
979.216791	-0.004494
979.390845	-0.002983
979.564882	-0.001712
979.738899	-0.001884
979.912899	0.000123
980.086880	-0.000727
980.260843	-0.002045
980.434788	-0.003973
980.608715	-0.004796
980.782623	-0.004825
980.956514	-0.006616
981.130386	-0.005753
981.304240	-0.005036
981.478075	-0.005040
981.651892	-0.002152
981.825692	-0.002322
981.999472	-0.000491
982.173235	0.001366
982.346980	0.000287
982.520706	0.001303
982.694414	0.000228
982.868104	-0.000871
983.041775	-0.002439
983.215428	-0.002952
983.389064	-0.003265
983.562680	-0.002593
983.736279	-0.003400
983.909860	-0.002122
984.083422	-0.000767
984.256966	-0.000409
984.430491	0.000782
984.603999	0.001857
984.777488	-0.000619
984.950959	0.000320
985.124412	-0.000957
985.297847	-0.002020
985.471263	-0.002527
985.644661	-0.004395
985.818041	-0.006389
985.991403	-0.006207
986.164747	-0.006168
986.338072	-0.004315
986.511379	-0.003943
986.684668	-0.003901
986.857938	-0.003059
987.031191	-0.002501
987.204425	-0.000049
987.377641	0.000671
987.550839	-0.000715
987.724018	-0.001497
987.897179	-0.001502
988.070322	-0.002670
988.243447	-0.002822
988.416554	-0.001618
988.589642	-0.001557
988.762712	-0.003447
988.935764	-0.001632
989.108798	-0.002577
989.281813	-0.000870
989.454811	-0.000287
989.627790	-0.000074
989.800751	-0.001013
989.973693	-0.002375
990.146617	-0.003097
990.319524	-0.002556
990.492412	-0.003351
990.665281	-0.002417
990.838133	-0.003743
991.010966	-0.004080
991.183781	-0.004022
991.356578	-0.001213
991.529356	0.000350
991.702117	-0.000786
991.874859	-0.001372
992.047583	-0.002635
992.220288	-0.001968
992.392976	-0.002458
992.565645	-0.004515
992.738296	-0.003555
992.910929	-0.006832
993.083543	-0.007901
993.256139	-0.007231
993.428718	-0.006603
993.601277	-0.006963
993.773819	-0.008857
993.946342	-0.008617
994.118848	-0.006687
994.291335	-0.008786
994.463803	-0.007510
994.636254	-0.006107
994.808686	-0.004496
994.981100	-0.005215
995.153496	-0.005173
995.325874	-0.003447
995.498233	-0.003295
995.670574	-0.002868
995.842897	-0.001207
996.015202	-0.001178
996.187488	-0.001528
996.359757	-0.003133
996.532007	-0.002004
996.704239	-0.000595
996.876452	-0.000963
997.048648	-0.001413
997.220825	-0.002027
997.392984	-0.002995
997.565124	-0.003283
997.737247	-0.003879
997.909351	-0.003098
998.081437	-0.003546
998.253505	-0.004570
998.425554	-0.004391
998.597586	-0.003231
998.769599	-0.003812
998.941594	-0.003249
999.113571	-0.003464
999.285529	-0.004096
999.457469	-0.004124
999.629391	-0.004769
999.801295	-0.004300
999.973181	-0.005309
1000.145048	-0.006862
1000.316897	-0.007078
1000.488728	-0.006651
1000.660541	-0.004371
1000.832335	-0.002270
1001.004111	-0.002639
1001.175869	-0.002681
1001.347609	-0.002850
1001.519331	0.000536
1001.691034	0.000830
1001.862719	0.001345
1002.034386	0.001431
1002.206035	-0.001275
1002.377665	-0.002834
1002.549277	-0.003098
1002.720871	-0.003632
1002.892447	-0.003394
1003.064004	-0.006545
1003.235544	-0.005452
1003.407065	-0.005405
1003.578568	-0.004511
1003.750052	-0.001470
1003.921519	-0.001097
1004.092967	-0.001027
1004.264397	-0.000478
1004.435809	0.001072
1004.607202	0.000599
1004.778577	-0.001142
1004.949934	-0.001903
1005.121273	-0.003659
1005.292594	-0.006845
1005.463896	-0.006933
1005.635180	-0.006662
1005.806446	-0.007849
1005.977694	-0.008989
1006.148923	-0.007818
1006.320135	-0.007166
1006.491328	-0.007301
1006.662503	-0.005975
1006.833659	-0.004778
1007.004798	-0.004662
1007.175918	-0.005071
1007.347020	-0.003601
1007.518103	-0.003231
1007.689169	-0.003941
1007.860216	-0.003117
1008.031245	-0.001579
1008.202256	-0.003598
1008.373248	-0.002822
1008.544223	-0.003421
1008.715179	-0.004724
1008.886117	-0.006832
1009.057036	-0.009018
1009.227938	-0.008908
1009.398821	-0.008536
1009.569686	-0.009624
1009.740533	-0.008806
1009.911361	-0.008267
1010.082172	-0.007430
1010.252964	-0.007049
1010.423738	-0.005188
1010.594493	-0.003763
1010.765231	-0.004718
1010.935950	-0.005422
1011.106651	-0.005176
1011.277334	-0.004412
1011.447998	-0.004998
1011.618645	-0.005772
1011.789273	-0.005225
1011.959882	-0.004778
1012.130474	-0.005506
1012.301048	-0.003703
1012.471603	-0.004703
1012.642140	-0.004314
1012.812658	-0.005000
1012.983159	-0.006002
1013.153641	-0.006609
1013.324105	-0.006796
1013.494551	-0.005580
1013.664979	-0.004752
1013.835388	-0.003687
1014.005779	-0.002767
1014.176152	-0.004134
1014.346507	-0.003312
1014.516843	-0.002088
1014.687162	-0.000952
1014.857462	-0.001535
1015.027744	-0.003351
1015.198007	-0.004001
1015.368252	-0.005458
1015.538480	-0.003898
1015.708689	-0.002640
1015.878879	-0.001507
1016.049052	-0.001418
1016.219206	0.000231
1016.389342	0.001230
1016.559460	0.001836
1016.729559	0.002553
1016.899641	0.002531
1017.069704	0.000620
1017.239749	0.000568
1017.409775	-0.002155
1017.579784	-0.001474
1017.749774	-0.004525
1017.919746	-0.004059
1018.089700	-0.002767
1018.259635	-0.003257
1018.429553	-0.004185
1018.599452	-0.003445
1018.769333	-0.003253
1018.939195	-0.002934
1019.109040	-0.004297
1019.278866	-0.001476
1019.448674	-0.002490
1019.618464	-0.004884
1019.788235	-0.006376
1019.957989	-0.005809
1020.127724	-0.005199
1020.297441	-0.005961
1020.467139	-0.006467
1020.636820	-0.007322
1020.806482	-0.010258
1020.976126	-0.010220
1021.145752	-0.009091
1021.315359	-0.007049
1021.484948	-0.006680
1021.654519	-0.008394
1021.824072	-0.008348
1021.993607	-0.006612
1022.163123	-0.004514
1022.332621	-0.003150
1022.502101	-0.002548
1022.671563	-0.003215
1022.841007	-0.004227
1023.010432	-0.003952
1023.179839	-0.002378
1023.349228	-0.002329
1023.518598	-0.003422
1023.687951	-0.004599
1023.857285	-0.004667
1024.026601	-0.004567
1024.195899	-0.004765
1024.365178	-0.003257
1024.534439	-0.001290
1024.703682	-0.000847
1024.872907	-0.000544
1025.042114	-0.000036
1025.211302	-0.001259
1025.380472	-0.000530
1025.549624	-0.001490
1025.718758	-0.001045
1025.887873	-0.003235
1026.056970	-0.006384
1026.226049	-0.006278
1026.395110	-0.005804
1026.564153	-0.005872
1026.733177	-0.004805
1026.902183	-0.004550
1027.071171	-0.003623
1027.240141	-0.002599
1027.409092	-0.000363
1027.578026	0.001888
1027.746940	0.000832
1027.915837	0.000589
1028.084716	0.000028
1028.253576	0.000176
1028.422418	-0.001557
1028.591242	-0.001334
1028.760048	-0.003015
1028.928835	-0.003362
1029.097604	-0.004437
1029.266355	-0.005346
1029.435088	-0.004118
1029.603803	-0.005599
1029.772499	-0.005314
1029.941177	-0.005823
1030.109837	-0.005282
1030.278478	-0.005203
1030.447102	-0.006298
1030.615707	-0.005676
1030.784294	-0.004830
1030.952863	-0.007623
1031.121413	-0.005150
1031.289945	-0.004970
1031.458460	-0.004917
1031.626955	-0.006324
1031.795433	-0.004959
1031.963892	-0.004703
1032.132334	-0.006254
1032.300756	-0.006922
1032.469161	-0.005030
1032.637548	-0.005087
1032.805916	-0.006253
1032.974266	-0.005159
1033.142598	-0.003792
1033.310911	-0.003816
1033.479207	-0.004418
1033.647484	-0.004352
1033.815743	-0.005818
1033.983983	-0.007143
1034.152206	-0.007096
1034.320410	-0.006806
1034.488596	-0.006685
1034.656764	-0.008718
1034.824914	-0.009701
1034.993045	-0.009369
1035.161158	-0.008874
1035.329253	-0.006575
1035.497330	-0.007357
1035.665388	-0.007836
1035.833428	-0.008091
1036.001450	-0.008332
1036.169454	-0.007458
1036.337440	-0.007194
1036.505407	-0.007443
1036.673356	-0.005843
1036.841287	-0.005244
1037.009200	-0.004713
1037.177094	-0.005419
1037.344970	-0.005122
1037.512828	-0.004613
1037.680668	-0.003979
1037.848489	-0.003399
1038.016293	-0.002965
1038.184078	-0.004221
1038.351845	-0.004909
1038.519593	-0.004364
1038.687324	-0.002993
1038.855036	-0.003530
1039.022730	-0.004991
1039.190406	-0.005929
1039.358063	-0.005361
1039.525702	-0.005975
1039.693323	-0.005118
1039.860926	-0.005382
1040.028511	-0.003868
1040.196077	-0.003691
1040.363625	-0.002647
1040.531155	-0.001808
1040.698667	-0.000281
1040.866161	-0.000538
1041.033636	-0.000824
1041.201093	-0.001690
1041.368532	-0.000176
1041.535952	-0.000916
1041.703355	-0.000857
1041.870739	-0.000493
1042.038105	-0.000909
1042.205452	-0.003728
1042.372782	-0.004194
1042.540093	-0.003104
1042.707386	-0.004409
1042.874661	-0.004930
1043.041918	-0.005092
1043.209156	-0.005846
1043.376376	-0.004703
1043.543578	-0.004384
1043.710762	-0.001439
1043.877927	-0.001372
1044.045074	-0.000671
1044.212203	0.002176
1044.379314	0.001958
1044.546407	0.002979
1044.713481	0.003782
1044.880537	0.002836
1045.047575	0.004262
1045.214595	0.001722
1045.381596	0.000676
1045.548579	0.000134
1045.715544	-0.001113
1045.882491	-0.002113
1046.049420	-0.002876
1046.216330	-0.004432
1046.383222	-0.004502
1046.550096	-0.006317
1046.716951	-0.005057
1046.883789	-0.003514
1047.050608	-0.004348
1047.217409	-0.003977
1047.384192	-0.002268
1047.550956	-0.002164
1047.717703	-0.001190
1047.884431	-0.002539
1048.051140	-0.000636
1048.217832	-0.000621
1048.384505	-0.001169
1048.551161	0.000517
1048.717798	-0.001051
1048.884416	-0.000443
1049.051017	-0.000597
1049.217599	0.001062
1049.384163	0.001296
1049.550709	-0.001021
1049.717237	0.000309
1049.883746	-0.000200
1050.050237	-0.000268
1050.216710	-0.000643
1050.383165	-0.002798
1050.549601	-0.003832
1050.716019	-0.003886
1050.882420	-0.003899
1051.048801	-0.003292
1051.215165	-0.004633
1051.381510	-0.005140
1051.547837	-0.005320
1051.714146	-0.004024
1051.880437	-0.004140
1052.046709	-0.003490
1052.212964	-0.006426
1052.379200	-0.005506
1052.545417	-0.004974
1052.711617	-0.005540
1052.877798	-0.005958
1053.043961	-0.006750
1053.210106	-0.008159
1053.376233	-0.006467
1053.542341	-0.007023
1053.708432	-0.005970
1053.874504	-0.005275
1054.040557	-0.006538
1054.206593	-0.007171
1054.372610	-0.005354
1054.538609	-0.005865
1054.704590	-0.004363
1054.870553	-0.005038
1055.036497	-0.002953
1055.202424	-0.001433
1055.368331	-0.003032
1055.534221	0.000257
1055.700093	0.000612
1055.865946	-0.001210
1056.031781	0.000981
1056.197598	0.000922
1056.363397	0.001205
1056.529177	-0.000150
1056.694939	-0.000872
1056.860683	-0.000760
1057.026409	-0.001202
1057.192116	0.000346
1057.357806	0.000809
1057.523477	-0.000011
1057.689130	-0.000769
1057.854764	-0.001660
1058.020381	-0.002894
1058.185979	-0.003225
1058.351559	-0.003172
1058.517120	-0.003508
1058.682664	-0.004347
1058.848189	-0.004548
1059.013696	-0.004877
1059.179185	-0.003989
1059.344656	-0.003647
1059.510108	-0.003028
1059.675542	-0.001887
1059.840958	0.000036
1060.006356	-0.001668
1060.171735	0.000504
1060.337096	0.003218
1060.502439	0.004314
1060.667764	0.002659
1060.833071	0.001860
1060.998359	0.002817
1061.163629	0.002143
1061.328881	0.000922
1061.494115	0.000767
1061.659330	-0.000097
1061.824527	-0.002807
1061.989706	-0.003744
1062.154867	-0.002741
1062.320010	-0.000774
1062.485134	-0.000178
1062.650240	-0.001190
1062.815328	-0.002598
1062.980398	-0.001146
1063.145449	-0.000894
1063.310482	0.000161
1063.475497	0.000055
1063.640494	0.000616
1063.805473	-0.002204
1063.970433	-0.003210
1064.135375	-0.001982
1064.300299	-0.002624
1064.465204	-0.004954
1064.630092	-0.007777
1064.794961	-0.009287
1064.959812	-0.009055
1065.124645	-0.010495
1065.289459	-0.008148
1065.454256	-0.008412
1065.619034	-0.010653
1065.783793	-0.010213
1065.948535	-0.008496
1066.113258	-0.007419
1066.277964	-0.006196
1066.442651	-0.006554
1066.607319	-0.004989
1066.771970	-0.007133
1066.936602	-0.005294
1067.101216	-0.003145
1067.265812	-0.000684
1067.430389	-0.000776
1067.594949	-0.002564
1067.759490	-0.004131
1067.924013	-0.003478
1068.088518	-0.003958
1068.253004	-0.005081
1068.417472	-0.006331
1068.581922	-0.006372
1068.746354	-0.008987
1068.910768	-0.010321
1069.075163	-0.008118
1069.239540	-0.007456
1069.403899	-0.007818
1069.568240	-0.006276
1069.732562	-0.002895
1069.896866	-0.004813
1070.061152	-0.006317
1070.225420	-0.005497
1070.389670	-0.003928
1070.553901	-0.003912
1070.718114	-0.000714
1070.882309	-0.000431
1071.046486	-0.002256
1071.210644	-0.004122
1071.374784	-0.000379
1071.538906	-0.001271
1071.703010	0.001335
1071.867096	0.001262
1072.031163	0.003974
1072.195212	0.001070
1072.359243	0.000816
1072.523256	0.000873
1072.687250	0.002648
1072.851226	0.000332
1073.015184	0.001338
1073.179124	-0.000220
1073.343045	0.000205
1073.506949	-0.004008
1073.670834	-0.002129
1073.834701	-0.002330
1073.998549	-0.002960
1074.162380	-0.002937
1074.326192	-0.002082
1074.489986	-0.002203
1074.653761	-0.004006
1074.817519	-0.003597
1074.981258	-0.003011
1075.144979	-0.006686
1075.308682	-0.008677
1075.472367	-0.006208
1075.636033	-0.007775
1075.799681	-0.009139
1075.963311	-0.008653
1076.126923	-0.008877
1076.290516	-0.010101
1076.454092	-0.008891
1076.617649	-0.004048
1076.781187	-0.003849
1076.944708	-0.004675
1077.108210	-0.004387
1077.271695	-0.004014
1077.435160	-0.003352
1077.598608	-0.000664
1077.762038	-0.001424
1077.925449	-0.000975
1078.088842	-0.003546
1078.252217	-0.001305
1078.415573	-0.004715
1078.578912	-0.003977
1078.742232	-0.005867
1078.905534	-0.007891
1079.068817	-0.010094
1079.232083	-0.008586
1079.395330	-0.008720
1079.558559	-0.007907
1079.721770	-0.008193
1079.884962	-0.005687
1080.048136	-0.006596
1080.211293	-0.003340
1080.374430	-0.000939
1080.537550	0.000378
1080.700651	0.000485
1080.863735	0.000773
1081.026800	0.000535
1081.189846	-0.000012
1081.352875	0.000006
1081.515885	0.001891
1081.678877	0.001690
1081.841851	0.002648
1082.004807	0.002397
1082.167744	0.000740
1082.330663	0.000712
1082.493564	0.002301
1082.656447	0.002802
1082.819312	0.002923
1082.982158	-0.000158
1083.144986	-0.001085
1083.307796	-0.004507
1083.470587	-0.002976
1083.633361	-0.002936
1083.796116	-0.001667
1083.958853	-0.006806
1084.121571	-0.007941
1084.284272	-0.008126
1084.446954	-0.006630
1084.609618	-0.008060
1084.772264	-0.008148
1084.934892	-0.008402
1085.097501	-0.008568
1085.260092	-0.009782
1085.422665	-0.005706
1085.585220	-0.005395
1085.747756	-0.005464
1085.910274	-0.007217
1086.072774	-0.004389
1086.235256	-0.003352
1086.397720	-0.005722
1086.560165	-0.003572
1086.722592	-0.004717
1086.885001	-0.006191
1087.047392	-0.004954
1087.209764	-0.003354
1087.372119	-0.001376
1087.534455	-0.003703
1087.696772	-0.002298
1087.859072	0.001445
1088.021353	-0.002296
1088.183616	-0.003522
1088.345861	-0.002504
1088.508088	-0.005594
1088.670296	-0.006082
1088.832486	-0.006026
1088.994658	-0.005223
1089.156812	-0.004445
1089.318948	-0.007384
1089.481065	-0.003894
1089.643164	-0.002716
1089.805245	-0.003482
1089.967308	-0.001817
1090.129352	-0.002347
1090.291378	-0.003579
1090.453386	-0.003567
1090.615376	-0.005331
1090.777347	-0.004983
1090.939301	-0.007126
1091.101236	-0.009742
1091.263153	-0.009530
1091.425051	-0.008567
1091.586932	-0.008197
1091.748794	-0.006068
1091.910638	-0.004258
1092.072463	-0.003080
1092.234271	-0.006112
1092.396060	-0.004058
1092.557831	-0.001760
1092.719584	-0.002201
1092.881319	-0.001374
1093.043035	-0.000739
1093.204733	-0.002954
1093.366413	-0.003782
1093.528075	-0.002108
1093.689718	-0.001471
1093.851343	-0.002674
1094.012950	-0.002991
1094.174539	-0.002371
1094.336110	-0.006142
1094.497662	-0.007063
1094.659196	-0.008593
1094.820712	-0.008583
1094.982210	-0.012960
1095.143689	-0.009121
1095.305151	-0.008953
1095.466594	-0.007259
1095.628018	-0.007818
1095.789425	-0.003369
1095.950813	-0.003880
1096.112183	-0.002961
1096.273535	-0.006638
1096.434869	-0.005730
1096.596184	-0.007383
1096.757482	-0.006770
1096.918761	-0.007997
1097.080021	-0.007411
1097.241264	-0.010073
1097.402488	-0.014591
1097.563694	-0.012466
1097.724882	-0.009095
1097.886052	-0.006256
1098.047203	-0.005201
1098.208336	-0.004917
1098.369451	-0.005394
1098.530548	-0.005567
1098.691627	-0.002984
1098.852687	0.002004
1099.013729	0.000721
1099.174753	-0.002798
1099.335758	-0.009560
1099.496746	-0.011078
1099.657715	-0.016212
1099.818666	-0.015619
1099.979599	-0.016151
1100.140513	-0.018131
1100.301409	-0.016787
1100.462287	-0.016688
1100.623147	-0.014896
1100.783989	-0.012438
1100.944812	-0.014791
1101.105617	-0.010584
1101.266404	-0.009442
1101.427173	-0.005956
1101.587923	-0.008072
1101.748656	-0.010972
1101.909370	-0.009771
1102.070066	-0.009989
1102.230743	-0.006333
1102.391403	-0.002685
1102.552044	-0.003292
1102.712667	-0.000804
1102.873271	-0.006011
1103.033858	-0.003978
1103.194426	-0.002981
1103.354976	-0.005514
1103.515508	-0.005133
1103.676021	-0.008031
1103.836517	-0.009846
1103.996994	-0.007151
1104.157453	-0.008388
1104.317893	-0.009087
1104.478316	-0.009089
1104.638720	-0.010341
1104.799106	-0.006632
1104.959474	-0.005117
1105.119823	-0.003385
1105.280155	-0.003630
1105.440468	-0.005222
1105.600763	-0.008166
1105.761039	-0.001087
1105.921298	-0.002495
1106.081538	-0.000967
1106.241760	-0.004084
1106.401964	-0.005925
1106.562149	-0.008329
1106.722316	-0.005609
1106.882465	-0.008049
1107.042596	-0.004163
1107.202709	-0.005638
1107.362803	-0.003876
1107.522879	-0.005051
1107.682937	-0.000683
1107.842977	0.000127
1108.002999	0.002379
1108.163002	0.001273
1108.322987	0.005318
1108.482954	0.000077
1108.642902	-0.000706
1108.802833	0.000136
1108.962745	0.005029
1109.122639	0.005221
1109.282515	0.003512
1109.442372	0.002468
1109.602211	-0.000298
1109.762032	-0.001289
1109.921835	-0.000670
1110.081620	-0.001611
1110.241386	-0.007221
1110.401134	-0.014596
1110.560864	-0.018035
1110.720576	-0.018828
1110.880269	-0.019597
1111.039945	-0.014713
1111.199602	-0.014381
1111.359240	-0.013688
1111.518861	-0.014420
1111.678463	-0.010503
1111.838047	-0.005555
1111.997613	-0.008364
1112.157161	-0.008664
1112.316690	-0.006823
1112.476202	-0.007899
1112.635695	-0.008346
1112.795169	-0.007440
1112.954626	-0.010729
1113.114064	-0.010670
1113.273484	-0.013841
1113.432886	-0.007106
1113.592270	-0.005117
1113.751635	-0.004783
1113.910983	-0.005060
1114.070312	-0.003438
1114.229622	-0.006752
1114.388915	-0.005051
1114.548189	-0.002716
1114.707445	0.000096
1114.866683	-0.003039
1115.025903	-0.005370
1115.185104	-0.003831
1115.344287	-0.007337
1115.503452	-0.010633
1115.662599	-0.004779
1115.821727	-0.001713
1115.980838	-0.004743
1116.139930	-0.005639
1116.299004	-0.000252
1116.458059	0.005349
1116.617097	0.008167
1116.776116	0.009284
1116.935117	0.009801
1117.094099	0.008135
1117.253064	0.006526
1117.412010	0.009811
1117.570938	0.011124
1117.729848	0.001586
1117.888740	-0.000671
1118.047613	-0.005325
1118.206468	-0.003312
1118.365305	-0.000631
1118.524124	0.000164
1118.682924	0.002314
1118.841707	0.001137
1119.000471	0.002767
1119.159216	0.010354
1119.317944	0.013705
1119.476653	0.016960
1119.635344	0.015410
1119.794017	0.008699
1119.952672	0.005221
1120.111308	-0.001627
1120.269927	-0.001102
1120.428527	-0.002403
1120.587108	-0.005049
1120.745672	-0.002925
1120.904217	-0.008296
1121.062744	-0.007177
1121.221253	-0.004310
1121.379744	-0.000676
1121.538216	0.006394
1121.696671	0.006921
1121.855107	0.004879
1122.013524	0.007466
1122.171924	0.005190
1122.330305	0.005237
1122.488668	0.004546
1122.647013	0.007295
1122.805340	0.006367
1122.963648	0.005870
1123.121938	-0.000228
1123.280210	-0.000018
1123.438464	-0.000881
1123.596700	0.001351
1123.754917	0.006263
1123.913116	0.011440
1124.071297	0.008493
1124.229459	0.007135
1124.387604	0.005619
1124.545730	0.010127
1124.703838	0.005830
1124.861928	0.005616
1125.019999	0.000731
1125.178052	-0.005532
1125.336088	-0.009876
1125.494104	-0.009533
1125.652103	-0.010129
1125.810083	-0.011741
1125.968045	-0.010636
1126.125989	-0.004232
1126.283915	-0.008744
1126.441823	-0.010110
1126.599712	-0.007563
1126.757583	-0.010569
1126.915436	-0.012311
1127.073270	-0.015237
1127.231087	-0.018456
1127.388885	-0.018602
1127.546665	-0.020460
1127.704426	-0.018093
1127.862170	-0.017276
1128.019895	-0.016551
1128.177602	-0.010950
1128.335291	-0.010124
1128.492961	-0.009513
1128.650614	-0.009440
1128.808248	-0.011299
1128.965864	-0.011241
1129.123461	-0.017031
1129.281041	-0.015604
1129.438602	-0.010812
1129.596145	-0.013830
1129.753670	-0.005348
1129.911176	-0.004090
1130.068665	-0.002301
1130.226135	-0.001740
1130.383587	0.001468
1130.541020	0.002674
1130.698436	-0.000151
1130.855833	-0.004358
1131.013212	-0.005399
1131.170573	-0.010820
1131.327915	-0.012168
1131.485239	-0.009410
1131.642545	-0.008767
1131.799833	-0.012315
1131.957103	-0.003983
1132.114354	-0.003272
1132.271588	-0.002530
1132.428803	-0.001629
1132.585999	-0.001818
1132.743178	-0.000563
1132.900338	0.004414
1133.057480	0.001264
1133.214604	0.002861
1133.371710	-0.002245
1133.528797	-0.001995
1133.685866	-0.004320
1133.842917	-0.001297
1133.999950	-0.002340
1134.156964	-0.000978
1134.313960	-0.004033
1134.470938	-0.006429
1134.627898	-0.005770
1134.784840	-0.010756
1134.941763	-0.011894
1135.098668	-0.009026
1135.255555	-0.012428
1135.412424	-0.011297
1135.569274	-0.003800
1135.726107	-0.003365
1135.882921	0.006804
1136.039716	0.006932
1136.196494	0.011841
1136.353253	0.016093
1136.509995	0.013557
1136.666717	0.014214
1136.823422	0.007953
1136.980109	0.003454
1137.136777	0.001359
1137.293427	-0.003970
1137.450059	-0.002568
1137.606672	-0.002521
1137.763267	-0.009233
1137.919844	-0.006375
1138.076403	-0.005097
1138.232944	0.001123
1138.389466	-0.000546
1138.545971	0.000999
1138.702457	0.003050
1138.858924	0.000946
1139.015374	0.009430
1139.171805	0.016741
1139.328218	0.011699
1139.484613	0.015642
1139.640990	0.011703
1139.797348	0.008101
1139.953688	0.007526
1140.110010	0.009953
1140.266314	0.006091
1140.422600	-0.004440
1140.578867	-0.002233
1140.735116	0.001421
1140.891347	-0.006046
1141.047559	0.000701
1141.203754	0.005948
1141.359930	0.007060
1141.516088	0.006635
1141.672228	0.008918
1141.828349	0.013617
1141.984452	0.010517
1142.140537	0.011257
1142.296604	0.012702
1142.452653	0.007843
1142.608683	0.005110
1142.764695	-0.004345
1142.920689	-0.001052
1143.076665	-0.004479
1143.232622	-0.010962
1143.388562	-0.019998
1143.544483	-0.019843
1143.700385	-0.021246
1143.856270	-0.019459
1144.012136	-0.021038
1144.167985	-0.015238
1144.323814	-0.019336
1144.479626	-0.021360
1144.635420	-0.011200
1144.791195	-0.003323
1144.946952	0.000299
1145.102691	0.002402
1145.258411	-0.001726
1145.414113	-0.003509
1145.569798	0.002067
1145.725463	-0.003838
1145.881111	-0.000255
1146.036741	-0.005924
1146.192352	-0.008239
1146.347945	-0.007702
1146.503519	-0.010653
1146.659076	-0.009170
1146.814614	-0.008104
1146.970134	-0.017637
1147.125636	-0.018620
1147.281120	-0.014756
1147.436585	-0.013816
1147.592032	-0.010331
1147.747461	-0.017349
1147.902872	-0.014683
1148.058265	-0.023389
1148.213639	-0.019595
1148.368995	-0.018139
1148.524333	-0.011404
1148.679653	-0.007873
1148.834954	-0.014428
1148.990237	-0.017307
1149.145502	-0.018853
1149.300749	-0.018690
1149.455977	-0.009549
1149.611188	-0.015859
1149.766380	-0.007904
1149.921553	-0.012796
1150.076709	-0.018604
1150.231846	-0.013401
1150.386966	-0.010088
1150.542066	-0.004459
1150.697149	-0.006179
1150.852214	0.002578
1151.007260	0.005701
1151.162288	0.001581
1151.317298	0.008268
1151.472289	0.008855
1151.627263	0.013999
1151.782218	0.015041
1151.937155	0.011343
1152.092073	0.014823
1152.246974	0.010032
1152.401856	0.014550
1152.556720	0.022962
1152.711566	0.019077
1152.866393	0.024611
1153.021203	0.015954
1153.175994	0.010171
1153.330767	0.013670
1153.485521	0.015403
1153.640258	0.018288
1153.794976	0.020759
1153.949676	0.020753
1154.104358	0.013931
1154.259021	0.008727
1154.413667	0.014466
1154.568294	0.011512
1154.722903	0.008659
1154.877493	-0.002227
1155.032066	-0.004782
1155.186620	-0.008559
1155.341156	-0.011981
1155.495674	-0.005026
1155.650173	-0.006146
1155.804654	-0.006605
1155.959118	0.000329
1156.113562	0.000712
1156.267989	0.005788
1156.422397	0.010594
1156.576788	0.005924
1156.731160	0.010565
1156.885513	0.016068
1157.039849	0.014423
1157.194166	0.028773
1157.348465	0.031759
1157.502746	0.029978
1157.657009	0.025289
1157.811253	0.007514
1157.965479	0.005151
1158.119687	-0.008517
1158.273877	-0.013076
1158.428048	0.001076
1158.582201	-0.015151
1158.736337	-0.023366
1158.890453	-0.020330
1159.044552	-0.011156
1159.198632	0.000572
1159.352694	0.001559
1159.506738	0.011713
1159.660764	0.008843
1159.814771	-0.002772
1159.968761	0.004606
1160.122732	0.008046
1160.276685	0.006489
1160.430619	0.001606
1160.584535	-0.002815
1160.738434	0.009216
1160.892313	0.005149
1161.046175	0.000133
1161.200019	-0.000761
1161.353844	-0.006779
1161.507651	0.004857
1161.661440	0.015053
1161.815210	0.027667
1161.968962	0.035798
1162.122697	0.027966
1162.276412	0.020508
1162.430110	0.025404
1162.583789	0.023106
1162.737451	0.032784
1162.891094	0.014047
1163.044718	0.001091
1163.198325	-0.013788
1163.351913	-0.014335
1163.505483	-0.015149
1163.659035	-0.005324
1163.812569	-0.018470
1163.966084	-0.012623
1164.119581	-0.022698
1164.273060	-0.006502
1164.426521	-0.003389
1164.579964	-0.001625
1164.733388	-0.014419
1164.886794	-0.019633
1165.040182	-0.021245
1165.193551	-0.011467
1165.346903	-0.025221
1165.500236	-0.023199
1165.653551	-0.023319
1165.806848	-0.010835
1165.960126	-0.004724
1166.113386	0.000198
1166.266628	0.010687
1166.419852	-0.002659
1166.573058	-0.005164
1166.726245	0.012578
1166.879414	0.013424
1167.032565	0.004048
1167.185698	-0.016862
1167.338812	-0.016235
1167.491909	-0.011459
1167.644987	-0.005468
1167.798046	0.007911
1167.951088	0.031920
1168.104111	0.022908
1168.257117	0.011028
1168.410103	0.000354
1168.563072	0.007241
1168.716023	0.008684
1168.868955	0.026706
1169.021869	0.005511
1169.174765	-0.018942
1169.327642	-0.035627
1169.480501	-0.032296
1169.633343	-0.018390
1169.786165	-0.011386
1169.938970	-0.006730
1170.091757	0.003177
1170.244525	-0.026581
1170.397275	-0.018193
1170.550007	0.004807
1170.702720	0.012901
1170.855415	0.011460
1171.008092	-0.014569
1171.160751	-0.029500
1171.313392	-0.051959
1171.466014	-0.018769
1171.618619	-0.163949
1171.771205	-0.163949
1171.923772	-0.163949
