sample name	sample
index	792
start time	 03-31-2021  02:23:39 PM
880	-0.011849
Peak Time (s)	92.537
Peak Height 	-0.01185
calc peak height	90,93
Baseline Time (s)	11.54
Baseline Value 	-0.001749
subtract baseline	10,4
Abs	0.022725
Peak Time (s)	92.037
Peak Height 	0.02273
calc peak height	90,93
Baseline Time (s)	10.537
Baseline Value 	0.002932
subtract baseline	10,3
PK_550	0.016082
Peak Time (s)	90.535
Peak Height 	0.01608
calc peak height	90,93
Baseline Time (s)	9.536
Baseline Value 	3.0836E-4
subtract baseline	10,2
PK_880	0.021407
Peak Time (s)	90.535
Peak Height 	0.02141
calc peak height	90,93
Baseline Time (s)	11.54
Baseline Value 	-1.0057E-4
subtract baseline	10,1


Time (s)	A880-A510	A880-A775	A880-A975	A880	I510	I775	I975	I880	
0.036000	0.001030	0.000249	-0.000003	0.001338	6781.910551	40643.264026	4089.071358	22237.236411
0.536500	-0.000191	-0.000390	-0.000201	0.003015	6757.706882	40443.983932	4084.883919	22163.604330
1.036500	-0.001530	0.000114	-0.004087	0.003090	6745.964864	40480.884106	4076.097012	22160.346628
1.539000	-0.001146	0.000277	-0.003379	0.001414	6763.091464	40639.136798	4081.375529	22233.872767
2.034500	-0.000339	-0.000496	-0.003683	0.001004	6773.242282	40607.790675	4081.610909	22251.917024
2.540500	0.001534	0.000486	-0.004800	0.001257	6786.809893	40670.744435	4078.573764	22240.797899
3.035000	-0.000189	-0.000200	-0.001551	-0.001879	6798.679779	40882.838800	4092.813786	22379.238152
3.535000	-0.000965	0.000471	-0.003304	0.006076	6725.939668	40255.635643	4071.243968	22029.968614
4.035500	0.000689	-0.000367	-0.002866	0.000368	6787.172057	40673.778643	4084.842743	22279.929063
4.536000	-0.003257	0.000466	0.001778	0.000413	6753.853813	40741.939045	4095.145976	22277.954903
5.036500	0.001138	-0.000243	-0.005815	-0.000093	6794.818756	40724.387399	4079.314937	22300.284085
5.537000	-0.000022	-0.000466	-0.002348	0.000080	6783.628878	40690.098090	4086.641341	22292.624174
6.036500	-0.000706	0.000252	-0.003297	0.000072	6777.970770	40752.909851	4084.544463	22293.002375
6.537000	0.000921	0.000711	0.001282	0.000458	6788.365122	40759.195559	4093.928601	22275.962482
7.043000	-0.000992	-0.000889	-0.003293	-0.000783	6782.730187	40728.179064	4086.458325	22330.738975
7.534500	-0.000359	0.000309	-0.001674	-0.000309	6784.069749	40790.854649	4089.019888	22309.829361
8.035500	-0.000753	-0.000291	-0.007274	-0.000243	6780.217718	40733.291809	4076.419030	22306.915116
8.538500	0.002428	0.000938	0.000429	0.000743	6798.641685	40754.289726	4091.375145	22263.439828
9.036000	-0.000503	0.000666	-0.002651	0.000138	6779.114279	40783.041592	4085.835169	22290.066446
9.536000	-0.000966	0.000000	0.001774	-0.000126	6777.454155	40748.252933	4096.353505	22301.727055
10.036500	0.001766	0.000410	-0.001930	0.000138	6798.161089	40760.915335	4087.446464	22290.076344
10.536500	-0.000572	-0.000112	0.000000	-0.000348	6782.609285	40757.773863	4092.858490	22311.510839
11.036500	0.000520	-0.000343	-0.002587	-0.000425	6792.413503	40744.391888	4087.235939	22314.910700
11.540000	0.000000	-0.000402	0.001485	0.000000	6784.486954	40702.630889	4095.416972	22296.170587
12.037500	0.000140	0.000017	-0.001084	-0.000481	6789.696532	40780.460299	4090.725996	22317.411964
12.535000	-0.000880	-0.000347	-0.001185	-0.000274	6779.415226	40731.049501	4090.035604	22308.267816
13.035500	-0.000367	-0.000894	-0.002152	-0.000441	6785.113503	40698.236912	4088.244821	22315.657424
13.535500	0.000960	0.000540	-0.000313	0.001313	6781.532378	40670.587147	4088.433553	22238.338085
14.036000	-0.000819	-0.000047	-0.000552	0.002146	6759.718646	40548.208991	4086.040357	22201.735467
14.536500	-0.000056	-0.000007	-0.001077	0.002808	6760.554291	40494.654999	4083.393585	22172.674843
15.036500	0.000329	-0.000429	-0.000709	0.000952	6779.269224	40618.114071	4088.356848	22254.230822
15.536500	0.001428	0.000524	-0.000689	0.001380	6784.885532	40663.353056	4087.443004	22235.368223
16.037000	0.000056	-0.000154	0.000161	0.000797	6778.286292	40655.193671	4090.651168	22261.053832
16.534500	-0.001409	-0.000237	-0.002575	0.000458	6768.873636	40677.327143	4085.291661	22275.971509
17.035000	0.003157	0.001514	0.004567	-0.002182	6829.522314	41058.399753	4107.348938	22392.689786
17.535000	-0.000914	-0.000157	-0.003041	0.000748	6770.587616	40659.212151	4083.609067	22263.207544
18.035500	-0.000294	-0.000153	-0.003519	0.001297	6771.172661	40612.176156	4081.324886	22239.027412
18.536000	0.000911	0.000003	-0.003036	0.001528	6779.325451	40605.707634	4081.885228	22228.898514
19.036500	-0.000688	-0.001004	-0.003889	0.000812	6771.938838	40580.630556	4081.581096	22260.385714
19.536000	-0.003863	0.000019	-0.005934	0.001713	6738.047456	40591.187467	4075.060038	22220.761435
20.037000	0.000315	0.000247	0.000658	0.002011	6770.295562	40585.104331	4089.044831	22207.663125
20.534000	-0.001631	0.000311	-0.000984	0.001720	6756.503539	40615.665072	4086.026000	22220.440173
21.037000	-0.002095	0.000313	-0.005642	0.001724	6752.617515	40615.583224	4075.680405	22220.284174
21.534500	0.000189	-0.000087	-0.003788	0.001354	6774.734467	40612.913106	4080.600909	22236.526630
22.035000	0.000348	0.000070	0.002876	0.001747	6772.775916	40592.548866	4094.615913	22219.235383
22.535500	0.000833	-0.000776	0.000017	0.001492	6778.970995	40541.738602	4088.772027	22230.462435
23.035500	-0.001093	-0.000193	-0.001733	0.001695	6761.191907	40574.460754	4084.411332	22221.541062
23.539000	-0.002413	-0.000768	-0.006281	0.000782	6757.810096	40603.552119	4076.350054	22261.715633
24.036000	-0.000917	-0.000178	-0.002042	0.001329	6765.708877	40607.242398	4084.538455	22237.635370
24.536000	-0.001634	-0.000190	-0.004399	0.001192	6760.874952	40618.017024	4079.606005	22243.654053
25.036500	-0.002446	-0.000214	-0.003457	0.001012	6755.617250	40631.505128	4082.096269	22251.575698
25.539500	0.000420	-0.000405	-0.002545	0.001478	6775.631379	40574.880069	4083.085768	22231.068618
26.034500	-0.000964	-0.000219	0.004445	0.001458	6764.242533	40592.600649	4098.808464	22231.976725
26.535000	-0.000232	0.000520	-0.004897	0.002256	6763.695433	40587.542599	4076.150203	22196.910623
27.035000	0.001993	0.000123	-0.000289	-0.001260	6811.856964	40857.158439	4094.259708	22351.847816
27.535500	-0.003707	-0.001663	-0.006967	0.004090	6719.712523	40243.029473	4067.566763	22116.568997
28.036000	-0.000814	0.000846	-0.001097	0.001307	6766.755348	40697.527684	4086.696184	22238.606854
28.536000	-0.001366	0.000702	0.007118	0.001706	6758.832307	40650.623875	4104.304563	22221.062328
29.036500	0.000650	-0.000107	-0.000621	0.000746	6783.682881	40663.634619	4089.013502	22263.286479
29.536500	-0.003806	-0.000414	-0.005036	0.005322	6708.767365	40244.457010	4069.097360	22062.798761
30.039500	-0.000700	-0.000367	-0.004074	0.000388	6775.379050	40672.114733	4082.111365	22279.052545
30.537500	-0.000354	-0.000555	-0.006493	0.002626	6759.589838	40463.233106	4071.816636	22180.653098
31.034500	-0.001969	-0.000448	-0.005018	0.002116	6750.407623	40516.258542	4076.191378	22203.050110
31.537500	-0.000252	-0.000950	-0.005671	0.000133	6781.265770	40643.866392	4079.134399	22290.325171
32.035500	0.000272	0.000851	0.000318	0.001071	6777.797099	40718.350240	4090.388056	22248.982837
32.535000	-0.001792	-0.000832	-0.005923	0.000268	6767.256399	40642.312878	4078.276379	22284.350014
33.036000	0.000992	0.000028	-0.000970	-0.001118	6802.220043	40836.645829	4092.411448	22345.563611
33.536500	-0.000166	0.001103	-0.000312	0.002116	6765.408227	40649.800480	4086.642615	22203.043434
34.036000	-0.001392	-0.000433	0.000837	0.001488	6760.428151	40571.542600	4090.618255	22230.634617
34.539500	-0.000757	0.000297	-0.000783	0.002269	6759.208750	40567.164516	4085.250262	22196.323388
35.037000	-0.001064	-0.000086	-0.001087	0.002402	6755.554155	40522.774507	4084.275412	22190.504474
35.539500	-0.002226	-0.000463	-0.003310	0.002050	6748.816177	40520.662132	4080.117649	22205.946094
36.034500	-0.002440	-0.000070	0.000691	0.002142	6746.282116	40546.538654	4088.824546	22201.903136
36.541000	-0.001153	-0.000531	-0.003420	0.002198	6756.502650	40501.992729	4079.544173	22199.425756
37.035000	-0.001577	-0.000505	-0.001996	0.002033	6754.353975	40518.505884	4083.074046	22206.709719
37.537500	0.000707	0.000227	-0.001681	0.002655	6768.189576	40527.908161	4082.390642	22179.381707
38.036000	-0.002602	-0.000260	0.000557	0.002134	6745.003722	40530.905034	4088.542946	22202.264434
38.536500	-0.001491	-0.001329	-0.004141	0.001825	6756.801966	40465.570263	4078.775716	22215.847100
39.035500	-0.002249	0.000386	0.003735	0.002819	6742.255574	40527.573333	4094.136492	22172.220984
39.536500	-0.000627	0.000329	-0.004415	0.002320	6759.873343	40565.565738	4077.073963	22194.108253
40.036500	-0.001815	-0.000258	-0.006220	0.002075	6752.027825	40536.163568	4073.632586	22204.866889
40.537500	-0.002904	0.000022	-0.000944	0.002412	6740.199540	40531.220820	4084.571592	22190.044391
41.037500	-0.001286	0.000318	-0.004275	0.002190	6755.469420	40575.773575	4077.670213	22199.793309
41.534500	-0.000573	-0.000168	-0.002132	0.002319	6760.330569	40522.911745	4082.136618	22194.156890
42.035500	0.002047	-0.000071	-0.000708	0.002429	6781.283656	40521.732629	4085.059499	22189.301907
42.535500	0.000721	0.000402	-0.003616	0.002770	6767.346075	40533.039930	4077.844967	22174.334630
43.036000	-0.000840	-0.000360	-0.001531	0.001531	6764.668681	40574.140354	4085.227953	22228.755630
43.536500	0.002601	0.000407	-0.000824	0.000013	6806.239964	40771.462890	4090.200598	22295.590905
44.039500	0.001271	0.000003	0.004684	0.000668	6789.537931	40679.844824	4101.135094	22266.702013
44.539500	-0.000448	0.000021	-0.004672	0.001002	6772.349817	40652.583593	4079.420131	22252.001007
45.037000	0.002773	0.000513	-0.001603	0.001507	6795.110908	40651.463987	4085.120436	22229.799244
45.537000	-0.000949	-0.000520	-0.003325	0.003480	6747.547170	40392.974667	4076.916784	22143.236346
46.035500	-0.001134	-0.000301	-0.002242	0.000748	6768.750609	40646.757227	4085.387232	22263.208781
46.535000	-0.001240	-0.000124	-0.002109	0.001418	6762.273359	40604.225751	4084.192166	22233.729401
47.035500	-0.000300	0.000653	-0.002997	0.002969	6757.191206	40537.595994	4078.774734	22165.632061
47.539000	-0.001291	-0.000325	-0.000310	0.002979	6748.864004	40452.636020	4084.720353	22165.177307
48.036500	-0.000398	-0.000108	-0.002194	0.001180	6771.282249	40626.151854	4084.531845	22244.195355
48.544000	0.001210	0.001277	-0.003530	0.001697	6780.402012	40701.051703	4080.412625	22221.431118
49.036500	0.001254	0.000895	-0.001157	-0.000906	6802.642634	40893.516763	4091.514594	22336.198247
49.537500	0.001434	-0.000185	0.001702	0.002161	6778.402254	40534.995163	4091.048996	22201.079617
50.037500	0.003179	0.000676	0.006698	0.007718	6746.634892	40133.206913	4089.788793	21958.663659
50.538000	0.004895	0.001683	0.000357	-0.018227	6983.553212	42499.396715	4134.705904	23117.389868
51.035000	-0.041840	0.003486	-0.022523	0.095930	5794.895494	33535.611555	3859.313820	18498.847061
51.535500	-0.052245	-0.013254	-0.025098	-0.139125	7590.707295	53365.583724	4384.842548	29531.048256
52.035500	-0.047700	-0.188542	-0.015636	-0.408698	11502.965762	65535.000000	5527.451937	52237.180325
52.536000	-0.040635	-0.176530	-0.011712	-0.396686	11408.310236	65535.000000	5482.975171	50897.782129
53.039000	-0.043572	-0.150044	-0.016381	-0.370199	10866.942815	65535.000000	5319.192625	48071.968519
53.536500	-0.026213	-0.124047	-0.014146	-0.344202	10714.846504	65535.000000	5201.936884	45461.022066
54.037000	-0.042201	-0.076503	-0.018293	-0.293203	9632.701501	65040.807406	4953.313125	40771.534573
54.537000	-0.031803	-0.066161	-0.016576	-0.280698	9601.299910	64733.380637	4908.261677	39703.311378
55.037000	-0.021970	-0.066733	-0.015313	-0.282869	9782.269334	64960.452055	4922.480440	39886.580130
55.535000	-0.015994	-0.050922	-0.011222	-0.260735	9539.838069	64067.599224	4849.009283	38060.573282
56.035500	-0.010215	-0.034270	-0.012447	-0.234064	9239.451331	62678.764240	4741.256989	35980.301049
56.535500	-0.011046	-0.019194	-0.005427	-0.194327	8695.852625	59394.055548	4623.389814	33108.511332
57.036000	-0.010858	-0.012158	-0.004705	-0.164208	8326.110699	56484.003643	4524.798224	31100.346547
57.536500	-0.010951	-0.008210	-0.006368	-0.133451	7970.778403	53292.787773	4423.532957	29188.409389
58.036500	-0.008720	-0.004749	-0.005025	-0.115863	7803.083943	51688.786296	4375.565996	28154.429380
58.537000	-0.006546	-0.001914	-0.005210	-0.091535	7571.383650	49346.348155	4306.495263	26791.516288
59.036500	-0.006536	-0.000729	-0.004295	-0.075417	7410.187438	47785.818646	4265.578064	25929.734910
59.537000	0.002061	0.004521	-0.007715	-0.065404	7396.291262	47299.205061	4230.595587	25410.195632
60.034500	0.001878	0.003530	-0.004760	-0.062029	7361.592941	46857.821507	4229.519090	25237.759997
60.537500	-0.002752	0.003381	-0.002018	-0.032640	7043.844518	43985.661627	4163.310903	23791.647048
61.035500	-0.002220	0.005217	-0.002298	-0.027583	7003.419066	43684.136811	4150.533776	23552.534634
61.538500	0.004753	0.007687	-0.001783	-0.039765	7177.442749	45073.982343	4181.193961	24133.286248
62.036000	0.005916	0.006346	-0.003204	-0.061652	7397.308187	47103.917830	4232.543549	25218.610338
62.536000	0.006165	0.006828	-0.003867	-0.062144	7404.564114	47202.449623	4232.105527	25243.623315
63.036000	0.008713	0.006806	-0.005754	-0.063527	7443.300143	47340.646685	4230.811361	25314.132185
63.536500	0.007869	0.007928	0.004273	-0.061645	7416.405541	47263.487409	4251.898677	25218.264200
64.037000	0.008572	0.006903	0.003305	-0.060007	7407.210382	46993.968157	4245.107294	25135.108772
64.537000	0.007672	0.007628	-0.003686	-0.056660	7365.731047	46730.173007	4218.573094	24966.238559
65.035000	0.008633	0.007069	0.002346	-0.056374	7372.295207	46645.602026	4233.244528	24951.880689
65.541000	0.007669	0.007045	0.004143	-0.054665	7346.353448	46472.456195	4233.469856	24866.195180
66.035500	0.007922	0.007786	0.007176	-0.052038	7323.438252	46284.738178	4234.512546	24735.126572
66.541500	0.010642	0.008273	0.011115	-0.049465	7324.860672	46078.200317	4238.034621	24607.553699
67.039000	0.012848	0.008741	0.004046	-0.046681	7319.296984	45850.027786	4212.885183	24470.334177
67.536000	0.011506	0.008668	0.004778	-0.045015	7290.483902	45679.599150	4210.533902	24388.686539
68.036500	0.013831	0.010000	0.001749	-0.043530	7298.508971	45664.586299	4199.224731	24316.122436
68.536500	0.012671	0.010293	0.005347	-0.042530	7277.892850	45595.468029	4205.719641	24267.405266
69.037000	0.012083	0.011087	0.008401	-0.041063	7258.390098	45529.840268	4209.707005	24196.180567
69.534000	0.013056	0.012434	0.003950	-0.039447	7252.297394	45503.539543	4194.545925	24117.952014
70.035000	0.013658	0.011833	0.005949	-0.039449	7258.013902	45445.194250	4199.522478	24118.053510
70.534500	0.015608	0.013412	0.002445	-0.038063	7263.355697	45464.019257	4187.401953	24051.182674
71.035500	0.014855	0.013011	0.006818	-0.037977	7255.412646	45416.631826	4198.021558	24047.061057
71.541000	0.016656	0.013079	0.006710	-0.037188	7264.994724	45346.448295	4195.789517	24009.065884
72.036000	0.015660	0.012876	0.004190	-0.037111	7254.836198	45319.393389	4189.358246	24005.410971
72.536500	0.015191	0.012311	0.007060	-0.037457	7253.667391	45298.153167	4197.330184	24022.039960
73.036500	0.017117	0.013244	0.006962	-0.036433	7262.215696	45289.288217	4194.541639	23972.838854
73.537000	0.016534	0.013712	0.007475	-0.035591	7248.719036	45253.001616	4193.724657	23932.458770
74.035000	0.015850	0.012557	0.005929	-0.036895	7254.585252	45267.465916	4193.124791	23995.019676
74.535000	0.017515	0.013681	0.006614	-0.034291	7245.711346	45124.291335	4188.381451	23870.337372
75.035000	0.016977	0.012973	0.010905	-0.034470	7242.313823	45073.154737	4199.465827	23878.860809
75.535500	0.017791	0.014862	0.010268	-0.032038	7227.081790	45020.832321	4191.842055	23763.046751
76.036000	0.019940	0.014537	0.006534	-0.032356	7250.340375	45020.172166	4183.421871	23778.151016
76.535500	0.019962	0.015224	0.014966	-0.029675	7225.271316	44828.504719	4197.637553	23651.112641
77.036500	0.019083	0.014458	0.008039	-0.030497	7224.737260	44833.802767	4182.553264	23689.968872
77.536500	0.018568	0.014359	0.010069	-0.030528	7220.185210	44827.327543	4187.620498	23691.423634
78.039500	0.019280	0.015001	0.014270	-0.029324	7215.577378	44773.516030	4195.035261	23634.550520
78.537000	0.019538	0.014981	0.013154	-0.029181	7216.661251	44757.869244	4191.916057	23627.798953
79.037500	0.019350	0.014417	0.011594	-0.029049	7213.653512	44691.222769	4187.732750	23621.538783
79.535000	0.020291	0.015560	0.014502	-0.028030	7212.923996	44703.086093	4192.403069	23573.549624
80.035500	0.021385	0.015380	0.009603	-0.027515	7218.350823	44636.651747	4179.077098	23549.313241
80.535500	0.020906	0.015461	0.019380	-0.027244	7211.322125	44618.571270	4202.582484	23536.598882
81.036000	0.020349	0.015443	0.012590	-0.026311	7197.387311	44527.880568	4183.447193	23492.813338
81.536000	0.019030	0.014317	0.014916	-0.026388	7185.816790	44428.195879	4189.364632	23496.426924
82.036500	0.020609	0.015042	0.014797	-0.024959	7187.215247	44361.361189	4185.551197	23429.543249
82.537000	0.020022	0.015439	0.014111	-0.024283	7175.464780	44334.887354	4182.203446	23397.964092
83.037000	0.020408	0.015161	0.014873	-0.023783	7174.420434	44261.232247	4182.848532	23374.677540
83.537000	0.020333	0.015843	0.016200	-0.022955	7166.045603	44247.463953	4184.073498	23336.132160
84.035000	0.020118	0.015185	0.012908	-0.022431	7159.209548	44135.825487	4174.738419	23311.778975
84.535500	0.018879	0.015174	0.016395	-0.021713	7141.156589	44067.063030	4181.502604	23278.434808
85.035500	0.021176	0.014754	0.012042	-0.021407	7159.522995	43998.795840	4170.145269	23264.250228
85.538500	0.019466	0.015057	0.013510	-0.020786	7138.030566	43968.970437	4172.200369	23235.504128
86.036000	0.019655	0.015898	0.017601	-0.019415	7127.166240	43919.119065	4178.828790	23172.128127
86.536000	0.020267	0.015230	0.016469	-0.018780	7126.955612	43797.027619	4174.518290	23142.844423
87.036500	0.018592	0.015026	0.021825	-0.018870	7112.448697	43786.455618	4187.862507	23147.014714
87.537000	0.018057	0.015185	0.020192	-0.017748	7097.336776	43696.497453	4181.092986	23095.391242
88.037000	0.019280	0.014947	0.013296	-0.017219	7103.656414	43624.961331	4163.052903	23071.085433
88.534500	0.016818	0.014713	0.015619	-0.017225	7081.333082	43603.781149	4168.679654	23071.369033
89.037500	0.017910	0.014610	0.017078	-0.016325	7083.072013	43510.523802	4170.033018	23030.079880
89.535000	0.017398	0.014425	0.016962	-0.016112	7076.501924	43473.542110	4169.236313	23020.332826
90.038000	0.018690	0.015389	0.017868	-0.015259	7080.480984	43483.841866	4169.363437	22981.317801
90.535000	0.021407	0.016082	0.009673	-0.013248	7086.885950	43361.749540	4144.922810	22889.649101
91.036000	0.018203	0.015493	0.019196	-0.013645	7061.481458	43343.946635	4168.671392	22907.693808
91.536500	0.019592	0.014695	0.014470	-0.013341	7071.277375	43242.149425	4156.561298	22893.872184
92.036500	0.018766	0.014936	0.022725	-0.012827	7059.185299	43216.979274	4175.258258	22870.521552
92.537000	0.018541	0.015092	0.019283	-0.011849	7048.355065	43141.241786	4164.541206	22826.117101
93.037000	0.018546	0.015634	0.019770	-0.010483	7036.132896	43065.472455	4162.422466	22764.258667
93.534500	0.018273	0.015509	0.018254	-0.010078	7030.062574	43016.802122	4157.807076	22745.964170
94.035000	0.017498	0.015584	0.020188	-0.009223	7015.511192	42945.333493	4160.398764	22707.417530
94.538000	0.016503	0.015293	0.019869	-0.008765	7002.571711	42876.832403	4158.530743	22686.764082
95.036000	0.019331	0.016184	0.019616	-0.006970	7011.760992	42794.265251	4153.632634	22606.151397
95.536000	0.018454	0.014851	0.017433	-0.007446	7008.189996	42716.153288	4149.566758	22627.489330
