sample name	sample
index	685
start time	 03-22-2021  12:07:51 PM
880	0.123684
Peak Time (s)	92.536
Peak Height 	0.1237
calc peak height	90,93
Baseline Time (s)	9.535
Baseline Value 	-0.003834
subtract baseline	10,4
Abs	0.075745
Peak Time (s)	90.535
Peak Height 	0.07574
calc peak height	90,93
Baseline Time (s)	8.537
Baseline Value 	0.003124
subtract baseline	10,3
PK_550	0.037831
Peak Time (s)	92.536
Peak Height 	0.03783
calc peak height	90,93
Baseline Time (s)	9.035
Baseline Value 	0.001244
subtract baseline	10,2
PK_880	0.070059
Peak Time (s)	90.035
Peak Height 	0.07006
calc peak height	90,93
Baseline Time (s)	10.036
Baseline Value 	0.00384
subtract baseline	10,1


Time (s)	A880-A510	A880-A775	A880-A975	A880	I510	I775	I975	I880	
0.035000	-0.003888	-0.001502	-0.004574	0.000809	7345.403126	45632.051446	3959.801541	24178.153310
0.536000	-0.002826	0.000140	-0.002934	0.005038	7312.764841	45378.114251	3953.065690	23971.467631
1.036500	-0.003964	-0.002076	-0.009523	0.003569	7316.165378	45305.072296	3939.856257	24043.022345
1.536000	-0.003447	-0.001090	-0.000257	0.000144	7356.864009	45738.116233	3972.880857	24210.826558
2.036500	-0.001125	-0.000526	0.001042	0.001080	7371.268104	45701.546531	3973.842624	24164.868620
2.537000	-0.001124	-0.000890	-0.004757	0.001638	7365.471307	45610.654612	3957.165373	24137.487518
3.040000	0.000940	-0.000000	-0.001092	-0.001359	7418.372937	45994.776006	3974.648126	24284.900163
3.537000	-0.002434	-0.000988	0.001439	-0.000275	7371.740103	45789.600972	3978.481012	24231.468152
4.035000	0.000818	-0.000382	-0.003831	-0.000171	7404.621922	45839.243931	3964.308227	24226.342567
4.535000	-0.000174	-0.000839	-0.004147	-0.000595	7398.667710	45835.964928	3964.594251	24247.238556
5.035500	-0.000191	-0.000568	-0.000043	-0.000157	7393.911603	45819.477627	3974.244651	24225.659764
5.535000	-0.000761	-0.000497	0.001387	-0.000128	7387.647451	45823.674087	3977.953427	24224.237522
6.036500	-0.000157	-0.000077	0.003192	0.000370	7388.756770	45815.880019	3981.424928	24199.729538
6.536000	0.001097	-0.000490	0.002224	0.000140	7404.282437	45797.842206	3979.464952	24211.062660
7.036500	0.000967	0.000094	-0.002867	0.000696	7397.098349	45800.605067	3964.563301	24183.704296
7.539500	-0.000854	-0.000268	-0.001588	-0.000071	7386.083970	45840.644149	3969.938885	24221.410002
8.037500	0.000600	0.000543	-0.006589	0.000253	7397.895060	45888.867463	3956.001791	24205.490313
8.537500	-0.000284	-0.000301	0.000000	-0.000396	7395.435853	45869.456624	3974.988545	24237.404563
9.035000	-0.000827	0.000000	-0.000260	-0.000500	7390.842004	45909.587991	3974.576137	24242.527871
9.535000	0.000840	0.000506	0.001964	0.000000	7403.061159	45910.185231	3979.145636	24217.930969
10.036000	0.000000	0.000264	-0.000336	-0.000002	7394.286464	45886.508279	3973.059966	24218.034413
10.536500	-0.000270	-0.000197	-0.004846	0.000308	7388.223306	45810.173789	3960.402010	24202.798575
11.041500	0.000861	0.000464	0.002123	0.000641	7396.562564	45842.617143	3977.865448	24186.402046
11.536500	0.000636	-0.000212	0.002103	0.000018	7400.733724	45837.384958	3979.465175	24217.043621
12.039500	0.000735	0.000027	-0.001502	0.000047	7401.460522	45858.088037	3969.855571	24215.601346
12.536500	-0.001182	-0.000792	0.000696	0.000240	7379.417090	45758.100087	3975.147600	24206.132653
13.034500	0.001319	0.000532	-0.002305	0.000564	7402.167952	45856.997361	3966.386394	24190.207640
13.534500	0.000898	0.000557	-0.002398	0.001454	7388.453747	45771.493579	3963.808219	24146.517093
14.035500	0.000701	0.000479	-0.002985	0.004294	7356.846518	45484.277166	3954.865786	24007.688826
14.535000	0.000418	0.000966	-0.005863	0.003333	7363.886185	45626.558663	3949.892986	24054.573698
15.035500	0.001043	-0.000151	-0.001628	0.000884	7395.927369	45757.774376	3967.322392	24174.471292
15.535500	0.000934	0.000651	-0.000106	0.001371	7389.705609	45788.982712	3970.047161	24150.594099
16.036000	-0.000148	-0.000234	-0.003006	0.000460	7387.911045	45791.479538	3964.817772	24195.287445
16.539000	-0.003949	0.000093	-0.002289	0.006037	7291.019539	45275.862498	3952.145614	23922.919933
17.036500	0.004366	0.000201	0.002417	-0.001684	7457.980382	46047.032265	3984.833840	24300.960629
17.537500	-0.000552	0.000190	-0.001025	0.002077	7366.856424	45673.835535	3965.772327	24115.974455
18.038000	0.000572	0.000397	-0.002233	0.002851	7370.498518	45617.959914	3960.582858	24078.113652
18.535000	-0.002526	0.000103	-0.000793	0.002554	7341.448819	45618.200351	3965.130030	24092.619706
19.035500	0.001108	0.000768	-0.005181	0.003401	7370.351083	45600.326383	3951.483022	24051.246326
19.535500	0.000274	0.000983	-0.000436	0.003294	7362.795098	45632.021892	3964.124900	24056.456053
20.035500	0.000088	0.000286	-0.002579	0.002521	7368.894028	45639.482999	3960.541459	24094.237411
20.536500	-0.000533	0.000026	-0.003493	0.002893	7358.579569	45577.405204	3957.189111	24076.074725
21.039500	0.000137	-0.000206	0.000271	0.002640	7368.166291	45579.426062	3967.700390	24088.441862
21.537000	-0.000952	-0.000418	-0.000394	0.002537	7357.924364	45568.732900	3966.221692	24093.466957
22.037000	0.000308	-0.000413	-0.000041	0.002361	7372.842455	45586.495851	3967.611429	24102.065174
22.537500	0.000727	0.000540	-0.002984	0.003114	7369.372253	45606.161337	3957.938943	24065.271783
23.035000	0.000221	0.000473	-0.001590	0.003288	7362.305214	45582.520420	3961.122458	24056.772259
23.535000	-0.001182	0.000064	-0.000535	0.003060	7350.123659	45564.690470	3964.480055	24067.895172
24.035500	-0.001706	-0.000413	-0.001305	0.002743	7347.977751	45548.913971	3963.293561	24083.381494
24.535500	-0.000166	0.000218	-0.000497	0.003095	7360.292313	45576.342470	3964.489367	24066.193630
25.035500	-0.001527	0.000134	-0.000159	0.003203	7345.076091	45557.505872	3965.091109	24060.925252
25.539000	-0.000243	0.000386	-0.000147	0.003124	7359.189467	45590.046640	3965.330639	24064.784655
26.039500	-0.001375	-0.000403	-0.005070	0.002647	7352.395805	45559.348439	3953.726407	24088.063545
26.537000	-0.000795	-0.000637	0.002111	0.002649	7358.396066	45536.209693	3972.523671	24087.999863
27.037000	0.002403	0.000439	0.000664	0.001151	7407.376098	45789.711605	3972.654633	24161.346510
27.537000	0.002598	-0.000203	0.007625	0.000757	7413.562974	45765.261064	3992.241011	24180.737778
28.035000	0.001523	0.001005	0.003581	0.002233	7386.839474	45738.704098	3977.510827	24108.314513
28.535000	0.000025	0.000331	0.000162	0.002432	7369.167454	45652.737880	3967.958476	24098.602111
29.035000	0.000537	0.000748	0.002839	0.002327	7375.590405	45704.146080	3975.298169	24103.742254
29.536000	0.002883	0.000853	-0.001146	0.002917	7393.910664	45656.373007	3963.253436	24074.880405
30.039000	0.002272	0.000837	-0.000609	0.002146	7395.572912	45730.732581	3966.683538	24112.572425
30.537000	-0.000464	0.001156	-0.000134	0.008575	7300.716244	45132.219766	3951.153568	23800.151505
31.039500	-0.000388	0.000033	-0.000926	0.003778	7350.911822	45491.178845	3961.578812	24032.855183
31.537000	0.001387	0.000859	0.003025	0.002531	7382.317563	45694.965948	3975.248215	24093.745861
32.034500	0.001487	0.001055	-0.001578	0.002863	7379.901935	45681.648994	3962.265589	24077.531351
32.534500	-0.001057	0.001073	-0.001154	0.007820	7302.373502	45197.570175	3950.468580	23836.590213
33.035000	0.002709	0.000978	0.003827	0.001536	7406.551125	45804.940542	3980.013864	24142.494528
33.535500	0.002920	0.001528	0.002590	0.004392	7378.897461	45577.668511	3969.191395	24002.919423
34.035500	0.001640	0.000132	-0.000861	0.004102	7368.586609	45469.024829	3960.899763	24017.044566
34.539000	-0.000393	0.000461	-0.001639	0.005918	7328.741805	45323.403281	3954.141293	23928.686750
35.035500	0.001736	0.000929	0.002913	0.005140	7358.813864	45445.456312	3968.073119	23966.523426
35.536500	0.002801	0.000728	0.005088	0.004491	7376.629366	45489.365502	3975.524013	23998.110884
36.036500	-0.002058	0.000443	0.002250	0.004263	7328.632316	45483.738210	3968.632102	24009.170749
36.537000	-0.000364	0.000558	0.003541	0.005663	7331.672270	45357.883827	3968.347731	23941.078105
37.034500	0.002105	0.000956	0.001359	0.005000	7364.083177	45461.762594	3964.359318	23973.302519
37.535000	-0.000885	-0.000120	0.000697	0.004272	7340.651416	45427.683638	3964.530698	24008.739756
38.035500	-0.000130	0.000373	-0.000321	0.004971	7341.227518	45407.478903	3960.040537	23974.710020
38.535500	-0.001023	0.000410	0.000331	0.004346	7338.470230	45472.397656	3963.379286	24005.165696
39.038500	-0.000492	0.000356	-0.000883	0.004772	7339.549904	45425.314401	3959.093642	23984.405879
39.536000	0.001338	0.000674	0.001854	0.005095	7355.137875	45424.872876	3965.408996	23968.682523
40.036500	0.002461	0.000958	0.000479	0.005102	7366.732557	45452.015014	3961.789250	23968.366317
40.536500	0.000321	0.000592	0.004019	0.005012	7345.473533	45424.903070	3971.321323	23972.731225
41.040000	0.001529	0.001338	0.002532	0.005705	7350.809299	45430.149043	3965.588931	23939.070553
41.537000	0.000264	0.000763	0.002139	0.005207	7342.864272	45422.571572	3965.862338	23963.246866
42.035000	0.000735	0.000736	0.001302	0.005202	7347.788664	45420.409557	3963.679735	23963.492111
42.535000	0.000440	0.000383	0.004554	0.004940	7347.455553	45411.578609	3972.924356	23976.245245
43.035500	0.001839	0.001344	0.001540	0.005812	7352.901846	45420.218228	3962.707829	23933.853852
43.538500	0.004459	0.001288	0.006533	0.000364	7437.290247	45951.659723	3990.362472	24200.005799
44.036000	0.002418	0.001153	0.003490	0.003091	7387.236718	45668.830476	3974.996739	24066.384464
44.536000	0.001518	0.001323	0.003640	0.004139	7366.931426	45582.382687	3972.624647	24015.228445
45.036000	0.002711	0.000842	0.006690	0.003142	7389.758575	45633.040772	3983.357862	24063.864488
45.537000	0.005049	0.001032	0.001494	0.003369	7411.863670	45629.498461	3968.998153	24052.801530
46.037500	0.001515	0.001012	0.005228	0.003295	7375.691791	45634.784205	3979.064645	24056.427145
46.537000	-0.000575	0.002060	0.003032	0.009449	7290.645122	45135.108825	3957.107294	23758.023770
47.035000	0.001541	0.000799	0.000502	0.006701	7340.624785	45280.058957	3957.676278	23890.759261
47.535500	0.000603	0.000791	-0.002108	0.005394	7344.438821	45407.069074	3954.287197	23954.180081
48.038500	0.002225	0.001192	0.007142	0.003808	7377.737202	45601.996280	3982.786933	24031.369021
48.535500	-0.000278	0.001637	0.000867	0.008197	7306.500491	45215.806842	3954.731226	23818.378409
49.036000	0.003105	0.001288	0.000718	0.003741	7387.611086	45617.998879	3965.979546	24034.630421
49.536500	0.005570	0.001080	0.005769	0.001356	7438.548829	45832.818403	3985.667589	24151.331345
50.036500	0.003485	0.001624	0.008000	0.003054	7398.776902	45718.891523	3987.090978	24068.195225
50.537000	-0.002412	-0.001009	-0.000316	0.009352	7272.883080	44846.953203	3948.670051	23762.657026
51.037000	-0.063059	-0.017340	-0.007662	0.296156	4838.691894	23763.700570	3396.343288	13653.690940
51.534500	-0.042148	-0.013862	-0.009165	0.016002	6825.106483	43004.135802	3909.315311	23444.881813
52.035000	-0.058269	-0.124808	-0.020550	-0.288506	10569.668069	65535.000000	4953.456481	44372.713312
52.537500	-0.050866	-0.191913	-0.006500	-0.355611	12013.977322	65535.000000	5390.556542	51311.128368
53.038000	-0.057159	-0.145065	-0.002155	-0.308764	10958.861558	65535.000000	5151.477025	46355.522234
53.536000	-0.046332	-0.119433	0.006964	-0.283131	10687.168384	65535.000000	5064.718507	43861.985188
54.036000	-0.047676	-0.107866	-0.005587	-0.271564	10457.684850	65535.000000	4943.784959	42784.029551
54.536000	-0.026854	-0.112418	-0.006639	-0.276117	10915.264874	65535.000000	4960.923074	43204.865632
55.036500	-0.008154	-0.098017	0.000444	-0.261716	10995.470207	65535.000000	4925.251409	41888.605823
55.537000	-0.006627	-0.066180	0.002898	-0.225732	10374.375035	64939.664894	4769.280989	38784.245926
56.037500	-0.006224	-0.033922	0.004815	-0.174161	9538.381211	62240.524868	4559.344711	34760.626796
56.534500	-0.003735	-0.018283	0.003990	-0.128267	8902.492210	58246.118908	4382.570003	31560.346544
57.038000	-0.005805	-0.012905	0.005373	-0.086502	8321.646201	53796.562638	4244.367463	28927.781566
57.535500	-0.004284	-0.007490	0.007386	-0.051668	7917.819015	50461.892619	4141.133199	26917.665299
58.035500	-0.000275	-0.004502	0.012804	-0.028375	7697.846707	48288.679387	4088.108230	25660.774752
58.536000	0.003888	-0.000501	0.013418	-0.002281	7459.240298	46036.567877	4016.193575	24330.457301
59.036500	0.006619	0.001903	0.017589	0.021590	7240.376320	43955.407021	3963.415280	23181.558586
59.536500	0.010020	0.004824	0.021564	0.039461	7096.595897	42565.660185	3927.604012	22361.856452
60.037000	0.018674	0.008892	0.021316	0.058852	6992.949168	41190.008469	3878.900439	21509.741483
60.537000	0.011234	0.008668	0.023372	0.076376	6761.670329	39656.107282	3842.064969	20771.737945
61.034500	0.022216	0.012528	0.028339	0.085583	6777.671207	39206.108682	3832.191271	20395.734006
61.537500	0.030449	0.017015	0.039221	0.088637	6824.760376	39326.135270	3850.490937	20272.788768
62.035500	0.032655	0.017231	0.035983	0.089591	6836.226991	39264.243493	3840.651649	20234.551085
62.535500	0.033157	0.018231	0.039500	0.092363	6815.470303	39116.173313	3842.392994	20123.948016
63.060500	0.038505	0.019778	0.045268	0.091466	6872.853477	39320.555146	3858.109459	20159.637716
63.539000	0.037901	0.020405	0.043188	0.093050	6852.660341	39240.439080	3849.439985	20096.640311
64.037000	0.040562	0.022298	0.041148	0.096540	6845.028415	39107.032201	3836.493819	19958.587615
64.536500	0.041390	0.022444	0.037301	0.100997	6811.804048	38749.140689	3817.356428	19783.865190
65.037500	0.044008	0.024856	0.049175	0.101393	6832.112947	38916.029797	3843.904811	19768.444116
65.537500	0.043382	0.024716	0.048603	0.102605	6815.305971	38804.017207	3839.731126	19721.268730
66.037500	0.043764	0.027157	0.050698	0.105454	6792.867171	38770.336526	3837.974151	19610.967065
66.535000	0.047480	0.027432	0.051431	0.110743	6778.611203	38358.344065	3827.412384	19408.045318
67.035500	0.050810	0.028445	0.050669	0.109670	6818.613323	38529.114854	3828.128253	19448.997865
67.535500	0.051725	0.029185	0.053139	0.110951	6815.272966	38484.737496	3830.877051	19400.106198
68.036000	0.052962	0.030312	0.062156	0.112153	6815.601581	38478.658808	3849.122701	19354.373715
68.536500	0.054404	0.030117	0.050316	0.115073	6802.134369	38224.282634	3814.937823	19243.770012
69.036500	0.055166	0.031234	0.057642	0.113660	6821.967514	38430.739195	3835.036914	19297.212615
69.537000	0.054983	0.030751	0.061455	0.114010	6817.095248	38362.620780	3843.115318	19283.955870
70.036500	0.056388	0.032334	0.059506	0.115769	6813.866900	38348.256950	3834.466656	19217.520334
70.540500	0.054698	0.033119	0.056790	0.119362	6765.977560	38119.746824	3819.925048	19082.663856
71.034500	0.060004	0.033313	0.057318	0.117212	6833.732655	38310.366425	3826.071414	19163.207986
71.535000	0.058125	0.033979	0.061766	0.117985	6809.497908	38301.707305	3834.570713	19134.210807
72.035500	0.063404	0.035046	0.060670	0.119678	6842.312976	38250.687987	3828.114052	19070.854833
72.536000	0.062820	0.035533	0.060429	0.121811	6817.427569	38116.884756	3822.652588	18991.376099
73.036000	0.064480	0.036373	0.066837	0.121007	6839.981292	38250.484610	3839.339306	19021.270287
73.536500	0.065769	0.036397	0.064840	0.120910	6852.733219	38260.360969	3834.917158	19024.890615
74.036500	0.065188	0.035788	0.066743	0.121105	6845.585051	38194.896888	3838.889717	19017.612694
74.537000	0.063413	0.037034	0.063000	0.122701	6814.709808	38166.448851	3826.516356	18958.296162
75.040000	0.066584	0.037290	0.063611	0.122356	6846.913496	38215.272187	3828.719323	18971.100133
75.537000	0.067888	0.037212	0.065928	0.122364	6858.855618	38208.281958	3834.064026	18970.805404
76.035000	0.066694	0.037824	0.060699	0.123167	6840.485259	38192.861162	3820.164423	18941.050970
76.535500	0.065190	0.037897	0.069052	0.123982	6819.247134	38132.497356	3837.567235	18910.872042
77.035500	0.068228	0.037621	0.064602	0.123071	6855.473312	38184.060501	3829.356749	18944.578074
77.535500	0.068309	0.038384	0.064885	0.123832	6849.217116	38184.265397	3828.256048	18916.419927
78.036500	0.068436	0.038219	0.072071	0.123525	6853.208232	38195.743025	3845.693649	18927.764415
78.536500	0.067518	0.037581	0.070211	0.125059	6830.688501	38019.693964	3837.759271	18871.095912
79.036500	0.069384	0.039046	0.070776	0.123929	6858.229365	38230.223094	3841.715753	18912.837145
79.540000	0.068106	0.038236	0.067029	0.123512	6850.290366	38198.298426	3833.958161	18928.269743
80.037500	0.070465	0.040038	0.066755	0.124336	6864.441984	38277.908331	3831.411470	18897.785641
80.535000	0.069739	0.038411	0.067988	0.124242	6858.603141	38153.087274	3834.487399	18901.237423
81.035500	0.069300	0.039653	0.070212	0.123959	6857.169554	38277.181067	3840.324587	18911.696067
81.535500	0.070763	0.039323	0.069971	0.124167	6868.760876	38233.420853	3839.278300	18904.037478
82.036000	0.069954	0.039346	0.067358	0.123898	6863.763557	38257.100313	3833.823067	18913.955424
82.536000	0.068876	0.038680	0.070686	0.124681	6846.625198	38139.346575	3839.749303	18885.045925
83.035500	0.070779	0.039172	0.065834	0.123744	6872.821757	38255.499906	3830.649709	18919.668846
83.536500	0.071095	0.039160	0.072754	0.123801	6875.216930	38249.955011	3846.651888	18917.563265
84.037500	0.070253	0.038571	0.066757	0.123623	6869.075459	38216.455588	3833.068898	18924.158292
84.537500	0.069836	0.039210	0.071345	0.124513	6857.007544	38196.079008	3841.681119	18891.247255
85.037500	0.067566	0.037327	0.072029	0.122483	6854.788858	38207.954984	3848.045824	18966.392785
85.535000	0.069363	0.038650	0.071836	0.123384	6863.053804	38242.283404	3845.473812	18932.977267
86.035500	0.068284	0.038859	0.071077	0.123447	6852.522245	38254.207410	3843.546283	18930.660369
86.535000	0.069525	0.039079	0.072274	0.124210	6856.936346	38210.026911	3844.564701	18902.441610
87.036000	0.069177	0.037933	0.072952	0.122564	6868.914931	38250.758319	3850.030296	18963.402202
87.536500	0.069319	0.038592	0.068425	0.123234	6864.031400	38249.788164	3837.847251	18938.534003
88.036500	0.070814	0.039103	0.068106	0.123534	6875.089110	38266.976837	3836.407784	18927.435302
88.539500	0.071120	0.038541	0.071009	0.124321	6870.633308	38157.240997	3841.342421	18898.318938
89.036500	0.070547	0.038952	0.075376	0.123632	6871.714167	38246.742164	3853.229888	18923.808542
89.537500	0.068847	0.037424	0.073719	0.122827	6863.435485	38187.939197	3851.217771	18953.634870
90.035500	0.070059	0.036781	0.070659	0.122153	6880.891787	38190.423883	3845.600849	18978.632113
90.534500	0.067131	0.037115	0.075745	0.123004	6845.988570	38148.386520	3855.590344	18947.061290
91.035500	0.069008	0.036495	0.063879	0.122050	6872.110374	38175.618509	3830.048794	18982.490584
91.536000	0.069414	0.037414	0.064786	0.122576	6871.002093	38207.478577	3830.927471	18962.950238
92.036000	0.066882	0.037520	0.070419	0.122260	6850.539335	38241.846420	3844.786345	18974.662310
92.536000	0.067138	0.037831	0.073383	0.123684	6839.803521	38151.319817	3848.404508	18921.877878
93.061500	0.069556	0.037430	0.072474	0.122565	6872.409493	38209.692173	3848.900074	18963.354971
93.536500	0.068724	0.036516	0.073563	0.122077	6869.230404	38175.019878	3852.620573	18981.470731
94.037000	0.069110	0.036607	0.075938	0.122412	6869.702848	38155.178848	3857.453098	18969.018130
94.534500	0.066571	0.036764	0.073924	0.122068	6849.452003	38195.940505	3853.496392	18981.806367
95.035000	0.064878	0.036629	0.070646	0.122481	6830.112399	38151.431037	3844.800770	18966.460677
95.535500	0.069000	0.036320	0.073645	0.122546	6867.453034	38121.103151	3851.707933	18964.074534
96.037500	0.066964	0.036479	0.071320	0.122276	6851.151703	38155.861800	3846.864288	18974.067467
