sample name	sample
index	778
start time	 03-31-2021  01:40:41 PM


Wavelength (nm)	Absorbance
494.344910	NaN
494.563924	NaN
494.782919	NaN
495.001897	-0.328585
495.220856	0.388719
495.439797	0.358781
495.658719	0.411984
495.877624	0.571525
496.096510	NaN
496.315378	0.782245
496.534227	0.393942
496.753059	0.249754
496.971872	0.183369
497.190667	0.021336
497.409444	0.011403
497.628203	0.008624
497.846943	0.007729
498.065665	0.006563
498.284369	0.007170
498.503055	0.006634
498.721723	0.006957
498.940372	0.006716
499.159003	0.007099
499.377616	0.006935
499.596210	0.006950
499.814787	0.005677
500.033345	0.005138
500.251885	0.005758
500.470406	0.005707
500.688910	0.004647
500.907395	0.004832
501.125862	0.004561
501.344311	0.004825
501.562742	0.004823
501.781154	0.005517
501.999548	0.005949
502.217924	0.005082
502.436282	0.005723
502.654621	0.006155
502.872942	0.005229
503.091245	0.004363
503.309530	0.003448
503.527797	0.003773
503.746045	0.004449
503.964275	0.004703
504.182487	0.004483
504.400681	0.003749
504.618856	0.003539
504.837013	0.004481
505.055152	0.004816
505.273273	0.005005
505.491376	0.004763
505.709460	0.003202
505.927526	0.003073
506.145574	0.003666
506.363604	0.004496
506.581615	0.004809
506.799608	0.004000
507.017583	0.003563
507.235540	0.004356
507.453478	0.004013
507.671399	0.005796
507.889301	0.005711
508.107185	0.005152
508.325050	0.004486
508.542898	0.004016
508.760727	0.004391
508.978538	0.005655
509.196330	0.004267
509.414105	0.003699
509.631861	0.002473
509.849599	0.002318
510.067319	0.001530
510.285021	0.001298
510.502704	0.001745
510.720369	0.001762
510.938016	0.001166
511.155645	0.002641
511.373255	0.003216
511.590848	0.003656
511.808422	0.003583
512.025977	0.004769
512.243515	0.004309
512.461034	0.003753
512.678536	0.003685
512.896018	0.003084
513.113483	0.002958
513.330930	0.002638
513.548358	0.001937
513.765768	0.002487
513.983160	0.002233
514.200533	0.003311
514.417889	0.003889
514.635226	0.003932
514.852545	0.004378
515.069845	0.003287
515.287128	0.003422
515.504392	0.003629
515.721638	0.003220
515.938866	0.003313
516.156075	0.002260
516.373267	0.001816
516.590440	0.002501
516.807594	0.002510
517.024731	0.002721
517.241850	0.002165
517.458950	0.002604
517.676032	0.002620
517.893095	0.002226
518.110141	0.002532
518.327168	0.002888
518.544177	0.001723
518.761168	0.001796
518.978141	0.002412
519.195095	0.002517
519.412031	0.002717
519.628949	0.003233
519.845849	0.003468
520.062731	0.003959
520.279594	0.003769
520.496439	0.004438
520.713266	0.004035
520.930074	0.003922
521.146865	0.004117
521.363637	0.003618
521.580391	0.003616
521.797127	0.003327
522.013844	0.003639
522.230543	0.003339
522.447224	0.003332
522.663887	0.003560
522.880532	0.003843
523.097158	0.003362
523.313766	0.003474
523.530356	0.002990
523.746928	0.003279
523.963481	0.002874
524.180017	0.003358
524.396534	0.003267
524.613032	0.003148
524.829513	0.002855
525.045975	0.003537
525.262420	0.003641
525.478845	0.003462
525.695253	0.003063
525.911643	0.002938
526.128014	0.002863
526.344367	0.002948
526.560702	0.003318
526.777018	0.003198
526.993316	0.002648
527.209597	0.002616
527.425858	0.003470
527.642102	0.004121
527.858328	0.003815
528.074535	0.003654
528.290724	0.003589
528.506894	0.003037
528.723047	0.003136
528.939181	0.003280
529.155297	0.002704
529.371395	0.002131
529.587475	0.001590
529.803536	0.002242
530.019579	0.002169
530.235604	0.002344
530.451611	0.002820
530.667600	0.002383
530.883570	0.002261
531.099522	0.002651
531.315456	0.002811
531.531372	0.003160
531.747269	0.003509
531.963148	0.003489
532.179009	0.003330
532.394852	0.003241
532.610676	0.003521
532.826482	0.004043
533.042271	0.004329
533.258040	0.004343
533.473792	0.004043
533.689525	0.003449
533.905240	0.003692
534.120937	0.003943
534.336616	0.003852
534.552277	0.003880
534.767919	0.003815
534.983543	0.003610
535.199149	0.004246
535.414736	0.004064
535.630306	0.004083
535.845857	0.004181
536.061390	0.003908
536.276904	0.003458
536.492401	0.003784
536.707879	0.003709
536.923339	0.003830
537.138781	0.002969
537.354204	0.003079
537.569610	0.003237
537.784997	0.003025
538.000366	0.002986
538.215716	0.003246
538.431049	0.003404
538.646363	0.003817
538.861659	0.003836
539.076937	0.004146
539.292196	0.004519
539.507438	0.004663
539.722661	0.004735
539.937866	0.004940
540.153052	0.005223
540.368221	0.005128
540.583371	0.005427
540.798503	0.005537
541.013617	0.005665
541.228712	0.006164
541.443789	0.006145
541.658848	0.006372
541.873889	0.006406
542.088912	0.006449
542.303916	0.006581
542.518902	0.006169
542.733870	0.006282
542.948820	0.006401
543.163752	0.005800
543.378665	0.005839
543.593560	0.005947
543.808437	0.005694
544.023295	0.005848
544.238136	0.005701
544.452958	0.005557
544.667762	0.005350
544.882548	0.005204
545.097315	0.005228
545.312064	0.005202
545.526795	0.005093
545.741508	0.005329
545.956203	0.005430
546.170879	0.005743
546.385537	0.005875
546.600177	0.005989
546.814799	0.006198
547.029402	0.006446
547.243988	0.006936
547.458555	0.006850
547.673103	0.007062
547.887634	0.007048
548.102146	0.006951
548.316640	0.007503
548.531116	0.007257
548.745574	0.006889
548.960013	0.006557
549.174435	0.006229
549.388838	0.006486
549.603222	0.006941
549.817589	0.007247
550.031937	0.006955
550.246267	0.006337
550.460579	0.006290
550.674873	0.006599
550.889148	0.006678
551.103405	0.006612
551.317644	0.006717
551.531865	0.006106
551.746068	0.006000
551.960252	0.006314
552.174418	0.007029
552.388566	0.007751
552.602696	0.007602
552.816807	0.007901
553.030900	0.007864
553.244975	0.007775
553.459032	0.008026
553.673070	0.007868
553.887091	0.007927
554.101093	0.007187
554.315077	0.007035
554.529042	0.007508
554.742990	0.007349
554.956919	0.007768
555.170830	0.007961
555.384722	0.008077
555.598597	0.007985
555.812453	0.007832
556.026291	0.008090
556.240111	0.008398
556.453913	0.008224
556.667696	0.008697
556.881461	0.008336
557.095208	0.008411
557.308937	0.008194
557.522647	0.008359
557.736339	0.008481
557.950013	0.008589
558.163669	0.008821
558.377307	0.008907
558.590926	0.008719
558.804527	0.008932
559.018110	0.008587
559.231675	0.008857
559.445221	0.009343
559.658749	0.009524
559.872259	0.009752
560.085751	0.009135
560.299225	0.008908
560.512680	0.009252
560.726117	0.009430
560.939536	0.009763
561.152937	0.010032
561.366319	0.009878
561.579683	0.009515
561.793029	0.009258
562.006357	0.009451
562.219667	0.009883
562.432958	0.009885
562.646231	0.009977
562.859486	0.009777
563.072723	0.009165
563.285941	0.008950
563.499141	0.008986
563.712323	0.009203
563.925487	0.009124
564.138632	0.008867
564.351760	0.008659
564.564869	0.008416
564.777960	0.008402
564.991032	0.008751
565.204087	0.008945
565.417123	0.009138
565.630141	0.008986
565.843140	0.009275
566.056122	0.009329
566.269085	0.009059
566.482030	0.009477
566.694957	0.009603
566.907866	0.009861
567.120756	0.009496
567.333628	0.009593
567.546482	0.009486
567.759318	0.009595
567.972135	0.009709
568.184935	0.009919
568.397716	0.009258
568.610478	0.009504
568.823223	0.009251
569.035949	0.009782
569.248657	0.009881
569.461347	0.010275
569.674019	0.010131
569.886672	0.010073
570.099308	0.010168
570.311925	0.010456
570.524523	0.010111
570.737104	0.010213
570.949666	0.010382
571.162210	0.010258
571.374736	0.010114
571.587244	0.010471
571.799733	0.010274
572.012205	0.010667
572.224658	0.010714
572.437092	0.010745
572.649509	0.011073
572.861907	0.010838
573.074287	0.011264
573.286649	0.011389
573.498993	0.010946
573.711318	0.011293
573.923625	0.011188
574.135914	0.011292
574.348185	0.011711
574.560438	0.011682
574.772672	0.011807
574.984888	0.011515
575.197086	0.011777
575.409266	0.012025
575.621427	0.012017
575.833570	0.012106
576.045695	0.012000
576.257802	0.011890
576.469890	0.011458
576.681961	0.011671
576.894013	0.011672
577.106046	0.011571
577.318062	0.011507
577.530059	0.011532
577.742039	0.011524
577.954000	0.011746
578.165942	0.011706
578.377867	0.011832
578.589773	0.011630
578.801661	0.011964
579.013531	0.011896
579.225382	0.012237
579.437216	0.012307
579.649031	0.012250
579.860828	0.012450
580.072606	0.012556
580.284367	0.012681
580.496109	0.012639
580.707833	0.012142
580.919539	0.012365
581.131227	0.012377
581.342896	0.012428
581.554547	0.012373
581.766180	0.012287
581.977795	0.012540
582.189391	0.012698
582.400969	0.012777
582.612529	0.013209
582.824071	0.013084
583.035595	0.013047
583.247100	0.012999
583.458587	0.013103
583.670056	0.013054
583.881506	0.013186
584.092939	0.013214
584.304353	0.013285
584.515749	0.013275
584.727127	0.013120
584.938486	0.013173
585.149828	0.013310
585.361151	0.013446
585.572456	0.013402
585.783742	0.013143
585.995011	0.013404
586.206261	0.013437
586.417493	0.013451
586.628706	0.013547
586.839902	0.013315
587.051079	0.013291
587.262238	0.013006
587.473379	0.013561
587.684502	0.013838
587.895606	0.013740
588.106692	0.013579
588.317760	0.013837
588.528810	0.014054
588.739841	0.014096
588.950855	0.014148
589.161850	0.014485
589.372827	0.013997
589.583785	0.013788
589.794726	0.013723
590.005648	0.013639
590.216552	0.013634
590.427437	0.013650
590.638305	0.013646
590.849154	0.013623
591.059985	0.013439
591.270798	0.013739
591.481592	0.013844
591.692369	0.014072
591.903127	0.014536
592.113867	0.014385
592.324588	0.014330
592.535292	0.014412
592.745977	0.014716
592.956644	0.014792
593.167293	0.014625
593.377923	0.014653
593.588536	0.014340
593.799130	0.014270
594.009706	0.014519
594.220263	0.014556
594.430803	0.014499
594.641324	0.014245
594.851827	0.014251
595.062312	0.014364
595.272778	0.014273
595.483227	0.014292
595.693657	0.014366
595.904069	0.014110
596.114462	0.014362
596.324838	0.014736
596.535195	0.015069
596.745534	0.015348
596.955855	0.015544
597.166157	0.015453
597.376441	0.015907
597.586707	0.015939
597.796955	0.016141
598.007185	0.015901
598.217396	0.015429
598.427589	0.015217
598.637764	0.015186
598.847921	0.015102
599.058060	0.015407
599.268180	0.015053
599.478282	0.014978
599.688366	0.014834
599.898431	0.015039
600.108479	0.015351
600.318508	0.015586
600.528519	0.015839
600.738511	0.016153
600.948486	0.016202
601.158442	0.016347
601.368380	0.016366
601.578300	0.016520
601.788202	0.016748
601.998085	0.016852
602.207950	0.016565
602.417797	0.016415
602.627626	0.016268
602.837436	0.016186
603.047228	0.016129
603.257002	0.016056
603.466758	0.016084
603.676496	0.015838
603.886215	0.015570
604.095916	0.015700
604.305599	0.015583
604.515264	0.015486
604.724910	0.015694
604.934538	0.016003
605.144148	0.016050
605.353740	0.016054
605.563314	0.016095
605.772869	0.016273
605.982406	0.016660
606.191925	0.016573
606.401425	0.016689
606.610908	0.016655
606.820372	0.016262
607.029818	0.016365
607.239246	0.016179
607.448655	0.016205
607.658047	0.016104
607.867420	0.015877
608.076775	0.015892
608.286111	0.015769
608.495430	0.015471
608.704730	0.015676
608.914012	0.015495
609.123275	0.015802
609.332521	0.015659
609.541748	0.015543
609.750957	0.015401
609.960148	0.015465
610.169321	0.015736
610.378475	0.015948
610.587611	0.015907
610.796729	0.015870
611.005829	0.015841
611.214910	0.016083
611.423974	0.016444
611.633019	0.016386
611.842045	0.016507
612.051054	0.016290
612.260044	0.016347
612.469017	0.016566
612.677970	0.016645
612.886906	0.016552
613.095824	0.016539
613.304723	0.016679
613.513604	0.016637
613.722467	0.016633
613.931311	0.016560
614.140138	0.016805
614.348946	0.016665
614.557736	0.016913
614.766507	0.017224
614.975261	0.017343
615.183996	0.017150
615.392713	0.017393
615.601412	0.017626
615.810092	0.017558
616.018754	0.017138
616.227399	0.017237
616.436024	0.016993
616.644632	0.016940
616.853222	0.017015
617.061793	0.017000
617.270346	0.016946
617.478880	0.016794
617.687397	0.017168
617.895895	0.017489
618.104375	0.017624
618.312837	0.017820
618.521281	0.017789
618.729706	0.017664
618.938113	0.017670
619.146502	0.017965
619.354873	0.018213
619.563226	0.018113
619.771560	0.018015
619.979876	0.017911
620.188174	0.018011
620.396453	0.018034
620.604715	0.018092
620.812958	0.018335
621.021183	0.018256
621.229390	0.018140
621.437578	0.018206
621.645748	0.018288
621.853900	0.018152
622.062034	0.018084
622.270150	0.017856
622.478247	0.018001
622.686326	0.018197
622.894387	0.018330
623.102430	0.018262
623.310454	0.018279
623.518461	0.018279
623.726449	0.018625
623.934418	0.018664
624.142370	0.019208
624.350303	0.019221
624.558218	0.018938
624.766115	0.018839
624.973994	0.018988
625.181855	0.019051
625.389697	0.018985
625.597521	0.018802
625.805327	0.019012
626.013114	0.018638
626.220883	0.018684
626.428634	0.018938
626.636367	0.019013
626.844082	0.018968
627.051778	0.018945
627.259457	0.019069
627.467117	0.019158
627.674758	0.019226
627.882382	0.019657
628.089987	0.019589
628.297574	0.019480
628.505143	0.019538
628.712694	0.019639
628.920226	0.019822
629.127740	0.019999
629.335236	0.020043
629.542714	0.019692
629.750174	0.019627
629.957615	0.019786
630.165038	0.019942
630.372443	0.019795
630.579829	0.019806
630.787198	0.019721
630.994548	0.019758
631.201880	0.019580
631.409194	0.019879
631.616489	0.019689
631.823766	0.019736
632.031025	0.019772
632.238266	0.019984
632.445489	0.019993
632.652693	0.020190
632.859879	0.020334
633.067047	0.020447
633.274197	0.020357
633.481329	0.020426
633.688442	0.020327
633.895537	0.020213
634.102614	0.019883
634.309672	0.019912
634.516713	0.019962
634.723735	0.019734
634.930739	0.019801
635.137724	0.019877
635.344692	0.019984
635.551641	0.019893
635.758572	0.019982
635.965485	0.020211
636.172379	0.020237
636.379256	0.019953
636.586114	0.019928
636.792954	0.019904
636.999775	0.020127
637.206579	0.020192
637.413364	0.020257
637.620131	0.020297
637.826880	0.020397
638.033610	0.020431
638.240323	0.020722
638.447017	0.020969
638.653692	0.021082
638.860350	0.020958
639.066990	0.021086
639.273611	0.021207
639.480214	0.021319
639.686798	0.021429
639.893365	0.021538
640.099913	0.021524
640.306443	0.021309
640.512955	0.021343
640.719449	0.021547
640.925924	0.021514
641.132381	0.021552
641.338820	0.021608
641.545241	0.021860
641.751644	0.021960
641.958028	0.022014
642.164394	0.022161
642.370742	0.022342
642.577071	0.022202
642.783383	0.022175
642.989676	0.022049
643.195951	0.021876
643.402207	0.021663
643.608446	0.021538
643.814666	0.021432
644.020868	0.021296
644.227052	0.021170
644.433218	0.020988
644.639365	0.020949
644.845494	0.021217
645.051605	0.021496
645.257698	0.021652
645.463772	0.021815
645.669828	0.022060
645.875866	0.022436
646.081886	0.022561
646.287888	0.023009
646.493871	0.023124
646.699836	0.023020
646.905783	0.023040
647.111712	0.023066
647.317622	0.023074
647.523514	0.023201
647.729388	0.023182
647.935244	0.023350
648.141082	0.023412
648.346901	0.023449
648.552702	0.023621
648.758485	0.023615
648.964250	0.023486
649.169996	0.023486
649.375724	0.023343
649.581434	0.023370
649.787126	0.023322
649.992800	0.023271
650.198455	0.023315
650.404092	0.023488
650.609711	0.023490
650.815311	0.023577
651.020894	0.023517
651.226458	0.023445
651.432004	0.023551
651.637532	0.023731
651.843041	0.023662
652.048532	0.023837
652.254006	0.023786
652.459460	0.023794
652.664897	0.024061
652.870315	0.024227
653.075716	0.024307
653.281097	0.024163
653.486461	0.024136
653.691807	0.024310
653.897134	0.024178
654.102443	0.024353
654.307734	0.024418
654.513006	0.024245
654.718261	0.024117
654.923497	0.024277
655.128715	0.024397
655.333915	0.024234
655.539096	0.024169
655.744259	0.024244
655.949404	0.024126
656.154531	0.024107
656.359640	0.024297
656.564730	0.024527
656.769802	0.024601
656.974856	0.024710
657.179892	0.025034
657.384909	0.025183
657.589908	0.025275
657.794889	0.025223
657.999852	0.025325
658.204797	0.025512
658.409723	0.025429
658.614631	0.025664
658.819521	0.025838
659.024393	0.025940
659.229246	0.025823
659.434081	0.025882
659.638898	0.026059
659.843697	0.026196
660.048478	0.026024
660.253240	0.026265
660.457984	0.026026
660.662710	0.025716
660.867417	0.025581
661.072107	0.025781
661.276778	0.025647
661.481431	0.025737
661.686066	0.025777
661.890682	0.025873
662.095281	0.025639
662.299861	0.025706
662.504422	0.025980
662.708966	0.026112
662.913491	0.026425
663.117999	0.026722
663.322488	0.026695
663.526958	0.026736
663.731411	0.026778
663.935845	0.027179
664.140261	0.027294
664.344659	0.027635
664.549038	0.027701
664.753400	0.027493
664.957743	0.027486
665.162068	0.027506
665.366375	0.027347
665.570663	0.027252
665.774933	0.027149
665.979185	0.027402
666.183419	0.027212
666.387635	0.027321
666.591832	0.027305
666.796011	0.027426
667.000172	0.027635
667.204315	0.027896
667.408439	0.027937
667.612545	0.027895
667.816634	0.027672
668.020703	0.027762
668.224755	0.027719
668.428788	0.027922
668.632803	0.027896
668.836800	0.027794
669.040779	0.027978
669.244739	0.028198
669.448681	0.028369
669.652605	0.028475
669.856511	0.028552
670.060399	0.028499
670.264268	0.028491
670.468119	0.028391
670.671952	0.028490
670.875767	0.028331
671.079563	0.028235
671.283341	0.028278
671.487101	0.028348
671.690843	0.028443
671.894567	0.028543
672.098272	0.028716
672.301959	0.028737
672.505628	0.028782
672.709278	0.029037
672.912911	0.029195
673.116525	0.029362
673.320121	0.029298
673.523699	0.029174
673.727258	0.029227
673.930799	0.028983
674.134322	0.029264
674.337827	0.029327
674.541314	0.028910
674.744782	0.028919
674.948232	0.028920
675.151664	0.028836
675.355078	0.028812
675.558474	0.028875
675.761851	0.029002
675.965210	0.028888
676.168551	0.028846
676.371873	0.029181
676.575178	0.029059
676.778464	0.029110
676.981732	0.029438
677.184981	0.029678
677.388213	0.029821
677.591426	0.029982
677.794621	0.030137
677.997798	0.030303
678.200956	0.030198
678.404097	0.030220
678.607219	0.030237
678.810323	0.030486
679.013408	0.030431
679.216476	0.030444
679.419525	0.030488
679.622556	0.030392
679.825569	0.030357
680.028563	0.030855
680.231540	0.031159
680.434498	0.031243
680.637438	0.030913
680.840359	0.030954
681.043263	0.030838
681.246148	0.030873
681.449015	0.031151
681.651864	0.031147
681.854694	0.030887
682.057506	0.030894
682.260301	0.030999
682.463076	0.031133
682.665834	0.031180
682.868573	0.031259
683.071295	0.031336
683.273998	0.031450
683.476682	0.031619
683.679349	0.031668
683.881997	0.031652
684.084627	0.031645
684.287239	0.031806
684.489833	0.031961
684.692408	0.032165
684.894965	0.032298
685.097504	0.032066
685.300025	0.032112
685.502527	0.032407
685.705012	0.032489
685.907478	0.032421
686.109925	0.032335
686.312355	0.032160
686.514766	0.032060
686.717159	0.031905
686.919534	0.031929
687.121891	0.031928
687.324230	0.031735
687.526550	0.031764
687.728852	0.031684
687.931136	0.031514
688.133401	0.031720
688.335649	0.031833
688.537878	0.031965
688.740089	0.032182
688.942281	0.032184
689.144456	0.032150
689.346612	0.032172
689.548750	0.032278
689.750870	0.032461
689.952971	0.032504
690.155055	0.032475
690.357120	0.032234
690.559167	0.032309
690.761195	0.032264
690.963206	0.032377
691.165198	0.032448
691.367172	0.032525
691.569128	0.032586
691.771065	0.032537
691.972984	0.032472
692.174885	0.032768
692.376768	0.032653
692.578633	0.032862
692.780479	0.032787
692.982308	0.032778
693.184118	0.032968
693.385909	0.032892
693.587683	0.032918
693.789438	0.033167
693.991175	0.033114
694.192894	0.033219
694.394595	0.033129
694.596277	0.033181
694.797941	0.033327
694.999587	0.033266
695.201215	0.033385
695.402824	0.033304
695.604416	0.033356
695.805989	0.033569
696.007543	0.033602
696.209080	0.033643
696.410598	0.033610
696.612099	0.033528
696.813580	0.033478
697.015044	0.033726
697.216490	0.033999
697.417917	0.034031
697.619326	0.034026
697.820717	0.034081
698.022089	0.034266
698.223444	0.034417
698.424780	0.034714
698.626098	0.034807
698.827397	0.034977
699.028679	0.034937
699.229942	0.034974
699.431187	0.034947
699.632414	0.034883
699.833622	0.034800
700.034813	0.034986
700.235985	0.034927
700.437139	0.035082
700.638274	0.034887
700.839392	0.035103
701.040491	0.035216
701.241572	0.035320
701.442635	0.035366
701.643679	0.035608
701.844706	0.035830
702.045714	0.035924
702.246704	0.035972
702.447675	0.036089
702.648629	0.036058
702.849564	0.035879
703.050481	0.035935
703.251380	0.036152
703.452260	0.036198
703.653122	0.035966
703.853966	0.035879
704.054792	0.035834
704.255600	0.035892
704.456389	0.036021
704.657160	0.036064
704.857913	0.035885
705.058648	0.035777
705.259365	0.035598
705.460063	0.035691
705.660743	0.035778
705.861405	0.035819
706.062048	0.035753
706.262674	0.035673
706.463281	0.035716
706.663870	0.035905
706.864441	0.035996
707.064993	0.035988
707.265527	0.035878
707.466043	0.035893
707.666541	0.035777
707.867021	0.035848
708.067482	0.035810
708.267925	0.035943
708.468350	0.035900
708.668757	0.035807
708.869145	0.035933
709.069516	0.035941
709.269868	0.035765
709.470201	0.035923
709.670517	0.035871
709.870814	0.035694
710.071093	0.035681
710.271354	0.035611
710.471597	0.035618
710.671821	0.035544
710.872028	0.035795
711.072216	0.036051
711.272385	0.036045
711.472537	0.036139
711.672670	0.036278
711.872785	0.036353
712.072882	0.036603
712.272961	0.036728
712.473021	0.036814
712.673063	0.036565
712.873087	0.036413
713.073093	0.036525
713.273081	0.036544
713.473050	0.036614
713.673001	0.036352
713.872934	0.036154
714.072849	0.036183
714.272745	0.036130
714.472623	0.036203
714.672483	0.036219
714.872325	0.036099
715.072148	0.035896
715.271954	0.035966
715.471741	0.036118
715.671509	0.036128
715.871260	0.035891
716.070992	0.035807
716.270707	0.035722
716.470403	0.035715
716.670080	0.035702
716.869740	0.035738
717.069381	0.035625
717.269004	0.035716
717.468609	0.035673
717.668195	0.035527
717.867764	0.035643
718.067314	0.035677
718.266846	0.035844
718.466360	0.035933
718.665855	0.036143
718.865332	0.036121
719.064791	0.036134
719.264232	0.036312
719.463655	0.036810
719.663059	0.036767
719.862445	0.036858
720.061813	0.036681
720.261163	0.036674
720.460494	0.036704
720.659807	0.036776
720.859102	0.036713
721.058379	0.036663
721.257638	0.036536
721.456878	0.036558
721.656100	0.036516
721.855304	0.036587
722.054490	0.036574
722.253657	0.036273
722.452806	0.036328
722.651937	0.036261
722.851050	0.036115
723.050145	0.036039
723.249221	0.036150
723.448279	0.036212
723.647319	0.036174
723.846340	0.036152
724.045344	0.036149
724.244329	0.036121
724.443296	0.036039
724.642245	0.036180
724.841175	0.036197
725.040088	0.036247
725.238982	0.036092
725.437857	0.035828
725.636715	0.035740
725.835554	0.035876
726.034376	0.035792
726.233179	0.035953
726.431963	0.035905
726.630730	0.035915
726.829478	0.035760
727.028208	0.035933
727.226920	0.036198
727.425614	0.036178
727.624289	0.036365
727.822946	0.036482
728.021585	0.036530
728.220206	0.036591
728.418808	0.036550
728.617392	0.036574
728.815958	0.036590
729.014506	0.036652
729.213036	0.036751
729.411547	0.036527
729.610040	0.036423
729.808515	0.036438
730.006972	0.036375
730.205410	0.036373
730.403831	0.036428
730.602233	0.036466
730.800616	0.036424
730.998982	0.036466
731.197329	0.036573
731.395658	0.036586
731.593969	0.036566
731.792262	0.036657
731.990536	0.036831
732.188793	0.036774
732.387031	0.036689
732.585250	0.036677
732.783452	0.036625
732.981635	0.036427
733.179800	0.036291
733.377947	0.036160
733.576076	0.036091
733.774186	0.035855
733.972278	0.035855
734.170352	0.035958
734.368408	0.035817
734.566446	0.035857
734.764465	0.036230
734.962466	0.036364
735.160449	0.036457
735.358413	0.036691
735.556360	0.036725
735.754288	0.036721
735.952198	0.036563
736.150090	0.036628
736.347963	0.036595
736.545818	0.036074
736.743655	0.036168
736.941474	0.036308
737.139275	0.035929
737.337057	0.035870
737.534821	0.035776
737.732567	0.035809
737.930295	0.035958
738.128005	0.036042
738.325696	0.036108
738.523369	0.035964
738.721024	0.035613
738.918660	0.035631
739.116279	0.035855
739.313879	0.035941
739.511461	0.035894
739.709024	0.035758
739.906570	0.035525
740.104097	0.035800
740.301606	0.036084
740.499097	0.036182
740.696569	0.036451
740.894024	0.036289
741.091460	0.036158
741.288878	0.036229
741.486277	0.036278
741.683659	0.036418
741.881022	0.036403
742.078367	0.036243
742.275694	0.036198
742.473002	0.036068
742.670293	0.036209
742.867565	0.036453
743.064819	0.036607
743.262054	0.036808
743.459272	0.036892
743.656471	0.037010
743.853652	0.036963
744.050815	0.037098
744.247959	0.036915
744.445085	0.036999
744.642194	0.036932
744.839283	0.036675
745.036355	0.036433
745.233408	0.036512
745.430444	0.036224
745.627461	0.036201
745.824459	0.036032
746.021440	0.036161
746.218402	0.036005
746.415346	0.035844
746.612272	0.035923
746.809180	0.035962
747.006069	0.035902
747.202940	0.036015
747.399793	0.035953
747.596628	0.036081
747.793444	0.035973
747.990243	0.036067
748.187023	0.036332
748.383784	0.036383
748.580528	0.036287
748.777253	0.036235
748.973960	0.036259
749.170649	0.036461
749.367320	0.036521
749.563973	0.036797
749.760607	0.036759
749.957223	0.036603
750.153821	0.036538
750.350400	0.036602
750.546962	0.036505
750.743505	0.036512
750.940030	0.036327
751.136536	0.036253
751.333025	0.036025
751.529495	0.035927
751.725947	0.035764
751.922381	0.035577
752.118796	0.035521
752.315194	0.035511
752.511573	0.035282
752.707934	0.035317
752.904276	0.035339
753.100601	0.035435
753.296907	0.035443
753.493195	0.035576
753.689465	0.035900
753.885716	0.035970
754.081949	0.036200
754.278164	0.036487
754.474361	0.036357
754.670540	0.036316
754.866700	0.036371
755.062843	0.036485
755.258967	0.036588
755.455072	0.036457
755.651160	0.036519
755.847229	0.036415
756.043280	0.036429
756.239313	0.036622
756.435328	0.036703
756.631324	0.036768
756.827302	0.036885
757.023262	0.036959
757.219204	0.037059
757.415127	0.036949
757.611033	0.036925
757.806920	0.036852
758.002788	0.036711
758.198639	0.036688
758.394471	0.036773
758.590286	0.036604
758.786081	0.036419
758.981859	0.036348
759.177619	0.036334
759.373360	0.036164
759.569083	0.035928
759.764788	0.035942
759.960474	0.035776
760.156143	0.035596
760.351793	0.035535
760.547425	0.035430
760.743038	0.035289
760.938634	0.035395
761.134211	0.035457
761.329770	0.035643
761.525311	0.035601
761.720833	0.035825
761.916338	0.035671
762.111824	0.035611
762.307292	0.035628
762.502741	0.035689
762.698173	0.035745
762.893586	0.035764
763.088981	0.035722
763.284358	0.035727
763.479716	0.035490
763.675057	0.035474
763.870379	0.035448
764.065683	0.035518
764.260968	0.035575
764.456236	0.035513
764.651485	0.035448
764.846716	0.035391
765.041929	0.035489
765.237123	0.035566
765.432299	0.035508
765.627457	0.035580
765.822597	0.035510
766.017719	0.035399
766.212822	0.035447
766.407907	0.035491
766.602974	0.035545
766.798023	0.035379
766.993054	0.035502
767.188066	0.035675
767.383060	0.035808
767.578036	0.035992
767.772993	0.036157
767.967933	0.036238
768.162854	0.036365
768.357757	0.036352
768.552642	0.036423
768.747508	0.036118
768.942356	0.036126
769.137186	0.035979
769.331998	0.035883
769.526792	0.035751
769.721567	0.035412
769.916324	0.035147
770.111063	0.035098
770.305784	0.035103
770.500486	0.035275
770.695171	0.035355
770.889837	0.035338
771.084484	0.035391
771.279114	0.035495
771.473725	0.035501
771.668318	0.035428
771.862893	0.035387
772.057450	0.035435
772.251988	0.035570
772.446509	0.035389
772.641011	0.035439
772.835494	0.035277
773.029960	0.035110
773.224407	0.035198
773.418836	0.035414
773.613247	0.035521
773.807640	0.035589
774.002014	0.035695
774.196370	0.035780
774.390708	0.035777
774.585028	0.036022
774.779330	0.036145
774.973613	0.036308
775.167878	0.036390
775.362125	0.036363
775.556354	0.036410
775.750564	0.036121
775.944756	0.035985
776.138930	0.035992
776.333086	0.036105
776.527223	0.036305
776.721343	0.036470
776.915444	0.036410
777.109526	0.036650
777.303591	0.036727
777.497637	0.037097
777.691666	0.037288
777.885676	0.037466
778.079667	0.037177
778.273641	0.037017
778.467596	0.036840
778.661533	0.036778
778.855452	0.036569
779.049352	0.036479
779.243235	0.036266
779.437099	0.036204
779.630945	0.036134
779.824773	0.036254
780.018582	0.036207
780.212373	0.036268
780.406146	0.036426
780.599901	0.036452
780.793638	0.036367
780.987356	0.036241
781.181056	0.036496
781.374738	0.036543
781.568402	0.036623
781.762047	0.036713
781.955674	0.036740
782.149283	0.036881
782.342874	0.036790
782.536447	0.036974
782.730001	0.037145
782.923537	0.037014
783.117055	0.037060
783.310555	0.036906
783.504036	0.036976
783.697499	0.036998
783.890944	0.036690
784.084371	0.037103
784.277780	0.037034
784.471170	0.037130
784.664542	0.037199
784.857896	0.037079
785.051231	0.037099
785.244549	0.037393
785.437848	0.037476
785.631129	0.037591
785.824392	0.037350
786.017636	0.037289
786.210863	0.037194
786.404071	0.037213
786.597260	0.037279
786.790432	0.037438
786.983585	0.037190
787.176721	0.036953
787.369838	0.037121
787.562936	0.037081
787.756017	0.037159
787.949079	0.037179
788.142123	0.037079
788.335149	0.037113
788.528156	0.036969
788.721146	0.037034
788.914117	0.037118
789.107070	0.036892
789.300005	0.036937
789.492921	0.036939
789.685819	0.036962
789.878699	0.036990
790.071561	0.036861
790.264405	0.037082
790.457230	0.036991
790.650037	0.037029
790.842826	0.037220
791.035597	0.037468
791.228349	0.037427
791.421084	0.037429
791.613800	0.037423
791.806497	0.037389
791.999177	0.037326
792.191838	0.037172
792.384481	0.037267
792.577106	0.037194
792.769713	0.037011
792.962301	0.037029
793.154871	0.036967
793.347423	0.036983
793.539957	0.037202
793.732473	0.037134
793.924970	0.037295
794.117449	0.037473
794.309910	0.037655
794.502353	0.037951
794.694777	0.038124
794.887183	0.038298
795.079571	0.038408
795.271941	0.038325
795.464293	0.038441
795.656626	0.038494
795.848941	0.038468
796.041238	0.038424
796.233516	0.038486
796.425777	0.038570
796.618019	0.038574
796.810243	0.038624
797.002449	0.038690
797.194636	0.038787
797.386805	0.038797
797.578956	0.038700
797.771089	0.038775
797.963204	0.038475
798.155300	0.038163
798.347378	0.037947
798.539438	0.037852
798.731480	0.037808
798.923503	0.037638
799.115509	0.037564
799.307496	0.037286
799.499465	0.037191
799.691415	0.037291
799.883348	0.037372
800.075262	0.037546
800.267158	0.037658
800.459035	0.037879
800.650895	0.037965
800.842736	0.038014
801.034559	0.038418
801.226364	0.038420
801.418150	0.038305
801.609919	0.038371
801.801669	0.038434
801.993401	0.038622
802.185114	0.038554
802.376810	0.038847
802.568487	0.038789
802.760146	0.038698
802.951787	0.038732
803.143409	0.038975
803.335014	0.039123
803.526600	0.039425
803.718168	0.039485
803.909717	0.039386
804.101249	0.039181
804.292762	0.039426
804.484257	0.039443
804.675734	0.039443
804.867192	0.039261
805.058632	0.039484
805.250054	0.039286
805.441458	0.039017
805.632844	0.039146
805.824211	0.039169
806.015561	0.039261
806.206891	0.039249
806.398204	0.039425
806.589499	0.039554
806.780775	0.039319
806.972033	0.039319
807.163273	0.039321
807.354495	0.039450
807.545698	0.039498
807.736883	0.039342
807.928050	0.039501
808.119199	0.039513
808.310329	0.039512
808.501441	0.039551
808.692535	0.039526
808.883611	0.039636
809.074669	0.039678
809.265708	0.039786
809.456729	0.039840
809.647732	0.039923
809.838717	0.040065
810.029683	0.040030
810.220632	0.040141
810.411562	0.040155
810.602474	0.040183
810.793367	0.040015
810.984242	0.040016
811.175100	0.039879
811.365938	0.039773
811.556759	0.039642
811.747562	0.039671
811.938346	0.039586
812.129112	0.039530
812.319860	0.039643
812.510589	0.039794
812.701300	0.039791
812.891994	0.040216
813.082668	0.040263
813.273325	0.040288
813.463964	0.040405
813.654584	0.040480
813.845186	0.040934
814.035769	0.040909
814.226335	0.040803
814.416882	0.040704
814.607411	0.040496
814.797922	0.040544
814.988415	0.040527
815.178889	0.040523
815.369345	0.040715
815.559783	0.040559
815.750203	0.040702
815.940605	0.040785
816.130988	0.041035
816.321353	0.041118
816.511700	0.040974
816.702028	0.041123
816.892339	0.041128
817.082631	0.041098
817.272905	0.040924
817.463161	0.040838
817.653398	0.041121
817.843617	0.040901
818.033819	0.040878
818.224001	0.040934
818.414166	0.040775
818.604312	0.040665
818.794440	0.040419
818.984550	0.040217
819.174642	0.040036
819.364716	0.039678
819.554771	0.039593
819.744808	0.039422
819.934827	0.039331
820.124827	0.039501
820.314810	0.039691
820.504774	0.039822
820.694720	0.040405
820.884647	0.040462
821.074557	0.040603
821.264448	0.040758
821.454321	0.041106
821.644176	0.041270
821.834012	0.041072
822.023831	0.041017
822.213631	0.041020
822.403413	0.040771
822.593176	0.040865
822.782922	0.040711
822.972649	0.040846
823.162358	0.040621
823.352049	0.040549
823.541721	0.040596
823.731376	0.040697
823.921012	0.040515
824.110629	0.040278
824.300229	0.040494
824.489811	0.040716
824.679374	0.040584
824.868919	0.040527
825.058445	0.040361
825.247954	0.040266
825.437444	0.040058
825.626916	0.040197
825.816370	0.040140
826.005806	0.040010
826.195223	0.039912
826.384622	0.040096
826.574003	0.040247
826.763366	0.040369
826.952711	0.040484
827.142037	0.040823
827.331345	0.040817
827.520635	0.041108
827.709906	0.040876
827.899160	0.040832
828.088395	0.040434
828.277612	0.040518
828.466810	0.040769
828.655991	0.040618
828.845153	0.040438
829.034297	0.040605
829.223423	0.040603
829.412531	0.040769
829.601620	0.041003
829.790691	0.041247
829.979744	0.041112
830.168779	0.041072
830.357795	0.041210
830.546793	0.040993
830.735773	0.040947
830.924735	0.040805
831.113679	0.040921
831.302604	0.040960
831.491511	0.041097
831.680400	0.041261
831.869271	0.041551
832.058123	0.041652
832.246957	0.042092
832.435773	0.042066
832.624571	0.042501
832.813351	0.042314
833.002112	0.042342
833.190855	0.042361
833.379580	0.042296
833.568287	0.041770
833.756975	0.041922
833.945645	0.041654
834.134297	0.041757
834.322931	0.041757
834.511547	0.041891
834.700144	0.041515
834.888723	0.041306
835.077284	0.041443
835.265826	0.041955
835.454351	0.042034
835.642857	0.042203
835.831345	0.042394
836.019815	0.042251
836.208266	0.042382
836.396699	0.042499
836.585114	0.042769
836.773511	0.042811
836.961890	0.042636
837.150250	0.042482
837.338592	0.042556
837.526916	0.042463
837.715222	0.042651
837.903510	0.042833
838.091779	0.043207
838.280030	0.043222
838.468263	0.043175
838.656477	0.043217
838.844674	0.043195
839.032852	0.043129
839.221012	0.043123
839.409153	0.043107
839.597277	0.042832
839.785382	0.042885
839.973469	0.042851
840.161538	0.043140
840.349589	0.043197
840.537621	0.043420
840.725635	0.043562
840.913631	0.043675
841.101609	0.043668
841.289568	0.043776
841.477509	0.043676
841.665432	0.043887
841.853337	0.043510
842.041224	0.043545
842.229092	0.043252
842.416942	0.043227
842.604774	0.042976
842.792588	0.042870
842.980383	0.042693
843.168160	0.042599
843.355919	0.042706
843.543660	0.042461
843.731382	0.042460
843.919087	0.042621
844.106773	0.042582
844.294441	0.042856
844.482090	0.042928
844.669722	0.042960
844.857335	0.043027
845.044930	0.042745
845.232507	0.043024
845.420065	0.042895
845.607605	0.043143
845.795127	0.043288
845.982631	0.043353
846.170117	0.043429
846.357584	0.043771
846.545033	0.043642
846.732464	0.043521
846.919877	0.043570
847.107272	0.043716
847.294648	0.043475
847.482006	0.043533
847.669346	0.043450
847.856667	0.043683
848.043971	0.043769
848.231256	0.043833
848.418523	0.043909
848.605771	0.043856
848.793002	0.043859
848.980214	0.043868
849.167408	0.043608
849.354584	0.043603
849.541742	0.043229
849.728881	0.042987
849.916002	0.043144
850.103105	0.043302
850.290190	0.043501
850.477256	0.043327
850.664304	0.043513
850.851334	0.043584
851.038346	0.043586
851.225340	0.043674
851.412315	0.043549
851.599272	0.043441
851.786211	0.043372
851.973132	0.043120
852.160034	0.043301
852.346918	0.043387
852.533784	0.043604
852.720632	0.043544
852.907462	0.043615
853.094273	0.043698
853.281066	0.043674
853.467841	0.043446
853.654598	0.043564
853.841336	0.043435
854.028056	0.043211
854.214758	0.043067
854.401442	0.043177
854.588107	0.043114
854.774755	0.043203
854.961384	0.043208
855.147995	0.043555
855.334587	0.043676
855.521162	0.043730
855.707718	0.043676
855.894256	0.043532
856.080775	0.043576
856.267277	0.043836
856.453760	0.043735
856.640225	0.043853
856.826672	0.043828
857.013101	0.044075
857.199511	0.044241
857.385903	0.044449
857.572277	0.044746
857.758633	0.044665
857.944970	0.044522
858.131290	0.044682
858.317591	0.044866
858.503873	0.044873
858.690138	0.044396
858.876384	0.044175
859.062612	0.043976
859.248822	0.043700
859.435014	0.043679
859.621188	0.043666
859.807343	0.043380
859.993480	0.043135
860.179599	0.042988
860.365699	0.043092
860.551781	0.043043
860.737846	0.043009
860.923891	0.042789
861.109919	0.042606
861.295929	0.042285
861.481920	0.042198
861.667893	0.042330
861.853848	0.042782
862.039784	0.042859
862.225702	0.042942
862.411603	0.043015
862.597484	0.042984
862.783348	0.042957
862.969193	0.043279
863.155021	0.043440
863.340830	0.043268
863.526620	0.042745
863.712393	0.042535
863.898147	0.042217
864.083883	0.042185
864.269601	0.042524
864.455301	0.042388
864.640982	0.042278
864.826645	0.042280
865.012290	0.042255
865.197917	0.042504
865.383526	0.042424
865.569116	0.042649
865.754688	0.042572
865.940242	0.042505
866.125777	0.042516
866.311295	0.042406
866.496794	0.042343
866.682275	0.042221
866.867737	0.041781
867.053182	0.041812
867.238608	0.041886
867.424016	0.041873
867.609406	0.041817
867.794778	0.042297
867.980131	0.042057
868.165466	0.042390
868.350783	0.042572
868.536082	0.042762
868.721362	0.042839
868.906625	0.042735
869.091869	0.042861
869.277094	0.043211
869.462302	0.042750
869.647491	0.042884
869.832662	0.042601
870.017815	0.042518
870.202950	0.042293
870.388066	0.042432
870.573165	0.042594
870.758245	0.042545
870.943306	0.042135
871.128350	0.042419
871.313375	0.042309
871.498382	0.042348
871.683371	0.042230
871.868342	0.042486
872.053294	0.042482
872.238229	0.042376
872.423144	0.042233
872.608042	0.042498
872.792922	0.042198
872.977783	0.042449
873.162626	0.042504
873.347451	0.042452
873.532258	0.042226
873.717046	0.042327
873.901816	0.042009
874.086568	0.042338
874.271302	0.041900
874.456017	0.041958
874.640715	0.041886
874.825394	0.041859
875.010055	0.041820
875.194697	0.041800
875.379322	0.041589
875.563928	0.041949
875.748516	0.041621
875.933085	0.041862
876.117637	0.041649
876.302170	0.041792
876.486685	0.042021
876.671182	0.041944
876.855661	0.041865
877.040121	0.041867
877.224563	0.041414
877.408987	0.041374
877.593393	0.040973
877.777780	0.041138
877.962150	0.040771
878.146501	0.040612
878.330833	0.040360
878.515148	0.040515
878.699444	0.040477
878.883722	0.040688
879.067982	0.040904
879.252224	0.041402
879.436447	0.041370
879.620653	0.041651
879.804840	0.041521
879.989008	0.041693
880.173159	0.041730
880.357291	0.041678
880.541405	0.041629
880.725501	0.041233
880.909579	0.040895
881.093638	0.040894
881.277680	0.040817
881.461703	0.040682
881.645707	0.040533
881.829694	0.040597
882.013662	0.040772
882.197612	0.040679
882.381544	0.040802
882.565458	0.041006
882.749353	0.041062
882.933230	0.040870
883.117089	0.040575
883.300930	0.040900
883.484753	0.041037
883.668557	0.040898
883.852343	0.040798
884.036111	0.040637
884.219861	0.040501
884.403592	0.040420
884.587305	0.040129
884.771000	0.040327
884.954677	0.040347
885.138335	0.040186
885.321976	0.040079
885.505598	0.040387
885.689201	0.040271
885.872787	0.040518
886.056354	0.040299
886.239904	0.040621
886.423434	0.040365
886.606947	0.040182
886.790442	0.040051
886.973918	0.039672
887.157376	0.039481
887.340816	0.039626
887.524237	0.039367
887.707641	0.039423
887.891026	0.039423
888.074393	0.039486
888.257741	0.039336
888.441072	0.039388
888.624384	0.039217
888.807678	0.039115
888.990954	0.039069
889.174211	0.038742
889.357451	0.038688
889.540672	0.038263
889.723875	0.038106
889.907059	0.038238
890.090226	0.037858
890.273374	0.038154
890.456504	0.037855
890.639616	0.037517
890.822709	0.037142
891.005785	0.036668
891.188842	0.036525
891.371881	0.036447
891.554901	0.035938
891.737904	0.035769
891.920888	0.035769
892.103854	0.036036
892.286802	0.035987
892.469731	0.036277
892.652643	0.036414
892.835536	0.036445
893.018410	0.036283
893.201267	0.036290
893.384106	0.036280
893.566926	0.036281
893.749728	0.035963
893.932511	0.036375
894.115277	0.036262
894.298024	0.036177
894.480753	0.036297
894.663464	0.036359
894.846157	0.036594
895.028831	0.036634
895.211487	0.036461
895.394125	0.036614
895.576745	0.036348
895.759346	0.036082
895.941930	0.036326
896.124495	0.036029
896.307041	0.036138
896.489570	0.036038
896.672080	0.036172
896.854573	0.035886
897.037046	0.035532
897.219502	0.035248
897.401940	0.035614
897.584359	0.035617
897.766760	0.035776
897.949143	0.035556
898.131507	0.035648
898.313854	0.035160
898.496182	0.034974
898.678492	0.035063
898.860783	0.034930
899.043057	0.034582
899.225312	0.034659
899.407549	0.034515
899.589768	0.034563
899.771968	0.034168
899.954151	0.034331
900.136315	0.034266
900.318461	0.033957
900.500588	0.033781
900.682698	0.034041
900.864789	0.033305
901.046862	0.032977
901.228917	0.032815
901.410953	0.032818
901.592971	0.032398
901.774972	0.032533
901.956953	0.032649
902.138917	0.032929
902.320862	0.032475
902.502790	0.032806
902.684699	0.033170
902.866589	0.033308
903.048462	0.033033
903.230316	0.033342
903.412152	0.033328
903.593970	0.033357
903.775770	0.033075
903.957551	0.033029
904.139314	0.032622
904.321059	0.031962
904.502786	0.031622
904.684494	0.031538
904.866185	0.031046
905.047857	0.030799
905.229510	0.030258
905.411146	0.030142
905.592763	0.030293
905.774363	0.030494
905.955943	0.030730
906.137506	0.030473
906.319051	0.030603
906.500577	0.030663
906.682085	0.030739
906.863575	0.030811
907.045046	0.030725
907.226500	0.030353
907.407935	0.030110
907.589352	0.029852
907.770750	0.030093
907.952131	0.029781
908.133493	0.029533
908.314837	0.029112
908.496163	0.029362
908.677470	0.029338
908.858760	0.029371
909.040031	0.029435
909.221284	0.029570
909.402518	0.029425
909.583735	0.029613
909.764933	0.029812
909.946113	0.029746
910.127275	0.029548
910.308418	0.029458
910.489544	0.029413
910.670651	0.028973
910.851740	0.028931
911.032810	0.028877
911.213863	0.028556
911.394897	0.028294
911.575913	0.028209
911.756911	0.027937
911.937890	0.027805
912.118851	0.027625
912.299794	0.027869
912.480719	0.028094
912.661626	0.027993
912.842514	0.027907
913.023384	0.028266
913.204236	0.028425
913.385070	0.028381
913.565886	0.028200
913.746683	0.027992
913.927462	0.027824
914.108223	0.026968
914.288965	0.026810
914.469690	0.026956
914.650396	0.026376
914.831084	0.025985
915.011754	0.025765
915.192405	0.026115
915.373038	0.026214
915.553653	0.025890
915.734250	0.026225
915.914829	0.026015
916.095389	0.026048
916.275931	0.026075
916.456455	0.026164
916.636961	0.026479
916.817448	0.026151
916.997917	0.025935
917.178368	0.025789
917.358801	0.025664
917.539216	0.025457
917.719612	0.024924
917.899990	0.024901
918.080350	0.024749
918.260692	0.024656
918.441015	0.024071
918.621320	0.024059
918.801607	0.024151
918.981876	0.024091
919.162127	0.023765
919.342359	0.023807
919.522573	0.023439
919.702769	0.023088
919.882947	0.022872
920.063106	0.022975
920.243247	0.022643
920.423370	0.022492
920.603475	0.022104
920.783562	0.022139
920.963630	0.021907
921.143680	0.021622
921.323712	0.021618
921.503725	0.020784
921.683721	0.020932
921.863698	0.020554
922.043657	0.020370
922.223598	0.019773
922.403520	0.019493
922.583424	0.019018
922.763311	0.019288
922.943178	0.018925
923.123028	0.019107
923.302859	0.018653
923.482673	0.018741
923.662467	0.018645
923.842244	0.018585
924.022003	0.018660
924.201743	0.018507
924.381465	0.018007
924.561169	0.017959
924.740854	0.017956
924.920522	0.017587
925.100171	0.017123
925.279802	0.016991
925.459414	0.016848
925.639009	0.016539
925.818585	0.016629
925.998143	0.016502
926.177683	0.016649
926.357205	0.016368
926.536708	0.016644
926.716193	0.016705
926.895660	0.016293
927.075109	0.016250
927.254539	0.015867
927.433951	0.015524
927.613345	0.015288
927.792721	0.014722
927.972079	0.014532
928.151418	0.014116
928.330739	0.013749
928.510042	0.013557
928.689327	0.013508
928.868593	0.013495
929.047841	0.012806
929.227071	0.012939
929.406283	0.012821
929.585476	0.012552
929.764652	0.012280
929.943809	0.012111
930.122948	0.011457
930.302068	0.011668
930.481171	0.011503
930.660255	0.011936
930.839321	0.011470
931.018369	0.011269
931.197398	0.011013
931.376409	0.010363
931.555402	0.010343
931.734377	0.010587
931.913334	0.010069
932.092272	0.009879
932.271192	0.009778
932.450094	0.009450
932.628978	0.009968
932.807844	0.010305
932.986691	0.010257
933.165520	0.010276
933.344331	0.010444
933.523123	0.010073
933.701898	0.010003
933.880654	0.009827
934.059392	0.009490
934.238111	0.008765
934.416813	0.008281
934.595496	0.008321
934.774161	0.007603
934.952808	0.006585
935.131437	0.007007
935.310047	0.006270
935.488639	0.005556
935.667213	0.005384
935.845769	0.005059
936.024306	0.004789
936.202825	0.005159
936.381326	0.005017
936.559809	0.005474
936.738274	0.004265
936.916720	0.004324
937.095148	0.003955
937.273558	0.003773
937.451950	0.003543
937.630323	0.003760
937.808678	0.003048
937.987015	0.003077
938.165334	0.002662
938.343635	0.002861
938.521917	0.002397
938.700181	0.002641
938.878427	0.002930
939.056655	0.001895
939.234864	0.000877
939.413055	0.001152
939.591228	0.000826
939.769383	0.000362
939.947519	0.000483
940.125638	0.000641
940.303738	0.000020
940.481820	-0.000040
940.659883	0.000523
940.837929	0.000423
941.015956	0.000468
941.193965	-0.000303
941.371955	0.000179
941.549928	-0.000466
941.727882	-0.001324
941.905818	-0.000974
942.083736	-0.001791
942.261636	-0.001074
942.439517	-0.001458
942.617380	-0.002057
942.795225	-0.001868
942.973052	-0.002910
943.150860	-0.002989
943.328651	-0.003269
943.506423	-0.003859
943.684176	-0.003605
943.861912	-0.004985
944.039629	-0.005733
944.217328	-0.006987
944.395009	-0.007323
944.572672	-0.008001
944.750317	-0.008279
944.927943	-0.008138
945.105551	-0.008640
945.283141	-0.008779
945.460712	-0.008586
945.638265	-0.008536
945.815801	-0.007782
945.993317	-0.006724
946.170816	-0.006950
946.348297	-0.006011
946.525759	-0.005665
946.703203	-0.004968
946.880629	-0.005021
947.058036	-0.005374
947.235425	-0.004561
947.412797	-0.005927
947.590149	-0.007215
947.767484	-0.005665
947.944800	-0.006777
948.122099	-0.006286
948.299379	-0.006825
948.476640	-0.008013
948.653884	-0.008137
948.831109	-0.009380
949.008316	-0.007388
949.185505	-0.006999
949.362676	-0.008424
949.539828	-0.009053
949.716962	-0.009986
949.894078	-0.010350
950.071176	-0.009896
950.248256	-0.009647
950.425317	-0.009830
950.602360	-0.011886
950.779385	-0.012962
950.956391	-0.012164
951.133380	-0.012374
951.310350	-0.011940
951.487302	-0.011497
951.664235	-0.010878
951.841151	-0.011430
952.018048	-0.010466
952.194927	-0.010868
952.371788	-0.009851
952.548631	-0.009745
952.725455	-0.009896
952.902261	-0.009503
953.079049	-0.009260
953.255819	-0.010436
953.432570	-0.010765
953.609303	-0.012232
953.786018	-0.011475
953.962715	-0.011813
954.139394	-0.011678
954.316054	-0.011488
954.492696	-0.012105
954.669320	-0.012389
954.845926	-0.011684
955.022513	-0.010417
955.199083	-0.009459
955.375634	-0.010135
955.552166	-0.010025
955.728681	-0.009835
955.905177	-0.010070
956.081655	-0.011575
956.258115	-0.010953
956.434557	-0.011348
956.610980	-0.012383
956.787385	-0.012262
956.963772	-0.010723
957.140141	-0.010555
957.316492	-0.009146
957.492824	-0.008464
957.669138	-0.007249
957.845434	-0.008373
958.021712	-0.006250
958.197971	-0.006504
958.374212	-0.004849
958.550435	-0.005789
958.726640	-0.005034
958.902826	-0.006768
959.078995	-0.007066
959.255145	-0.006189
959.431277	-0.005052
959.607390	-0.006221
959.783486	-0.003520
959.959563	-0.003539
960.135622	-0.004126
960.311662	-0.004924
960.487685	-0.006071
960.663689	-0.003826
960.839675	-0.002762
961.015643	-0.002404
961.191593	-0.003135
961.367524	-0.005579
961.543437	-0.006989
961.719332	-0.006175
961.895209	-0.007540
962.071067	-0.005776
962.246907	-0.007536
962.422730	-0.009068
962.598533	-0.011579
962.774319	-0.011118
962.950086	-0.010190
963.125835	-0.007547
963.301566	-0.006302
963.477279	-0.006122
963.652973	-0.005657
963.828650	-0.004941
964.004308	-0.005362
964.179947	-0.003892
964.355569	-0.004855
964.531172	-0.004768
964.706757	-0.004405
964.882324	-0.004117
965.057873	-0.003828
965.233403	-0.004539
965.408916	-0.006541
965.584410	-0.007224
965.759885	-0.006533
965.935343	-0.004253
966.110782	-0.003752
966.286203	-0.004654
966.461606	-0.005330
966.636991	-0.003845
966.812357	-0.003965
966.987705	-0.002334
967.163035	0.000593
967.338347	0.000662
967.513641	0.000629
967.688916	0.001372
967.864173	0.001316
968.039412	0.001467
968.214632	0.002334
968.389835	0.001726
968.565019	0.002744
968.740185	-0.000550
968.915333	-0.000007
969.090462	-0.001702
969.265573	-0.004659
969.440667	-0.006918
969.615741	-0.007751
969.790798	-0.008985
969.965836	-0.007482
970.140856	-0.009753
970.315858	-0.007175
970.490842	-0.007246
970.665808	-0.006640
970.840755	-0.004915
971.015684	-0.006314
971.190595	-0.004222
971.365487	-0.003482
971.540362	-0.002580
971.715218	-0.001447
971.890056	-0.001172
972.064875	-0.001285
972.239677	-0.001338
972.414460	-0.002694
972.589225	-0.002491
972.763972	-0.001965
972.938700	-0.001517
973.113411	-0.002742
973.288103	-0.001759
973.462777	-0.002047
973.637432	-0.001669
973.812070	-0.000952
973.986689	0.000367
974.161290	0.002802
974.335873	-0.001091
974.510437	-0.003045
974.684984	-0.003530
974.859512	-0.003691
975.034022	-0.003380
975.208513	-0.004221
975.382987	-0.005173
975.557442	-0.005039
975.731879	-0.006066
975.906298	-0.004999
976.080698	-0.002430
976.255080	-0.002086
976.429445	-0.002828
976.603790	-0.003005
976.778118	-0.003546
976.952427	-0.003661
977.126719	-0.005048
977.300992	-0.003961
977.475246	-0.001774
977.649483	-0.002635
977.823701	-0.002422
977.997901	-0.003117
978.172083	-0.002546
978.346247	-0.001550
978.520392	-0.000143
978.694519	0.001072
978.868628	0.000313
979.042719	0.000936
979.216791	-0.001031
979.390845	-0.001377
979.564882	0.001282
979.738899	0.001357
979.912899	0.001122
980.086880	0.000612
980.260843	-0.000989
980.434788	-0.001748
980.608715	-0.001752
980.782623	-0.001282
980.956514	-0.001118
981.130386	-0.001900
981.304240	-0.003342
981.478075	-0.004128
981.651892	-0.004876
981.825692	-0.002395
981.999472	-0.002261
982.173235	-0.003455
982.346980	-0.000769
982.520706	-0.001815
982.694414	-0.003734
982.868104	-0.006310
983.041775	-0.005194
983.215428	-0.004393
983.389064	-0.005828
983.562680	-0.004271
983.736279	-0.002738
983.909860	-0.005749
984.083422	-0.005963
984.256966	-0.004326
984.430491	-0.001588
984.603999	-0.000595
984.777488	-0.000267
984.950959	0.000901
985.124412	0.001825
985.297847	-0.000483
985.471263	0.002370
985.644661	0.002771
985.818041	0.001865
985.991403	0.003068
986.164747	0.001489
986.338072	0.000561
986.511379	0.000008
986.684668	-0.001506
986.857938	-0.002053
987.031191	-0.004130
987.204425	-0.005584
987.377641	-0.006920
987.550839	-0.010499
987.724018	-0.011115
987.897179	-0.012394
988.070322	-0.013996
988.243447	-0.013934
988.416554	-0.013027
988.589642	-0.013490
988.762712	-0.011019
988.935764	-0.009743
989.108798	-0.007420
989.281813	-0.005419
989.454811	-0.005844
989.627790	-0.003727
989.800751	-0.003137
989.973693	-0.003954
990.146617	-0.003740
990.319524	-0.003008
990.492412	-0.004262
990.665281	-0.004504
990.838133	-0.006049
991.010966	-0.004460
991.183781	-0.006468
991.356578	-0.006177
991.529356	-0.005688
991.702117	-0.005861
991.874859	-0.006674
992.047583	-0.005436
992.220288	-0.005554
992.392976	-0.005778
992.565645	-0.005918
992.738296	-0.004478
992.910929	-0.005367
993.083543	-0.005068
993.256139	-0.004930
993.428718	-0.005452
993.601277	-0.005784
993.773819	-0.005719
993.946342	-0.005496
994.118848	-0.006600
994.291335	-0.007129
994.463803	-0.008041
994.636254	-0.007742
994.808686	-0.006109
994.981100	-0.005752
995.153496	-0.004064
995.325874	-0.004934
995.498233	-0.004231
995.670574	-0.005275
995.842897	-0.004411
996.015202	-0.003936
996.187488	-0.005809
996.359757	-0.006739
996.532007	-0.008089
996.704239	-0.009903
996.876452	-0.007895
997.048648	-0.008680
997.220825	-0.007143
997.392984	-0.008468
997.565124	-0.008702
997.737247	-0.006438
997.909351	-0.007161
998.081437	-0.006256
998.253505	-0.006559
998.425554	-0.006332
998.597586	-0.004648
998.769599	-0.005898
998.941594	-0.005717
999.113571	-0.004294
999.285529	-0.005721
999.457469	-0.005589
999.629391	-0.005893
999.801295	-0.005582
999.973181	-0.006772
1000.145048	-0.007941
1000.316897	-0.006104
1000.488728	-0.006444
1000.660541	-0.007207
1000.832335	-0.006335
1001.004111	-0.004534
1001.175869	-0.004038
1001.347609	-0.004026
1001.519331	-0.004610
1001.691034	-0.005753
1001.862719	-0.006723
1002.034386	-0.005876
1002.206035	-0.005583
1002.377665	-0.006790
1002.549277	-0.007854
1002.720871	-0.009235
1002.892447	-0.009694
1003.064004	-0.010075
1003.235544	-0.009675
1003.407065	-0.010025
1003.578568	-0.010759
1003.750052	-0.011204
1003.921519	-0.012106
1004.092967	-0.013616
1004.264397	-0.012857
1004.435809	-0.012838
1004.607202	-0.012853
1004.778577	-0.012318
1004.949934	-0.011592
1005.121273	-0.011260
1005.292594	-0.012273
1005.463896	-0.011833
1005.635180	-0.012656
1005.806446	-0.011683
1005.977694	-0.010713
1006.148923	-0.010428
1006.320135	-0.011916
1006.491328	-0.011875
1006.662503	-0.012083
1006.833659	-0.011021
1007.004798	-0.010694
1007.175918	-0.007880
1007.347020	-0.009875
1007.518103	-0.009422
1007.689169	-0.010302
1007.860216	-0.009916
1008.031245	-0.009439
1008.202256	-0.009468
1008.373248	-0.008549
1008.544223	-0.007291
1008.715179	-0.007504
1008.886117	-0.008415
1009.057036	-0.009985
1009.227938	-0.009234
1009.398821	-0.007550
1009.569686	-0.007789
1009.740533	-0.006518
1009.911361	-0.007629
1010.082172	-0.009184
1010.252964	-0.010505
1010.423738	-0.008273
1010.594493	-0.007888
1010.765231	-0.009271
1010.935950	-0.009802
1011.106651	-0.011908
1011.277334	-0.013073
1011.447998	-0.013237
1011.618645	-0.012818
1011.789273	-0.011453
1011.959882	-0.011847
1012.130474	-0.013055
1012.301048	-0.012575
1012.471603	-0.012892
1012.642140	-0.011121
1012.812658	-0.011496
1012.983159	-0.010067
1013.153641	-0.009735
1013.324105	-0.011017
1013.494551	-0.010895
1013.664979	-0.008562
1013.835388	-0.008215
1014.005779	-0.007869
1014.176152	-0.008752
1014.346507	-0.007991
1014.516843	-0.009713
1014.687162	-0.010014
1014.857462	-0.009005
1015.027744	-0.009466
1015.198007	-0.010480
1015.368252	-0.010474
1015.538480	-0.011658
1015.708689	-0.012329
1015.878879	-0.013286
1016.049052	-0.015646
1016.219206	-0.014657
1016.389342	-0.015607
1016.559460	-0.015496
1016.729559	-0.015909
1016.899641	-0.015418
1017.069704	-0.015200
1017.239749	-0.013537
1017.409775	-0.013173
1017.579784	-0.010756
1017.749774	-0.012659
1017.919746	-0.012958
1018.089700	-0.013433
1018.259635	-0.012814
1018.429553	-0.012863
1018.599452	-0.011709
1018.769333	-0.011641
1018.939195	-0.012529
1019.109040	-0.012117
1019.278866	-0.011016
1019.448674	-0.011681
1019.618464	-0.010211
1019.788235	-0.009881
1019.957989	-0.010678
1020.127724	-0.011591
1020.297441	-0.011746
1020.467139	-0.010905
1020.636820	-0.011278
1020.806482	-0.010437
1020.976126	-0.008592
1021.145752	-0.010096
1021.315359	-0.011480
1021.484948	-0.011733
1021.654519	-0.012471
1021.824072	-0.011520
1021.993607	-0.011369
1022.163123	-0.012007
1022.332621	-0.012775
1022.502101	-0.014792
1022.671563	-0.015013
1022.841007	-0.014318
1023.010432	-0.013744
1023.179839	-0.013928
1023.349228	-0.015465
1023.518598	-0.015961
1023.687951	-0.015240
1023.857285	-0.014305
1024.026601	-0.013837
1024.195899	-0.012379
1024.365178	-0.013050
1024.534439	-0.012619
1024.703682	-0.012070
1024.872907	-0.010294
1025.042114	-0.009638
1025.211302	-0.009892
1025.380472	-0.013103
1025.549624	-0.012746
1025.718758	-0.014267
1025.887873	-0.015094
1026.056970	-0.016309
1026.226049	-0.014496
1026.395110	-0.016277
1026.564153	-0.015887
1026.733177	-0.015450
1026.902183	-0.014302
1027.071171	-0.014140
1027.240141	-0.012789
1027.409092	-0.011104
1027.578026	-0.009782
1027.746940	-0.012151
1027.915837	-0.011237
1028.084716	-0.011440
1028.253576	-0.011629
1028.422418	-0.011230
1028.591242	-0.011524
1028.760048	-0.011588
1028.928835	-0.011452
1029.097604	-0.011297
1029.266355	-0.009932
1029.435088	-0.010564
1029.603803	-0.011820
1029.772499	-0.011426
1029.941177	-0.011608
1030.109837	-0.011490
1030.278478	-0.013233
1030.447102	-0.014374
1030.615707	-0.016102
1030.784294	-0.016359
1030.952863	-0.016961
1031.121413	-0.016104
1031.289945	-0.017669
1031.458460	-0.016992
1031.626955	-0.016727
1031.795433	-0.016506
1031.963892	-0.016041
1032.132334	-0.013953
1032.300756	-0.014194
1032.469161	-0.013826
1032.637548	-0.014015
1032.805916	-0.012568
1032.974266	-0.012659
1033.142598	-0.013101
1033.310911	-0.011319
1033.479207	-0.011817
1033.647484	-0.011736
1033.815743	-0.012553
1033.983983	-0.013497
1034.152206	-0.012523
1034.320410	-0.012928
1034.488596	-0.013341
1034.656764	-0.014127
1034.824914	-0.015516
1034.993045	-0.014599
1035.161158	-0.016297
1035.329253	-0.015271
1035.497330	-0.014339
1035.665388	-0.014919
1035.833428	-0.015916
1036.001450	-0.015470
1036.169454	-0.015083
1036.337440	-0.014684
1036.505407	-0.014826
1036.673356	-0.012761
1036.841287	-0.012784
1037.009200	-0.012569
1037.177094	-0.011782
1037.344970	-0.011078
1037.512828	-0.012592
1037.680668	-0.011118
1037.848489	-0.010642
1038.016293	-0.009016
1038.184078	-0.010495
1038.351845	-0.010136
1038.519593	-0.010158
1038.687324	-0.011251
1038.855036	-0.011247
1039.022730	-0.011732
1039.190406	-0.014189
1039.358063	-0.014505
1039.525702	-0.017231
1039.693323	-0.017142
1039.860926	-0.019364
1040.028511	-0.018494
1040.196077	-0.018712
1040.363625	-0.020446
1040.531155	-0.019724
1040.698667	-0.017625
1040.866161	-0.018734
1041.033636	-0.018405
1041.201093	-0.018973
1041.368532	-0.017734
1041.535952	-0.019217
1041.703355	-0.018961
1041.870739	-0.017884
1042.038105	-0.017425
1042.205452	-0.017282
1042.372782	-0.015591
1042.540093	-0.014422
1042.707386	-0.015051
1042.874661	-0.014908
1043.041918	-0.014838
1043.209156	-0.015927
1043.376376	-0.015064
1043.543578	-0.014911
1043.710762	-0.015898
1043.877927	-0.017255
1044.045074	-0.017411
1044.212203	-0.016388
1044.379314	-0.015574
1044.546407	-0.013952
1044.713481	-0.013158
1044.880537	-0.014097
1045.047575	-0.013655
1045.214595	-0.012463
1045.381596	-0.012621
1045.548579	-0.012841
1045.715544	-0.012785
1045.882491	-0.014506
1046.049420	-0.015125
1046.216330	-0.014124
1046.383222	-0.014305
1046.550096	-0.015174
1046.716951	-0.017177
1046.883789	-0.016465
1047.050608	-0.016653
1047.217409	-0.016647
1047.384192	-0.016166
1047.550956	-0.017057
1047.717703	-0.017989
1047.884431	-0.018223
1048.051140	-0.017470
1048.217832	-0.016659
1048.384505	-0.016174
1048.551161	-0.015187
1048.717798	-0.014998
1048.884416	-0.014956
1049.051017	-0.014070
1049.217599	-0.015092
1049.384163	-0.013119
1049.550709	-0.012932
1049.717237	-0.012788
1049.883746	-0.013699
1050.050237	-0.013871
1050.216710	-0.013180
1050.383165	-0.013415
1050.549601	-0.013530
1050.716019	-0.012326
1050.882420	-0.013470
1051.048801	-0.012772
1051.215165	-0.012835
1051.381510	-0.013229
1051.547837	-0.014029
1051.714146	-0.013526
1051.880437	-0.013204
1052.046709	-0.013761
1052.212964	-0.014723
1052.379200	-0.015142
1052.545417	-0.015517
1052.711617	-0.015562
1052.877798	-0.012856
1053.043961	-0.012322
1053.210106	-0.013568
1053.376233	-0.013512
1053.542341	-0.012513
1053.708432	-0.013457
1053.874504	-0.014546
1054.040557	-0.015918
1054.206593	-0.016272
1054.372610	-0.018195
1054.538609	-0.018891
1054.704590	-0.019768
1054.870553	-0.020308
1055.036497	-0.020956
1055.202424	-0.021647
1055.368331	-0.021522
1055.534221	-0.020203
1055.700093	-0.019192
1055.865946	-0.019362
1056.031781	-0.019893
1056.197598	-0.017598
1056.363397	-0.016459
1056.529177	-0.017103
1056.694939	-0.014106
1056.860683	-0.013704
1057.026409	-0.014892
1057.192116	-0.015450
1057.357806	-0.014508
1057.523477	-0.013199
1057.689130	-0.015655
1057.854764	-0.015947
1058.020381	-0.015886
1058.185979	-0.017323
1058.351559	-0.015839
1058.517120	-0.015867
1058.682664	-0.015656
1058.848189	-0.016001
1059.013696	-0.016015
1059.179185	-0.014715
1059.344656	-0.014240
1059.510108	-0.011798
1059.675542	-0.011296
1059.840958	-0.012650
1060.006356	-0.012117
1060.171735	-0.012241
1060.337096	-0.012479
1060.502439	-0.012356
1060.667764	-0.012640
1060.833071	-0.012991
1060.998359	-0.015019
1061.163629	-0.014077
1061.328881	-0.011473
1061.494115	-0.009877
1061.659330	-0.009803
1061.824527	-0.010016
1061.989706	-0.011467
1062.154867	-0.012436
1062.320010	-0.011886
1062.485134	-0.011256
1062.650240	-0.011830
1062.815328	-0.012733
1062.980398	-0.014592
1063.145449	-0.015353
1063.310482	-0.015432
1063.475497	-0.016296
1063.640494	-0.014790
1063.805473	-0.015651
1063.970433	-0.015326
1064.135375	-0.014378
1064.300299	-0.014963
1064.465204	-0.014911
1064.630092	-0.014710
1064.794961	-0.014918
1064.959812	-0.014317
1065.124645	-0.014760
1065.289459	-0.014050
1065.454256	-0.015070
1065.619034	-0.016271
1065.783793	-0.016074
1065.948535	-0.013907
1066.113258	-0.013485
1066.277964	-0.015199
1066.442651	-0.014295
1066.607319	-0.015151
1066.771970	-0.015032
1066.936602	-0.014224
1067.101216	-0.014928
1067.265812	-0.014269
1067.430389	-0.015802
1067.594949	-0.014804
1067.759490	-0.013793
1067.924013	-0.015087
1068.088518	-0.015437
1068.253004	-0.016763
1068.417472	-0.017452
1068.581922	-0.017893
1068.746354	-0.018642
1068.910768	-0.019231
1069.075163	-0.019126
1069.239540	-0.018300
1069.403899	-0.017538
1069.568240	-0.016937
1069.732562	-0.015732
1069.896866	-0.015223
1070.061152	-0.013811
1070.225420	-0.013758
1070.389670	-0.010789
1070.553901	-0.012192
1070.718114	-0.011079
1070.882309	-0.012387
1071.046486	-0.010684
1071.210644	-0.009541
1071.374784	-0.009523
1071.538906	-0.010251
1071.703010	-0.010107
1071.867096	-0.013036
1072.031163	-0.011411
1072.195212	-0.013675
1072.359243	-0.012225
1072.523256	-0.013344
1072.687250	-0.014916
1072.851226	-0.014928
1073.015184	-0.014503
1073.179124	-0.014309
1073.343045	-0.014987
1073.506949	-0.016033
1073.670834	-0.014575
1073.834701	-0.014279
1073.998549	-0.016205
1074.162380	-0.017245
1074.326192	-0.017152
1074.489986	-0.015069
1074.653761	-0.015252
1074.817519	-0.014798
1074.981258	-0.015045
1075.144979	-0.015001
1075.308682	-0.014809
1075.472367	-0.013787
1075.636033	-0.013428
1075.799681	-0.015593
1075.963311	-0.016469
1076.126923	-0.017301
1076.290516	-0.015986
1076.454092	-0.015689
1076.617649	-0.015369
1076.781187	-0.014903
1076.944708	-0.014160
1077.108210	-0.013770
1077.271695	-0.011588
1077.435160	-0.012797
1077.598608	-0.010686
1077.762038	-0.012577
1077.925449	-0.014650
1078.088842	-0.014529
1078.252217	-0.015046
1078.415573	-0.015254
1078.578912	-0.014457
1078.742232	-0.014867
1078.905534	-0.014441
1079.068817	-0.017223
1079.232083	-0.017906
1079.395330	-0.017071
1079.558559	-0.016768
1079.721770	-0.017995
1079.884962	-0.017303
1080.048136	-0.017536
1080.211293	-0.020857
1080.374430	-0.020160
1080.537550	-0.018532
1080.700651	-0.016963
1080.863735	-0.014802
1081.026800	-0.015563
1081.189846	-0.013998
1081.352875	-0.015689
1081.515885	-0.017157
1081.678877	-0.014634
1081.841851	-0.015152
1082.004807	-0.017092
1082.167744	-0.016305
1082.330663	-0.019312
1082.493564	-0.017425
1082.656447	-0.018303
1082.819312	-0.017526
1082.982158	-0.016844
1083.144986	-0.016478
1083.307796	-0.015940
1083.470587	-0.013828
1083.633361	-0.013930
1083.796116	-0.011750
1083.958853	-0.013753
1084.121571	-0.011813
1084.284272	-0.010488
1084.446954	-0.009768
1084.609618	-0.010160
1084.772264	-0.009599
1084.934892	-0.009852
1085.097501	-0.010895
1085.260092	-0.011088
1085.422665	-0.010130
1085.585220	-0.010769
1085.747756	-0.011687
1085.910274	-0.011388
1086.072774	-0.009949
1086.235256	-0.011637
1086.397720	-0.010963
1086.560165	-0.010504
1086.722592	-0.010405
1086.885001	-0.010752
1087.047392	-0.012023
1087.209764	-0.010520
1087.372119	-0.009584
1087.534455	-0.010929
1087.696772	-0.010120
1087.859072	-0.010666
1088.021353	-0.010110
1088.183616	-0.008175
1088.345861	-0.009127
1088.508088	-0.005106
1088.670296	-0.004641
1088.832486	-0.005711
1088.994658	-0.004842
1089.156812	-0.004286
1089.318948	-0.004191
1089.481065	-0.003816
1089.643164	-0.005920
1089.805245	-0.006939
1089.967308	-0.009971
1090.129352	-0.012997
1090.291378	-0.012455
1090.453386	-0.013345
1090.615376	-0.016021
1090.777347	-0.015898
1090.939301	-0.017593
1091.101236	-0.015578
1091.263153	-0.012789
1091.425051	-0.010776
1091.586932	-0.008849
1091.748794	-0.007483
1091.910638	-0.004932
1092.072463	-0.003750
1092.234271	-0.002398
1092.396060	-0.001849
1092.557831	-0.003372
1092.719584	-0.004024
1092.881319	-0.006568
1093.043035	-0.006223
1093.204733	-0.007616
1093.366413	-0.010284
1093.528075	-0.009242
1093.689718	-0.012012
1093.851343	-0.011927
1094.012950	-0.010075
1094.174539	-0.012569
1094.336110	-0.012024
1094.497662	-0.015352
1094.659196	-0.015338
1094.820712	-0.014773
1094.982210	-0.014038
1095.143689	-0.013686
1095.305151	-0.013661
1095.466594	-0.017301
1095.628018	-0.014186
1095.789425	-0.013642
1095.950813	-0.011914
1096.112183	-0.010524
1096.273535	-0.009499
1096.434869	-0.010997
1096.596184	-0.009446
1096.757482	-0.008415
1096.918761	-0.004319
1097.080021	-0.003339
1097.241264	-0.003319
1097.402488	-0.001087
1097.563694	-0.000940
1097.724882	0.000286
1097.886052	0.000131
1098.047203	-0.002910
1098.208336	-0.004480
1098.369451	-0.009526
1098.530548	-0.013801
1098.691627	-0.014486
1098.852687	-0.015306
1099.013729	-0.017405
1099.174753	-0.021462
1099.335758	-0.021667
1099.496746	-0.021096
1099.657715	-0.020464
1099.818666	-0.018992
1099.979599	-0.017203
1100.140513	-0.015221
1100.301409	-0.017313
1100.462287	-0.015443
1100.623147	-0.011343
1100.783989	-0.009757
1100.944812	-0.006132
1101.105617	-0.006399
1101.266404	-0.005701
1101.427173	-0.004111
1101.587923	-0.002030
1101.748656	0.000052
1101.909370	-0.000416
1102.070066	-0.004418
1102.230743	-0.003353
1102.391403	-0.006887
1102.552044	-0.003077
1102.712667	-0.003365
1102.873271	-0.006504
1103.033858	-0.009819
1103.194426	-0.009556
1103.354976	-0.011868
1103.515508	-0.007435
1103.676021	-0.009093
1103.836517	-0.010242
1103.996994	-0.012930
1104.157453	-0.011716
1104.317893	-0.008947
1104.478316	-0.009815
1104.638720	-0.009546
1104.799106	-0.007038
1104.959474	-0.008177
1105.119823	-0.009655
1105.280155	-0.005787
1105.440468	-0.007048
1105.600763	-0.008033
1105.761039	-0.010591
1105.921298	-0.010715
1106.081538	-0.011940
1106.241760	-0.013387
1106.401964	-0.014387
1106.562149	-0.013168
1106.722316	-0.014896
1106.882465	-0.012603
1107.042596	-0.010081
1107.202709	-0.010003
1107.362803	-0.009520
1107.522879	-0.008311
1107.682937	-0.009413
1107.842977	-0.010728
1108.002999	-0.010111
1108.163002	-0.009620
1108.322987	-0.013568
1108.482954	-0.016233
1108.642902	-0.012461
1108.802833	-0.017044
1108.962745	-0.017174
1109.122639	-0.014378
1109.282515	-0.010262
1109.442372	-0.012998
1109.602211	-0.013994
1109.762032	-0.007963
1109.921835	-0.007436
1110.081620	-0.006618
1110.241386	-0.001413
1110.401134	-0.001774
1110.560864	-0.002844
1110.720576	-0.004345
1110.880269	-0.005050
1111.039945	-0.001869
1111.199602	-0.005382
1111.359240	-0.002606
1111.518861	-0.003834
1111.678463	-0.005239
1111.838047	-0.007955
1111.997613	-0.009560
1112.157161	-0.012008
1112.316690	-0.008804
1112.476202	-0.013764
1112.635695	-0.015690
1112.795169	-0.016492
1112.954626	-0.016709
1113.114064	-0.017031
1113.273484	-0.013315
1113.432886	-0.012911
1113.592270	-0.014888
1113.751635	-0.011774
1113.910983	-0.010677
1114.070312	-0.009899
1114.229622	-0.013358
1114.388915	-0.016151
1114.548189	-0.012384
1114.707445	-0.014038
1114.866683	-0.014224
1115.025903	-0.013611
1115.185104	-0.017638
1115.344287	-0.015430
1115.503452	-0.014027
1115.662599	-0.011383
1115.821727	-0.010661
1115.980838	-0.011441
1116.139930	-0.010964
1116.299004	-0.011197
1116.458059	-0.008410
1116.617097	-0.008958
1116.776116	-0.006012
1116.935117	-0.004886
1117.094099	-0.006154
1117.253064	-0.005166
1117.412010	-0.006597
1117.570938	-0.010028
1117.729848	-0.010229
1117.888740	-0.008825
1118.047613	-0.003794
1118.206468	-0.005723
1118.365305	-0.003622
1118.524124	-0.001004
1118.682924	0.000370
1118.841707	0.000077
1119.000471	0.004452
1119.159216	0.005462
1119.317944	0.002554
1119.476653	0.001726
1119.635344	0.000440
1119.794017	-0.004065
1119.952672	-0.007490
1120.111308	-0.008427
1120.269927	-0.007451
1120.428527	-0.009959
1120.587108	-0.008599
1120.745672	-0.011158
1120.904217	-0.008048
1121.062744	-0.006074
1121.221253	-0.007521
1121.379744	-0.004382
1121.538216	-0.002486
1121.696671	-0.004597
1121.855107	-0.003128
1122.013524	-0.006227
1122.171924	-0.000768
1122.330305	-0.005673
1122.488668	-0.008133
1122.647013	-0.005007
1122.805340	-0.009716
1122.963648	-0.013362
1123.121938	-0.010990
1123.280210	-0.010335
1123.438464	-0.006526
1123.596700	-0.005581
1123.754917	-0.007519
1123.913116	-0.009322
1124.071297	-0.008404
1124.229459	-0.005873
1124.387604	-0.005924
1124.545730	-0.007209
1124.703838	-0.004511
1124.861928	-0.008831
1125.019999	-0.009254
1125.178052	-0.010872
1125.336088	-0.009068
1125.494104	-0.007035
1125.652103	-0.008964
1125.810083	-0.006452
1125.968045	-0.006536
1126.125989	-0.007977
1126.283915	-0.007326
1126.441823	-0.011324
1126.599712	-0.005838
1126.757583	-0.005128
1126.915436	-0.007649
1127.073270	-0.000732
1127.231087	-0.002370
1127.388885	0.001767
1127.546665	-0.002498
1127.704426	-0.001414
1127.862170	0.003014
1128.019895	0.003168
1128.177602	0.003907
1128.335291	-0.000161
1128.492961	-0.008501
1128.650614	-0.008153
1128.808248	-0.012179
1128.965864	-0.007625
1129.123461	-0.010144
1129.281041	-0.011810
1129.438602	-0.016620
1129.596145	-0.016380
1129.753670	-0.012964
1129.911176	-0.012409
1130.068665	-0.014892
1130.226135	-0.012134
1130.383587	-0.014711
1130.541020	-0.009830
1130.698436	-0.008626
1130.855833	-0.005454
1131.013212	-0.006273
1131.170573	-0.006728
1131.327915	0.000173
1131.485239	-0.001337
1131.642545	-0.007875
1131.799833	-0.009156
1131.957103	-0.010969
1132.114354	-0.008452
1132.271588	-0.011296
1132.428803	-0.009219
1132.585999	-0.006949
1132.743178	-0.008521
1132.900338	0.000042
1133.057480	0.000642
1133.214604	0.000985
1133.371710	-0.000930
1133.528797	-0.003418
1133.685866	-0.002625
1133.842917	-0.006856
1133.999950	-0.011128
1134.156964	-0.011156
1134.313960	-0.015010
1134.470938	-0.012943
1134.627898	-0.013940
1134.784840	-0.014421
1134.941763	-0.017588
1135.098668	-0.015096
1135.255555	-0.013239
1135.412424	-0.003847
1135.569274	-0.007064
1135.726107	-0.005037
1135.882921	-0.004171
1136.039716	-0.001060
1136.196494	0.003747
1136.353253	0.003679
1136.509995	-0.000029
1136.666717	0.003311
1136.823422	-0.004271
1136.980109	-0.002998
1137.136777	-0.005186
1137.293427	-0.008534
1137.450059	-0.009460
1137.606672	-0.011502
1137.763267	-0.008471
1137.919844	-0.004462
1138.076403	-0.004955
1138.232944	-0.004526
1138.389466	-0.003804
1138.545971	-0.004435
1138.702457	-0.001785
1138.858924	-0.001424
1139.015374	0.000358
1139.171805	0.001658
1139.328218	-0.000631
1139.484613	0.000262
1139.640990	-0.000533
1139.797348	0.001415
1139.953688	0.005077
1140.110010	0.004573
1140.266314	0.011996
1140.422600	0.013446
1140.578867	0.014681
1140.735116	0.019914
1140.891347	0.015090
1141.047559	0.015901
1141.203754	0.018349
1141.359930	0.011168
1141.516088	0.019349
1141.672228	0.012627
1141.828349	0.010014
1141.984452	0.013558
1142.140537	0.009841
1142.296604	0.012940
1142.452653	0.015587
1142.608683	0.011197
1142.764695	0.014254
1142.920689	0.010457
1143.076665	0.008410
1143.232622	0.007825
1143.388562	0.003959
1143.544483	0.001983
1143.700385	0.000468
1143.856270	0.001102
1144.012136	0.000443
1144.167985	0.000385
1144.323814	0.005963
1144.479626	0.003772
1144.635420	0.005662
1144.791195	0.005743
1144.946952	0.004961
1145.102691	-0.003133
1145.258411	-0.006032
1145.414113	-0.004599
1145.569798	-0.004562
1145.725463	-0.002337
1145.881111	0.003897
1146.036741	0.002852
1146.192352	-0.000569
1146.347945	0.003572
1146.503519	0.007082
1146.659076	0.004884
1146.814614	0.004188
1146.970134	0.005126
1147.125636	-0.008084
1147.281120	-0.011888
1147.436585	-0.012578
1147.592032	-0.008667
1147.747461	-0.011174
1147.902872	-0.010101
1148.058265	-0.009030
1148.213639	-0.007423
1148.368995	-0.006452
1148.524333	-0.001646
1148.679653	0.003739
1148.834954	0.003776
1148.990237	-0.004782
1149.145502	-0.008945
1149.300749	-0.003136
1149.455977	0.002159
1149.611188	0.001397
1149.766380	-0.000053
1149.921553	0.002201
1150.076709	-0.001634
1150.231846	-0.004622
1150.386966	-0.002168
1150.542066	-0.002911
1150.697149	-0.002309
1150.852214	-0.008519
1151.007260	-0.008424
1151.162288	-0.010157
1151.317298	-0.011188
1151.472289	-0.011516
1151.627263	-0.010494
1151.782218	-0.004156
1151.937155	0.003227
1152.092073	0.001307
1152.246974	0.005649
1152.401856	0.010995
1152.556720	0.013222
1152.711566	0.008957
1152.866393	0.007948
1153.021203	0.011117
1153.175994	0.007907
1153.330767	0.003063
1153.485521	0.000560
1153.640258	-0.001990
1153.794976	-0.010546
1153.949676	-0.014679
1154.104358	-0.011530
1154.259021	-0.010801
1154.413667	-0.007022
1154.568294	-0.011507
1154.722903	-0.002416
1154.877493	-0.004395
1155.032066	-0.006230
1155.186620	0.001235
1155.341156	0.006577
1155.495674	0.006182
1155.650173	0.008536
1155.804654	0.000089
1155.959118	0.002822
1156.113562	0.000790
1156.267989	0.003842
1156.422397	0.008159
1156.576788	0.001466
1156.731160	0.001593
1156.885513	-0.000599
1157.039849	-0.002033
1157.194166	0.006840
1157.348465	0.009454
1157.502746	0.002169
1157.657009	-0.006305
1157.811253	-0.012196
1157.965479	-0.009869
1158.119687	-0.005650
1158.273877	-0.001960
1158.428048	0.008049
1158.582201	-0.001515
1158.736337	-0.006761
1158.890453	-0.008423
1159.044552	-0.002727
1159.198632	-0.000455
1159.352694	-0.001286
1159.506738	-0.011336
1159.660764	-0.017762
1159.814771	-0.023456
1159.968761	-0.016114
1160.122732	-0.013213
1160.276685	-0.006907
1160.430619	-0.001616
1160.584535	0.001064
1160.738434	-0.000781
1160.892313	0.003123
1161.046175	0.008793
1161.200019	0.010902
1161.353844	0.017820
1161.507651	0.016408
1161.661440	0.009611
1161.815210	0.005313
1161.968962	0.004408
1162.122697	0.008238
1162.276412	0.014138
1162.430110	0.015637
1162.583789	0.012155
1162.737451	0.004065
1162.891094	0.002380
1163.044718	0.002674
1163.198325	0.005951
1163.351913	0.010870
1163.505483	0.016602
1163.659035	0.014874
1163.812569	0.007891
1163.966084	0.006926
1164.119581	0.002628
1164.273060	-0.003318
1164.426521	0.003733
1164.579964	0.008080
1164.733388	0.005377
1164.886794	0.004496
1165.040182	0.003731
1165.193551	0.011214
1165.346903	0.010197
1165.500236	0.011759
1165.653551	0.029241
1165.806848	0.024878
1165.960126	0.016964
1166.113386	0.019127
1166.266628	0.007654
1166.419852	0.006941
1166.573058	0.004560
1166.726245	0.009829
1166.879414	0.013533
1167.032565	0.003220
1167.185698	0.006171
1167.338812	0.009720
1167.491909	0.005101
1167.644987	0.017625
1167.798046	0.018915
1167.951088	0.015143
1168.104111	0.009728
1168.257117	0.008565
1168.410103	0.015216
1168.563072	0.007188
1168.716023	0.007606
1168.868955	0.008869
1169.021869	0.004058
1169.174765	0.000787
1169.327642	0.011196
1169.480501	0.016226
1169.633343	0.017351
1169.786165	0.009281
1169.938970	0.019087
1170.091757	0.020549
1170.244525	0.016875
1170.397275	0.012546
1170.550007	0.016029
1170.702720	0.011413
1170.855415	-0.004221
1171.008092	-0.006128
1171.160751	-0.001916
1171.313392	-0.003735
1171.466014	-0.089304
1171.618619	0.006511
1171.771205	0.006511
1171.923772	0.006511
