sample name	sample
index	228
start time	 02-22-2021  10:54:21 AM
880	-0.056852
Peak Time (s)	92.537
Peak Height 	-0.05685
calc peak height	90,93
Baseline Time (s)	10.537
Baseline Value 	-0.004163
subtract baseline	10,4
Abs	-0.003217
Peak Time (s)	91.536
Peak Height 	-0.003217
calc peak height	90,93
Baseline Time (s)	10.537
Baseline Value 	9.7933E-4
subtract baseline	10,3
PK_550	-0.005794
Peak Time (s)	91.536
Peak Height 	-0.005794
calc peak height	90,93
Baseline Time (s)	10.036
Baseline Value 	6.3995E-4
subtract baseline	10,2
PK_880	-0.003564
Peak Time (s)	92.537
Peak Height 	-0.003564
calc peak height	90,93
Baseline Time (s)	11.039
Baseline Value 	0.002165
subtract baseline	10,1


Time (s)	A880-A510	A880-A775	A880-A975	A880	I510	I775	I975	I880	
0.036000	0.000351	-0.000568	0.002386	0.001377	6908.280127	47003.148948	3978.831949	24723.207007
0.536000	-0.001028	-0.000848	-0.003695	0.004385	6867.833924	46670.441742	3955.512971	24572.344024
1.036000	-0.002246	-0.001400	0.002436	0.003226	6867.296360	46731.703834	3974.177260	24630.343835
1.538000	0.000043	0.000017	-0.000274	0.001582	6903.530888	47041.777247	3971.427791	24712.883999
2.036500	-0.001233	-0.001111	0.000649	0.000370	6902.940161	47050.360231	3976.942514	24773.962111
2.540500	-0.000313	-0.000237	-0.000677	0.000501	6910.246436	47125.924903	3973.175590	24767.348519
3.037500	0.001703	0.000296	0.003724	-0.000037	6933.994559	47235.178624	3985.990588	24794.481672
3.535000	0.000766	0.000428	0.005706	0.001245	6913.353733	47117.827043	3987.817589	24729.840834
4.035000	0.000749	0.000208	0.001222	0.000589	6919.289269	47162.380878	3977.858769	24762.930431
4.535500	-0.001290	-0.000591	0.003441	0.000060	6905.278959	47134.755613	3984.998455	24789.582857
5.036000	-0.001541	-0.001161	-0.002874	-0.000461	6907.785104	47129.769377	3969.993436	24815.894713
5.536500	0.001130	0.000159	0.005023	0.000513	6923.540076	47165.065627	3987.946434	24766.746788
6.036500	-0.001397	-0.000881	-0.001526	-0.000309	6907.710695	47142.845637	3973.074770	24808.228004
6.536000	0.000984	0.000068	0.005079	0.000238	6924.744506	47183.839217	3988.813096	24780.626802
7.039500	-0.001487	-0.000374	-0.000726	-0.000626	6909.806799	47226.893115	3975.959488	24824.234510
7.536500	0.001819	0.000222	0.003196	0.000634	6928.823371	47159.085908	3982.865824	24760.622857
8.034500	0.000014	-0.000603	0.004976	-0.000099	6918.845977	47149.790511	3989.423771	24797.611619
8.535500	-0.001639	-0.000105	0.004593	-0.000136	6903.869830	47204.288088	3988.518568	24799.484046
9.035500	0.000820	-0.000348	0.002659	-0.000250	6927.760200	47191.165064	3983.769289	24805.261243
9.535500	-0.000368	0.000060	-0.001932	0.000202	6912.513394	47186.680467	3970.712592	24782.432184
10.036000	-0.000142	0.000000	-0.000412	-0.000290	6919.181361	47230.788694	3975.905161	24807.280379
10.536500	0.001418	-0.000368	0.000000	0.000000	6930.992946	47163.689854	3976.219674	24792.629485
11.039000	0.000000	0.000071	0.001621	0.000034	6917.491493	47204.945167	3980.333627	24790.931342
11.537500	0.000122	0.000013	-0.000253	0.000529	6914.029987	47148.635235	3974.199655	24765.946372
12.037000	0.000198	0.000041	0.002942	0.000571	6914.340025	47147.187483	3982.369723	24763.835376
12.535000	-0.002601	-0.000552	0.005157	0.000125	6892.557172	47132.139218	3989.309868	24786.302356
13.035000	0.000415	-0.000374	0.001697	-0.000849	6929.564646	47249.663909	3982.825854	24835.549578
13.535000	0.000941	0.000232	0.001675	0.001403	6913.518313	47081.881624	3976.924939	24721.932669
14.035500	-0.001429	0.000000	0.001064	0.001761	6888.287689	47021.957897	3974.419716	24703.919726
14.536000	-0.004204	-0.001115	0.000038	0.002767	6853.564170	46806.813871	3969.182151	24653.355516
15.036000	0.001519	0.000074	0.003628	0.000282	6929.311280	47179.967516	3984.907997	24778.381345
15.545500	-0.003540	-0.000670	-0.001612	0.001482	6871.430760	46982.214331	3968.246376	24717.961489
16.036500	-0.000006	-0.001271	0.002367	-0.000577	6923.113978	47130.434054	3983.860281	24821.781975
16.537000	0.000406	-0.000405	0.002884	-0.000219	6923.612015	47182.160769	3984.273136	24803.681528
17.037000	-0.000596	-0.000461	-0.000964	-0.000213	6914.244073	47175.913385	3974.278614	24803.378314
17.540500	0.000520	0.000487	0.002048	-0.000687	6929.026045	47321.066344	3983.315568	24827.329836
18.035500	-0.000262	0.000144	-0.000869	0.001543	6901.074843	47058.731159	3969.997567	24714.870822
18.535000	-0.001339	-0.000489	-0.003053	0.001302	6893.347559	47018.894392	3965.012666	24727.012175
19.035500	0.000555	-0.000643	-0.000368	0.001287	6911.009846	47004.783542	3971.948300	24727.766957
19.536000	-0.000718	-0.000373	-0.002573	0.001388	6898.291962	47021.851732	3966.019672	24722.661856
20.036500	-0.001765	-0.000681	0.001509	0.001152	6890.802678	47014.630879	3977.145223	24734.560217
20.536500	-0.000595	-0.000461	0.003213	0.001371	6899.578805	47014.649226	3980.993964	24723.509618
21.039000	-0.000396	0.000202	0.001541	0.001459	6900.611096	47073.114416	3976.430801	24719.080395
21.536500	-0.000437	0.000270	0.000371	0.001779	6897.271677	47047.499792	3972.583781	24703.001217
22.037000	0.001100	0.000411	-0.000519	0.001898	6910.399058	47049.664791	3969.985242	24697.003950
22.535000	0.000117	-0.000634	-0.001277	0.001393	6905.965342	46994.868969	3969.333167	24722.395158
23.034500	0.000897	-0.000552	-0.000935	0.001222	6914.789345	47020.591810	3970.653929	24731.013920
23.535500	-0.000720	-0.000043	0.005310	0.001723	6895.177846	47021.356611	3985.536179	24705.806297
24.036000	-0.000986	-0.000001	0.001813	0.001464	6895.113368	47052.056587	3977.123965	24718.857918
24.535500	-0.001345	-0.000156	-0.002310	0.001651	6890.070297	47017.247932	3966.020119	24709.430529
25.036500	-0.000972	-0.000589	0.005338	0.001231	6897.388825	47015.812156	3986.892624	24730.552996
25.539500	-0.001549	0.000116	0.000880	0.001663	6888.077160	47043.640670	3974.197400	24708.840591
26.036500	-0.000154	-0.000360	0.001467	0.001550	6902.012764	47006.790027	3976.005465	24714.538493
26.534500	0.000037	-0.000616	0.003847	0.001018	6908.706621	47034.840924	3983.562224	24741.315482
27.035000	-0.000705	0.000056	0.002368	0.001557	6896.842911	47048.276549	3978.317671	24714.153099
27.535000	-0.001246	-0.000979	-0.002860	-0.000888	6914.482321	47191.916332	3971.130715	24837.530987
28.035000	0.001278	-0.000089	0.006510	-0.001917	6947.593543	47388.114501	3998.229905	24889.630245
28.536000	-0.000810	-0.000329	0.000554	-0.000356	6913.593364	47203.930426	3978.578081	24810.630934
29.036000	-0.004821	-0.000303	-0.002733	0.005024	6827.390487	46661.013391	3956.332674	24540.459760
29.536000	0.001206	0.000041	-0.000146	0.000062	6928.450486	47199.066231	3975.683379	24789.522367
30.039500	0.000468	-0.000564	0.002155	-0.000201	6924.022401	47164.212697	3982.331784	24802.796075
30.536500	-0.000051	0.000396	0.007974	0.000473	6912.939838	47193.299118	3995.789526	24768.741317
31.067500	-0.004024	-0.000598	-0.002153	0.005152	6833.471185	46618.450658	3957.483036	24534.060921
31.534500	-0.004230	-0.000618	0.005655	0.002788	6853.135453	46855.024532	3983.660274	24652.311506
32.035000	-0.000986	-0.000563	0.003447	0.001047	6898.966140	47037.252953	3982.445980	24739.833804
32.559500	0.000837	-0.000184	0.000906	-0.000036	6925.917561	47186.119171	3978.659898	24794.452130
33.035000	-0.002337	-0.000013	-0.001470	0.004100	6858.462771	46783.647274	3961.905185	24586.633706
33.535500	0.000528	-0.000023	0.002013	-0.000162	6924.221765	47215.390512	3981.860402	24800.813009
34.040000	0.000770	-0.000273	-0.002286	-0.000129	6926.160503	47186.429391	3970.654152	24799.133036
34.536500	-0.001540	-0.000506	-0.001584	0.000274	6900.986699	47121.620283	3971.423504	24778.777295
35.036500	-0.003290	-0.001026	0.000470	0.003475	6855.457057	46744.417744	3968.473649	24617.905799
35.537000	-0.002922	-0.000622	-0.001411	0.001931	6872.976306	46941.504365	3967.606695	24695.341878
36.037000	-0.000507	-0.000460	0.003908	0.001844	6896.020408	46966.701396	3981.571590	24699.720021
36.537500	0.000337	-0.000127	0.000136	0.001977	6902.597464	46987.021434	3971.467830	24693.055477
37.035000	-0.002230	-0.000259	0.002163	0.003065	6868.919378	46863.429994	3973.888757	24638.443888
37.535000	-0.001304	0.000105	0.001209	0.002779	6880.057921	46929.222697	3972.166726	24652.800260
38.035500	-0.002248	-0.000266	-0.000196	0.001974	6878.776957	46973.274820	3970.619810	24693.205220
38.536000	0.000367	0.000024	0.002228	0.002433	6898.659462	46956.121010	3975.689076	24670.130490
39.036000	-0.002689	-0.000641	0.002094	0.001689	6877.343520	46964.084855	3977.267390	24707.509100
39.536500	-0.001087	0.000070	0.004539	0.002757	6882.254670	46927.823267	3980.837766	24653.861021
40.036500	-0.003048	-0.000681	-0.001165	0.001832	6872.728177	46945.524126	3968.494840	24700.343863
40.537500	-0.002396	-0.000043	0.002642	0.002013	6877.055518	46991.920620	3977.847115	24691.213822
41.037500	-0.003104	-0.000257	-0.000424	0.002021	6870.482958	46969.400225	3969.912669	24690.829512
41.535000	0.000367	0.000794	-0.000041	0.002670	6896.475411	47010.218280	3969.230005	24658.270783
42.035500	0.000436	0.000463	-0.002414	0.002652	6897.265699	46978.407267	3963.190331	24659.128138
42.535500	-0.001604	-0.000917	-0.001153	0.001802	6886.291439	46924.620601	3968.600860	24701.822447
43.036000	-0.001807	-0.000177	-0.001802	0.001826	6884.204377	46997.342247	3966.875282	24700.661153
43.536000	-0.001277	-0.000255	0.003226	0.002430	6883.521404	46928.136471	3978.281832	24670.302429
44.039000	-0.000017	0.000142	0.002042	0.002327	6896.091013	46978.813434	3975.482012	24675.470853
44.536500	0.002817	0.000867	0.001720	-0.002004	6962.831308	47495.062138	3985.893365	24894.029238
45.037000	-0.002787	-0.000620	0.002006	0.005217	6844.146326	46609.723295	3967.944791	24530.839223
45.537000	-0.001228	-0.000786	-0.001087	0.001523	6892.332215	46966.220613	3969.487868	24715.871665
46.037500	0.000699	-0.000610	0.000476	-0.000089	6925.130781	47148.114406	3977.683171	24797.144434
46.535000	0.000054	0.000634	0.000900	0.000130	6917.100771	47252.680501	3978.211961	24786.068782
47.035500	-0.000067	-0.000700	0.000788	-0.000459	6921.448863	47176.647076	3979.449011	24815.821827
47.535500	-0.003217	-0.000372	-0.003426	0.001416	6875.003782	47019.174673	3963.765925	24721.281576
48.044500	-0.001061	0.000029	0.000653	0.000487	6903.456034	47154.483721	3976.648830	24768.075270
48.539000	-0.001877	0.000468	0.006164	0.003441	6868.708948	46898.907611	3983.286718	24619.602766
49.036500	-0.002873	-0.000948	-0.002106	0.004416	6850.659299	46657.303794	3959.475547	24570.802781
49.542000	-0.001499	-0.000142	0.008034	0.002683	6879.152857	46913.956279	3990.148264	24657.615925
50.036500	-0.000359	0.000431	0.004540	0.000371	6911.034698	47207.295745	3987.055139	24773.914193
50.535000	0.000537	-0.000505	0.000483	-0.000458	6927.052869	47196.329535	3978.655319	24815.753187
51.035000	-0.003746	-0.000335	0.003215	0.004631	6840.740404	46697.457318	3972.563796	24560.078194
51.535000	-0.002493	0.000013	0.005449	0.002826	6868.695904	46915.164399	3983.025103	24650.419618
52.035000	-0.001265	-0.002037	0.005645	0.001806	6889.384359	46810.856411	3986.194795	24701.657757
52.536000	-0.010303	-0.011128	0.000578	0.239316	5154.323313	27784.577600	3501.163973	15503.755046
53.036000	-0.039922	-0.030979	0.001314	-0.012833	6673.881144	45388.046787	4013.415480	25450.188397
53.536500	-0.032872	-0.034099	-0.002268	-0.120227	7816.560296	56919.800554	4326.796839	31785.765478
54.035500	-0.018399	-0.035062	0.007212	-0.152194	8373.245325	60917.652767	4474.392985	33994.669273
54.536500	-0.023461	-0.027501	0.001848	-0.123989	7968.460702	58223.979851	4353.777702	32037.325377
55.036500	-0.016307	-0.022005	-0.001609	-0.124663	8060.944382	59015.770409	4344.189356	32082.637125
55.537500	-0.010821	-0.016779	0.000043	-0.115507	8017.382283	58510.256047	4318.645482	31473.175293
56.035000	-0.007810	-0.012551	-0.004334	-0.103360	7910.514667	57505.260528	4263.920791	30684.126856
56.534500	-0.000074	-0.004984	-0.005490	-0.082372	7759.447584	55843.363854	4193.776108	29371.780356
57.035000	-0.003878	-0.008208	-0.004509	-0.089728	7799.484636	56349.533701	4219.765148	29824.515253
57.536000	0.000891	-0.005765	-0.001487	-0.067884	7609.973726	54014.208983	4161.791048	28502.173171
58.036000	-0.002288	-0.008374	-0.006183	-0.082121	7731.852371	55401.277243	4190.862626	29356.451178
58.536500	-0.002205	-0.009344	-0.003827	-0.090723	7829.772709	56332.217293	4225.052219	29886.354830
59.037000	-0.006130	-0.006624	-0.003746	-0.052541	7372.772246	52142.248288	4109.799387	27612.342719
59.537000	-0.003905	-0.006289	-0.003076	-0.042099	7288.635927	51009.364215	4081.832778	27024.480225
60.037500	-0.006889	-0.006347	-0.006206	-0.041432	7251.751332	50929.113035	4071.134041	26987.367169
60.537500	-0.006863	-0.008018	-0.003453	-0.050923	7348.532904	51801.914025	4105.969650	27520.319007
61.034500	-0.006736	-0.007751	-0.002196	-0.049650	7336.770036	51688.718162	4105.923139	27448.160844
61.535500	-0.006167	-0.007157	-0.004939	-0.053294	7380.178424	52167.237493	4108.525654	27655.289820
62.036000	-0.005574	-0.008058	-0.003651	-0.056638	7421.122122	52445.229334	4121.991521	27846.896835
62.538500	-0.006195	-0.006601	-0.005724	-0.056264	7410.738392	52568.928789	4114.860906	27825.385093
63.036000	-0.010870	-0.005113	-0.014523	-0.066431	7468.346572	53919.945538	4118.840386	28416.543577
63.539500	-0.007862	-0.005666	-0.006173	-0.070440	7543.016923	54327.696953	4155.386664	28653.503302
64.036500	-0.010758	-0.007624	-0.009903	-0.075887	7570.462478	54742.481409	4160.544754	28978.933431
64.537500	-0.008771	-0.006536	-0.008064	-0.075565	7588.457926	54833.957219	4165.120174	28959.574592
65.037000	-0.010864	-0.006495	-0.010776	-0.068589	7491.246648	54011.213668	4136.173017	28543.828464
65.535000	-0.008782	-0.006558	-0.007567	-0.066708	7493.367506	53782.846695	4140.101629	28432.831217
66.035500	-0.010327	-0.007415	-0.007840	-0.066203	7471.675812	53623.625788	4137.797842	28403.152135
66.535500	-0.010619	-0.006909	-0.011247	-0.063624	7441.437938	53382.025652	4120.208777	28251.946955
67.038500	-0.012332	-0.006590	-0.008832	-0.057353	7358.416472	52694.763469	4109.006125	27888.022405
67.536000	-0.009705	-0.006247	-0.010390	-0.056592	7377.679889	52646.931015	4102.314599	27844.210512
68.036000	-0.008815	-0.007065	-0.004190	-0.058119	7402.771922	52728.295595	4124.747532	27932.221679
68.536000	-0.008355	-0.006605	-0.006895	-0.056029	7385.838014	52541.531656	4110.779488	27811.866920
69.037000	-0.008060	-0.006868	-0.008260	-0.056042	7389.034149	52512.986279	4106.869810	27812.607984
69.536500	-0.010716	-0.007434	-0.010525	-0.053527	7335.707557	52162.178546	4093.143843	27668.553270
70.034500	-0.010631	-0.007322	-0.009692	-0.056098	7363.024403	52467.508193	4102.905445	27815.850593
70.535000	-0.006662	-0.006230	-0.006178	-0.055946	7402.553783	52574.853977	4112.617901	27807.093155
71.035000	-0.008983	-0.006720	-0.008622	-0.057197	7391.435350	52662.030605	4109.163235	27879.036571
71.538500	-0.010550	-0.007096	-0.007210	-0.055326	7355.897876	52405.184723	4107.833764	27771.511230
72.036000	-0.008286	-0.006819	-0.006270	-0.058429	7411.495774	52791.946846	4119.570973	27950.074859
72.536500	-0.007371	-0.007094	-0.005548	-0.059948	7436.952046	52935.248412	4126.127870	28037.999003
73.036500	-0.009520	-0.006884	-0.005830	-0.060366	7418.836981	53007.498724	4126.525026	28062.205180
73.536500	-0.010710	-0.007293	-0.011038	-0.058433	7386.352851	52738.084062	4105.753566	27950.341167
74.037500	-0.010160	-0.007443	-0.011858	-0.061851	7427.670718	53114.615277	4113.269907	28148.529850
74.537500	-0.007090	-0.007062	-0.006052	-0.062538	7467.146886	53238.260312	4132.258537	28188.560361
75.034500	-0.010050	-0.007691	-0.009147	-0.061692	7427.157661	53067.434976	4120.697511	28139.248081
75.535000	-0.009336	-0.007483	-0.011119	-0.060365	7420.756549	52938.459977	4111.104277	28062.170321
76.035500	-0.007605	-0.006771	-0.005998	-0.063005	7466.644896	53326.097424	4133.790717	28215.775451
76.536000	-0.008012	-0.007386	-0.008480	-0.063858	7471.346208	53353.761508	4128.995150	28265.619233
77.036000	-0.008064	-0.006902	-0.006775	-0.060830	7438.926408	53059.053867	4125.114857	28089.145002
77.535500	-0.005326	-0.006785	-0.002943	-0.063611	7497.186088	53394.948120	4144.635650	28251.180923
78.037000	-0.005987	-0.006428	-0.006920	-0.063356	7487.469965	53406.795165	4132.109552	28236.278736
78.536500	-0.005286	-0.007069	-0.006833	-0.064014	7501.899012	53408.713850	4134.304927	28274.746570
79.037000	-0.004847	-0.006034	-0.007429	-0.061908	7484.203276	53284.330620	4126.357174	28151.847020
79.535000	-0.004573	-0.006541	-0.004832	-0.063820	7507.422926	53447.660333	4139.648649	28263.422535
80.035500	-0.004356	-0.006623	-0.005590	-0.064021	7511.865092	53461.542153	4138.000620	28275.159483
80.535500	-0.004881	-0.006566	-0.003820	-0.064207	7508.265785	53489.861833	4143.800025	28286.065067
81.036000	-0.004883	-0.005580	-0.006350	-0.061689	7481.503944	53311.661725	4128.882159	28139.119784
81.536000	-0.002286	-0.004896	-0.008659	-0.062925	7522.256183	53534.992509	4125.733571	28211.099174
82.036000	-0.003899	-0.005870	-0.006814	-0.063735	7513.692414	53515.867134	4133.538570	28258.415342
82.536500	-0.002551	-0.006016	-0.005544	-0.064065	7531.607326	53537.270285	4138.265471	28277.719587
83.036500	-0.004450	-0.005779	-0.006751	-0.061254	7481.485613	53238.117251	4126.426598	28113.787775
83.537000	-0.002717	-0.005179	-0.003655	-0.062963	7518.058688	53506.397199	4140.597128	28213.326406
84.037500	-0.002800	-0.005465	-0.004211	-0.062894	7516.443032	53464.999484	4138.743221	28209.285800
84.535000	-0.002340	-0.005712	-0.004267	-0.063443	7527.216002	53500.281634	4140.205463	28241.344799
85.035500	-0.003888	-0.005391	-0.004520	-0.061965	7494.972243	53365.545272	4135.082920	28155.134409
85.538000	-0.005679	-0.005901	-0.005321	-0.059104	7445.849916	52975.399445	4124.316276	27989.099453
86.036000	-0.003137	-0.006402	-0.003267	-0.062782	7511.664642	53343.181213	4141.212158	28202.794486
86.536000	-0.002806	-0.005459	-0.001727	-0.062187	7508.845346	53383.515024	4144.015283	28168.073261
87.036500	-0.004242	-0.006352	-0.006921	-0.062816	7500.251783	53352.876187	4130.516589	28204.743533
87.536500	-0.008373	-0.006048	-0.006030	-0.058549	7411.847958	52894.454894	4120.620428	27957.003183
88.036000	-0.003796	-0.005838	-0.004925	-0.061508	7491.112208	53260.689520	4132.544113	28128.581517
88.537500	-0.003534	-0.005893	-0.004249	-0.060807	7486.440688	53173.011326	4132.468682	28087.792484
89.034500	-0.004193	-0.006523	-0.010360	-0.060815	7479.553150	53101.136530	4114.609827	28088.261747
89.535000	-0.005241	-0.006628	-0.001407	-0.060754	7467.839246	53082.018516	4140.713131	28084.758435
90.038000	-0.003917	-0.006457	-0.004121	-0.060082	7474.720460	53024.102627	4130.711036	28045.757401
90.535500	-0.004806	-0.006004	-0.004694	-0.058588	7449.603525	52904.026856	4124.643630	27959.276823
91.036000	-0.005924	-0.007001	-0.007024	-0.058733	7439.381262	52806.068975	4118.259455	27967.651784
91.536000	-0.004042	-0.005794	-0.003217	-0.057590	7447.137055	52813.410623	4126.044693	27901.670136
92.036000	-0.004005	-0.006952	-0.005703	-0.057758	7449.294920	52699.766368	4119.268337	27911.366147
92.536500	-0.003564	-0.007093	-0.005049	-0.056852	7444.414403	52579.787753	4118.534067	27859.177009
93.037000	-0.005023	-0.007393	-0.003719	-0.056660	7427.102323	52523.578035	4121.854930	27848.124607
93.537500	-0.005027	-0.007064	0.001632	-0.056007	7420.232029	52486.479850	4135.657309	27810.576068
94.035000	-0.004508	-0.007051	-0.003261	-0.055073	7415.905182	52381.526374	4118.561041	27757.007344
94.535000	-0.004562	-0.006686	-0.005319	-0.054248	7406.745497	52329.151169	4110.186542	27709.788554
95.110500	-0.004920	-0.006888	-0.002743	-0.053095	7391.035685	52175.141847	4114.312597	27643.904455
95.535500	-0.007532	-0.006664	-0.010436	-0.049120	7323.194125	51751.408615	4080.875365	27418.188623
96.058000	-0.005736	-0.006880	-0.006969	-0.051868	7369.881950	52036.937754	4098.572842	27573.989434
96.536500	-0.006710	-0.007060	-0.002659	-0.051573	7356.798691	51983.278567	4110.144764	27557.244513
97.036000	-0.005458	-0.007461	-0.006677	-0.050229	7355.847825	51786.372416	4094.713428	27480.927042
97.537000	-0.008079	-0.006728	-0.006282	-0.046497	7290.907431	51450.015599	4085.211342	27270.336264
98.059500	-0.004879	-0.006801	-0.011513	-0.049426	7353.542575	51770.290605	4078.696309	27435.481741
98.536500	-0.005570	-0.006655	-0.005488	-0.048872	7340.741487	51724.365098	4094.235144	27404.133095
