sample name	sample
index	655
start time	 03-22-2021  09:59:47 AM
880	0.026365
Peak Time (s)	182.037
Peak Height 	0.02637
calc peak height	180,183
Baseline Time (s)	10.535
Baseline Value 	-0.001781
subtract baseline	10,4
Abs	-0.002135
Peak Time (s)	182.535
Peak Height 	-0.002135
calc peak height	180,183
Baseline Time (s)	10.535
Baseline Value 	0.001424
subtract baseline	10,3
PK_550	0.000948
Peak Time (s)	182.037
Peak Height 	9.4766E-4
calc peak height	180,183
Baseline Time (s)	10.035
Baseline Value 	-2.7907E-4
subtract baseline	10,2
PK_880	-0.004240
Peak Time (s)	181.037
Peak Height 	-0.00424
calc peak height	180,183
Baseline Time (s)	11.036
Baseline Value 	1.8258E-4
subtract baseline	10,1


Time (s)	A880-A510	A880-A775	A880-A975	A880	I510	I775	I975	I880	
0.037500	-0.003075	-0.000045	-0.006244	0.007030	7299.778521	45624.546576	3826.528079	23965.573029
0.535000	-0.002608	0.000138	-0.002241	0.004572	7330.977587	45886.293183	3844.111720	24086.438166
1.035500	-0.002474	0.000470	-0.006131	0.003666	7342.114944	46009.527693	3835.957592	24131.163246
1.536000	-0.001390	-0.000002	-0.003450	0.003171	7359.091737	46011.968049	3844.642163	24155.675829
2.035000	-0.000783	0.000202	-0.002332	0.000139	7398.435836	46335.866335	3856.079215	24306.204314
2.536500	0.000368	0.000268	-0.000301	-0.000774	7420.878291	46434.213703	3864.258906	24351.692630
3.039500	0.001733	0.000576	-0.000897	-0.001361	7442.225361	46524.472567	3864.235616	24381.037787
3.536000	-0.000634	0.000722	-0.005789	0.004150	7356.688164	45986.470356	3835.573966	24107.293485
4.034000	0.000183	0.000185	-0.003267	0.000593	7403.992557	46288.482950	3852.239047	24283.588255
4.534500	0.000702	0.000915	-0.003479	0.001256	7402.427199	46295.230289	3849.823903	24250.597626
5.034500	-0.001167	-0.000309	-0.002063	0.000126	7394.401833	46285.757992	3856.858500	24306.812392
5.534500	-0.000830	0.000499	-0.000771	0.000760	7391.175807	46303.222533	3858.685190	24275.256492
6.035500	0.000248	0.000282	-0.001669	0.000408	7406.704340	46316.782305	3857.170224	24292.783963
6.535500	0.000184	0.000504	-0.001521	0.000909	7400.564401	46288.778796	3856.191845	24267.840114
7.036000	-0.001186	-0.000244	-0.001487	-0.000369	7399.562003	46341.949234	3859.829992	24331.480042
7.538500	-0.000587	-0.000248	0.000986	-0.000205	7404.298840	46325.130565	3866.265171	24323.346032
8.037000	0.000756	0.000541	0.001812	0.000424	7412.053447	46341.142941	3866.813188	24291.976597
8.537000	-0.000925	0.000594	0.000301	0.000261	7395.558238	46362.937171	3863.052048	24300.094728
9.037500	-0.000613	-0.000250	-0.002255	-0.000435	7406.509029	46348.054087	3857.883683	24334.789902
9.534500	-0.000228	0.000246	-0.003581	0.000499	7400.538314	46304.040728	3851.630919	24288.242604
10.035000	0.000491	0.000000	0.001993	0.000161	7412.036747	46313.279417	3868.055730	24305.081491
10.535000	0.000723	0.000164	0.000000	0.000000	7416.321350	46345.944606	3862.942052	24313.107610
11.035500	0.000000	-0.000154	0.000916	-0.000363	7412.393378	46350.458444	3866.507627	24331.184801
11.536000	0.000310	-0.000308	-0.002199	-0.000185	7413.833683	46317.079853	3857.345357	24322.311347
12.035500	0.000957	0.000093	-0.002835	0.000046	7418.369577	46334.205337	3854.945396	24310.839677
12.536000	0.000197	-0.000080	0.000691	0.000042	7410.132891	46317.193087	3864.751478	24311.024919
13.039000	0.002120	0.000467	0.000178	-0.001798	7451.255941	46557.509644	3868.456638	24402.881857
13.533500	0.003586	0.000382	0.002926	-0.001359	7462.548391	46504.611486	3874.934334	24380.916830
14.037000	0.001424	0.000031	0.000324	-0.001832	7443.995764	46516.955777	3868.960778	24404.576930
14.534500	-0.000873	0.000003	-0.005038	0.002124	7375.962253	46116.953788	3843.156649	24207.536603
15.035500	0.001500	0.000909	0.001048	-0.000801	7433.549978	46501.579787	3868.103291	24353.071948
15.557500	-0.000934	0.000703	-0.000953	0.001895	7377.764920	46209.834942	3855.035028	24218.851373
16.035500	0.001903	0.000609	-0.000486	-0.001250	7442.875576	46516.632850	3865.071688	24375.504063
16.536000	-0.000608	0.000433	-0.000445	-0.001943	7422.991441	46568.815665	3867.122502	24410.149729
17.039000	0.002055	0.001099	-0.001599	-0.001022	7442.041364	46543.052320	3861.335267	24364.084344
17.537000	-0.000049	0.000910	-0.008100	0.003342	7371.692671	46085.748199	3831.485782	24147.172968
18.037000	-0.002830	0.000074	-0.002495	0.000503	7372.321838	46286.328772	3854.620452	24288.038565
18.537000	-0.001458	-0.000388	-0.002423	0.000190	7390.546739	46271.377956	3855.684779	24303.632059
19.037000	0.000061	0.000473	0.000259	0.001099	7397.172511	46266.599693	3860.603183	24258.407371
19.534500	-0.000511	0.000477	-0.000618	0.002239	7378.623145	46152.800310	3855.008364	24201.797884
20.034500	0.000413	0.001294	-0.000306	0.002111	7390.011201	46247.418178	3856.228734	24208.152655
20.535500	-0.001596	-0.000076	-0.000735	0.000585	7384.780674	46263.174150	3859.271233	24283.982280
21.052500	0.000259	0.000895	-0.002880	0.001143	7398.838119	46304.593307	3851.787048	24256.218854
21.535500	-0.001567	-0.000023	0.001939	0.001741	7372.601490	46152.622257	3863.493083	24226.520731
22.036000	0.000319	0.000190	-0.002484	0.000781	7403.422730	46270.131787	3853.879795	24274.205592
22.536500	-0.000050	0.000331	-0.004167	0.001311	7393.665647	46231.079870	3847.779475	24247.872862
23.033500	0.000608	0.001524	-0.000147	0.001855	7394.899426	46296.215055	3857.377736	24220.836966
23.534000	-0.002694	-0.000116	-0.004858	0.001256	7365.679267	46191.862041	3846.034136	24250.629001
24.034500	0.000510	-0.000054	-0.002227	0.000775	7405.558015	46246.209215	3854.606474	24274.495844
24.534500	0.000099	0.000868	-0.000521	0.001481	7393.436540	46267.934633	3857.377357	24239.416805
25.035000	-0.000708	0.000956	-0.000388	0.001625	7383.142141	46262.364782	3857.350159	24232.299609
25.535500	-0.000616	0.001051	-0.001708	0.002432	7375.405074	46190.931492	3851.465098	24192.238709
26.035500	-0.000529	0.001262	-0.003757	0.001710	7384.152692	46284.561334	3847.810804	24228.081046
26.536000	0.000576	0.001147	-0.002914	0.001940	7393.638473	46249.926722	3849.499269	24216.666620
27.036500	-0.000897	0.000688	-0.000169	0.001463	7382.842182	46251.647706	3858.404727	24240.310201
27.536500	-0.001415	0.000871	-0.001408	0.002267	7368.558495	46189.378033	3852.747920	24200.412220
28.036500	0.002025	0.000438	0.000384	-0.001321	7444.992630	46506.533632	3867.699457	24379.041035
28.534500	0.001515	0.001071	0.003955	-0.001169	7437.734182	46555.028145	3877.298319	24371.430425
29.067500	0.002047	0.000732	0.001271	-0.001128	7443.110019	46516.661780	3869.643803	24369.390658
29.535000	-0.001026	0.000328	0.000519	0.003576	7358.638761	46004.418592	3854.457334	24135.612052
30.035500	0.001398	0.000473	0.002200	-0.001378	7438.743300	46515.791602	3872.950018	24381.877789
30.535500	0.000809	0.000430	0.000470	-0.001707	7435.892235	46544.668549	3869.020286	24398.340766
31.036000	0.000053	-0.000061	-0.000172	-0.001623	7426.716147	46486.663689	3866.989302	24394.134172
31.536000	-0.001846	0.000783	-0.004176	0.004094	7344.267966	45998.156615	3840.123617	24110.043215
32.036500	-0.003343	0.000062	-0.003219	0.001969	7351.014345	46138.349376	3848.577007	24215.203105
32.567000	0.003879	0.000596	0.001759	-0.000877	7460.474076	46477.687831	3870.306706	24356.843999
33.034500	0.001024	0.000214	0.003829	-0.001566	7436.709204	46508.564707	3878.061285	24391.281355
33.534000	-0.001108	0.000161	-0.003406	0.002780	7366.332397	46067.195087	3845.832942	24174.995654
34.037500	0.003971	0.001535	0.000630	-0.000630	7458.759998	46547.488430	3866.454436	24344.510009
34.535000	0.003053	0.001306	-0.000514	-0.000752	7450.029525	46536.741490	3863.607210	24350.635298
35.035000	-0.000790	0.000559	0.000318	0.000852	7390.609982	46299.938165	3861.455334	24270.665167
35.535500	-0.000365	0.001050	0.001014	0.003165	7370.202068	46117.514021	3856.964881	24155.950104
36.036000	-0.001021	0.000459	0.001484	0.001664	7379.326919	46208.655661	3862.440702	24230.355861
36.536000	-0.000934	0.000371	0.001487	0.001611	7380.842622	46205.105715	3862.597639	24232.986018
37.036500	-0.000290	0.000661	0.002459	0.001920	7384.466090	46203.182948	3864.444332	24217.650584
37.534000	0.000240	0.000592	-0.001170	0.002503	7383.901203	46137.908858	3852.754307	24188.746951
38.034000	-0.000642	-0.000013	-0.002523	0.001509	7385.105880	46176.877369	3851.764739	24238.050875
38.534500	-0.001110	0.000725	-0.001210	0.002340	7371.068791	46167.534016	3853.093005	24196.808922
39.035000	0.000961	0.001011	-0.001172	0.002164	7395.372018	46213.763279	3853.683472	24205.510133
39.535000	-0.000519	0.001391	0.004539	0.003013	7370.182156	46166.915445	3867.200790	24163.492128
40.035500	0.000852	0.001240	-0.002924	0.002298	7392.740178	46223.234642	3848.482641	24198.874619
40.535500	-0.001045	-0.000031	-0.000145	0.001606	7379.689231	46165.271072	3858.075117	24233.208525
41.035500	0.000207	-0.000320	0.003527	0.001636	7392.927436	46133.385498	3868.220345	24231.724166
41.536000	0.000652	0.000268	-0.003451	0.002554	7387.799184	46100.461378	3846.330093	24186.200717
42.039500	-0.000401	0.000225	-0.001820	0.001526	7387.534355	46198.921375	3853.659131	24237.190931
42.536500	-0.002603	0.000494	-0.002632	0.001535	7363.646900	46225.077960	3851.390046	24236.755815
43.034500	-0.000591	0.000440	-0.000509	0.001946	7380.921182	46178.426727	3856.123403	24216.337026
43.535000	-0.002217	0.000591	-0.003952	0.002501	7357.395990	46137.992318	3845.100772	24188.817401
44.035500	-0.000987	0.000509	0.001994	0.001998	7376.082859	46180.106421	3862.931087	24213.746120
44.535000	-0.000157	0.000491	-0.002435	0.002045	7384.554877	46173.606350	3850.526776	24211.430214
45.036000	0.002916	0.001456	0.006315	-0.000527	7446.058123	46529.115678	3882.151053	24339.401236
45.536500	-0.001673	0.001269	0.003308	0.005414	7331.973414	45915.077918	3857.091265	24044.991931
46.036500	0.000061	0.000293	-0.000150	-0.001181	7421.971601	46477.725441	3865.815650	24372.020096
46.536500	0.003555	0.000707	0.002363	-0.000975	7457.992685	46498.741119	3872.276305	24361.772891
47.033500	0.002560	0.000418	0.002303	-0.001112	7448.557746	46483.383459	3872.492682	24368.588950
47.537000	-0.003298	0.000204	-0.004818	0.005047	7318.533426	45845.701815	3835.774713	24063.056312
48.034500	0.001896	0.000088	0.003705	-0.001134	7441.520253	46452.369894	3876.493868	24369.671341
48.541500	0.002258	0.000870	0.003794	-0.000746	7441.239070	46492.102418	3875.655316	24350.322010
49.038000	-0.001105	0.000414	0.000398	0.002870	7365.405940	46083.449879	3856.075617	24170.560955
49.535500	-0.003174	-0.000429	0.003894	0.004213	7328.768337	45865.636595	3862.053839	24104.183540
50.049500	0.000479	-0.000036	-0.000145	-0.001800	7433.309705	46507.056035	3867.562263	24403.019747
50.536000	0.001879	0.000525	-0.000828	-0.001135	7441.359675	46496.551895	3863.797594	24369.765161
51.036500	0.000593	0.000221	0.001249	-0.001327	7429.390379	46485.317854	3870.141040	24379.364885
51.536500	-0.004141	-0.000263	-0.007476	0.004353	7316.938225	45868.223803	3830.436620	24097.251220
52.034000	-0.000200	-0.000015	-0.000404	0.000535	7400.460693	46274.254747	3860.329174	24286.471514
52.534500	-0.001289	0.000055	0.003473	-0.000051	7395.000812	46340.067134	3872.797951	24315.641479
53.034500	-0.017347	-0.005427	0.020098	0.159150	5830.623240	32569.228129	3531.513106	17672.677923
53.535000	-0.032377	-0.008463	-0.000490	0.124130	5978.854327	34851.641450	3561.188664	18932.568112
54.035500	-0.029034	-0.048202	-0.007984	-0.190827	9541.243295	63288.648700	4496.211403	36255.138572
54.535500	-0.037180	-0.166066	-0.010664	-0.324502	11839.504418	65535.000000	5145.040039	48360.157149
55.036000	-0.038390	-0.145293	-0.006999	-0.303729	11387.586602	65535.000000	5048.789350	46226.166930
55.536000	-0.055351	-0.130797	-0.013991	-0.289232	10779.447759	65535.000000	4933.141754	44796.281703
56.036000	-0.039740	-0.109819	-0.006198	-0.268255	10680.017993	65535.000000	4864.969459	42809.813287
56.536500	-0.024446	-0.106605	-0.012451	-0.265040	10905.548653	65535.000000	4817.275681	42513.831522
57.034500	-0.014565	-0.119448	-0.011888	-0.277883	11347.194204	65535.000000	4885.121516	43709.696595
57.534000	-0.002677	-0.106988	-0.010804	-0.265423	11335.795378	65535.000000	4827.415641	42548.976284
58.034500	-0.012357	-0.069750	-0.007658	-0.226558	10420.782715	65300.081430	4655.758966	39135.241493
58.535000	-0.009910	-0.041901	-0.004671	-0.186798	9783.785037	63606.504353	4493.174550	35945.006544
59.035000	-0.011968	-0.024352	-0.006226	-0.149852	9173.924854	60946.241028	4337.084734	33231.317932
59.535500	-0.016356	-0.016133	-0.007916	-0.112320	8576.763976	57145.050409	4191.681192	30701.123375
60.036000	-0.017892	-0.011782	-0.012615	-0.087332	8227.623103	54618.518263	4090.035088	29133.791514
60.536000	-0.013365	-0.009558	-0.008878	-0.070549	8073.364678	52907.073607	4047.515235	28130.643785
61.036500	-0.015298	-0.007540	-0.005346	-0.050424	7806.464420	50857.005418	3995.249926	26977.701722
61.534500	-0.017086	-0.005608	-0.003696	-0.029566	7546.184845	48803.612066	3937.189499	25837.849149
62.034000	-0.016780	-0.005181	-0.009448	-0.018351	7425.576936	47672.741234	3887.997572	25247.254887
62.534500	-0.016405	-0.004635	-0.010512	-0.008292	7321.002811	46698.283184	3856.771949	24730.294783
63.035000	-0.019321	-0.004369	-0.004268	0.000180	7200.985580	45874.893669	3850.613550	24304.121233
63.535000	-0.013122	-0.002587	-0.011688	0.000651	7260.957954	46005.358571	3829.055611	24280.679157
64.035500	-0.008891	-0.002491	-0.006226	-0.004199	7357.682855	46501.442164	3857.309673	24523.402873
64.535500	-0.010658	-0.002120	-0.009934	-0.002510	7320.631259	46368.592388	3842.438748	24438.547766
65.036000	-0.011322	-0.002069	-0.005962	-0.002013	7308.250292	46323.844221	3851.991478	24413.641127
65.542000	-0.008996	-0.002931	-0.007232	-0.006645	7382.941345	46704.139397	3861.306951	24646.798388
66.034000	-0.010161	-0.003367	-0.007646	-0.007188	7376.211716	46714.896206	3861.664722	24674.286157
66.534000	-0.009323	-0.003720	-0.008890	-0.007016	7383.418038	46661.799816	3857.733648	24665.588674
67.037000	-0.010534	-0.003461	-0.008335	-0.006542	7365.222338	46640.011556	3857.959716	24641.603042
67.535000	-0.013886	-0.003277	-0.012966	-0.000349	7263.449474	46036.288859	3828.304436	24330.498934
68.034500	-0.009125	-0.003332	-0.012843	-0.005912	7373.622170	46589.384874	3843.790770	24609.759302
68.535000	-0.010077	-0.004304	-0.007893	-0.003788	7340.524930	46277.654857	3851.563527	24502.715881
69.036000	-0.009742	-0.002361	-0.009416	-0.000132	7305.052330	46106.181542	3837.356486	24319.693220
69.536500	-0.011100	-0.002575	-0.013002	0.007464	7210.746171	45332.618625	3807.260104	23944.334844
70.036500	-0.011101	-0.001757	-0.009019	0.001683	7271.390006	45985.210929	3833.495576	24229.379322
70.534000	-0.009166	-0.001674	-0.005989	0.001613	7292.629118	46000.558701	3841.953320	24232.882269
71.033500	-0.008958	-0.002654	-0.007107	0.000402	7307.706157	46023.570848	3842.204555	24293.075714
71.536500	-0.012251	-0.003064	-0.010087	0.004297	7231.809932	45596.226567	3823.531488	24100.011208
72.034500	-0.009252	-0.002741	-0.006422	-0.000582	7315.061000	46113.135133	3846.784416	24342.134301
72.535000	-0.007826	-0.001979	-0.007753	-0.000476	7329.165680	46178.783145	3842.843875	24336.867092
73.035000	-0.006701	-0.001816	-0.006924	-0.000616	7342.711106	46209.158399	3845.499047	24343.849676
73.539000	-0.010809	-0.002089	-0.004845	0.004782	7241.848198	45644.698009	3836.421985	24076.106581
74.036500	-0.009174	-0.002415	-0.014184	-0.001489	7325.578033	46236.548666	3828.093241	24387.434403
74.536500	-0.007676	-0.001263	-0.009569	-0.000306	7328.946702	46233.365391	3837.413808	24328.343144
75.036000	-0.006456	-0.001822	-0.010368	-0.000945	7348.866362	46241.412183	3836.976234	24360.241156
75.537000	-0.011405	-0.002198	-0.011902	0.002431	7260.303885	45867.026010	3823.671316	24192.314007
76.037500	-0.006418	-0.001588	-0.011695	-0.000731	7346.982862	46243.459189	3832.786695	24349.590715
76.534000	-0.007606	-0.000809	-0.008011	-0.000073	7327.199965	46255.594665	3841.032263	24316.728322
77.040500	-0.006878	-0.001396	-0.006752	-0.000834	7343.158401	46273.044613	3846.571276	24354.734927
77.535000	-0.006330	-0.001192	-0.008440	-0.000480	7345.230245	46258.003343	3840.971568	24337.048119
78.035000	-0.005250	-0.000904	-0.011370	-0.000625	7358.396116	46301.468114	3833.378970	24344.271257
78.535500	-0.005746	-0.001357	-0.005756	-0.001467	7362.123934	46340.432011	3851.054206	24386.317239
79.044500	-0.005439	-0.001403	-0.007725	-0.001508	7365.868798	46339.934308	3845.746839	24388.374542
79.536500	-0.008188	-0.001474	-0.009648	-0.001290	7333.997827	46310.948413	3839.883261	24377.474770
80.036000	-0.005788	-0.001450	-0.008315	-0.001683	7363.999528	46352.908596	3844.609336	24397.146087
80.536500	-0.006312	-0.001263	-0.004874	-0.001392	7355.221128	46342.339269	3853.280910	24382.573463
81.037500	-0.005267	-0.001260	-0.007840	-0.001687	7369.655709	46372.347322	3845.924674	24397.342901
81.534500	-0.006745	-0.001631	-0.010518	-0.001891	7355.934192	46355.534072	3839.149524	24407.542913
82.035000	-0.006652	-0.000537	-0.007857	-0.001417	7351.837835	46417.919341	3845.135182	24383.824216
82.535000	-0.005101	-0.001227	-0.008562	-0.001985	7374.663305	46405.658273	3844.760129	24412.249389
83.042000	-0.006051	-0.001768	-0.010678	-0.002161	7366.309225	46368.944374	3839.449681	24421.058680
83.539000	-0.010397	-0.002520	-0.009716	0.003470	7259.977147	45731.944455	3826.767074	24140.870654
84.036500	-0.006813	-0.001424	-0.006692	-0.002516	7361.936330	46439.360981	3851.367359	24438.881301
84.536000	-0.005193	-0.001140	-0.005712	-0.002107	7374.991229	46426.726796	3852.941988	24418.356265
85.033500	-0.006496	-0.002649	-0.008382	-0.003322	7374.046786	46397.117257	3848.929080	24479.293363
85.540000	-0.009812	-0.002502	-0.011740	0.000919	7293.130219	45987.107201	3828.188433	24267.341949
86.037500	-0.005863	-0.002091	0.002860	-0.002661	7373.740503	46386.736018	3878.419589	24446.141619
86.534500	-0.005872	-0.001671	-0.003607	-0.002226	7368.948575	46385.295553	3859.102779	24424.336775
87.035000	-0.009661	-0.002564	-0.006070	-0.003389	7340.706408	46412.446353	3855.498147	24482.661399
87.536000	-0.010612	-0.003075	-0.009923	0.000931	7284.522920	45928.911250	3833.081739	24266.740547
88.041500	-0.006538	-0.002091	-0.005253	-0.002646	7366.299244	46385.293283	3855.702062	24445.384974
88.536500	-0.007623	-0.001412	-0.004373	-0.002100	7348.739530	46398.634754	3856.626940	24418.003872
89.036500	-0.007099	-0.001616	-0.003875	-0.001975	7353.038905	46365.544630	3857.662641	24411.770052
89.536000	-0.014238	-0.003018	-0.007552	0.001845	7236.677702	45843.696777	3837.048067	24221.354896
90.040000	-0.009022	-0.002582	-0.006069	-0.002813	7341.377473	46352.591162	3853.904582	24453.732226
90.537000	-0.009916	-0.002569	-0.005975	-0.002871	7332.426687	46359.793283	3854.327507	24456.657721
91.038000	-0.008387	-0.002506	-0.008874	-0.002970	7349.878543	46376.109507	3846.608612	24461.633776
91.535000	-0.011552	-0.002689	-0.009582	0.001974	7263.567363	45863.600997	3831.179463	24214.975274
92.040000	-0.008607	-0.001979	-0.005523	-0.001711	7334.026780	46302.568000	3852.371059	24398.568956
92.538500	-0.009812	-0.002834	-0.010553	-0.002757	7332.326240	46321.738328	3841.422430	24450.964959
93.037000	-0.008772	-0.002693	-0.007825	-0.002506	7340.768860	46310.668863	3848.217876	24438.349714
93.535500	-0.012434	-0.002944	-0.004599	0.003179	7241.607431	45718.720977	3841.470371	24155.243929
94.039000	-0.008923	-0.001920	-0.005178	-0.001833	7331.942386	46320.706595	3853.661231	24404.658898
94.536500	-0.010624	-0.002228	-0.007317	-0.001523	7310.464927	46258.676297	3846.910645	24389.142681
95.034000	-0.009653	-0.002939	-0.004310	-0.001284	7318.276354	46163.551480	3854.542008	24377.194324
95.534000	-0.010863	-0.001901	-0.009184	-0.000728	7299.471052	46211.828828	3839.616775	24349.432372
96.035000	-0.010612	-0.003067	-0.009673	-0.002047	7316.186277	46227.142342	3841.887873	24415.377205
96.534000	-0.010235	-0.002844	-0.008534	-0.001153	7310.673134	46159.933528	3842.556938	24370.632506
97.035500	-0.009063	-0.002726	-0.005661	-0.000206	7313.068308	46077.059086	3847.842444	24323.373734
97.535500	-0.009945	-0.002948	-0.007830	-0.000925	7311.327401	46126.720154	3843.859883	24359.239046
98.035500	-0.008693	-0.002876	-0.002688	-0.000799	7323.342894	46121.325060	3857.692473	24352.971689
98.539000	-0.010233	-0.002712	-0.002170	-0.000099	7299.473770	46067.821514	3857.187196	24318.044920
99.036500	-0.011957	-0.002362	-0.006717	0.001092	7268.601294	45983.948664	3841.386367	24258.780370
99.533500	-0.010160	-0.003329	-0.008650	-0.000242	7301.773931	46020.550154	3839.747961	24325.192834
100.034000	-0.011829	-0.002880	-0.007626	0.000119	7280.237182	46029.282992	3841.561053	24307.174897
100.537500	-0.010731	-0.002760	-0.002400	0.000550	7287.300664	45998.229968	3854.752154	24285.714381
101.034500	-0.012280	-0.003615	-0.005485	0.001491	7260.987056	45819.555869	3843.666865	24238.950978
101.535000	-0.009962	-0.002268	-0.004832	0.001174	7288.844085	45985.072683	3846.329422	24254.685736
102.035500	-0.012523	-0.003170	-0.006593	0.000562	7268.225048	45956.217196	3843.175498	24285.124862
102.535500	-0.012090	-0.002930	-0.005009	0.001211	7265.938919	45915.555332	3845.740384	24252.860472
103.036000	-0.012743	-0.003788	-0.005967	0.002998	7240.274193	45653.098509	3838.228398	24164.221468
103.536500	-0.012935	-0.002554	-0.006348	0.006191	7204.890330	45459.795332	3828.516837	24006.776542
104.036500	-0.011727	-0.003006	-0.006437	0.002096	7260.432495	45819.970130	3839.404977	24208.902960
104.534000	-0.011196	-0.003168	-0.008312	0.001985	7267.198983	45814.843707	3834.597911	24214.392194
105.034500	-0.011091	-0.003196	-0.003931	0.002419	7263.735006	45769.138075	3845.383801	24192.906382
105.534500	-0.016295	-0.003047	-0.009640	0.008136	7150.011374	45220.554545	3814.428503	23911.445284
106.035000	-0.012987	-0.002764	-0.003629	0.003269	7234.864462	45727.676766	3843.880849	24150.810649
106.538000	-0.012764	-0.003329	-0.004633	0.002778	7242.358489	45720.281834	3842.474519	24175.103162
107.035500	-0.015734	-0.004093	-0.003604	0.005910	7178.757508	45336.138669	3836.728752	24020.571701
107.539000	-0.016967	-0.004385	-0.010496	0.008890	7135.355049	45016.143176	3810.130241	23874.565985
108.036000	-0.014068	-0.003554	-0.004901	0.003401	7222.182349	45636.457233	3840.038340	24144.292328
108.536500	-0.010531	-0.002668	-0.000801	0.004710	7245.518653	45594.598454	3847.689309	24079.653208
109.037000	-0.013608	-0.003913	-0.007561	0.007976	7179.381537	45151.468373	3820.431598	23919.255931
109.536500	-0.015695	-0.004026	-0.006064	0.008912	7148.193044	45049.081798	3821.939731	23873.520866
110.034500	-0.012911	-0.003780	-0.007395	0.004485	7222.938150	45507.103807	3830.298978	24090.744538
110.535000	-0.013306	-0.003908	-0.006228	0.004643	7217.161216	45478.878153	3833.038016	24082.947310
111.035000	-0.017911	-0.003826	-0.008382	0.009296	7121.544201	45031.066104	3814.689291	23854.746430
111.535000	-0.013054	-0.003165	-0.008850	0.006066	7204.952684	45411.963262	3822.099612	24012.890848
112.035000	-0.014189	-0.003366	-0.004670	0.005385	7200.224789	45459.197872	3835.255924	24046.384515
112.535500	-0.011549	-0.003611	-0.004351	0.006139	7219.888315	45361.026104	3834.073494	24009.338631
113.037000	-0.015881	-0.003742	-0.008888	0.010157	7133.504505	44955.452359	3811.041229	23812.815119
113.536500	-0.015024	-0.003700	-0.001976	0.006482	7180.189266	45318.648730	3839.613160	23992.489145
114.034000	-0.014617	-0.004042	-0.005015	0.006629	7182.872590	45270.552035	3830.937231	23985.233638
114.537500	-0.014118	-0.004136	-0.006877	0.006425	7190.170268	45281.425612	3826.452716	23995.286282
115.034000	-0.017697	-0.003997	-0.005652	0.010886	7107.513979	44859.845532	3817.743427	23777.363141
115.535000	-0.014255	-0.003703	-0.007034	0.007246	7180.232202	45243.396896	3823.813467	23954.989822
116.035000	-0.016089	-0.003894	-0.006912	0.007463	7159.052380	45203.417782	3823.556207	23944.350906
116.535500	-0.015794	-0.004839	-0.004108	0.007613	7160.550740	45096.413931	3830.730837	23937.022874
117.036000	-0.018509	-0.004130	-0.008576	0.013181	7075.963224	44624.675612	3803.832704	23666.073395
117.536000	-0.018109	-0.003856	-0.006560	0.013489	7076.901539	44621.500705	3808.367035	23651.230290
118.036000	-0.017067	-0.003830	-0.006312	0.008666	7136.634135	45092.109420	3821.934016	23885.516929
118.537000	-0.015860	-0.004132	-0.006668	0.008993	7145.661504	45030.719721	3820.095516	23869.540446
119.036500	-0.019857	-0.004119	-0.008071	0.014549	7048.583975	44493.969832	3801.548213	23600.058148
119.534500	-0.019814	-0.004535	-0.010132	0.014377	7050.756118	44470.552562	3796.564603	23608.357093
120.034500	-0.015642	-0.003601	-0.005994	0.010223	7135.278960	44962.652685	3818.604374	23809.583706
120.535000	-0.016077	-0.003835	-0.003726	0.010085	7132.228432	44953.285601	3825.077044	23816.289341
121.035000	-0.019202	-0.004184	-0.009111	0.015987	7040.727981	44349.648636	3795.017326	23530.886239
121.535500	-0.020417	-0.004866	-0.008873	0.015648	7031.949829	44316.776372	3796.534032	23547.177064
122.035500	-0.017046	-0.003593	-0.005625	0.011623	7106.635546	44827.514404	3815.840772	23741.553660
122.536000	-0.016975	-0.003861	-0.005477	0.011784	7105.710521	44785.852813	3815.805157	23733.719368
123.036500	-0.020478	-0.004594	-0.006651	0.016933	7018.498081	44219.768320	3799.002503	23485.495112
123.536500	-0.020866	-0.004224	-0.004463	0.017487	7009.099161	44202.203747	3803.322178	23458.959909
124.034000	-0.016920	-0.004023	-0.006640	0.012296	7101.059555	44720.566840	3811.329060	23708.911185
124.534500	-0.017543	-0.003636	-0.006407	0.012448	7093.180192	44743.284147	3811.544766	23701.543505
125.034500	-0.017521	-0.004359	-0.007641	0.012804	7089.801197	44639.107648	3807.315549	23684.336699
125.538000	-0.021495	-0.004565	-0.003639	0.017844	6999.284073	44135.495510	3804.558781	23441.845839
126.035500	-0.017855	-0.005302	-0.004725	0.012656	7087.914585	44562.361150	3815.485239	23691.515348
126.536000	-0.017865	-0.004209	-0.002782	0.013649	7077.748054	44572.002473	3818.029382	23643.474299
127.035500	-0.018246	-0.004528	-0.004571	0.013492	7075.484802	44556.340782	3813.659374	23651.050135
127.539000	-0.018596	-0.004245	-0.000269	0.013996	7066.857888	44535.042607	3823.854264	23626.718006
128.037000	-0.017933	-0.004528	-0.007332	0.014499	7068.465837	44459.373765	3803.637139	23602.450644
128.535000	-0.018494	-0.004913	-0.002625	0.014730	7060.479949	44400.291706	3815.553096	23591.337202
129.034000	-0.023501	-0.005498	-0.007395	0.020031	6957.827121	43838.977163	3788.910174	23337.507659
129.537500	-0.018644	-0.003973	-0.010163	0.018838	7017.781955	44097.162599	3784.799370	23394.355112
130.034500	-0.018143	-0.004188	-0.005616	0.016048	7050.750486	44343.388361	3804.079223	23527.940656
130.537000	-0.019568	-0.004264	-0.004068	0.015623	7040.707279	44376.819265	3809.320472	23548.361400
131.035500	-0.021978	-0.005075	-0.005991	0.021077	6962.526161	43780.077405	3789.849098	23287.830011
131.535500	-0.021783	-0.004645	-0.006999	0.020812	6967.055285	43845.822958	3787.905870	23300.388256
132.036500	-0.018855	-0.004690	-0.009136	0.016261	7041.464661	44274.871762	3794.231587	23517.734298
132.536000	-0.019119	-0.004104	-0.001009	0.016868	7032.729593	44272.855738	3814.158091	23488.587521
133.034000	-0.022689	-0.005296	-0.005656	0.023007	6936.575854	43577.051203	3785.681197	23196.368061
133.534500	-0.018337	-0.003993	-0.004582	0.020875	7000.551795	43901.573243	3794.072531	23297.382298
134.034500	-0.019264	-0.005006	-0.003553	0.016925	7030.705477	44181.166975	3807.225159	23485.849826
134.534500	-0.018375	-0.004200	-0.001844	0.017740	7031.439785	44180.321168	3809.604464	23446.828691
135.035000	-0.023897	-0.005340	-0.007629	0.023132	6923.551193	43561.226419	3780.225827	23190.494577
135.535000	-0.021845	-0.004973	-0.004402	0.022285	6951.946428	43675.515723	3790.844829	23230.537429
136.035500	-0.018848	-0.004328	-0.007049	0.018229	7021.827272	44121.449609	3794.542261	23423.472980
136.535500	-0.018665	-0.004741	-0.005157	0.018306	7022.888121	44074.721746	3799.320992	23419.776885
137.036000	-0.023127	-0.005006	-0.006328	0.023519	6927.285187	43556.148629	3782.599330	23172.191206
137.533500	-0.021718	-0.005076	-0.010394	0.023845	6937.879595	43518.974876	3771.235161	23156.803944
138.035000	-0.018071	-0.004634	-0.005339	0.019358	7018.307315	43984.826258	3796.069105	23369.574662
138.534500	-0.018809	-0.004876	-0.007016	0.019865	7005.909895	43913.686727	3790.338142	23345.446962
139.035500	-0.023535	-0.004267	-0.007993	0.026013	6899.029235	43391.440232	3771.836300	23054.821226
139.535000	-0.022996	-0.004699	-0.009520	0.025175	6912.416751	43429.421633	3770.059788	23094.154985
140.035000	-0.019004	-0.004535	-0.003066	0.020796	6994.715669	43857.743539	3798.270419	23301.163613
140.535000	-0.019383	-0.003300	-0.006740	0.021827	6980.737326	43877.074104	3785.932295	23252.230161
141.036000	-0.019053	-0.004404	0.001031	0.021228	6989.936191	43829.253094	3807.972960	23280.635720
141.536000	-0.022215	-0.004653	-0.009778	0.026122	6910.798970	43345.102955	3766.966800	23049.688935
142.036500	-0.018090	-0.004211	-0.004712	0.022428	6987.595367	43733.979119	3789.660298	23223.771274
142.536500	-0.019416	-0.003867	-0.006757	0.022563	6973.132031	43753.757123	3783.969976	23217.371831
143.034500	-0.018418	-0.004717	-0.008598	0.022393	6984.687927	43689.484665	3779.625290	23225.405314
143.536000	-0.020591	-0.004182	-0.010986	0.027919	6909.117008	43221.226528	3759.287962	22965.524269
144.034500	-0.018139	-0.002662	-0.003564	0.024092	6970.651183	43723.129254	3788.310687	23145.169417
144.538500	-0.018345	-0.004061	-0.004768	0.023573	6973.739903	43640.074965	3786.521935	23169.641245
145.035500	-0.022816	-0.004261	-0.007664	0.029636	6870.936824	43054.002920	3763.382756	22885.465281
145.535500	-0.019287	-0.004621	-0.008839	0.028985	6911.436735	43080.992732	3762.044643	22915.776866
146.036500	-0.016356	-0.004215	-0.003382	0.024613	6983.122420	43527.709473	3787.423145	23120.601247
146.536000	-0.015097	-0.002538	-0.004654	0.025967	6982.179114	43558.006578	3780.587815	23056.945854
147.036500	-0.021107	-0.004130	-0.006332	0.030880	6875.423556	42950.716338	3763.608153	22827.623509
147.534000	-0.015308	-0.003078	-0.001673	0.025847	6981.284277	43518.564186	3788.665015	23062.580799
148.034000	-0.017501	-0.003493	-0.001098	0.025894	6959.169104	43475.160499	3790.045732	23060.370835
148.535500	-0.016181	-0.003842	-0.003043	0.025787	6973.242459	43452.486972	3785.246257	23065.396131
149.040000	-0.018889	-0.002865	-0.005786	0.031995	6886.083874	42964.641628	3762.155689	22775.946228
149.535000	-0.015773	-0.003114	-0.007193	0.026673	6968.531215	43437.646277	3772.195655	23023.849703
150.035500	-0.013921	-0.003040	-0.000153	0.027045	6983.161403	43409.778285	3789.508903	23006.434253
150.535500	-0.014810	-0.002697	-0.001800	0.027284	6972.003245	43419.516234	3784.586522	22995.247207
151.036000	-0.019222	-0.003063	-0.005087	0.032192	6880.952263	42927.976820	3763.436927	22766.808543
151.536500	-0.013335	-0.002757	-0.001908	0.027250	6986.930280	43417.011626	3784.390647	22996.810591
152.033500	-0.011994	-0.001812	-0.001138	0.028172	6991.083653	43419.188674	3783.996572	22953.716781
152.534000	-0.011429	-0.001584	-0.005158	0.028206	6996.345604	43437.371086	3773.489511	22952.106325
153.034500	-0.014262	-0.002852	-0.004429	0.031753	6933.460355	42988.289997	3766.244321	22787.141272
153.534500	-0.014473	-0.001747	-0.007026	0.032568	6923.426535	43015.130522	3757.534652	22749.423834
154.034500	-0.011672	-0.000338	-0.001383	0.029448	6981.627419	43437.773573	3780.043103	22894.212120
154.535000	-0.012713	-0.001506	-0.004178	0.028224	6983.439622	43442.962947	3775.973767	22951.282385
155.035500	-0.014522	-0.001727	-0.003342	0.032066	6927.859709	43063.682659	3768.230532	22772.661604
155.536000	-0.012420	-0.001241	-0.004425	0.033386	6935.506754	42986.166508	3762.076643	22711.634954
156.035500	-0.008966	-0.000875	-0.007664	0.028758	7015.367710	43452.058191	3765.629738	22926.358088
156.536000	-0.009521	-0.000759	-0.004939	0.028962	7007.805845	43443.837429	3772.107004	22916.851405
157.036500	-0.011627	-0.001552	-0.003552	0.031262	6964.159901	43154.740381	3769.755792	22809.924190
157.534000	-0.013137	-0.001060	-0.008673	0.032103	6941.051716	43122.242113	3754.532502	22770.935606
158.037500	-0.007939	-0.000357	-0.003662	0.029057	7022.639053	43472.667592	3775.157232	22912.440925
158.538000	-0.008673	-0.000805	-0.005230	0.028492	7020.951606	43483.697468	3772.568161	22938.785417
159.041500	-0.010661	-0.000982	-0.009280	0.032407	6962.395871	43101.228119	3752.224583	22756.862505
159.536000	-0.008592	-0.000213	-0.001674	0.032031	6986.550527	43207.861399	3772.609181	22774.259908
160.035500	-0.007337	0.000239	-0.003313	0.028503	7034.204534	43580.784293	3777.491970	22938.274589
160.536000	-0.006504	0.000491	-0.001613	0.028824	7039.328536	43574.253478	3781.064533	22923.283666
161.036000	-0.008064	0.000293	-0.004836	0.028393	7028.029466	43596.234715	3773.838503	22943.405924
161.534000	-0.010617	-0.001131	-0.008781	0.032120	6965.662659	43114.077180	3754.216802	22770.156308
162.034500	-0.005815	0.000719	-0.002027	0.028730	7047.185864	43604.523117	3780.234760	22927.658204
162.534500	-0.005351	-0.000002	-0.003555	0.028325	7055.934668	43574.867050	3777.324807	22946.587372
163.035000	-0.005161	0.000302	-0.004697	0.028212	7058.980452	43614.092405	3774.664436	22951.836380
163.535000	-0.007023	0.000703	-0.003158	0.028111	7041.283925	43661.437210	3778.907923	22956.565083
164.035000	-0.005807	-0.000251	-0.008066	0.027057	7064.112409	43670.842178	3768.960516	23005.847140
164.535500	-0.006420	0.000601	-0.002383	0.028030	7048.146216	43659.396137	3781.126589	22960.347665
165.041000	-0.007335	0.000252	-0.002573	0.027271	7046.575570	43698.051169	3782.606921	22995.834953
165.536000	-0.005894	0.001109	-0.006069	0.027763	7056.118022	43732.514466	3772.282361	22972.805224
166.036500	-0.004886	0.000861	-0.004593	0.027677	7067.153697	43717.258851	3776.315323	22976.860967
166.536500	-0.004379	0.000452	-0.007693	0.027096	7078.143668	43733.497914	3769.821618	23004.037281
167.036500	-0.009164	-0.000155	-0.007694	0.029215	7008.846535	43476.856910	3764.385096	22905.071320
167.535000	-0.005857	0.000794	-0.003653	0.027070	7063.481858	43768.377120	3780.323343	23005.269773
168.034500	-0.002525	0.000341	-0.005860	0.027037	7097.545231	43728.577231	3774.694716	23006.800217
168.534500	-0.005883	0.000174	-0.001833	0.026587	7068.092606	43755.310748	3786.316368	23027.881892
169.035000	-0.007897	-0.000923	-0.008147	0.028880	7024.824389	43436.128359	3764.082237	22920.670083
169.535500	-0.007625	0.000507	-0.006462	0.028219	7034.156015	43632.757139	3770.097571	22951.506092
170.035500	-0.005565	-0.000011	-0.006539	0.026182	7075.391716	43776.123928	3775.150088	23046.854014
170.536000	-0.006035	0.000991	-0.003407	0.026817	7064.238104	43810.875417	3781.618851	23017.089864
171.039000	-0.004856	0.000312	-0.006081	0.028679	7057.351998	43571.057221	3769.893520	22930.041160
171.534000	-0.005491	0.000168	-0.005688	0.026732	7070.584224	43741.072401	3775.926205	23021.063724
172.037000	-0.004518	0.001268	-0.007143	0.026952	7078.202760	43824.330763	3771.606014	23010.779133
172.538000	-0.003672	0.000839	-0.006572	0.026830	7088.002779	43795.222241	3773.391392	23016.480312
173.038000	-0.005055	0.000765	-0.004576	0.027859	7063.609628	43691.025600	3775.890143	22968.347367
173.535500	-0.007212	0.001417	-0.008207	0.030517	7015.318104	43502.148938	3759.750392	22844.500698
174.035500	-0.003720	0.000456	-0.005034	0.026232	7093.585193	43815.590545	3778.914912	23044.532663
174.535500	-0.005211	0.000405	-0.002854	0.026830	7072.425331	43754.218425	3783.023460	23016.489156
175.036000	-0.006354	0.001148	-0.001920	0.028194	7047.161308	43695.557438	3781.902775	22952.674878
175.536500	-0.007465	0.000584	-0.007368	0.029613	7021.810276	43508.776451	3764.197346	22886.501739
176.036500	-0.003699	0.000252	-0.008110	0.026563	7090.436738	43764.975966	3770.119967	23029.006907
176.534000	-0.005091	0.001007	-0.001955	0.026195	7080.061111	43871.323086	3787.021788	23046.265549
177.038000	-0.006653	0.000309	-0.008503	0.027234	7053.814699	43707.005200	3767.385215	22997.581557
177.534500	-0.007359	0.000261	-0.002738	0.029070	7028.301262	43529.514796	3777.509700	22911.810377
178.037000	-0.003987	0.000571	-0.001688	0.026303	7090.155554	43819.752415	3787.434644	23041.194315
178.535500	-0.004178	0.001182	-0.002063	0.026473	7086.493598	43861.576678	3786.013664	23033.241928
179.036000	-0.006505	0.000452	-0.008270	0.027366	7053.971324	43708.095327	3767.646607	22991.413039
179.536500	-0.007154	-0.000349	-0.004810	0.028761	7033.443792	43501.162358	3772.955918	22926.201157
180.036000	-0.005339	0.000043	-0.010176	0.025990	7079.623006	43799.427361	3766.285204	23055.876066
180.537000	-0.005282	0.000576	-0.005384	0.026226	7077.809864	43827.555969	3778.023910	23044.805945
181.037000	-0.004240	0.000372	-0.004719	0.026165	7088.987193	43813.994605	3779.902983	23047.648022
181.537000	-0.005465	0.000495	-0.003082	0.025965	7078.604896	43844.615955	3784.682317	23057.064734
182.037500	-0.005492	0.000948	-0.002322	0.026365	7074.277901	43849.515563	3785.617042	23038.262235
182.535000	-0.005526	0.000316	-0.002135	0.025555	7082.138490	43866.472404	3788.222707	23076.330476
183.035000	-0.004240	0.000078	-0.001978	0.026613	7084.453276	43743.890231	3785.870084	23026.677162
183.535500	-0.004306	-0.000055	-0.004506	0.025546	7094.599993	43832.239639	3782.067924	23076.752624
184.036000	-0.005386	0.000216	-0.004807	0.025520	7083.903310	43860.232601	3781.349886	23077.940841
184.536000	-0.005020	0.000176	-0.004728	0.025763	7085.153739	43833.524023	3780.926582	23066.542959
185.036500	-0.005466	0.000474	-0.005652	0.025478	7083.521778	43888.689410	3779.266228	23079.925831
185.536500	-0.004889	-0.000500	-0.006732	0.025015	7094.068308	43840.325598	3777.667861	23101.694098
186.043000	-0.006252	0.000430	-0.006341	0.025330	7077.067206	43898.613779	3777.864184	23086.876680
186.653500	-0.010095	-0.000615	-0.010052	0.030767	6984.183565	43288.294753	3754.422369	22832.851345
187.064500	-0.006939	0.000824	-0.004823	0.025800	7065.377710	43891.363043	3780.583529	23064.805053
187.540500	-0.003762	0.000746	-0.003660	0.025906	7096.470004	43874.006077	3783.330606	23059.833925
188.035500	-0.004820	0.000449	-0.001710	0.025463	7090.227098	43887.870282	3789.574797	23080.649749
188.535000	-0.005960	-0.000183	-0.003614	0.025075	7082.600211	43864.610319	3785.612308	23098.869709
189.035500	-0.006218	-0.000187	-0.006437	0.025562	7075.065818	43818.158105	3777.017215	23076.001181
189.536000	-0.006320	-0.000176	-0.006226	0.024816	7081.582200	43889.844228	3779.494259	23111.062678
