sample name	sample
index	390
start time	 03-08-2021  09:54:01 AM


Wavelength (nm)	Absorbance
494.344910	NaN
494.563924	NaN
494.782919	NaN
495.001897	0.158607
495.220856	0.257193
495.439797	0.194626
495.658719	0.142674
495.877624	0.079370
496.096510	0.050798
496.315378	0.053423
496.534227	0.025722
496.753059	-0.007438
496.971872	-0.058191
497.190667	-0.015376
497.409444	-0.003215
497.628203	-0.000497
497.846943	0.002658
498.065665	0.004389
498.284369	0.005925
498.503055	0.005849
498.721723	0.006754
498.940372	0.006448
499.159003	0.006845
499.377616	0.006059
499.596210	0.006273
499.814787	0.006012
500.033345	0.006063
500.251885	0.005224
500.470406	0.005331
500.688910	0.005512
500.907395	0.005378
501.125862	0.005076
501.344311	0.005777
501.562742	0.005591
501.781154	0.005779
501.999548	0.005186
502.217924	0.005030
502.436282	0.005709
502.654621	0.004737
502.872942	0.005291
503.091245	0.006131
503.309530	0.005663
503.527797	0.004941
503.746045	0.004183
503.964275	0.004349
504.182487	0.004770
504.400681	0.004426
504.618856	0.004848
504.837013	0.004749
505.055152	0.004203
505.273273	0.003695
505.491376	0.004586
505.709460	0.005117
505.927526	0.004520
506.145574	0.004348
506.363604	0.004187
506.581615	0.004547
506.799608	0.004124
507.017583	0.004579
507.235540	0.005066
507.453478	0.004442
507.671399	0.003990
507.889301	0.004210
508.107185	0.003994
508.325050	0.003989
508.542898	0.003971
508.760727	0.004857
508.978538	0.004624
509.196330	0.005310
509.414105	0.005475
509.631861	0.005481
509.849599	0.006240
510.067319	0.006867
510.285021	0.006552
510.502704	0.006180
510.720369	0.005654
510.938016	0.006058
511.155645	0.005667
511.373255	0.006223
511.590848	0.006502
511.808422	0.005920
512.025977	0.005415
512.243515	0.005280
512.461034	0.005919
512.678536	0.006240
512.896018	0.005646
513.113483	0.005113
513.330930	0.004972
513.548358	0.004426
513.765768	0.004795
513.983160	0.005273
514.200533	0.005725
514.417889	0.005880
514.635226	0.005455
514.852545	0.005858
515.069845	0.006494
515.287128	0.006346
515.504392	0.006771
515.721638	0.006871
515.938866	0.006352
516.156075	0.005596
516.373267	0.005166
516.590440	0.005317
516.807594	0.005014
517.024731	0.005090
517.241850	0.004931
517.458950	0.005123
517.676032	0.004940
517.893095	0.005341
518.110141	0.006210
518.327168	0.006752
518.544177	0.007218
518.761168	0.007269
518.978141	0.007163
519.195095	0.007820
519.412031	0.007627
519.628949	0.008108
519.845849	0.008260
520.062731	0.008071
520.279594	0.007389
520.496439	0.007058
520.713266	0.007411
520.930074	0.007471
521.146865	0.007032
521.363637	0.007382
521.580391	0.007497
521.797127	0.007123
522.013844	0.006268
522.230543	0.006227
522.447224	0.006382
522.663887	0.006020
522.880532	0.005808
523.097158	0.006037
523.313766	0.005872
523.530356	0.005300
523.746928	0.005185
523.963481	0.005812
524.180017	0.005951
524.396534	0.006040
524.613032	0.006314
524.829513	0.006752
525.045975	0.006475
525.262420	0.006922
525.478845	0.007380
525.695253	0.007752
525.911643	0.008247
526.128014	0.008984
526.344367	0.008862
526.560702	0.009053
526.777018	0.008760
526.993316	0.009136
527.209597	0.008794
527.425858	0.008806
527.642102	0.008625
527.858328	0.008788
528.074535	0.008013
528.290724	0.008181
528.506894	0.008081
528.723047	0.008202
528.939181	0.007841
529.155297	0.007843
529.371395	0.007356
529.587475	0.007859
529.803536	0.008165
530.019579	0.008220
530.235604	0.008094
530.451611	0.008109
530.667600	0.008365
530.883570	0.008579
531.099522	0.008535
531.315456	0.009197
531.531372	0.008834
531.747269	0.008646
531.963148	0.009553
532.179009	0.009452
532.394852	0.009681
532.610676	0.009539
532.826482	0.009408
533.042271	0.009492
533.258040	0.009405
533.473792	0.009127
533.689525	0.008830
533.905240	0.008445
534.120937	0.008243
534.336616	0.008040
534.552277	0.008206
534.767919	0.008071
534.983543	0.008034
535.199149	0.007963
535.414736	0.008307
535.630306	0.008733
535.845857	0.008366
536.061390	0.009140
536.276904	0.009092
536.492401	0.009246
536.707879	0.009265
536.923339	0.009422
537.138781	0.009609
537.354204	0.009774
537.569610	0.009187
537.784997	0.009506
538.000366	0.009250
538.215716	0.009267
538.431049	0.009120
538.646363	0.009566
538.861659	0.009781
539.076937	0.009591
539.292196	0.009094
539.507438	0.009734
539.722661	0.010004
539.937866	0.009588
540.153052	0.009755
540.368221	0.009176
540.583371	0.009379
540.798503	0.009512
541.013617	0.009375
541.228712	0.009449
541.443789	0.009226
541.658848	0.008752
541.873889	0.008715
542.088912	0.008791
542.303916	0.009366
542.518902	0.008799
542.733870	0.009072
542.948820	0.009211
543.163752	0.009283
543.378665	0.009258
543.593560	0.009318
543.808437	0.009524
544.023295	0.009854
544.238136	0.010514
544.452958	0.010904
544.667762	0.010227
544.882548	0.010528
545.097315	0.010520
545.312064	0.010473
545.526795	0.010716
545.741508	0.011140
545.956203	0.010633
546.170879	0.010133
546.385537	0.010123
546.600177	0.010626
546.814799	0.010528
547.029402	0.010517
547.243988	0.010579
547.458555	0.010303
547.673103	0.009995
547.887634	0.009880
548.102146	0.009949
548.316640	0.010003
548.531116	0.009631
548.745574	0.009693
548.960013	0.010045
549.174435	0.010344
549.388838	0.010214
549.603222	0.010417
549.817589	0.010881
550.031937	0.011112
550.246267	0.011161
550.460579	0.011490
550.674873	0.011148
550.889148	0.011154
551.103405	0.011102
551.317644	0.011400
551.531865	0.011480
551.746068	0.011449
551.960252	0.011515
552.174418	0.011345
552.388566	0.011470
552.602696	0.011743
552.816807	0.011971
553.030900	0.011915
553.244975	0.011952
553.459032	0.012178
553.673070	0.012241
553.887091	0.011925
554.101093	0.012383
554.315077	0.012112
554.529042	0.012110
554.742990	0.011943
554.956919	0.011829
555.170830	0.011713
555.384722	0.011696
555.598597	0.011338
555.812453	0.011466
556.026291	0.011300
556.240111	0.011174
556.453913	0.011144
556.667696	0.011129
556.881461	0.011235
557.095208	0.011262
557.308937	0.010903
557.522647	0.011212
557.736339	0.011171
557.950013	0.011247
558.163669	0.011509
558.377307	0.011446
558.590926	0.011499
558.804527	0.011232
559.018110	0.011534
559.231675	0.011777
559.445221	0.011664
559.658749	0.011692
559.872259	0.011507
560.085751	0.011468
560.299225	0.011690
560.512680	0.011732
560.726117	0.012061
560.939536	0.011923
561.152937	0.011793
561.366319	0.011939
561.579683	0.011914
561.793029	0.011970
562.006357	0.011946
562.219667	0.012019
562.432958	0.012081
562.646231	0.012309
562.859486	0.012639
563.072723	0.012583
563.285941	0.012495
563.499141	0.012743
563.712323	0.012610
563.925487	0.012581
564.138632	0.012630
564.351760	0.012631
564.564869	0.012262
564.777960	0.012017
564.991032	0.012127
565.204087	0.012305
565.417123	0.012048
565.630141	0.012392
565.843140	0.012380
566.056122	0.012009
566.269085	0.011793
566.482030	0.011764
566.694957	0.011793
566.907866	0.011999
567.120756	0.011782
567.333628	0.011774
567.546482	0.011505
567.759318	0.011490
567.972135	0.011789
568.184935	0.011904
568.397716	0.012084
568.610478	0.011807
568.823223	0.011693
569.035949	0.011863
569.248657	0.011717
569.461347	0.012200
569.674019	0.012674
569.886672	0.012790
570.099308	0.012919
570.311925	0.013204
570.524523	0.013409
570.737104	0.013322
570.949666	0.013415
571.162210	0.013534
571.374736	0.013235
571.587244	0.013179
571.799733	0.013245
572.012205	0.013159
572.224658	0.013023
572.437092	0.012937
572.649509	0.012917
572.861907	0.012745
573.074287	0.012675
573.286649	0.012540
573.498993	0.012247
573.711318	0.011866
573.923625	0.012012
574.135914	0.011884
574.348185	0.012039
574.560438	0.012051
574.772672	0.012252
574.984888	0.012712
575.197086	0.012752
575.409266	0.012916
575.621427	0.013107
575.833570	0.013034
576.045695	0.012982
576.257802	0.013068
576.469890	0.013143
576.681961	0.013150
576.894013	0.013078
577.106046	0.013166
577.318062	0.012912
577.530059	0.013009
577.742039	0.013141
577.954000	0.013351
578.165942	0.013239
578.377867	0.013377
578.589773	0.013206
578.801661	0.013121
579.013531	0.013125
579.225382	0.013311
579.437216	0.013247
579.649031	0.013239
579.860828	0.013242
580.072606	0.013055
580.284367	0.013016
580.496109	0.013330
580.707833	0.013308
580.919539	0.013585
581.131227	0.013583
581.342896	0.013315
581.554547	0.013373
581.766180	0.013459
581.977795	0.013839
582.189391	0.013860
582.400969	0.013870
582.612529	0.013831
582.824071	0.013780
583.035595	0.014125
583.247100	0.014405
583.458587	0.014416
583.670056	0.014335
583.881506	0.014099
584.092939	0.013921
584.304353	0.013604
584.515749	0.013845
584.727127	0.013981
584.938486	0.013701
585.149828	0.013854
585.361151	0.013992
585.572456	0.013763
585.783742	0.014083
585.995011	0.014542
586.206261	0.014687
586.417493	0.014507
586.628706	0.014290
586.839902	0.014373
587.051079	0.014106
587.262238	0.013828
587.473379	0.014009
587.684502	0.013827
587.895606	0.013278
588.106692	0.013211
588.317760	0.013087
588.528810	0.013001
588.739841	0.013043
588.950855	0.013127
589.161850	0.013270
589.372827	0.013318
589.583785	0.013395
589.794726	0.013672
590.005648	0.013820
590.216552	0.014269
590.427437	0.014156
590.638305	0.014207
590.849154	0.014430
591.059985	0.014368
591.270798	0.014148
591.481592	0.014346
591.692369	0.014445
591.903127	0.014435
592.113867	0.014262
592.324588	0.014563
592.535292	0.014669
592.745977	0.014574
592.956644	0.014921
593.167293	0.015297
593.377923	0.015249
593.588536	0.015172
593.799130	0.015306
594.009706	0.015258
594.220263	0.015154
594.430803	0.015345
594.641324	0.015671
594.851827	0.015457
595.062312	0.015743
595.272778	0.015903
595.483227	0.016028
595.693657	0.015970
595.904069	0.016038
596.114462	0.016211
596.324838	0.015874
596.535195	0.015582
596.745534	0.015610
596.955855	0.015206
597.166157	0.015116
597.376441	0.014810
597.586707	0.014713
597.796955	0.014630
598.007185	0.014789
598.217396	0.014992
598.427589	0.015070
598.637764	0.015023
598.847921	0.014996
599.058060	0.015025
599.268180	0.015333
599.478282	0.015313
599.688366	0.015465
599.898431	0.015282
600.108479	0.015239
600.318508	0.015208
600.528519	0.015246
600.738511	0.015386
600.948486	0.015329
601.158442	0.015378
601.368380	0.015424
601.578300	0.015405
601.788202	0.015407
601.998085	0.015177
602.207950	0.015077
602.417797	0.015087
602.627626	0.015113
602.837436	0.015169
603.047228	0.015103
603.257002	0.015238
603.466758	0.015378
603.676496	0.015326
603.886215	0.015441
604.095916	0.015646
604.305599	0.015707
604.515264	0.015718
604.724910	0.015738
604.934538	0.015779
605.144148	0.015810
605.353740	0.015880
605.563314	0.015928
605.772869	0.016221
605.982406	0.016225
606.191925	0.016248
606.401425	0.016364
606.610908	0.016150
606.820372	0.016300
607.029818	0.016309
607.239246	0.016321
607.448655	0.016473
607.658047	0.016492
607.867420	0.016629
608.076775	0.016529
608.286111	0.016394
608.495430	0.016864
608.704730	0.016738
608.914012	0.016546
609.123275	0.016513
609.332521	0.016738
609.541748	0.016621
609.750957	0.016593
609.960148	0.016845
610.169321	0.016858
610.378475	0.016648
610.587611	0.016899
610.796729	0.017176
611.005829	0.017205
611.214910	0.016959
611.423974	0.017007
611.633019	0.016881
611.842045	0.016755
612.051054	0.016884
612.260044	0.017063
612.469017	0.017147
612.677970	0.017046
612.886906	0.016887
613.095824	0.016954
613.304723	0.016807
613.513604	0.016962
613.722467	0.017133
613.931311	0.017143
614.140138	0.016797
614.348946	0.016751
614.557736	0.016789
614.766507	0.016807
614.975261	0.016891
615.183996	0.016857
615.392713	0.016754
615.601412	0.016662
615.810092	0.016434
616.018754	0.016491
616.227399	0.016668
616.436024	0.016758
616.644632	0.016827
616.853222	0.016725
617.061793	0.016856
617.270346	0.016885
617.478880	0.016954
617.687397	0.017165
617.895895	0.017484
618.104375	0.017249
618.312837	0.017146
618.521281	0.017195
618.729706	0.017298
618.938113	0.017142
619.146502	0.017259
619.354873	0.017352
619.563226	0.017525
619.771560	0.017296
619.979876	0.017437
620.188174	0.017477
620.396453	0.017385
620.604715	0.017259
620.812958	0.017616
621.021183	0.017555
621.229390	0.017546
621.437578	0.017484
621.645748	0.017506
621.853900	0.017439
622.062034	0.017378
622.270150	0.017564
622.478247	0.017658
622.686326	0.017651
622.894387	0.017811
623.102430	0.017883
623.310454	0.017821
623.518461	0.018204
623.726449	0.018252
623.934418	0.018417
624.142370	0.018493
624.350303	0.018342
624.558218	0.018413
624.766115	0.018169
624.973994	0.018052
625.181855	0.018047
625.389697	0.017881
625.597521	0.017892
625.805327	0.017900
626.013114	0.017709
626.220883	0.017821
626.428634	0.017896
626.636367	0.018336
626.844082	0.018272
627.051778	0.018276
627.259457	0.018341
627.467117	0.018428
627.674758	0.018584
627.882382	0.018626
628.089987	0.018708
628.297574	0.018590
628.505143	0.018467
628.712694	0.018488
628.920226	0.018690
629.127740	0.018662
629.335236	0.018572
629.542714	0.018521
629.750174	0.018843
629.957615	0.018977
630.165038	0.018933
630.372443	0.018755
630.579829	0.018983
630.787198	0.018926
630.994548	0.018798
631.201880	0.018821
631.409194	0.018945
631.616489	0.018750
631.823766	0.018737
632.031025	0.018902
632.238266	0.019134
632.445489	0.018966
632.652693	0.019029
632.859879	0.019027
633.067047	0.018983
633.274197	0.018675
633.481329	0.018560
633.688442	0.018625
633.895537	0.018563
634.102614	0.018483
634.309672	0.018639
634.516713	0.018704
634.723735	0.018772
634.930739	0.018833
635.137724	0.018956
635.344692	0.019055
635.551641	0.018889
635.758572	0.018943
635.965485	0.019208
636.172379	0.019142
636.379256	0.018983
636.586114	0.019032
636.792954	0.019071
636.999775	0.019089
637.206579	0.019185
637.413364	0.019068
637.620131	0.019013
637.826880	0.018765
638.033610	0.018787
638.240323	0.018824
638.447017	0.018879
638.653692	0.018614
638.860350	0.018676
639.066990	0.018631
639.273611	0.018809
639.480214	0.018786
639.686798	0.018681
639.893365	0.018633
640.099913	0.018704
640.306443	0.018728
640.512955	0.019075
640.719449	0.019132
640.925924	0.019107
641.132381	0.019317
641.338820	0.019268
641.545241	0.019408
641.751644	0.019463
641.958028	0.019487
642.164394	0.019508
642.370742	0.019495
642.577071	0.019386
642.783383	0.019418
642.989676	0.019363
643.195951	0.019498
643.402207	0.019397
643.608446	0.019415
643.814666	0.019361
644.020868	0.019348
644.227052	0.019134
644.433218	0.019240
644.639365	0.019354
644.845494	0.019322
645.051605	0.019466
645.257698	0.019710
645.463772	0.019979
645.669828	0.019974
645.875866	0.020035
646.081886	0.020213
646.287888	0.020163
646.493871	0.020205
646.699836	0.020135
646.905783	0.020039
647.111712	0.020034
647.317622	0.019893
647.523514	0.020091
647.729388	0.020268
647.935244	0.020469
648.141082	0.020689
648.346901	0.020635
648.552702	0.020748
648.758485	0.020801
648.964250	0.020801
649.169996	0.020732
649.375724	0.020780
649.581434	0.020721
649.787126	0.020597
649.992800	0.020549
650.198455	0.020710
650.404092	0.020811
650.609711	0.021017
650.815311	0.021048
651.020894	0.021157
651.226458	0.021000
651.432004	0.020967
651.637532	0.021101
651.843041	0.021134
652.048532	0.021083
652.254006	0.021127
652.459460	0.020906
652.664897	0.021026
652.870315	0.020966
653.075716	0.021143
653.281097	0.021142
653.486461	0.021132
653.691807	0.021089
653.897134	0.021070
654.102443	0.021064
654.307734	0.020893
654.513006	0.020741
654.718261	0.020789
654.923497	0.020843
655.128715	0.020903
655.333915	0.020801
655.539096	0.020954
655.744259	0.021133
655.949404	0.021127
656.154531	0.021315
656.359640	0.021417
656.564730	0.021460
656.769802	0.021299
656.974856	0.021287
657.179892	0.021475
657.384909	0.021464
657.589908	0.021268
657.794889	0.021096
657.999852	0.021071
658.204797	0.021081
658.409723	0.020986
658.614631	0.021145
658.819521	0.021188
659.024393	0.021129
659.229246	0.021000
659.434081	0.021195
659.638898	0.021455
659.843697	0.021585
660.048478	0.021521
660.253240	0.021590
660.457984	0.021524
660.662710	0.021587
660.867417	0.021559
661.072107	0.021763
661.276778	0.021528
661.481431	0.021512
661.686066	0.021516
661.890682	0.021609
662.095281	0.021732
662.299861	0.021964
662.504422	0.022015
662.708966	0.022034
662.913491	0.022062
663.117999	0.022280
663.322488	0.022345
663.526958	0.022549
663.731411	0.022713
663.935845	0.022735
664.140261	0.022560
664.344659	0.022440
664.549038	0.022495
664.753400	0.022382
664.957743	0.022475
665.162068	0.022447
665.366375	0.022369
665.570663	0.022320
665.774933	0.022363
665.979185	0.022540
666.183419	0.022658
666.387635	0.022747
666.591832	0.022849
666.796011	0.022805
667.000172	0.022865
667.204315	0.022832
667.408439	0.022815
667.612545	0.022738
667.816634	0.022744
668.020703	0.022765
668.224755	0.022786
668.428788	0.022838
668.632803	0.022736
668.836800	0.022709
669.040779	0.022799
669.244739	0.022711
669.448681	0.022837
669.652605	0.022861
669.856511	0.022828
670.060399	0.022802
670.264268	0.022793
670.468119	0.022932
670.671952	0.023058
670.875767	0.023157
671.079563	0.023295
671.283341	0.023371
671.487101	0.023405
671.690843	0.023608
671.894567	0.023615
672.098272	0.023707
672.301959	0.023686
672.505628	0.023562
672.709278	0.023586
672.912911	0.023417
673.116525	0.023382
673.320121	0.023286
673.523699	0.023036
673.727258	0.023116
673.930799	0.023068
674.134322	0.023288
674.337827	0.023503
674.541314	0.023432
674.744782	0.023677
674.948232	0.023640
675.151664	0.023702
675.355078	0.023774
675.558474	0.023997
675.761851	0.024068
675.965210	0.023970
676.168551	0.023955
676.371873	0.024079
676.575178	0.024047
676.778464	0.024244
676.981732	0.024168
677.184981	0.024258
677.388213	0.024104
677.591426	0.024178
677.794621	0.024263
677.997798	0.024105
678.200956	0.023999
678.404097	0.024047
678.607219	0.023820
678.810323	0.023871
679.013408	0.023810
679.216476	0.023764
679.419525	0.023727
679.622556	0.023590
679.825569	0.023771
680.028563	0.023692
680.231540	0.023788
680.434498	0.023904
680.637438	0.024005
680.840359	0.024135
681.043263	0.024168
681.246148	0.024046
681.449015	0.024061
681.651864	0.023925
681.854694	0.024071
682.057506	0.024024
682.260301	0.024071
682.463076	0.024095
682.665834	0.024051
682.868573	0.023970
683.071295	0.024134
683.273998	0.024264
683.476682	0.024308
683.679349	0.024298
683.881997	0.024389
684.084627	0.024500
684.287239	0.024522
684.489833	0.024534
684.692408	0.024576
684.894965	0.024603
685.097504	0.024582
685.300025	0.024568
685.502527	0.024524
685.705012	0.024401
685.907478	0.024365
686.109925	0.024285
686.312355	0.024451
686.514766	0.024479
686.717159	0.024464
686.919534	0.024528
687.121891	0.024603
687.324230	0.024657
687.526550	0.024706
687.728852	0.024493
687.931136	0.024558
688.133401	0.024402
688.335649	0.024532
688.537878	0.024485
688.740089	0.024529
688.942281	0.024416
689.144456	0.024506
689.346612	0.024455
689.548750	0.024684
689.750870	0.024679
689.952971	0.024676
690.155055	0.024603
690.357120	0.024569
690.559167	0.024435
690.761195	0.024481
690.963206	0.024355
691.165198	0.024448
691.367172	0.024527
691.569128	0.024577
691.771065	0.024644
691.972984	0.024818
692.174885	0.024900
692.376768	0.025013
692.578633	0.025104
692.780479	0.025171
692.982308	0.025288
693.184118	0.025259
693.385909	0.025094
693.587683	0.025169
693.789438	0.025091
693.991175	0.025146
694.192894	0.025109
694.394595	0.025227
694.596277	0.025138
694.797941	0.025060
694.999587	0.025063
695.201215	0.025215
695.402824	0.025158
695.604416	0.025119
695.805989	0.025079
696.007543	0.025126
696.209080	0.025127
696.410598	0.025284
696.612099	0.025239
696.813580	0.025151
697.015044	0.025096
697.216490	0.025124
697.417917	0.025036
697.619326	0.025010
697.820717	0.025002
698.022089	0.024839
698.223444	0.024845
698.424780	0.024807
698.626098	0.024877
698.827397	0.025145
699.028679	0.025202
699.229942	0.025369
699.431187	0.025280
699.632414	0.025355
699.833622	0.025507
700.034813	0.025481
700.235985	0.025562
700.437139	0.025542
700.638274	0.025441
700.839392	0.025474
701.040491	0.025602
701.241572	0.025979
701.442635	0.025958
701.643679	0.026074
701.844706	0.026219
702.045714	0.026260
702.246704	0.026400
702.447675	0.026414
702.648629	0.026385
702.849564	0.026235
703.050481	0.026080
703.251380	0.026015
703.452260	0.025980
703.653122	0.026042
703.853966	0.026074
704.054792	0.025998
704.255600	0.025958
704.456389	0.026113
704.657160	0.026273
704.857913	0.026214
705.058648	0.026291
705.259365	0.026238
705.460063	0.025987
705.660743	0.025999
705.861405	0.026079
706.062048	0.026152
706.262674	0.025849
706.463281	0.025623
706.663870	0.025759
706.864441	0.025749
707.064993	0.025828
707.265527	0.026036
707.466043	0.026027
707.666541	0.026041
707.867021	0.026113
708.067482	0.026367
708.267925	0.026532
708.468350	0.026542
708.668757	0.026430
708.869145	0.026451
709.069516	0.026255
709.269868	0.026200
709.470201	0.026208
709.670517	0.026171
709.870814	0.026091
710.071093	0.025975
710.271354	0.025891
710.471597	0.026006
710.671821	0.025949
710.872028	0.026044
711.072216	0.026144
711.272385	0.025966
711.472537	0.025910
711.672670	0.025871
711.872785	0.026002
712.072882	0.026134
712.272961	0.026074
712.473021	0.025970
712.673063	0.025907
712.873087	0.025848
713.073093	0.025950
713.273081	0.025816
713.473050	0.025853
713.673001	0.025817
713.872934	0.025886
714.072849	0.026010
714.272745	0.026039
714.472623	0.026159
714.672483	0.026246
714.872325	0.026322
715.072148	0.026523
715.271954	0.026534
715.471741	0.026506
715.671509	0.026314
715.871260	0.026343
716.070992	0.026324
716.270707	0.026257
716.470403	0.026052
716.670080	0.025925
716.869740	0.025916
717.069381	0.025755
717.269004	0.025686
717.468609	0.025546
717.668195	0.025303
717.867764	0.025463
718.067314	0.025370
718.266846	0.025391
718.466360	0.025325
718.665855	0.025221
718.865332	0.025341
719.064791	0.025329
719.264232	0.025539
719.463655	0.025665
719.663059	0.025399
719.862445	0.025546
720.061813	0.025507
720.261163	0.025481
720.460494	0.025446
720.659807	0.025504
720.859102	0.025531
721.058379	0.025365
721.257638	0.025244
721.456878	0.025403
721.656100	0.025190
721.855304	0.025425
722.054490	0.025438
722.253657	0.025486
722.452806	0.025395
722.651937	0.025520
722.851050	0.025488
723.050145	0.025666
723.249221	0.025534
723.448279	0.025738
723.647319	0.025604
723.846340	0.025680
724.045344	0.025574
724.244329	0.025672
724.443296	0.025466
724.642245	0.025608
724.841175	0.025441
725.040088	0.025381
725.238982	0.025356
725.437857	0.025345
725.636715	0.025451
725.835554	0.025356
726.034376	0.025441
726.233179	0.025593
726.431963	0.025634
726.630730	0.025855
726.829478	0.025933
727.028208	0.025980
727.226920	0.026086
727.425614	0.026065
727.624289	0.026243
727.822946	0.026252
728.021585	0.026206
728.220206	0.026103
728.418808	0.025899
728.617392	0.025833
728.815958	0.025760
729.014506	0.025582
729.213036	0.025555
729.411547	0.025588
729.610040	0.025468
729.808515	0.025503
730.006972	0.025389
730.205410	0.025475
730.403831	0.025556
730.602233	0.025535
730.800616	0.025423
730.998982	0.025341
731.197329	0.025244
731.395658	0.025271
731.593969	0.025187
731.792262	0.025290
731.990536	0.025137
732.188793	0.025046
732.387031	0.025033
732.585250	0.025207
732.783452	0.025260
732.981635	0.025252
733.179800	0.025227
733.377947	0.025161
733.576076	0.025100
733.774186	0.025250
733.972278	0.025412
734.170352	0.025502
734.368408	0.025490
734.566446	0.025379
734.764465	0.025238
734.962466	0.025214
735.160449	0.025196
735.358413	0.025126
735.556360	0.025009
735.754288	0.024933
735.952198	0.024650
736.150090	0.024520
736.347963	0.024551
736.545818	0.024629
736.743655	0.024399
736.941474	0.024273
737.139275	0.024092
737.337057	0.024150
737.534821	0.024140
737.732567	0.024202
737.930295	0.024218
738.128005	0.023984
738.325696	0.024020
738.523369	0.024061
738.721024	0.023964
738.918660	0.024174
739.116279	0.024189
739.313879	0.024057
739.511461	0.023954
739.709024	0.023951
739.906570	0.024088
740.104097	0.023909
740.301606	0.023735
740.499097	0.023952
740.696569	0.023868
740.894024	0.023764
741.091460	0.023648
741.288878	0.023815
741.486277	0.023900
741.683659	0.023762
741.881022	0.023688
742.078367	0.023856
742.275694	0.023731
742.473002	0.023787
742.670293	0.023657
742.867565	0.023966
743.064819	0.023825
743.262054	0.023845
743.459272	0.023847
743.656471	0.023966
743.853652	0.024048
744.050815	0.024108
744.247959	0.024011
744.445085	0.023976
744.642194	0.023735
744.839283	0.023783
745.036355	0.023584
745.233408	0.023681
745.430444	0.023871
745.627461	0.023659
745.824459	0.023587
746.021440	0.023419
746.218402	0.023478
746.415346	0.023428
746.612272	0.023273
746.809180	0.023182
747.006069	0.023037
747.202940	0.022867
747.399793	0.022806
747.596628	0.022760
747.793444	0.023088
747.990243	0.023134
748.187023	0.023147
748.383784	0.023133
748.580528	0.023225
748.777253	0.023442
748.973960	0.023425
749.170649	0.023610
749.367320	0.023723
749.563973	0.023469
749.760607	0.023420
749.957223	0.023488
750.153821	0.023450
750.350400	0.023337
750.546962	0.023244
750.743505	0.023224
750.940030	0.022944
751.136536	0.022872
751.333025	0.022916
751.529495	0.022937
751.725947	0.023006
751.922381	0.023226
752.118796	0.023239
752.315194	0.023362
752.511573	0.023483
752.707934	0.023734
752.904276	0.023875
753.100601	0.023818
753.296907	0.023782
753.493195	0.023569
753.689465	0.023524
753.885716	0.023527
754.081949	0.023262
754.278164	0.023207
754.474361	0.023156
754.670540	0.023142
754.866700	0.023199
755.062843	0.022947
755.258967	0.023013
755.455072	0.022766
755.651160	0.022895
755.847229	0.022905
756.043280	0.022790
756.239313	0.022690
756.435328	0.022501
756.631324	0.022337
756.827302	0.022514
757.023262	0.022359
757.219204	0.022310
757.415127	0.022129
757.611033	0.022142
757.806920	0.022204
758.002788	0.022334
758.198639	0.022351
758.394471	0.022521
758.590286	0.022440
758.786081	0.022495
758.981859	0.022624
759.177619	0.022496
759.373360	0.022431
759.569083	0.022196
759.764788	0.022044
759.960474	0.021972
760.156143	0.021666
760.351793	0.021686
760.547425	0.021769
760.743038	0.021773
760.938634	0.021834
761.134211	0.021816
761.329770	0.021872
761.525311	0.021826
761.720833	0.021723
761.916338	0.021961
762.111824	0.021952
762.307292	0.021894
762.502741	0.021880
762.698173	0.022030
762.893586	0.021982
763.088981	0.022202
763.284358	0.022322
763.479716	0.022406
763.675057	0.022430
763.870379	0.022510
764.065683	0.022402
764.260968	0.022526
764.456236	0.022496
764.651485	0.022726
764.846716	0.022549
765.041929	0.022513
765.237123	0.022563
765.432299	0.022490
765.627457	0.022440
765.822597	0.022474
766.017719	0.022423
766.212822	0.022539
766.407907	0.022480
766.602974	0.022347
766.798023	0.022286
766.993054	0.022319
767.188066	0.022428
767.383060	0.022391
767.578036	0.022311
767.772993	0.022260
767.967933	0.022122
768.162854	0.022053
768.357757	0.022236
768.552642	0.022483
768.747508	0.022465
768.942356	0.022496
769.137186	0.022560
769.331998	0.022755
769.526792	0.022872
769.721567	0.022870
769.916324	0.022820
770.111063	0.022765
770.305784	0.022763
770.500486	0.022803
770.695171	0.022797
770.889837	0.022933
771.084484	0.022941
771.279114	0.022867
771.473725	0.023143
771.668318	0.023296
771.862893	0.023407
772.057450	0.023225
772.251988	0.023359
772.446509	0.023431
772.641011	0.023392
772.835494	0.023473
773.029960	0.023492
773.224407	0.023273
773.418836	0.023116
773.613247	0.022998
773.807640	0.023071
774.002014	0.023064
774.196370	0.022935
774.390708	0.022995
774.585028	0.023002
774.779330	0.022980
774.973613	0.023161
775.167878	0.023356
775.362125	0.023352
775.556354	0.023525
775.750564	0.023393
775.944756	0.023589
776.138930	0.023551
776.333086	0.023454
776.527223	0.023571
776.721343	0.023341
776.915444	0.023296
777.109526	0.023374
777.303591	0.023163
777.497637	0.023133
777.691666	0.023031
777.885676	0.023014
778.079667	0.023112
778.273641	0.023041
778.467596	0.023063
778.661533	0.022829
778.855452	0.022694
779.049352	0.022578
779.243235	0.022602
779.437099	0.022417
779.630945	0.022357
779.824773	0.022234
780.018582	0.022124
780.212373	0.022102
780.406146	0.022237
780.599901	0.022408
780.793638	0.022521
780.987356	0.022636
781.181056	0.022622
781.374738	0.022716
781.568402	0.022866
781.762047	0.022874
781.955674	0.023022
782.149283	0.023234
782.342874	0.023272
782.536447	0.023394
782.730001	0.023359
782.923537	0.023431
783.117055	0.023315
783.310555	0.023169
783.504036	0.023276
783.697499	0.023190
783.890944	0.023173
784.084371	0.023212
784.277780	0.023056
784.471170	0.023025
784.664542	0.023139
784.857896	0.023259
785.051231	0.023443
785.244549	0.023452
785.437848	0.023333
785.631129	0.023209
785.824392	0.023129
786.017636	0.023136
786.210863	0.023070
786.404071	0.022977
786.597260	0.022835
786.790432	0.022622
786.983585	0.022586
787.176721	0.022636
787.369838	0.022718
787.562936	0.022567
787.756017	0.022775
787.949079	0.022824
788.142123	0.022958
788.335149	0.022787
788.528156	0.022938
788.721146	0.022965
788.914117	0.023268
789.107070	0.023224
789.300005	0.023291
789.492921	0.023182
789.685819	0.023150
789.878699	0.022970
790.071561	0.023184
790.264405	0.023113
790.457230	0.022908
790.650037	0.022728
790.842826	0.022753
791.035597	0.022846
791.228349	0.022931
791.421084	0.022952
791.613800	0.023059
791.806497	0.023126
791.999177	0.022973
792.191838	0.023254
792.384481	0.023260
792.577106	0.023285
792.769713	0.023200
792.962301	0.023184
793.154871	0.023356
793.347423	0.023321
793.539957	0.023311
793.732473	0.023473
793.924970	0.023351
794.117449	0.023345
794.309910	0.023245
794.502353	0.023347
794.694777	0.023152
794.887183	0.022909
795.079571	0.022931
795.271941	0.023027
795.464293	0.023076
795.656626	0.023067
795.848941	0.022969
796.041238	0.022970
796.233516	0.022945
796.425777	0.023166
796.618019	0.023144
796.810243	0.023097
797.002449	0.022870
797.194636	0.022780
797.386805	0.022822
797.578956	0.022898
797.771089	0.022979
797.963204	0.022871
798.155300	0.022777
798.347378	0.022956
798.539438	0.023198
798.731480	0.023442
798.923503	0.023638
799.115509	0.023735
799.307496	0.023717
799.499465	0.023710
799.691415	0.023729
799.883348	0.023713
800.075262	0.023681
800.267158	0.023534
800.459035	0.023533
800.650895	0.023481
800.842736	0.023414
801.034559	0.023575
801.226364	0.023682
801.418150	0.024010
801.609919	0.023983
801.801669	0.023920
801.993401	0.024062
802.185114	0.023916
802.376810	0.023719
802.568487	0.023834
802.760146	0.023713
802.951787	0.023629
803.143409	0.023412
803.335014	0.023600
803.526600	0.023665
803.718168	0.023394
803.909717	0.023606
804.101249	0.023906
804.292762	0.023908
804.484257	0.024020
804.675734	0.024127
804.867192	0.024057
805.058632	0.024040
805.250054	0.024155
805.441458	0.024563
805.632844	0.024575
805.824211	0.024467
806.015561	0.024449
806.206891	0.024594
806.398204	0.024574
806.589499	0.024880
806.780775	0.025074
806.972033	0.025179
807.163273	0.025134
807.354495	0.025104
807.545698	0.025232
807.736883	0.025417
807.928050	0.025343
808.119199	0.025365
808.310329	0.025182
808.501441	0.025146
808.692535	0.025065
808.883611	0.024934
809.074669	0.024945
809.265708	0.024949
809.456729	0.024977
809.647732	0.025002
809.838717	0.025217
810.029683	0.025481
810.220632	0.025381
810.411562	0.025442
810.602474	0.025656
810.793367	0.025789
810.984242	0.025846
811.175100	0.025800
811.365938	0.025742
811.556759	0.025523
811.747562	0.025496
811.938346	0.025492
812.129112	0.025364
812.319860	0.025344
812.510589	0.025341
812.701300	0.025481
812.891994	0.025500
813.082668	0.025705
813.273325	0.025883
813.463964	0.025895
813.654584	0.025866
813.845186	0.026020
814.035769	0.026069
814.226335	0.026075
814.416882	0.025867
814.607411	0.025851
814.797922	0.025818
814.988415	0.025707
815.178889	0.025831
815.369345	0.025993
815.559783	0.025821
815.750203	0.025760
815.940605	0.025849
816.130988	0.025991
816.321353	0.026016
816.511700	0.025864
816.702028	0.025937
816.892339	0.025981
817.082631	0.025941
817.272905	0.026194
817.463161	0.026302
817.653398	0.026277
817.843617	0.026515
818.033819	0.026646
818.224001	0.026894
818.414166	0.026870
818.604312	0.026708
818.794440	0.026770
818.984550	0.026719
819.174642	0.026461
819.364716	0.026364
819.554771	0.026093
819.744808	0.025935
819.934827	0.025848
820.124827	0.025899
820.314810	0.025829
820.504774	0.025916
820.694720	0.026236
820.884647	0.026496
821.074557	0.026713
821.264448	0.026756
821.454321	0.026913
821.644176	0.027026
821.834012	0.027072
822.023831	0.027208
822.213631	0.027186
822.403413	0.027141
822.593176	0.027002
822.782922	0.026946
822.972649	0.027002
823.162358	0.026916
823.352049	0.026821
823.541721	0.027047
823.731376	0.026964
823.921012	0.026992
824.110629	0.026921
824.300229	0.027035
824.489811	0.026987
824.679374	0.026904
824.868919	0.027116
825.058445	0.027094
825.247954	0.027029
825.437444	0.027214
825.626916	0.027174
825.816370	0.027271
826.005806	0.027308
826.195223	0.027426
826.384622	0.027538
826.574003	0.027269
826.763366	0.027347
826.952711	0.027264
827.142037	0.027179
827.331345	0.027431
827.520635	0.027442
827.709906	0.027351
827.899160	0.027504
828.088395	0.027491
828.277612	0.027783
828.466810	0.027897
828.655991	0.028048
828.845153	0.028314
829.034297	0.028015
829.223423	0.027851
829.412531	0.027838
829.601620	0.027520
829.790691	0.027754
829.979744	0.027792
830.168779	0.027893
830.357795	0.027797
830.546793	0.027604
830.735773	0.027864
830.924735	0.027814
831.113679	0.028062
831.302604	0.028301
831.491511	0.028143
831.680400	0.028240
831.869271	0.028129
832.058123	0.028126
832.246957	0.028213
832.435773	0.028383
832.624571	0.028576
832.813351	0.028543
833.002112	0.028394
833.190855	0.028699
833.379580	0.028472
833.568287	0.028519
833.756975	0.028627
833.945645	0.028675
834.134297	0.028607
834.322931	0.028685
834.511547	0.028816
834.700144	0.029137
834.888723	0.029030
835.077284	0.029422
835.265826	0.029451
835.454351	0.029461
835.642857	0.029465
835.831345	0.029373
836.019815	0.029561
836.208266	0.029413
836.396699	0.029340
836.585114	0.029486
836.773511	0.029297
836.961890	0.029363
837.150250	0.029534
837.338592	0.029644
837.526916	0.029767
837.715222	0.029564
837.903510	0.029700
838.091779	0.029900
838.280030	0.030032
838.468263	0.029994
838.656477	0.030080
838.844674	0.030008
839.032852	0.030044
839.221012	0.030316
839.409153	0.030482
839.597277	0.030600
839.785382	0.030397
839.973469	0.030246
840.161538	0.030504
840.349589	0.030638
840.537621	0.030928
840.725635	0.031006
840.913631	0.030825
841.101609	0.030763
841.289568	0.030862
841.477509	0.031048
841.665432	0.031030
841.853337	0.030856
842.041224	0.030786
842.229092	0.030628
842.416942	0.030686
842.604774	0.030613
842.792588	0.030604
842.980383	0.030691
843.168160	0.030730
843.355919	0.030900
843.543660	0.031120
843.731382	0.031467
843.919087	0.031486
844.106773	0.031627
844.294441	0.031847
844.482090	0.032253
844.669722	0.032324
844.857335	0.032421
845.044930	0.032327
845.232507	0.032364
845.420065	0.032148
845.607605	0.032324
845.795127	0.032338
845.982631	0.032337
846.170117	0.032341
846.357584	0.032451
846.545033	0.032635
846.732464	0.032837
846.919877	0.033121
847.107272	0.033228
847.294648	0.033355
847.482006	0.033588
847.669346	0.033730
847.856667	0.033891
848.043971	0.033967
848.231256	0.034036
848.418523	0.034175
848.605771	0.034150
848.793002	0.034087
848.980214	0.034234
849.167408	0.034017
849.354584	0.034126
849.541742	0.034153
849.728881	0.034316
849.916002	0.034205
850.103105	0.034010
850.290190	0.034029
850.477256	0.034411
850.664304	0.034338
850.851334	0.034610
851.038346	0.034675
851.225340	0.034783
851.412315	0.034809
851.599272	0.035087
851.786211	0.035442
851.973132	0.035497
852.160034	0.035410
852.346918	0.035423
852.533784	0.035408
852.720632	0.035501
852.907462	0.035445
853.094273	0.035401
853.281066	0.035322
853.467841	0.035344
853.654598	0.035324
853.841336	0.035363
854.028056	0.035566
854.214758	0.035768
854.401442	0.035763
854.588107	0.035905
854.774755	0.035944
854.961384	0.036044
855.147995	0.036094
855.334587	0.036251
855.521162	0.036378
855.707718	0.036597
855.894256	0.036488
856.080775	0.036893
856.267277	0.036877
856.453760	0.037155
856.640225	0.037536
856.826672	0.037938
857.013101	0.038163
857.199511	0.038558
857.385903	0.038491
857.572277	0.039000
857.758633	0.038761
857.944970	0.039111
858.131290	0.039176
858.317591	0.039065
858.503873	0.038975
858.690138	0.038686
858.876384	0.038306
859.062612	0.038473
859.248822	0.038291
859.435014	0.038395
859.621188	0.038235
859.807343	0.038300
859.993480	0.038286
860.179599	0.038103
860.365699	0.038610
860.551781	0.038980
860.737846	0.038893
860.923891	0.039233
861.109919	0.039235
861.295929	0.039415
861.481920	0.039354
861.667893	0.039475
861.853848	0.039786
862.039784	0.039704
862.225702	0.039620
862.411603	0.039742
862.597484	0.039320
862.783348	0.039432
862.969193	0.039311
863.155021	0.039181
863.340830	0.039176
863.526620	0.039224
863.712393	0.039291
863.898147	0.039418
864.083883	0.039592
864.269601	0.039720
864.455301	0.039894
864.640982	0.040085
864.826645	0.040415
865.012290	0.040399
865.197917	0.040370
865.383526	0.040472
865.569116	0.040503
865.754688	0.040602
865.940242	0.040695
866.125777	0.040668
866.311295	0.040359
866.496794	0.040504
866.682275	0.040890
866.867737	0.041055
867.053182	0.040901
867.238608	0.041010
867.424016	0.041173
867.609406	0.041288
867.794778	0.041429
867.980131	0.041993
868.165466	0.041848
868.350783	0.041486
868.536082	0.041571
868.721362	0.041542
868.906625	0.041475
869.091869	0.041298
869.277094	0.041204
869.462302	0.041226
869.647491	0.041018
869.832662	0.041098
870.017815	0.041491
870.202950	0.041439
870.388066	0.041580
870.573165	0.041698
870.758245	0.041857
870.943306	0.042200
871.128350	0.042283
871.313375	0.042420
871.498382	0.042692
871.683371	0.042658
871.868342	0.042951
872.053294	0.043065
872.238229	0.043122
872.423144	0.043132
872.608042	0.043060
872.792922	0.043013
872.977783	0.042921
873.162626	0.042590
873.347451	0.042524
873.532258	0.042057
873.717046	0.042122
873.901816	0.041980
874.086568	0.041823
874.271302	0.041577
874.456017	0.041612
874.640715	0.041536
874.825394	0.041913
875.010055	0.042102
875.194697	0.042183
875.379322	0.042329
875.563928	0.042585
875.748516	0.042844
875.933085	0.043101
876.117637	0.042986
876.302170	0.043111
876.486685	0.042896
876.671182	0.042748
876.855661	0.042861
877.040121	0.042536
877.224563	0.042483
877.408987	0.042438
877.593393	0.042214
877.777780	0.042323
877.962150	0.042451
878.146501	0.042474
878.330833	0.042235
878.515148	0.042388
878.699444	0.042719
878.883722	0.042874
879.067982	0.042770
879.252224	0.043198
879.436447	0.043321
879.620653	0.043236
879.804840	0.043405
879.989008	0.043773
880.173159	0.043675
880.357291	0.043595
880.541405	0.043595
880.725501	0.043649
880.909579	0.043340
881.093638	0.043217
881.277680	0.043269
881.461703	0.043300
881.645707	0.043085
881.829694	0.043159
882.013662	0.043059
882.197612	0.043153
882.381544	0.043032
882.565458	0.043166
882.749353	0.043220
882.933230	0.043319
883.117089	0.043181
883.300930	0.043485
883.484753	0.043384
883.668557	0.043760
883.852343	0.043594
884.036111	0.043711
884.219861	0.043781
884.403592	0.044115
884.587305	0.043963
884.771000	0.043925
884.954677	0.043837
885.138335	0.043870
885.321976	0.043621
885.505598	0.043579
885.689201	0.043474
885.872787	0.043505
886.056354	0.043072
886.239904	0.043059
886.423434	0.043346
886.606947	0.043479
886.790442	0.043399
886.973918	0.043377
887.157376	0.043316
887.340816	0.043416
887.524237	0.043591
887.707641	0.043556
887.891026	0.043693
888.074393	0.043512
888.257741	0.043225
888.441072	0.043462
888.624384	0.043292
888.807678	0.043241
888.990954	0.043356
889.174211	0.043140
889.357451	0.043405
889.540672	0.043373
889.723875	0.043189
889.907059	0.043356
890.090226	0.043353
890.273374	0.043582
890.456504	0.043924
890.639616	0.043917
890.822709	0.043960
891.005785	0.043982
891.188842	0.043906
891.371881	0.043908
891.554901	0.044131
891.737904	0.044073
891.920888	0.043991
892.103854	0.043749
892.286802	0.043655
892.469731	0.043608
892.652643	0.043423
892.835536	0.043683
893.018410	0.043961
893.201267	0.043733
893.384106	0.043809
893.566926	0.043918
893.749728	0.044148
893.932511	0.044063
894.115277	0.043950
894.298024	0.044070
894.480753	0.044077
894.663464	0.043950
894.846157	0.044106
895.028831	0.044130
895.211487	0.044143
895.394125	0.043918
895.576745	0.044088
895.759346	0.044088
895.941930	0.044011
896.124495	0.044117
896.307041	0.044333
896.489570	0.043916
896.672080	0.043564
896.854573	0.043477
897.037046	0.043509
897.219502	0.043631
897.401940	0.043904
897.584359	0.043962
897.766760	0.043244
897.949143	0.042753
898.131507	0.042847
898.313854	0.042929
898.496182	0.043138
898.678492	0.043038
898.860783	0.042670
899.043057	0.042314
899.225312	0.042339
899.407549	0.042938
899.589768	0.043185
899.771968	0.043471
899.954151	0.043462
900.136315	0.043238
900.318461	0.043184
900.500588	0.043145
900.682698	0.043067
900.864789	0.042833
901.046862	0.042221
901.228917	0.042232
901.410953	0.042083
901.592971	0.041956
901.774972	0.041564
901.956953	0.041600
902.138917	0.041595
902.320862	0.041670
902.502790	0.041544
902.684699	0.042146
902.866589	0.042098
903.048462	0.041815
903.230316	0.041950
903.412152	0.041960
903.593970	0.041967
903.775770	0.041836
903.957551	0.041819
904.139314	0.041854
904.321059	0.041358
904.502786	0.041193
904.684494	0.041185
904.866185	0.041181
905.047857	0.041296
905.229510	0.041092
905.411146	0.041060
905.592763	0.040627
905.774363	0.040526
905.955943	0.040658
906.137506	0.040398
906.319051	0.040502
906.500577	0.040479
906.682085	0.040491
906.863575	0.040566
907.045046	0.040222
907.226500	0.040482
907.407935	0.040553
907.589352	0.040369
907.770750	0.040001
907.952131	0.039736
908.133493	0.039321
908.314837	0.039151
908.496163	0.039048
908.677470	0.039259
908.858760	0.039129
909.040031	0.039040
909.221284	0.039188
909.402518	0.039523
909.583735	0.039370
909.764933	0.039696
909.946113	0.039856
910.127275	0.039448
910.308418	0.039598
910.489544	0.039738
910.670651	0.039505
910.851740	0.039458
911.032810	0.039488
911.213863	0.039528
911.394897	0.038991
911.575913	0.038803
911.756911	0.038847
911.937890	0.038666
912.118851	0.038383
912.299794	0.038468
912.480719	0.037890
912.661626	0.037551
912.842514	0.037369
913.023384	0.037312
913.204236	0.037053
913.385070	0.037326
913.565886	0.037301
913.746683	0.037145
913.927462	0.037023
914.108223	0.036899
914.288965	0.036706
914.469690	0.036231
914.650396	0.036391
914.831084	0.036406
915.011754	0.036351
915.192405	0.036049
915.373038	0.036027
915.553653	0.035690
915.734250	0.035855
915.914829	0.036304
916.095389	0.036655
916.275931	0.036261
916.456455	0.035711
916.636961	0.035184
916.817448	0.035113
916.997917	0.034984
917.178368	0.034977
917.358801	0.034779
917.539216	0.034493
917.719612	0.034206
917.899990	0.034345
918.080350	0.034728
918.260692	0.034500
918.441015	0.034445
918.621320	0.034527
918.801607	0.034181
918.981876	0.034045
919.162127	0.034206
919.342359	0.034259
919.522573	0.034030
919.702769	0.033919
919.882947	0.034032
920.063106	0.033896
920.243247	0.033706
920.423370	0.033407
920.603475	0.033139
920.783562	0.032690
920.963630	0.032567
921.143680	0.032584
921.323712	0.031785
921.503725	0.031580
921.683721	0.031227
921.863698	0.030713
922.043657	0.031044
922.223598	0.031145
922.403520	0.030737
922.583424	0.030653
922.763311	0.030825
922.943178	0.031098
923.123028	0.030701
923.302859	0.031190
923.482673	0.030985
923.662467	0.030412
923.842244	0.030195
924.022003	0.030104
924.201743	0.029919
924.381465	0.029489
924.561169	0.029573
924.740854	0.029287
924.920522	0.028792
925.100171	0.028803
925.279802	0.028872
925.459414	0.028711
925.639009	0.028565
925.818585	0.027967
925.998143	0.027582
926.177683	0.027449
926.357205	0.027396
926.536708	0.026859
926.716193	0.026868
926.895660	0.026820
927.075109	0.026677
927.254539	0.026547
927.433951	0.026761
927.613345	0.026371
927.792721	0.026137
927.972079	0.025855
928.151418	0.026032
928.330739	0.025630
928.510042	0.024679
928.689327	0.024494
928.868593	0.024243
929.047841	0.024410
929.227071	0.024071
929.406283	0.023826
929.585476	0.023868
929.764652	0.023033
929.943809	0.022662
930.122948	0.022793
930.302068	0.022578
930.481171	0.022229
930.660255	0.021131
930.839321	0.021230
931.018369	0.020780
931.197398	0.020421
931.376409	0.020539
931.555402	0.020419
931.734377	0.020723
931.913334	0.020301
932.092272	0.020283
932.271192	0.019929
932.450094	0.019079
932.628978	0.018571
932.807844	0.017924
932.986691	0.017486
933.165520	0.017424
933.344331	0.017177
933.523123	0.016622
933.701898	0.016104
933.880654	0.016307
934.059392	0.016706
934.238111	0.016323
934.416813	0.016033
934.595496	0.016396
934.774161	0.015933
934.952808	0.015361
935.131437	0.015572
935.310047	0.015036
935.488639	0.015103
935.667213	0.014456
935.845769	0.014410
936.024306	0.014770
936.202825	0.013711
936.381326	0.013545
936.559809	0.013374
936.738274	0.013028
936.916720	0.013280
937.095148	0.012861
937.273558	0.013130
937.451950	0.013104
937.630323	0.012938
937.808678	0.013164
937.987015	0.012698
938.165334	0.012289
938.343635	0.012001
938.521917	0.011490
938.700181	0.011254
938.878427	0.011227
939.056655	0.011081
939.234864	0.010661
939.413055	0.010854
939.591228	0.010590
939.769383	0.010924
939.947519	0.010644
940.125638	0.010754
940.303738	0.010051
940.481820	0.009525
940.659883	0.009500
940.837929	0.009434
941.015956	0.008224
941.193965	0.008366
941.371955	0.007220
941.549928	0.006489
941.727882	0.005715
941.905818	0.005793
942.083736	0.005148
942.261636	0.004379
942.439517	0.003554
942.617380	0.003822
942.795225	0.003165
942.973052	0.003423
943.150860	0.003957
943.328651	0.004361
943.506423	0.004129
943.684176	0.005007
943.861912	0.005470
944.039629	0.005851
944.217328	0.005823
944.395009	0.005992
944.572672	0.005910
944.750317	0.005704
944.927943	0.005298
945.105551	0.004896
945.283141	0.003909
945.460712	0.002795
945.638265	0.002598
945.815801	0.002882
945.993317	0.002559
946.170816	0.001668
946.348297	0.001060
946.525759	0.001238
946.703203	0.000743
946.880629	0.000753
947.058036	0.000429
947.235425	0.000038
947.412797	-0.001952
947.590149	-0.001834
947.767484	-0.001119
947.944800	-0.001590
948.122099	-0.002508
948.299379	-0.003148
948.476640	-0.004265
948.653884	-0.004241
948.831109	-0.004532
949.008316	-0.002923
949.185505	-0.003667
949.362676	-0.003988
949.539828	-0.003594
949.716962	-0.003683
949.894078	-0.003215
950.071176	-0.003054
950.248256	-0.002177
950.425317	-0.002609
950.602360	-0.003830
950.779385	-0.003931
950.956391	-0.003756
951.133380	-0.004199
951.310350	-0.004992
951.487302	-0.004973
951.664235	-0.004275
951.841151	-0.004321
952.018048	-0.004018
952.194927	-0.003322
952.371788	-0.002334
952.548631	-0.001309
952.725455	-0.000781
952.902261	-0.000095
953.079049	-0.000245
953.255819	-0.001654
953.432570	-0.002383
953.609303	-0.001377
953.786018	-0.002189
953.962715	-0.001784
954.139394	-0.003748
954.316054	-0.003813
954.492696	-0.003573
954.669320	-0.003068
954.845926	-0.002440
955.022513	-0.002961
955.199083	-0.003351
955.375634	-0.003645
955.552166	-0.005373
955.728681	-0.005445
955.905177	-0.006509
956.081655	-0.007096
956.258115	-0.008412
956.434557	-0.007778
956.610980	-0.008130
956.787385	-0.008615
956.963772	-0.008872
957.140141	-0.010286
957.316492	-0.009369
957.492824	-0.009817
957.669138	-0.009067
957.845434	-0.007936
958.021712	-0.008932
958.197971	-0.008135
958.374212	-0.007780
958.550435	-0.006212
958.726640	-0.003944
958.902826	-0.003840
959.078995	-0.003391
959.255145	-0.002225
959.431277	-0.001561
959.607390	-0.001438
959.783486	-0.001533
959.959563	0.000009
960.135622	-0.001767
960.311662	-0.001865
960.487685	-0.001698
960.663689	-0.001772
960.839675	-0.003181
961.015643	-0.003067
961.191593	-0.003326
961.367524	-0.003539
961.543437	-0.005720
961.719332	-0.004181
961.895209	-0.004302
962.071067	-0.005009
962.246907	-0.003773
962.422730	-0.004230
962.598533	-0.004102
962.774319	-0.003780
962.950086	-0.002121
963.125835	-0.002752
963.301566	-0.004625
963.477279	-0.003649
963.652973	-0.002186
963.828650	-0.003300
964.004308	-0.002120
964.179947	-0.001807
964.355569	-0.001717
964.531172	-0.003378
964.706757	-0.002164
964.882324	-0.000570
965.057873	-0.002324
965.233403	-0.003086
965.408916	-0.002259
965.584410	-0.002651
965.759885	-0.004551
965.935343	-0.004221
966.110782	-0.004516
966.286203	-0.004614
966.461606	-0.005360
966.636991	-0.002674
966.812357	-0.004037
966.987705	-0.004523
967.163035	-0.005291
967.338347	-0.005039
967.513641	-0.005265
967.688916	-0.004438
967.864173	-0.005509
968.039412	-0.005413
968.214632	-0.007273
968.389835	-0.006991
968.565019	-0.006927
968.740185	-0.006140
968.915333	-0.007005
969.090462	-0.007090
969.265573	-0.007813
969.440667	-0.006200
969.615741	-0.007039
969.790798	-0.005691
969.965836	-0.005079
970.140856	-0.004436
970.315858	-0.003693
970.490842	-0.001060
970.665808	0.000417
970.840755	0.001044
971.015684	0.000737
971.190595	0.002156
971.365487	0.001560
971.540362	0.001837
971.715218	0.003407
971.890056	0.002487
972.064875	0.000802
972.239677	0.000874
972.414460	0.001693
972.589225	0.001697
972.763972	0.001335
972.938700	-0.000333
973.113411	0.000687
973.288103	-0.001198
973.462777	-0.001401
973.637432	-0.000564
973.812070	-0.001225
973.986689	-0.002624
974.161290	-0.001255
974.335873	-0.000316
974.510437	0.001435
974.684984	-0.000725
974.859512	-0.001050
975.034022	-0.001438
975.208513	-0.000632
975.382987	-0.002109
975.557442	-0.001275
975.731879	-0.002218
975.906298	-0.003403
976.080698	-0.003336
976.255080	-0.001999
976.429445	-0.001429
976.603790	-0.000725
976.778118	-0.001042
976.952427	-0.000713
977.126719	0.000416
977.300992	0.000901
977.475246	-0.000827
977.649483	-0.002092
977.823701	-0.003673
977.997901	-0.003248
978.172083	-0.005295
978.346247	-0.005461
978.520392	-0.005387
978.694519	-0.006629
978.868628	-0.006525
979.042719	-0.005452
979.216791	-0.005737
979.390845	-0.004405
979.564882	-0.006107
979.738899	-0.004013
979.912899	-0.004458
980.086880	-0.003279
980.260843	-0.003341
980.434788	-0.003682
980.608715	-0.002490
980.782623	-0.002649
980.956514	-0.003504
981.130386	-0.001517
981.304240	-0.000857
981.478075	-0.000204
981.651892	-0.000891
981.825692	0.000139
981.999472	0.000857
982.173235	-0.000041
982.346980	0.000105
982.520706	0.001217
982.694414	0.000986
982.868104	0.000761
983.041775	-0.000200
983.215428	0.001289
983.389064	-0.000541
983.562680	-0.000334
983.736279	0.000089
983.909860	0.000946
984.083422	0.000470
984.256966	0.000593
984.430491	0.000073
984.603999	0.000538
984.777488	0.000314
984.950959	0.002632
985.124412	0.001527
985.297847	0.001714
985.471263	0.000879
985.644661	0.000934
985.818041	0.000839
985.991403	0.000440
986.164747	0.000563
986.338072	0.000046
986.511379	-0.000089
986.684668	-0.000902
986.857938	0.000087
987.031191	0.001444
987.204425	0.001414
987.377641	0.001744
987.550839	0.002841
987.724018	0.002047
987.897179	0.001849
988.070322	0.002078
988.243447	0.001890
988.416554	0.001561
988.589642	0.002667
988.762712	0.002865
988.935764	0.002790
989.108798	0.002609
989.281813	0.004841
989.454811	0.005077
989.627790	0.003992
989.800751	0.005203
989.973693	0.005106
990.146617	0.003943
990.319524	0.003324
990.492412	0.003844
990.665281	0.003404
990.838133	0.001456
991.010966	0.000378
991.183781	0.000111
991.356578	-0.000809
991.529356	-0.001703
991.702117	-0.001312
991.874859	0.000129
992.047583	-0.000089
992.220288	0.000165
992.392976	0.000016
992.565645	0.002093
992.738296	0.002525
992.910929	0.001804
993.083543	0.002676
993.256139	0.002602
993.428718	0.002995
993.601277	0.001892
993.773819	0.001119
993.946342	0.002211
994.118848	0.000978
994.291335	0.001683
994.463803	0.002288
994.636254	0.001551
994.808686	0.002729
994.981100	0.001327
995.153496	0.001980
995.325874	0.002813
995.498233	0.002858
995.670574	0.003921
995.842897	0.002928
996.015202	0.003271
996.187488	0.003321
996.359757	0.002089
996.532007	0.002374
996.704239	0.002965
996.876452	0.001943
997.048648	0.001581
997.220825	0.000226
997.392984	0.000178
997.565124	0.000431
997.737247	0.000704
997.909351	0.000847
998.081437	0.000496
998.253505	0.000690
998.425554	0.002473
998.597586	0.001693
998.769599	0.002909
998.941594	0.003416
999.113571	0.002852
999.285529	0.003395
999.457469	0.003293
999.629391	0.002617
999.801295	0.001514
999.973181	-0.000307
1000.145048	0.000393
1000.316897	-0.001041
1000.488728	-0.001439
1000.660541	-0.000518
1000.832335	-0.002002
1001.004111	-0.002775
1001.175869	-0.001665
1001.347609	-0.001975
1001.519331	-0.001778
1001.691034	-0.001971
1001.862719	-0.001840
1002.034386	-0.001924
1002.206035	-0.002152
1002.377665	-0.001127
1002.549277	-0.000527
1002.720871	-0.001628
1002.892447	-0.001217
1003.064004	-0.001040
1003.235544	-0.000597
1003.407065	0.000873
1003.578568	0.000962
1003.750052	0.000251
1003.921519	0.000689
1004.092967	0.000594
1004.264397	0.001797
1004.435809	0.002217
1004.607202	0.002240
1004.778577	0.003272
1004.949934	0.002559
1005.121273	0.002648
1005.292594	0.002801
1005.463896	0.003037
1005.635180	0.003051
1005.806446	0.003543
1005.977694	0.003051
1006.148923	0.004349
1006.320135	0.003228
1006.491328	0.001962
1006.662503	0.002445
1006.833659	0.002661
1007.004798	0.002717
1007.175918	0.003160
1007.347020	0.002635
1007.518103	0.003545
1007.689169	0.002469
1007.860216	0.002885
1008.031245	0.004328
1008.202256	0.002441
1008.373248	0.003183
1008.544223	0.002592
1008.715179	0.001803
1008.886117	0.001291
1009.057036	0.001170
1009.227938	0.001300
1009.398821	0.001627
1009.569686	0.001268
1009.740533	0.002835
1009.911361	0.001799
1010.082172	0.000376
1010.252964	0.000060
1010.423738	0.002016
1010.594493	0.001689
1010.765231	0.002177
1010.935950	0.000979
1011.106651	0.001835
1011.277334	0.001564
1011.447998	0.004054
1011.618645	0.004198
1011.789273	0.005378
1011.959882	0.003959
1012.130474	0.005345
1012.301048	0.004369
1012.471603	0.002898
1012.642140	0.003094
1012.812658	0.003484
1012.983159	0.002000
1013.153641	0.004024
1013.324105	0.004252
1013.494551	0.004726
1013.664979	0.002246
1013.835388	0.002065
1014.005779	0.003165
1014.176152	0.001653
1014.346507	0.001741
1014.516843	0.000637
1014.687162	-0.000545
1014.857462	-0.000794
1015.027744	-0.001504
1015.198007	-0.001826
1015.368252	-0.001074
1015.538480	-0.000565
1015.708689	0.000147
1015.878879	-0.001192
1016.049052	-0.000992
1016.219206	-0.001170
1016.389342	-0.001309
1016.559460	-0.001563
1016.729559	0.000507
1016.899641	0.000789
1017.069704	0.001312
1017.239749	0.000200
1017.409775	0.000104
1017.579784	-0.000194
1017.749774	0.001021
1017.919746	0.000567
1018.089700	0.000720
1018.259635	-0.000736
1018.429553	-0.000067
1018.599452	0.000380
1018.769333	0.001002
1018.939195	0.001433
1019.109040	0.002255
1019.278866	0.001946
1019.448674	0.001465
1019.618464	0.001746
1019.788235	0.003362
1019.957989	0.001504
1020.127724	-0.000068
1020.297441	0.000205
1020.467139	0.000271
1020.636820	0.000935
1020.806482	0.001204
1020.976126	0.002104
1021.145752	0.001991
1021.315359	0.000503
1021.484948	0.002100
1021.654519	0.003093
1021.824072	0.003480
1021.993607	0.003619
1022.163123	0.002706
1022.332621	0.002831
1022.502101	0.001064
1022.671563	0.001774
1022.841007	0.001826
1023.010432	0.002218
1023.179839	0.002501
1023.349228	0.002083
1023.518598	0.003996
1023.687951	0.003422
1023.857285	0.004628
1024.026601	0.005848
1024.195899	0.005744
1024.365178	0.007210
1024.534439	0.007419
1024.703682	0.007828
1024.872907	0.007785
1025.042114	0.006380
1025.211302	0.007420
1025.380472	0.005455
1025.549624	0.006681
1025.718758	0.006555
1025.887873	0.005600
1026.056970	0.004560
1026.226049	0.003756
1026.395110	0.003702
1026.564153	0.003489
1026.733177	0.003219
1026.902183	0.003795
1027.071171	0.002555
1027.240141	0.000808
1027.409092	0.000483
1027.578026	-0.000026
1027.746940	-0.000474
1027.915837	-0.000333
1028.084716	0.000764
1028.253576	0.000874
1028.422418	0.001382
1028.591242	0.001962
1028.760048	0.002412
1028.928835	0.002039
1029.097604	0.001891
1029.266355	0.001833
1029.435088	0.002140
1029.603803	0.001879
1029.772499	0.001763
1029.941177	0.000862
1030.109837	0.001146
1030.278478	0.001438
1030.447102	0.001294
1030.615707	0.002560
1030.784294	0.003443
1030.952863	0.005115
1031.121413	0.004589
1031.289945	0.004282
1031.458460	0.003382
1031.626955	0.002483
1031.795433	0.002825
1031.963892	0.003955
1032.132334	0.003721
1032.300756	0.003556
1032.469161	0.002025
1032.637548	0.000863
1032.805916	0.000814
1032.974266	0.001714
1033.142598	0.000360
1033.310911	-0.000086
1033.479207	0.000050
1033.647484	-0.001371
1033.815743	-0.001592
1033.983983	-0.001763
1034.152206	-0.001141
1034.320410	-0.001528
1034.488596	-0.003553
1034.656764	-0.002782
1034.824914	-0.002619
1034.993045	-0.003104
1035.161158	-0.001333
1035.329253	-0.001174
1035.497330	-0.002813
1035.665388	-0.003384
1035.833428	-0.003332
1036.001450	0.000090
1036.169454	0.000089
1036.337440	0.000471
1036.505407	0.001180
1036.673356	0.000364
1036.841287	0.000918
1037.009200	0.002665
1037.177094	0.002668
1037.344970	0.003057
1037.512828	0.001141
1037.680668	0.002592
1037.848489	0.003934
1038.016293	0.002536
1038.184078	0.002585
1038.351845	0.001892
1038.519593	0.002166
1038.687324	0.003565
1038.855036	0.004752
1039.022730	0.004838
1039.190406	0.004806
1039.358063	0.003335
1039.525702	0.003761
1039.693323	0.004544
1039.860926	0.004229
1040.028511	0.003170
1040.196077	0.001572
1040.363625	0.001610
1040.531155	0.002192
1040.698667	0.001409
1040.866161	0.001451
1041.033636	0.002272
1041.201093	0.001601
1041.368532	0.001255
1041.535952	0.001172
1041.703355	0.001978
1041.870739	0.000939
1042.038105	0.000970
1042.205452	0.001320
1042.372782	0.001256
1042.540093	-0.000338
1042.707386	-0.001813
1042.874661	-0.000543
1043.041918	-0.001120
1043.209156	0.000690
1043.376376	0.002199
1043.543578	0.000964
1043.710762	0.000347
1043.877927	0.000808
1044.045074	0.002269
1044.212203	0.002773
1044.379314	0.001789
1044.546407	0.002751
1044.713481	-0.000239
1044.880537	-0.001839
1045.047575	-0.001553
1045.214595	-0.001407
1045.381596	-0.001671
1045.548579	-0.002537
1045.715544	-0.004108
1045.882491	-0.004730
1046.049420	-0.004336
1046.216330	-0.001485
1046.383222	-0.001975
1046.550096	-0.001138
1046.716951	-0.002218
1046.883789	-0.002738
1047.050608	-0.003484
1047.217409	-0.000524
1047.384192	0.000761
1047.550956	0.000751
1047.717703	-0.000450
1047.884431	0.001012
1048.051140	0.001131
1048.217832	0.003597
1048.384505	0.003599
1048.551161	0.005720
1048.717798	0.006424
1048.884416	0.006130
1049.051017	0.005873
1049.217599	0.006329
1049.384163	0.006211
1049.550709	0.007050
1049.717237	0.006561
1049.883746	0.007102
1050.050237	0.004955
1050.216710	0.004066
1050.383165	0.003899
1050.549601	0.004119
1050.716019	0.002474
1050.882420	0.002267
1051.048801	0.000838
1051.215165	0.000403
1051.381510	0.001478
1051.547837	0.002989
1051.714146	0.004869
1051.880437	0.003471
1052.046709	0.003079
1052.212964	0.005728
1052.379200	0.004117
1052.545417	0.004637
1052.711617	0.004206
1052.877798	0.001346
1053.043961	0.001007
1053.210106	-0.000898
1053.376233	0.000598
1053.542341	-0.000322
1053.708432	-0.001928
1053.874504	-0.001011
1054.040557	-0.001479
1054.206593	-0.003047
1054.372610	-0.002444
1054.538609	-0.001936
1054.704590	-0.003465
1054.870553	-0.004057
1055.036497	-0.002388
1055.202424	-0.001199
1055.368331	-0.000096
1055.534221	0.000709
1055.700093	0.001514
1055.865946	0.002375
1056.031781	0.000482
1056.197598	0.002172
1056.363397	0.004328
1056.529177	0.003608
1056.694939	0.002074
1056.860683	0.000434
1057.026409	0.001449
1057.192116	0.003525
1057.357806	0.003689
1057.523477	0.005441
1057.689130	0.003899
1057.854764	0.001321
1058.020381	0.000707
1058.185979	0.000655
1058.351559	-0.000132
1058.517120	-0.002240
1058.682664	-0.004211
1058.848189	-0.004618
1059.013696	-0.005440
1059.179185	-0.005452
1059.344656	-0.003579
1059.510108	-0.002426
1059.675542	-0.002918
1059.840958	-0.000568
1060.006356	-0.001556
1060.171735	-0.001278
1060.337096	-0.000328
1060.502439	-0.000677
1060.667764	0.000823
1060.833071	-0.000269
1060.998359	-0.000425
1061.163629	0.000177
1061.328881	-0.000815
1061.494115	0.000410
1061.659330	0.001194
1061.824527	0.000990
1061.989706	0.002133
1062.154867	0.001498
1062.320010	0.000894
1062.485134	-0.000417
1062.650240	0.000041
1062.815328	0.000119
1062.980398	-0.000635
1063.145449	0.000433
1063.310482	0.000189
1063.475497	-0.001540
1063.640494	-0.002715
1063.805473	-0.002760
1063.970433	-0.003265
1064.135375	-0.003618
1064.300299	-0.004141
1064.465204	-0.002421
1064.630092	-0.004343
1064.794961	-0.005132
1064.959812	-0.002870
1065.124645	-0.001002
1065.289459	0.001107
1065.454256	0.001832
1065.619034	0.001273
1065.783793	0.000891
1065.948535	0.002909
1066.113258	0.002407
1066.277964	0.003194
1066.442651	0.001442
1066.607319	-0.000178
1066.771970	-0.001987
1066.936602	-0.001274
1067.101216	-0.002543
1067.265812	-0.001111
1067.430389	-0.002996
1067.594949	-0.002749
1067.759490	-0.003444
1067.924013	-0.001808
1068.088518	0.000989
1068.253004	0.001351
1068.417472	0.001138
1068.581922	0.004630
1068.746354	0.004161
1068.910768	0.002349
1069.075163	0.002241
1069.239540	0.004199
1069.403899	0.003217
1069.568240	0.001119
1069.732562	-0.000212
1069.896866	-0.000225
1070.061152	-0.001231
1070.225420	-0.001371
1070.389670	0.000765
1070.553901	0.002344
1070.718114	0.000942
1070.882309	0.001043
1071.046486	0.000727
1071.210644	0.001390
1071.374784	0.003096
1071.538906	0.002795
1071.703010	0.003407
1071.867096	0.001732
1072.031163	0.002872
1072.195212	0.002056
1072.359243	0.001807
1072.523256	0.003478
1072.687250	0.004375
1072.851226	0.001785
1073.015184	0.000698
1073.179124	0.001421
1073.343045	0.001682
1073.506949	-0.000144
1073.670834	0.000469
1073.834701	0.001940
1073.998549	0.001077
1074.162380	0.000445
1074.326192	0.000950
1074.489986	0.003254
1074.653761	0.001245
1074.817519	0.002153
1074.981258	0.003915
1075.144979	0.002891
1075.308682	0.002103
1075.472367	0.001625
1075.636033	0.002195
1075.799681	0.002402
1075.963311	0.000871
1076.126923	0.001117
1076.290516	0.000497
1076.454092	-0.001666
1076.617649	-0.000651
1076.781187	-0.000936
1076.944708	0.000199
1077.108210	-0.000098
1077.271695	0.000958
1077.435160	-0.000139
1077.598608	-0.001122
1077.762038	-0.001707
1077.925449	-0.001428
1078.088842	-0.001290
1078.252217	-0.001554
1078.415573	-0.001839
1078.578912	-0.002525
1078.742232	-0.002549
1078.905534	-0.002846
1079.068817	-0.001470
1079.232083	-0.000644
1079.395330	0.000347
1079.558559	0.000225
1079.721770	0.002372
1079.884962	0.000137
1080.048136	-0.001356
1080.211293	-0.003006
1080.374430	-0.000554
1080.537550	-0.000509
1080.700651	-0.000097
1080.863735	-0.000650
1081.026800	-0.000728
1081.189846	-0.002638
1081.352875	-0.002470
1081.515885	-0.000610
1081.678877	0.000270
1081.841851	-0.002039
1082.004807	-0.003841
1082.167744	-0.003774
1082.330663	-0.004556
1082.493564	-0.004861
1082.656447	-0.006511
1082.819312	-0.005578
1082.982158	-0.003684
1083.144986	-0.003129
1083.307796	-0.001898
1083.470587	0.001298
1083.633361	0.000333
1083.796116	-0.000561
1083.958853	-0.000460
1084.121571	-0.001707
1084.284272	-0.000207
1084.446954	-0.001401
1084.609618	-0.000806
1084.772264	-0.001149
1084.934892	-0.002413
1085.097501	-0.003366
1085.260092	-0.003392
1085.422665	-0.001654
1085.585220	0.002634
1085.747756	0.000666
1085.910274	-0.000644
1086.072774	-0.000600
1086.235256	-0.001197
1086.397720	-0.000699
1086.560165	-0.000442
1086.722592	0.000372
1086.885001	-0.000485
1087.047392	-0.003961
1087.209764	-0.004795
1087.372119	-0.004506
1087.534455	-0.003423
1087.696772	-0.001637
1087.859072	-0.001849
1088.021353	-0.002240
1088.183616	-0.001073
1088.345861	-0.002627
1088.508088	-0.000793
1088.670296	0.000093
1088.832486	0.000322
1088.994658	-0.001023
1089.156812	-0.001232
1089.318948	-0.001192
1089.481065	0.001307
1089.643164	-0.001004
1089.805245	0.001245
1089.967308	0.001821
1090.129352	0.000686
1090.291378	0.000072
1090.453386	-0.001765
1090.615376	-0.002167
1090.777347	-0.001509
1090.939301	-0.004171
1091.101236	-0.001399
1091.263153	-0.001877
1091.425051	-0.002889
1091.586932	0.000782
1091.748794	0.002175
1091.910638	0.002296
1092.072463	0.002393
1092.234271	0.002602
1092.396060	0.003187
1092.557831	0.001499
1092.719584	0.002554
1092.881319	0.003248
1093.043035	0.000101
1093.204733	-0.002018
1093.366413	-0.003142
1093.528075	-0.002705
1093.689718	-0.005451
1093.851343	-0.005401
1094.012950	-0.005989
1094.174539	-0.008102
1094.336110	-0.009561
1094.497662	-0.010133
1094.659196	-0.008427
1094.820712	-0.008368
1094.982210	-0.010116
1095.143689	-0.008971
1095.305151	-0.009015
1095.466594	-0.009503
1095.628018	-0.008226
1095.789425	-0.007744
1095.950813	-0.007846
1096.112183	-0.008349
1096.273535	-0.008814
1096.434869	-0.007790
1096.596184	-0.007457
1096.757482	-0.007028
1096.918761	-0.008017
1097.080021	-0.009983
1097.241264	-0.008186
1097.402488	-0.005083
1097.563694	-0.002455
1097.724882	-0.000170
1097.886052	-0.001575
1098.047203	-0.001490
1098.208336	-0.000239
1098.369451	0.000222
1098.530548	-0.000279
1098.691627	-0.002440
1098.852687	-0.001823
1099.013729	-0.001459
1099.174753	-0.001350
1099.335758	0.000624
1099.496746	-0.000894
1099.657715	-0.003680
1099.818666	-0.000510
1099.979599	-0.000667
1100.140513	0.001682
1100.301409	-0.000566
1100.462287	-0.002718
1100.623147	-0.000923
1100.783989	-0.003054
1100.944812	-0.002605
1101.105617	-0.000174
1101.266404	0.000399
1101.427173	0.001680
1101.587923	0.001207
1101.748656	0.000958
1101.909370	0.001319
1102.070066	-0.001101
1102.230743	-0.000931
1102.391403	-0.000045
1102.552044	-0.000220
1102.712667	-0.001074
1102.873271	-0.000717
1103.033858	-0.002559
1103.194426	-0.001824
1103.354976	0.000057
1103.515508	-0.000498
1103.676021	0.001404
1103.836517	0.000834
1103.996994	-0.000379
1104.157453	-0.003683
1104.317893	-0.003779
1104.478316	-0.004482
1104.638720	-0.002956
1104.799106	-0.004978
1104.959474	-0.005609
1105.119823	-0.007049
1105.280155	-0.006404
1105.440468	-0.004015
1105.600763	0.000187
1105.761039	0.000656
1105.921298	0.000795
1106.081538	-0.000043
1106.241760	-0.002691
1106.401964	0.001287
1106.562149	-0.000348
1106.722316	-0.002827
1106.882465	-0.006559
1107.042596	-0.005517
1107.202709	-0.006528
1107.362803	-0.005657
1107.522879	-0.008442
1107.682937	-0.006898
1107.842977	-0.011920
1108.002999	-0.010148
1108.163002	-0.008248
1108.322987	-0.006551
1108.482954	-0.009496
1108.642902	-0.008473
1108.802833	-0.008001
1108.962745	-0.006568
1109.122639	-0.004611
1109.282515	-0.003687
1109.442372	-0.003049
1109.602211	-0.001607
1109.762032	-0.001211
1109.921835	-0.000626
1110.081620	-0.000422
1110.241386	-0.000703
1110.401134	-0.002919
1110.560864	-0.006188
1110.720576	-0.003770
1110.880269	-0.003769
1111.039945	-0.003797
1111.199602	-0.005312
1111.359240	-0.006478
1111.518861	-0.006596
1111.678463	-0.006234
1111.838047	-0.006713
1111.997613	-0.002796
1112.157161	-0.002996
1112.316690	-0.004039
1112.476202	-0.006743
1112.635695	-0.005004
1112.795169	-0.004985
1112.954626	-0.004372
1113.114064	-0.003264
1113.273484	-0.001226
1113.432886	-0.002732
1113.592270	-0.001341
1113.751635	-0.000738
1113.910983	0.001629
1114.070312	-0.001694
1114.229622	-0.000730
1114.388915	-0.003669
1114.548189	-0.004090
1114.707445	-0.002145
1114.866683	-0.002219
1115.025903	-0.004297
1115.185104	-0.004904
1115.344287	-0.005728
1115.503452	-0.005987
1115.662599	-0.003499
1115.821727	-0.002022
1115.980838	-0.003708
1116.139930	-0.002205
1116.299004	-0.005436
1116.458059	-0.004573
1116.617097	-0.003831
1116.776116	-0.003257
1116.935117	0.000074
1117.094099	-0.001989
1117.253064	-0.004865
1117.412010	-0.004464
1117.570938	-0.006055
1117.729848	-0.003865
1117.888740	-0.003430
1118.047613	-0.000421
1118.206468	-0.003213
1118.365305	-0.003888
1118.524124	-0.007383
1118.682924	-0.006201
1118.841707	-0.004836
1119.000471	-0.009042
1119.159216	-0.007825
1119.317944	-0.009121
1119.476653	-0.010356
1119.635344	-0.009904
1119.794017	-0.009909
1119.952672	-0.003978
1120.111308	-0.000017
1120.269927	-0.001187
1120.428527	0.004157
1120.587108	0.003483
1120.745672	0.003106
1120.904217	-0.000318
1121.062744	-0.001782
1121.221253	-0.001798
1121.379744	-0.006444
1121.538216	-0.009546
1121.696671	-0.008074
1121.855107	-0.010629
1122.013524	-0.015955
1122.171924	-0.016020
1122.330305	-0.013541
1122.488668	-0.006716
1122.647013	-0.006678
1122.805340	-0.006921
1122.963648	-0.006297
1123.121938	-0.007187
1123.280210	-0.007903
1123.438464	-0.004031
1123.596700	-0.004879
1123.754917	-0.005832
1123.913116	-0.012430
1124.071297	-0.013414
1124.229459	-0.008986
1124.387604	-0.007307
1124.545730	-0.007333
1124.703838	-0.007385
1124.861928	-0.006707
1125.019999	-0.006253
1125.178052	-0.006571
1125.336088	-0.007719
1125.494104	-0.005642
1125.652103	-0.008195
1125.810083	-0.007336
1125.968045	-0.005970
1126.125989	-0.006802
1126.283915	-0.006045
1126.441823	-0.004535
1126.599712	-0.004187
1126.757583	-0.000762
1126.915436	0.000943
1127.073270	0.001896
1127.231087	-0.001790
1127.388885	-0.005037
1127.546665	-0.005685
1127.704426	-0.010289
1127.862170	-0.011744
1128.019895	-0.009635
1128.177602	-0.010503
1128.335291	-0.019792
1128.492961	-0.021090
1128.650614	-0.017678
1128.808248	-0.016157
1128.965864	-0.014050
1129.123461	-0.003061
1129.281041	-0.001797
1129.438602	-0.002905
1129.596145	-0.000763
1129.753670	0.003541
1129.911176	0.005385
1130.068665	0.003759
1130.226135	0.005193
1130.383587	0.007235
1130.541020	0.002371
1130.698436	-0.000455
1130.855833	-0.002998
1131.013212	-0.006085
1131.170573	-0.002389
1131.327915	-0.004717
1131.485239	-0.006020
1131.642545	-0.009832
1131.799833	-0.010722
1131.957103	-0.012688
1132.114354	-0.011885
1132.271588	-0.008922
1132.428803	-0.009472
1132.585999	-0.009410
1132.743178	-0.012391
1132.900338	-0.012495
1133.057480	-0.008943
1133.214604	-0.012031
1133.371710	-0.011695
1133.528797	-0.007364
1133.685866	-0.010025
1133.842917	-0.010147
1133.999950	-0.015082
1134.156964	-0.010540
1134.313960	-0.009754
1134.470938	-0.011803
1134.627898	-0.006865
1134.784840	-0.008460
1134.941763	-0.012852
1135.098668	-0.008235
1135.255555	-0.001944
1135.412424	0.002817
1135.569274	-0.000895
1135.726107	-0.000104
1135.882921	0.000459
1136.039716	-0.001726
1136.196494	-0.003404
1136.353253	-0.000768
1136.509995	-0.001015
1136.666717	-0.002086
1136.823422	-0.003346
1136.980109	0.001544
1137.136777	-0.000736
1137.293427	0.000994
1137.450059	0.003192
1137.606672	0.006065
1137.763267	0.007633
1137.919844	0.005907
1138.076403	0.001758
1138.232944	0.002838
1138.389466	0.004221
1138.545971	0.005895
1138.702457	0.002537
1138.858924	0.000018
1139.015374	0.001058
1139.171805	-0.003976
1139.328218	-0.005394
1139.484613	0.000406
1139.640990	-0.003556
1139.797348	-0.008249
1139.953688	-0.011941
1140.110010	-0.008129
1140.266314	-0.006195
1140.422600	-0.007358
1140.578867	-0.004370
1140.735116	-0.004887
1140.891347	-0.005359
1141.047559	0.000031
1141.203754	0.001916
1141.359930	0.007578
1141.516088	0.010464
1141.672228	0.007571
1141.828349	0.005954
1141.984452	0.006293
1142.140537	0.003828
1142.296604	0.000939
1142.452653	-0.001607
1142.608683	-0.004685
1142.764695	-0.004332
1142.920689	-0.004253
1143.076665	-0.002871
1143.232622	0.003358
1143.388562	0.001805
1143.544483	0.001050
1143.700385	0.004188
1143.856270	0.003514
1144.012136	0.005990
1144.167985	0.002288
1144.323814	-0.003241
1144.479626	-0.005548
1144.635420	-0.010215
1144.791195	-0.007537
1144.946952	-0.004875
1145.102691	-0.005043
1145.258411	-0.007389
1145.414113	-0.007654
1145.569798	-0.009306
1145.725463	-0.006993
1145.881111	-0.006820
1146.036741	-0.007266
1146.192352	-0.011306
1146.347945	-0.012869
1146.503519	-0.018757
1146.659076	-0.012281
1146.814614	-0.011661
1146.970134	-0.009916
1147.125636	-0.013060
1147.281120	-0.017254
1147.436585	-0.010993
1147.592032	-0.007307
1147.747461	-0.004873
1147.902872	-0.003966
1148.058265	-0.006724
1148.213639	-0.007240
1148.368995	-0.010645
1148.524333	-0.008671
1148.679653	-0.002490
1148.834954	-0.006030
1148.990237	-0.009548
1149.145502	-0.011797
1149.300749	-0.007916
1149.455977	-0.007204
1149.611188	-0.004370
1149.766380	0.002713
1149.921553	0.000232
1150.076709	0.003426
1150.231846	0.001669
1150.386966	0.009784
1150.542066	0.012407
1150.697149	0.008762
1150.852214	0.009826
1151.007260	0.003636
1151.162288	0.000748
1151.317298	0.002413
1151.472289	-0.002256
1151.627263	0.000839
1151.782218	-0.005400
1151.937155	-0.001811
1152.092073	-0.003139
1152.246974	-0.001604
1152.401856	0.002277
1152.556720	-0.000696
1152.711566	-0.003375
1152.866393	-0.001478
1153.021203	-0.003313
1153.175994	-0.001958
1153.330767	-0.002834
1153.485521	0.003069
1153.640258	-0.001919
1153.794976	-0.005271
1153.949676	-0.000320
1154.104358	0.003151
1154.259021	0.001831
1154.413667	0.000924
1154.568294	0.005919
1154.722903	-0.002124
1154.877493	-0.008518
1155.032066	-0.009653
1155.186620	-0.005639
1155.341156	-0.017359
1155.495674	-0.015608
1155.650173	-0.014378
1155.804654	-0.016281
1155.959118	-0.027337
1156.113562	-0.022790
1156.267989	-0.016511
1156.422397	-0.015078
1156.576788	-0.015996
1156.731160	0.000159
1156.885513	0.000934
1157.039849	0.005924
1157.194166	0.006576
1157.348465	0.015431
1157.502746	0.014564
1157.657009	0.009775
1157.811253	0.013727
1157.965479	0.012838
1158.119687	0.003935
1158.273877	-0.000849
1158.428048	-0.002625
1158.582201	-0.001271
1158.736337	-0.008093
1158.890453	-0.007707
1159.044552	-0.006625
1159.198632	-0.014554
1159.352694	-0.009322
1159.506738	-0.012735
1159.660764	-0.003837
1159.814771	-0.009277
1159.968761	-0.015157
1160.122732	-0.010694
1160.276685	-0.005845
1160.430619	-0.004831
1160.584535	0.000096
1160.738434	-0.008683
1160.892313	0.000595
1161.046175	-0.009046
1161.200019	-0.011173
1161.353844	-0.013916
1161.507651	-0.015275
1161.661440	-0.014943
1161.815210	-0.015064
1161.968962	-0.013901
1162.122697	-0.016851
1162.276412	-0.023563
1162.430110	-0.020652
1162.583789	-0.016408
1162.737451	-0.007026
1162.891094	-0.006169
1163.044718	-0.011231
1163.198325	-0.014704
1163.351913	-0.015564
1163.505483	-0.003840
1163.659035	0.001794
1163.812569	0.006520
1163.966084	0.001549
1164.119581	-0.002150
1164.273060	-0.005316
1164.426521	-0.011299
1164.579964	-0.007048
1164.733388	-0.007969
1164.886794	-0.012336
1165.040182	-0.013954
1165.193551	-0.019166
1165.346903	-0.016969
1165.500236	-0.011752
1165.653551	-0.003778
1165.806848	0.002369
1165.960126	-0.001383
1166.113386	-0.001432
1166.266628	-0.010678
1166.419852	-0.009764
1166.573058	-0.019993
1166.726245	-0.023651
1166.879414	-0.028122
1167.032565	-0.032204
1167.185698	-0.037414
1167.338812	-0.037800
1167.491909	-0.036957
1167.644987	-0.021822
1167.798046	-0.022437
1167.951088	-0.008325
1168.104111	0.004481
1168.257117	-0.006450
1168.410103	-0.012745
1168.563072	-0.013272
1168.716023	-0.007925
1168.868955	-0.006355
1169.021869	-0.014031
1169.174765	-0.017373
1169.327642	-0.023908
1169.480501	-0.034411
1169.633343	-0.017776
1169.786165	-0.017122
1169.938970	-0.001670
1170.091757	-0.004399
1170.244525	-0.008826
1170.397275	-0.002035
1170.550007	-0.002886
1170.702720	-0.001785
1170.855415	0.007394
1171.008092	0.002982
1171.160751	0.008877
1171.313392	0.000513
1171.466014	0.036152
1171.618619	0.000926
1171.771205	0.000926
1171.923772	0.000926
