sample name	sample
index	484
start time	 03-11-2021  01:52:33 PM
880	-0.051349
Peak Time (s)	91.04
Peak Height 	-0.05135
calc peak height	90,93
Baseline Time (s)	8.537
Baseline Value 	-0.003776
subtract baseline	10,4
Abs	-0.016539
Peak Time (s)	91.537
Peak Height 	-0.01654
calc peak height	90,93
Baseline Time (s)	10.037
Baseline Value 	0.00155
subtract baseline	10,3
PK_550	-0.005109
Peak Time (s)	90.537
Peak Height 	-0.005109
calc peak height	90,93
Baseline Time (s)	8.537
Baseline Value 	3.517E-4
subtract baseline	10,2
PK_880	-0.012475
Peak Time (s)	92.535
Peak Height 	-0.01248
calc peak height	90,93
Baseline Time (s)	10.537
Baseline Value 	3.0054E-4
subtract baseline	10,1


Time (s)	A880-A510	A880-A775	A880-A975	A880	I510	I775	I975	I880	
0.034000	-0.002176	-0.000534	-0.003666	0.007287	6989.389932	45020.628853	3952.410224	23949.067427
0.537000	-0.001645	-0.000147	-0.003539	0.005038	7015.726415	45276.796379	3958.439468	24058.408164
1.034500	-0.001006	-0.000527	0.000620	0.004146	7030.297561	45326.764737	3971.370090	24101.935677
1.535000	0.002151	-0.000403	-0.000608	0.000873	7092.077444	45659.559084	3976.648073	24262.430082
2.035000	-0.002918	-0.000428	-0.003997	0.006584	6989.025643	45099.124223	3953.352851	23983.201509
2.535000	0.001966	-0.000117	-0.001932	0.000794	7091.058000	45695.529679	3973.434727	24266.343153
3.035500	0.001352	-0.000371	-0.001296	-0.001859	7110.830669	45932.281386	3981.948898	24397.309662
3.539000	0.001372	-0.000159	0.001375	0.000178	7091.273766	45752.018579	3983.600163	24296.696218
4.036500	-0.000762	0.000068	0.001888	0.004144	7032.645549	45385.060261	3974.646920	24102.056207
4.536500	0.003271	0.000487	-0.002536	0.000280	7108.700572	45805.700838	3973.201514	24291.645109
5.036500	0.002199	0.000443	-0.001499	0.000717	7094.056796	45758.251992	3974.748878	24270.121849
5.537000	-0.000861	-0.000783	-0.000663	-0.000364	7074.934342	45743.892813	3979.711539	24323.407186
6.037500	0.001146	0.000634	-0.002682	0.001087	7080.293924	45740.585044	3970.745505	24251.890761
6.535000	0.000764	-0.000278	-0.000056	0.000168	7085.484035	45741.273746	3979.905675	24297.168125
7.035000	0.002465	0.000188	-0.006149	0.000378	7099.918417	45766.473084	3963.671025	24286.814100
7.535500	0.000473	0.000374	0.001602	0.000378	7080.648627	45784.875554	3983.669586	24286.816506
8.038500	0.000341	-0.000385	0.000565	-0.000230	7085.239957	45769.888429	3982.553342	24316.780334
8.536500	0.001226	0.000000	-0.003291	0.000000	7091.578666	45785.250612	3971.975585	24305.449861
9.036500	-0.000659	-0.000174	-0.000053	-0.000343	7076.687057	45801.932555	3981.241154	24322.383331
9.537000	0.001112	-0.000081	0.000229	-0.000213	7092.536301	45798.306510	3981.635453	24315.964398
10.037000	-0.000358	0.000540	0.000000	0.000687	7069.655000	45770.752509	3978.705962	24271.603863
10.537000	0.000000	0.000032	0.001335	0.000326	7076.580879	45756.262794	3983.107901	24289.356515
11.034500	0.002148	0.000210	0.001657	0.000158	7098.977483	45790.428267	3984.385679	24297.662074
11.535000	-0.000494	-0.000315	-0.003849	-0.000139	7076.309676	45767.943981	3970.899001	24312.322020
12.035500	0.000678	0.000477	0.003181	0.000042	7085.866357	45828.137480	3988.664627	24303.365666
12.536000	0.002880	0.000432	0.000673	-0.000106	7108.643654	45838.341581	3982.512322	24310.672611
13.035500	-0.003200	0.000036	-0.001522	0.004741	7003.788543	45323.640313	3964.345340	24072.892559
13.536500	0.000361	-0.000076	-0.000270	-0.000057	7083.764966	45783.317150	3979.935352	24308.253736
14.036500	0.001189	0.000154	-0.003272	0.000517	7086.218738	45749.470338	3970.695620	24279.978159
14.537000	-0.000388	0.000190	-0.000589	0.002538	7051.584649	45554.299068	3972.398957	24180.654361
15.037000	-0.001728	-0.000285	-0.003470	0.004506	7019.992193	45315.302197	3959.972182	24084.381825
15.556000	0.000425	-0.000446	-0.000610	-0.000563	7089.274898	45796.832537	3980.364956	24333.243792
16.037500	-0.000594	-0.000662	-0.000667	0.002062	7054.184077	45517.466242	3973.427738	24204.022376
16.538000	0.000602	0.000688	-0.001070	0.000151	7084.082366	45838.275443	3977.323059	24297.999282
17.035500	-0.001494	-0.000174	-0.001596	0.004625	7021.090246	45314.462140	3964.453683	24078.582098
17.536000	0.002666	0.000545	-0.001834	-0.003102	7135.772995	46146.542526	3983.786124	24459.002986
18.036000	0.000640	-0.000083	-0.001986	0.000610	7080.018027	45716.910985	3973.768244	24275.384422
18.536500	0.002449	0.000124	0.003919	0.001059	7093.174411	45693.185839	3987.937345	24253.306357
19.037000	-0.000996	0.000898	-0.001960	0.003358	7037.920296	45543.300192	3966.766939	24140.472718
19.537000	0.001242	-0.000335	0.000041	0.000925	7082.796561	45661.189704	3978.196933	24259.896663
20.064000	-0.001816	0.000177	0.003031	0.000897	7053.636532	45714.365361	3986.041971	24261.279106
20.534500	-0.000132	0.000621	0.002404	0.001241	7066.495971	45724.130391	3983.510842	24244.316009
21.035000	0.000451	0.000411	0.005290	0.003050	7054.723222	45525.697752	3986.315756	24155.546929
21.535000	0.000210	-0.000842	-0.003263	0.000456	7077.359506	45657.355576	3970.873232	24282.969645
22.035500	-0.000857	-0.000142	0.001717	0.000821	7063.566989	45690.367990	3982.814734	24264.984258
22.535500	-0.000517	0.000660	0.001245	0.001524	7060.080383	45700.081878	3979.764195	24230.415511
23.036000	-0.002601	-0.000313	0.000172	0.002671	7029.159684	45491.897283	3974.019565	24174.139109
23.536000	0.000181	-0.000068	0.000813	0.001296	7068.980772	45650.924280	3979.234442	24241.636667
24.037000	0.000119	-0.000108	0.000778	0.001203	7069.279298	45656.153132	3979.384253	24246.215420
24.536500	0.000206	0.000425	-0.001553	0.001638	7065.934988	45665.789823	3972.235013	24224.835885
25.037500	-0.001228	0.000563	0.000845	0.003175	7037.443456	45528.333300	3974.453679	24149.421104
25.534500	0.001081	0.000685	0.003490	0.001572	7074.996004	45697.803096	3985.477807	24228.063083
26.035000	0.003504	-0.000044	0.000777	0.001596	7098.190308	45623.798750	3978.362530	24226.889789
26.538000	0.001193	0.000479	0.004610	0.001074	7080.880056	45726.572797	3989.704390	24252.533765
27.035500	0.000558	0.000239	0.001105	0.001389	7071.720322	45671.935784	3979.749702	24237.062848
27.536000	0.000401	0.000758	0.001980	-0.000609	7089.487206	45920.300324	3987.227948	24335.517133
28.036000	-0.000048	-0.000148	0.001013	-0.001759	7096.276471	45944.453391	3987.707817	24392.391058
28.536000	0.001145	0.000306	0.001536	-0.000055	7091.326189	45820.884968	3984.625881	24308.161633
29.037000	0.000528	0.000422	0.000242	-0.000529	7089.943889	45879.145005	3982.489411	24331.552568
29.534500	0.001522	0.000074	0.000826	-0.000545	7099.721278	45846.312604	3984.050889	24332.320799
30.037000	-0.001649	0.001112	-0.000857	0.001518	7049.282660	45745.253351	3974.339328	24230.733404
30.535000	0.000063	-0.000031	-0.001688	-0.000305	7083.284370	45812.294751	3976.903078	24320.507231
31.047000	0.000744	0.000667	0.000651	0.000055	7086.384652	45845.668526	3982.035380	24302.751058
31.535500	-0.001669	0.000265	-0.000729	0.003148	7033.499821	45501.873362	3970.468347	24150.784147
32.036000	0.002892	0.000429	0.005251	0.001102	7097.034051	45718.898097	3991.308696	24251.156646
32.551000	0.000321	0.001444	0.003033	0.000467	7078.315708	45881.743144	3987.168440	24282.418567
33.037000	-0.002450	-0.000460	-0.003539	0.005051	7007.957578	45245.001644	3958.408139	24057.776111
33.536500	0.003650	0.000795	0.004028	0.000249	7112.676915	45839.089646	3990.340542	24293.161896
34.037000	-0.001570	0.000410	0.005360	0.001507	7050.141230	45677.188770	3990.533319	24231.263212
34.537500	0.002878	0.001343	0.002440	0.000352	7104.175400	45883.085903	3985.920407	24288.099116
35.034500	0.002504	0.000516	0.004364	-0.001679	7120.300886	46002.359154	3996.284870	24388.419062
35.538000	-0.000488	0.000091	0.001678	0.001819	7057.532586	45615.200257	3980.123636	24215.951997
36.035500	0.001061	0.000819	0.002453	0.002445	7066.390435	45625.140428	3980.507486	24185.211186
36.538500	-0.000172	-0.000005	0.001056	0.001774	7060.999330	45610.215412	3978.626847	24218.162618
37.036500	0.000668	0.000408	-0.004339	0.002134	7065.597330	45615.335664	3963.807169	24200.444106
37.538500	0.002022	0.000011	0.002645	0.001921	7080.708757	45597.310559	3982.370171	24210.945492
38.036500	0.001240	-0.000553	-0.000895	0.001539	7076.846005	45579.457537	3974.188535	24229.706242
38.537000	0.001899	0.000574	0.000619	0.002413	7074.771590	45604.236243	3975.840024	24186.775587
39.034000	0.001265	0.000611	0.003058	0.003913	7054.250630	45460.781563	3978.270867	24113.350042
39.534500	-0.001062	0.001320	-0.000778	0.002926	7041.410806	45627.063892	3970.913133	24161.619640
40.035000	-0.000643	0.000694	0.000808	0.003111	7043.657062	45547.496193	3974.525425	24152.579479
40.535000	0.002120	0.000032	0.002120	0.002529	7075.782191	45539.664698	3979.427528	24181.088904
41.036000	0.000331	0.001246	0.001742	0.003228	7051.873441	45590.261534	3976.638226	24146.867890
41.535500	0.000171	0.000032	-0.001992	0.002221	7059.995845	45569.907640	3969.603492	24196.209834
42.036000	0.001862	0.001145	0.003094	0.003181	7067.027409	45584.971780	3980.262999	24149.166504
42.536500	0.001327	-0.000073	-0.001865	0.002522	7068.208221	45530.042931	3969.154953	24181.418261
43.036500	-0.001958	0.000656	-0.001388	0.003975	7022.858229	45459.044813	3966.651382	24110.299564
43.537000	0.000688	0.000616	0.002904	0.003025	7057.236432	45548.283425	3980.173745	24156.770584
44.037500	0.001695	0.001014	0.002413	0.003322	7064.056577	45558.234216	3978.130591	24142.247955
44.535000	0.000066	0.000530	0.000945	0.002768	7053.727098	45565.005432	3975.764662	24169.352529
45.038000	-0.001327	0.000108	0.002245	0.004038	7028.266972	45399.340832	3975.844087	24107.234018
45.538000	0.002457	0.000470	0.002722	0.000251	7101.069486	45806.857761	3986.919598	24293.060102
46.035500	0.002670	0.000634	-0.001120	0.000665	7099.118643	45782.157205	3975.861972	24272.654549
46.558000	0.000365	-0.000731	0.000985	-0.000265	7085.812700	45739.305933	3983.737357	24318.515687
47.036000	-0.000817	0.000751	0.002420	0.006207	7012.491841	45250.489922	3970.700801	24001.539173
47.536500	0.000686	-0.000128	-0.000297	0.000552	7081.026058	45718.193941	3978.285137	24278.245456
48.037000	0.001074	0.000255	0.000495	0.001252	7078.013378	45687.070951	3978.523238	24243.800095
48.560500	0.000862	-0.000102	0.003066	0.000627	7082.003950	45713.444499	3986.836507	24274.552065
49.034500	-0.002500	-0.000085	-0.005901	0.004862	7009.273869	45300.021167	3952.889576	24066.989746
49.538000	0.000558	0.000873	0.004566	0.003319	7053.171055	45544.582891	3983.728337	24142.381606
50.038500	0.003289	0.000315	0.001152	0.001142	7100.501388	45703.724477	3980.511617	24249.183625
50.535500	0.001343	0.000288	0.007315	0.000856	7084.439935	45729.319381	3997.380526	24263.287620
51.036000	-0.001466	0.000253	0.002484	0.005963	7008.644652	45225.673459	3971.492704	24013.378396
51.536500	0.004464	0.001314	0.005969	-0.001008	7132.874843	46014.885507	3998.744115	24355.209178
52.036000	0.001881	0.000161	0.000859	-0.000362	7101.439111	45836.867498	3983.662753	24323.323562
52.536500	0.001562	-0.000010	-0.000273	0.000866	7086.456047	45698.957090	3977.534341	24262.778656
53.037000	0.010445	0.002452	0.000682	-0.002444	7205.987939	46270.978674	3988.632024	24426.332473
53.537000	-0.039642	-0.013555	-0.010337	0.070529	6140.612757	38244.532194	3788.952020	21094.919096
54.035000	-0.045105	-0.021611	-0.020427	-0.076184	7390.662898	51521.272062	4134.928220	28412.292975
54.534000	-0.041952	-0.062159	-0.011397	-0.217010	9160.488423	64138.029564	4663.126614	38188.634787
55.035000	-0.021938	-0.028506	-0.006749	-0.158105	8623.234256	60681.497146	4450.554392	33711.130930
55.535000	-0.028620	-0.020112	-0.002557	-0.089618	7711.772183	53220.599553	4230.735104	29214.187436
56.036000	-0.034218	-0.013513	-0.009717	-0.019881	6943.619177	46418.009576	4007.181427	25308.690540
56.536500	-0.023222	-0.023628	-0.011730	-0.140292	8376.520068	58987.177992	4368.876036	32472.420872
57.036500	-0.023915	-0.015759	-0.019908	-0.111884	8020.823088	56398.503395	4246.412562	30599.150921
57.537000	-0.015171	-0.046315	-0.018618	-0.200800	9315.032972	64086.444245	4568.064070	36895.328331
58.037000	-0.007190	-0.033805	-0.016078	-0.182542	9164.731917	63282.569958	4507.105189	35495.254569
58.534500	-0.002574	-0.020388	-0.012007	-0.155287	8845.935491	61390.292246	4421.122254	33511.745039
59.037500	-0.005984	-0.015117	-0.017801	-0.138759	8578.626230	59894.969938	4342.569041	32368.217970
59.535000	-0.010040	-0.013598	-0.017868	-0.127122	8376.665329	58583.423486	4302.962154	31588.709691
60.038000	-0.011083	-0.012273	-0.017264	-0.115909	8223.963320	57331.094024	4267.974720	30857.214730
60.535500	-0.011316	-0.011553	-0.023485	-0.107841	8122.933708	56418.558605	4222.181186	30342.386381
61.036000	-0.012740	-0.009521	-0.022397	-0.095492	7959.525332	55163.255031	4187.135225	29572.675153
61.536500	-0.017047	-0.010831	-0.020809	-0.089802	7844.137426	54328.428648	4174.598678	29225.369517
62.036500	-0.016150	-0.010008	-0.020345	-0.084419	7793.210010	53791.738544	4159.713484	28900.926094
62.537000	-0.016241	-0.010088	-0.016980	-0.087804	7830.552819	54180.073590	4180.182309	29104.489013
63.034500	-0.019760	-0.011119	-0.021571	-0.085058	7759.771457	53736.517181	4157.948917	28939.234256
63.537500	-0.024633	-0.011739	-0.025541	-0.085947	7715.278256	53767.878723	4148.722492	28992.579779
64.035000	-0.013926	-0.002516	-0.022028	-0.045207	7392.753666	50210.282089	4042.291183	26655.067166
64.535000	-0.003105	-0.008889	-0.018824	-0.115239	8314.508211	57672.025892	4260.730580	30814.103115
65.038000	-0.006070	-0.009127	-0.020909	-0.113785	8259.554451	57459.090976	4249.304424	30720.707486
65.536000	-0.004080	-0.006397	-0.026331	-0.107423	8205.766088	57005.109016	4211.929646	30315.968607
66.039000	-0.002434	-0.006072	-0.023738	-0.102575	8166.698232	56445.023852	4204.890781	30011.467590
66.539500	-0.000226	-0.004242	-0.021435	-0.095195	8104.219071	55765.821610	4189.182889	29554.481488
67.039500	-0.001884	-0.004027	-0.022140	-0.088775	8008.094927	55016.380099	4167.440797	29163.129897
67.537000	-0.004722	-0.005064	-0.020730	-0.082942	7906.892978	54199.170365	4154.124069	28812.592343
68.037000	-0.005665	-0.003719	-0.023363	-0.075814	7814.485931	53521.276768	4125.207725	28390.579783
68.535000	-0.004663	-0.002936	-0.020721	-0.070168	7762.083871	52958.073845	4116.439822	28061.145954
69.035000	-0.006770	-0.002434	-0.024937	-0.064560	7676.278040	52373.588420	4088.184263	27738.195551
69.535500	-0.011518	-0.003121	-0.024176	-0.057420	7546.992031	51490.659336	4070.174615	27332.973156
70.036000	-0.008577	-0.002243	-0.021396	-0.055993	7563.262284	51429.313289	4073.972265	27252.764096
70.536000	-0.009990	-0.002374	-0.018410	-0.052304	7508.656754	51004.805113	4071.997106	27046.678346
71.039000	-0.011502	-0.002062	-0.022239	-0.043482	7400.017894	50072.294025	4037.002975	26560.895698
71.537000	-0.007143	-0.001370	-0.023970	-0.045751	7469.401294	50394.661118	4038.470621	26684.888797
72.037000	-0.008015	-0.002084	-0.019809	-0.043734	7439.029573	50097.162399	4044.337125	26574.602871
72.539500	-0.007733	-0.001727	-0.024599	-0.041823	7421.992946	49928.709119	4026.096813	26470.595066
73.035000	-0.011754	-0.002291	-0.021893	-0.035134	7311.552802	49150.592665	4015.389211	26110.170789
73.535500	-0.006819	-0.000603	-0.018313	-0.037984	7391.556400	49635.956601	4032.725680	26263.063489
74.035500	-0.006673	-0.001069	-0.024509	-0.036629	7379.039313	49440.584537	4012.394428	26190.256578
74.535500	-0.006149	-0.001838	-0.022168	-0.036976	7388.052699	49395.363424	4019.588975	26208.848666
75.036000	-0.010186	-0.001736	-0.017198	-0.031598	7291.555275	48834.530489	4018.496468	25921.865941
75.536000	-0.008161	-0.001490	-0.017859	-0.035517	7352.241947	49276.763457	4027.270155	26130.677083
76.036500	-0.008238	-0.001731	-0.022085	-0.035180	7347.986051	49215.213192	4014.998975	26112.654547
76.537000	-0.005849	-0.001391	-0.020442	-0.035371	7374.556286	49271.675396	4019.916174	26122.835846
77.034000	-0.010522	-0.001796	-0.021913	-0.030196	7273.971251	48680.341447	4002.196233	25847.633055
77.537000	-0.012044	-0.001658	-0.022769	-0.031738	7274.177729	48857.615182	4004.012785	25929.294738
78.035000	-0.006458	-0.001499	-0.017927	-0.036334	7378.208855	49363.002559	4029.296181	26174.402465
78.535000	-0.009414	-0.001378	-0.023058	-0.037704	7361.843590	49522.675905	4019.155911	26247.992974
79.038500	-0.012034	-0.002656	-0.021301	-0.033773	7294.879969	48967.378507	4013.333731	26037.521473
79.535000	-0.010900	-0.002335	-0.023475	-0.035105	7319.966913	49142.812275	4011.084495	26108.619715
80.036000	-0.009825	-0.002479	-0.018441	-0.041401	7395.821882	49801.964233	4041.693658	26447.727323
80.536500	-0.007665	-0.001500	-0.016725	-0.041936	7423.885141	49965.578421	4047.869924	26476.776454
81.036500	-0.008423	-0.001960	-0.018391	-0.043135	7428.496383	50045.717229	4046.587636	26541.994055
81.536500	-0.012367	-0.002851	-0.020509	-0.041210	7367.546314	49741.205520	4035.526618	26437.326434
82.037000	-0.009959	-0.002522	-0.020523	-0.045760	7439.882215	50269.885142	4047.939950	26685.363048
82.535000	-0.011069	-0.002932	-0.020123	-0.046983	7441.068808	50358.517652	4052.413499	26752.471520
83.037500	-0.012170	-0.003454	-0.015059	-0.048432	7444.719104	50459.914956	4070.536517	26832.236047
83.535500	-0.013474	-0.004147	-0.017325	-0.046326	7409.090670	50154.671571	4058.342351	26716.420065
84.035500	-0.011430	-0.004171	-0.020367	-0.050755	7476.971064	50635.901541	4062.195981	26960.674072
84.535500	-0.013065	-0.003843	-0.017076	-0.051309	7465.557613	50732.828495	4072.949182	26991.384464
85.036000	-0.016384	-0.004436	-0.022198	-0.047057	7386.453150	50202.627622	4046.901391	26756.534322
85.536500	-0.016739	-0.004836	-0.021425	-0.049061	7403.574018	50377.503847	4054.559952	26866.939255
86.037000	-0.013870	-0.004739	-0.017682	-0.054155	7487.130529	50947.902245	4079.257236	27149.880168
86.534500	-0.013412	-0.004766	-0.019829	-0.054864	7499.502109	51023.341269	4075.203376	27189.510702
87.034000	-0.014297	-0.005023	-0.022550	-0.055653	7498.478613	51082.335016	4069.779869	27233.702575
87.535000	-0.016730	-0.005812	-0.021469	-0.050836	7422.165529	50465.001681	4059.360098	26965.183514
88.035000	-0.013768	-0.005369	-0.017969	-0.056209	7510.007285	51105.508864	4084.254979	27264.877656
88.535000	-0.012408	-0.004723	-0.019274	-0.056219	7524.608470	51178.345886	4080.588963	27265.446538
89.035500	-0.016917	-0.004717	-0.021774	-0.051011	7422.027630	50604.044989	4058.996836	26974.842736
89.536000	-0.015466	-0.006274	-0.021488	-0.057360	7504.194183	51132.821621	4077.559770	27329.562946
90.036000	-0.015054	-0.005290	-0.020542	-0.056909	7503.782215	51192.112550	4078.958285	27304.234183
90.536500	-0.013192	-0.005109	-0.021545	-0.056933	7523.860179	51214.731841	4076.195286	27305.543174
91.039500	-0.017291	-0.005429	-0.022703	-0.051349	7421.653114	50563.037199	4057.357517	26993.609199
91.537000	-0.012687	-0.005361	-0.016539	-0.056763	7527.448172	51167.932072	4089.895639	27296.029273
92.034500	-0.012892	-0.005353	-0.018415	-0.056521	7522.670819	51141.931348	4083.877808	27282.425039
92.535000	-0.012475	-0.005398	-0.019053	-0.055590	7517.184752	51033.744225	4079.435829	27230.151704
93.035000	-0.013452	-0.005454	-0.018882	-0.055647	7507.389081	51033.858831	4080.079934	27233.356767
93.538000	-0.012697	-0.005389	-0.015694	-0.055357	7512.343217	51008.989177	4088.298167	27217.133650
94.035500	-0.012499	-0.005050	-0.016540	-0.054794	7508.464506	50984.224936	4084.296757	27185.606207
94.538500	-0.012065	-0.005427	-0.019334	-0.054341	7508.255409	50892.438467	4075.126001	27160.259549
95.036000	-0.013161	-0.005005	-0.019503	-0.053676	7489.565822	50865.723682	4072.781640	27123.141132
95.536500	-0.010974	-0.005165	-0.016962	-0.052922	7504.761540	50764.897011	4077.807475	27081.061583
96.034000	-0.013372	-0.004598	-0.021020	-0.052332	7473.109399	50762.326833	4064.771901	27048.230053
96.537000	-0.011393	-0.004347	-0.017621	-0.051318	7483.319210	50678.441971	4071.446075	26991.897552
97.034500	-0.010855	-0.004068	-0.016988	-0.050754	7483.030715	50647.091215	4071.637441	26960.590417
97.534500	-0.014995	-0.003623	-0.017209	-0.043714	7366.263917	49928.186313	4051.434294	26573.498608
98.035000	-0.009155	-0.004024	-0.020042	-0.048858	7480.959957	50444.108519	4057.826954	26855.727090
98.541500	-0.010078	-0.004356	-0.018346	-0.048317	7465.513195	50348.718545	4061.035927	26825.902480
99.036000	-0.013826	-0.003913	-0.020745	-0.042031	7360.968863	49715.237041	4037.120407	26481.889589
