sample name	sample
index	1057
start time	 04-22-2021  09:53:37 AM
880	0.040708
Peak Time (s)	101.037
Peak Height 	0.04071
calc peak height	100,103
Baseline Time (s)	11.037
Baseline Value 	-0.007126
subtract baseline	10,4
Abs	0.029047
Peak Time (s)	100.538
Peak Height 	0.02905
calc peak height	100,103
Baseline Time (s)	9.036
Baseline Value 	0.005724
subtract baseline	10,3
PK_550	0.027580
Peak Time (s)	100.035
Peak Height 	0.02758
calc peak height	100,103
Baseline Time (s)	9.536
Baseline Value 	0.001097
subtract baseline	10,2
PK_880	0.030232
Peak Time (s)	102.042
Peak Height 	0.03023
calc peak height	100,103
Baseline Time (s)	11.037
Baseline Value 	0.002091
subtract baseline	10,1


Time (s)	A880-A510	A880-A775	A880-A975	A880	I510	I775	I975	I880	
0.035500	0.000283	-0.000850	-0.000606	0.002439	6209.414323	43418.388076	3791.451907	22730.376932
0.536500	-0.003421	-0.001512	-0.005688	0.004691	6162.028851	43146.447676	3773.363437	22626.911214
1.037500	-0.004327	-0.001029	-0.003605	0.007357	6133.933673	42943.990625	3771.940581	22505.147418
1.536500	-0.000829	-0.000362	0.002546	0.001658	6206.767809	43537.448557	3801.278646	22766.391712
2.037000	-0.001193	-0.000187	-0.002042	0.001180	6207.685521	43598.815605	3791.013128	22788.490987
2.534500	-0.000536	-0.000513	-0.001640	0.002326	6203.771779	43460.615632	3789.165247	22735.611925
3.040500	-0.001995	-0.001501	-0.006082	0.005237	6168.997221	43096.878875	3771.070925	22601.951150
3.535500	-0.000994	-0.001126	0.001122	0.000136	6217.646018	43608.632198	3801.522978	22836.752021
4.035000	-0.000205	-0.000643	-0.002720	0.000183	6223.604480	43649.681644	3791.805701	22834.580108
4.536000	0.000765	-0.000957	-0.002320	0.001864	6217.895531	43462.338629	3788.625492	22756.919146
5.036000	-0.000206	-0.000604	-0.000057	0.000065	6224.544130	43664.422491	3798.746225	22840.027077
5.536000	-0.001038	0.000179	-0.003021	0.000624	6213.374806	43685.569695	3789.959628	22814.164176
6.036500	-0.000727	-0.001042	-0.001911	-0.000367	6223.838330	43663.899373	3795.193130	22860.067513
6.534000	-0.000135	-0.000342	-0.003432	0.000128	6224.618638	43683.297962	3790.174284	22837.149836
7.037000	0.000389	-0.000140	-0.002708	0.000627	6224.814147	43655.240565	3790.731167	22814.026133
7.543000	-0.001931	-0.000688	-0.000210	-0.000308	6213.693688	43691.723328	3799.297926	22857.329696
8.035000	-0.001080	-0.000255	0.001784	-0.000475	6221.869453	43748.337767	3804.726633	22865.090677
8.535000	-0.000613	-0.000335	-0.002284	-0.000383	6224.876896	43732.089328	3794.301010	22860.808279
9.035500	0.000059	-0.000395	0.000000	-0.000358	6230.096306	43724.082545	3799.950380	22859.668194
9.536000	0.000646	0.000000	0.000180	0.000120	6230.968810	43716.264197	3799.203560	22837.513509
10.036500	0.000150	0.000154	-0.003150	0.000290	6225.602854	43714.714088	3790.470223	22829.615839
10.536500	-0.000130	0.000841	0.002663	0.000704	6220.023899	43740.518704	3803.970190	22810.476498
11.037000	0.000000	0.000075	0.000759	0.000000	6226.730454	43734.593076	3800.953701	22843.056796
11.539500	-0.000586	-0.000587	-0.000938	-0.000686	6227.539665	43736.886195	3798.420230	22874.860232
12.037000	-0.000161	-0.000402	-0.001196	-0.000356	6228.300704	43723.178034	3796.949658	22859.538637
12.540000	0.002259	0.000396	-0.003145	0.000134	6243.875088	43752.255922	3790.871287	22836.845239
13.035500	0.000796	0.000122	-0.000632	-0.000828	6239.822162	43817.286974	3799.543463	22881.432941
13.535500	0.000844	-0.000693	0.002361	-0.000807	6240.041931	43738.248400	3807.013740	22880.455500
14.036000	-0.000260	0.000398	-0.000931	0.002740	6202.659397	43507.133653	3789.895989	22716.517554
14.538500	-0.001561	-0.000495	-0.005551	0.001831	6199.529174	43508.639872	3780.719070	22758.399984
15.036000	-0.001818	-0.000940	-0.001595	0.001875	6197.126293	43462.786106	3790.395997	22756.377516
15.536500	0.002043	-0.000529	-0.003080	-0.000404	6246.481680	43715.800643	3792.370175	22861.778709
16.036500	-0.000203	-0.000627	-0.004859	-0.001148	6234.348397	43776.785969	3789.799144	22896.319480
16.540000	-0.001124	-0.000260	-0.005783	-0.001152	6226.957387	43811.808218	3787.515566	22896.482520
17.037500	0.001488	0.000256	0.003322	0.002478	6218.774655	43518.506745	3801.169631	22728.607858
17.535000	0.000897	-0.000645	-0.004385	0.000202	6232.329074	43647.675948	3787.624425	22833.695197
18.035500	-0.001320	-0.000864	-0.003745	0.000645	6210.950284	43585.406146	3788.111437	22813.195792
18.535500	-0.001959	-0.000422	-0.001762	0.000827	6204.377378	43609.881938	3792.588670	22804.796498
19.035500	-0.001599	-0.001610	0.000359	0.000616	6208.948352	43518.123686	3798.409403	22814.543522
19.536000	-0.001978	-0.000965	-0.000795	0.000859	6203.966844	43555.831910	3794.917401	22803.317402
20.036500	0.000825	-0.000794	-0.002300	0.000826	6226.717113	43574.990611	3791.250626	22804.820679
20.539500	0.000348	-0.000453	-0.001500	0.000928	6222.058983	43597.450012	3792.987840	22800.104280
21.037000	-0.003012	-0.000874	-0.000348	0.001143	6193.446648	43537.718547	3795.324540	22790.199509
21.537000	0.000691	-0.000929	-0.001000	0.001172	6222.863501	43529.886356	3793.626695	22788.863749
22.037500	-0.002209	-0.000625	-0.005636	0.000867	6202.055626	43587.032793	3782.886645	22802.941966
22.535000	0.000134	-0.000578	-0.003464	0.000850	6220.974320	43593.095019	3788.302424	22803.742321
23.035000	-0.001312	-0.001085	-0.000707	0.001064	6207.649898	43525.287519	3794.624456	22793.809909
23.537000	0.001261	0.000141	-0.003257	0.001260	6226.738260	43622.100599	3787.798061	22784.765174
24.036000	0.000431	-0.000592	0.002145	0.001182	6220.687355	43560.537059	3801.465656	22788.366668
24.536500	-0.001429	-0.000341	-0.004275	0.001064	6206.721513	43595.236563	3785.762119	22793.834212
25.036500	-0.001508	-0.000583	-0.003337	0.001576	6201.992679	43524.416114	3786.817650	22770.198330
25.536500	-0.001252	-0.001077	0.001460	0.000617	6211.723180	43568.122312	3801.166550	22814.509351
26.037500	-0.000612	-0.000980	-0.002457	0.000796	6215.416066	43560.415420	3790.936871	22806.237146
26.540000	-0.002081	-0.000108	-0.001262	0.001483	6198.161153	43577.744244	3792.198658	22774.492520
27.035000	-0.002339	-0.000262	-0.004785	0.001827	6193.354353	43530.998363	3782.619246	22758.620116
27.534500	0.001164	0.000065	-0.000027	-0.001673	6249.646884	43891.837675	3803.182214	22920.707233
28.035500	-0.002600	-0.001121	-0.000793	-0.001684	6219.359948	43780.663439	3801.286616	22921.205038
28.535500	0.000121	0.000100	0.000629	-0.000730	6233.594078	43805.964255	3802.461008	22876.916274
29.036500	-0.000958	-0.000872	-0.002861	0.001350	6208.201889	43518.494550	3788.556448	22780.627074
29.536000	-0.000931	-0.000166	-0.001215	-0.001255	6229.340604	43830.496535	3799.153675	22901.295871
30.036000	0.001638	-0.000732	0.002038	-0.000994	6247.976879	43752.268246	3806.671737	22889.143359
30.537000	-0.001299	-0.000673	-0.001274	0.004450	6180.759199	43247.116069	3784.810559	22637.975080
31.037000	0.000783	-0.000206	0.000014	0.003685	6203.445041	43362.106269	3789.896436	22673.088162
31.537000	-0.002123	-0.000739	0.000852	-0.001054	6218.135606	43757.315584	3803.836164	22891.950602
32.037500	0.000021	-0.000761	-0.000230	-0.001122	6235.945970	43761.643056	3801.288939	22895.089607
32.535500	-0.003078	-0.000625	0.002832	0.005066	6161.779486	43194.102462	3793.470497	22609.734966
33.035500	-0.000388	-0.000430	-0.001046	0.002227	6205.744807	43477.705793	3790.885178	22740.177113
33.548000	0.002503	-0.000385	0.001956	-0.001299	6257.464784	43813.804539	3807.233353	22903.300925
34.036000	-0.001672	-0.001133	-0.003904	-0.000929	6220.757515	43708.291471	3791.628314	22886.145551
34.555500	-0.001417	-0.000151	0.000128	0.003886	6184.300748	43348.455859	3789.681712	22663.852118
35.043000	0.000215	0.000140	-0.002753	0.002949	6204.792014	43463.484164	3784.864886	22706.940301
35.537000	-0.000821	-0.000716	-0.002174	0.001251	6210.095962	43542.432192	3790.509143	22785.201404
36.040500	-0.001373	-0.000514	0.000712	0.001407	6204.426046	43546.702169	3797.312180	22777.984308
36.538000	-0.001706	-0.000890	-0.000121	0.002818	6190.498346	43379.170466	3791.715019	22712.927791
37.044000	-0.001124	-0.001221	0.004254	0.000575	6213.081912	43558.448396	3808.304670	22816.444918
37.585000	-0.002017	-0.000999	-0.002674	0.000985	6202.651788	43540.811569	3789.927542	22797.504110
38.036000	0.000209	-0.000976	0.000138	0.001530	6216.110502	43491.804357	3795.570973	22772.304423
38.536000	0.000593	-0.000997	-0.003443	0.001024	6223.262672	43537.341714	3787.921277	22795.681014
39.036500	0.000526	-0.000691	0.004462	0.001579	6218.264711	43513.965990	3806.296976	22770.047686
39.536500	-0.000545	-0.000619	0.000857	0.001605	6209.463880	43518.280883	3797.179857	22768.836457
40.036500	-0.001284	-0.001127	0.002177	0.000987	6208.497697	43528.657362	3802.037790	22797.404003
40.540000	-0.001322	-0.001992	-0.000933	0.000242	6214.165489	43517.336638	3796.113051	22831.863318
41.035000	-0.000793	-0.000462	-0.000009	0.001454	6208.687376	43547.209229	3795.395082	22775.828671
41.535000	-0.001289	-0.001402	0.000764	0.000779	6210.118443	43522.263200	3799.014002	22806.994578
42.035500	0.001215	0.000029	-0.001565	0.001924	6221.032523	43549.178249	3790.350243	22754.152659
42.535500	-0.001529	-0.000957	0.000709	0.001169	6205.079522	43527.450084	3797.899858	22788.972974
43.038500	0.000377	-0.000596	-0.004905	0.002242	6211.746995	43460.676679	3781.298038	22739.476743
43.536500	-0.001493	-0.000767	-0.000555	0.001036	6206.432968	43557.840976	3795.076077	22795.137276
44.036500	0.002819	-0.000613	0.001943	-0.000315	6252.049617	43699.369025	3804.720849	22857.631917
45.166500	0.001361	-0.001179	-0.000905	-0.000827	6244.391653	43694.344795	3798.857581	22881.410891
45.924500	0.000336	-0.000036	0.003627	-0.000810	6235.970971	43800.603840	3810.222129	22880.613965
46.025500	0.000545	-0.000016	0.002432	-0.000970	6238.944816	43817.598384	3807.604964	22888.018611
46.126000	0.000423	-0.000899	-0.002717	-0.001437	6241.736986	43778.322015	3795.850920	22909.727893
46.549000	-0.004094	-0.001703	-0.004050	0.004257	6160.150391	43169.131567	3778.445406	22646.828409
47.035000	-0.001820	-0.000471	-0.004672	0.002415	6192.802707	43456.227093	3781.447557	22731.505285
47.535500	0.000822	-0.000179	0.002761	-0.000220	6235.129446	43731.436370	3806.545216	22853.255516
48.036000	0.000178	-0.000815	0.002877	-0.001402	6239.469880	43782.975674	3809.822493	22908.094662
48.536000	-0.003258	-0.001037	-0.007048	0.004230	6166.972216	43233.652264	3771.168664	22648.069295
49.036500	-0.001438	-0.001014	0.002283	0.003060	6190.710309	43345.023779	3797.107061	22701.811524
49.537000	-0.001082	-0.000282	-0.000147	0.002249	6200.019701	43489.556281	3793.069812	22739.168985
50.037000	-0.000309	-0.001075	-0.000922	-0.001266	6234.441680	43745.583987	3799.914093	22901.785764
50.538000	-0.002071	-0.001475	-0.000415	0.003182	6184.700907	43290.621911	3790.080968	22696.224290
51.035000	-0.001509	-0.000747	-0.000793	0.002464	6194.888831	43425.677484	3790.923943	22729.225566
51.535000	0.000007	-0.001300	0.000907	-0.002873	6249.988000	43876.190413	3808.560346	22976.565635
52.035500	-0.000272	-0.000636	0.002314	-0.001682	6238.093755	43826.344241	3809.104456	22921.103007
52.536000	0.012053	-0.006176	0.023556	0.230417	4845.229324	26518.635303	3386.882135	14560.470321
53.039000	0.008954	-0.013460	-0.007363	0.116962	5456.966831	33099.305533	3528.278191	18093.503862
53.542500	-0.022551	-0.033001	-0.025841	-0.163867	7571.194712	58135.139351	4205.991327	32064.006352
54.039000	-0.031649	-0.043443	-0.031010	-0.198143	7860.111870	61259.245687	4309.596737	34473.270951
54.536500	-0.023557	-0.042265	-0.020110	-0.198025	7955.169631	61402.387786	4349.777118	34464.705492
55.037000	-0.019717	-0.022598	-0.014591	-0.118288	7117.483468	53826.644574	4092.396489	29141.113407
55.534500	-0.003288	-0.090281	-0.008614	-0.275615	9275.570787	65535.000000	4722.818477	40673.089765
56.037000	-0.001224	-0.030294	-0.007110	-0.188501	8111.554694	61733.611845	4362.938835	33776.215417
56.535000	-0.008445	-0.020550	-0.009151	-0.157725	7660.791554	58945.652614	4242.739420	31652.047161
57.037000	-0.010411	-0.012913	-0.010903	-0.131459	7350.499904	56586.347206	4147.062361	29954.465881
57.536000	-0.011019	-0.009721	-0.011973	-0.127990	7307.328775	56552.018127	4132.135165	29737.850195
58.036000	-0.001300	-0.008442	-0.009191	-0.132814	7463.177064	57313.346271	4157.238539	30039.559496
58.536500	0.002339	-0.006948	-0.007455	-0.128519	7456.037148	56962.646077	4148.744129	29770.775668
59.036500	0.004711	-0.003037	-0.006149	-0.108689	7269.853057	55011.589696	4088.719732	28563.655566
59.540000	0.006922	-0.000268	-0.001970	-0.089317	7093.979028	53051.649597	4041.369299	27436.461496
60.035000	0.006368	0.000672	-0.002147	-0.075830	6955.173491	51619.383167	4000.174941	26680.885127
60.534500	0.010696	0.004712	-0.000838	-0.051874	6768.495859	49429.204231	3934.687513	25395.289869
61.035000	0.009453	0.006164	-0.003349	-0.042364	6669.747683	48571.196859	3901.290475	24904.292475
61.536000	0.010592	0.006523	0.001866	-0.021548	6495.268404	46463.266432	3859.303234	23866.366155
62.035500	0.008697	0.007284	0.001583	-0.012068	6397.947984	45594.481229	3833.786110	23409.909173
62.536500	0.014145	0.010978	0.008773	0.021642	6166.902253	42733.787424	3767.293328	21865.153548
63.036500	0.012789	0.009424	0.006454	0.009692	6251.751981	43702.267587	3790.972710	22399.084843
63.536500	0.014713	0.010723	0.005897	0.001516	6334.593601	44605.410379	3810.079754	22772.969928
64.037500	0.014587	0.010610	0.008664	0.009498	6267.938684	43832.583184	3796.964909	22407.870580
64.537000	0.017152	0.012751	0.012848	0.017536	6223.643710	43278.583244	3787.374085	22046.948345
65.034500	0.015758	0.014711	0.016116	0.019836	6194.058621	43246.905881	3789.775475	21944.907909
65.535000	0.016484	0.014541	0.014905	0.021755	6184.554065	43052.651189	3782.031861	21860.173338
66.037500	0.018869	0.015045	0.010801	0.017305	6239.350015	43514.957330	3782.885216	22057.248043
66.535500	0.013922	0.016499	0.015307	0.019754	6180.096681	43421.618665	3787.971541	21948.545469
67.051000	0.012296	0.015833	0.008398	0.018454	6177.506740	43481.010724	3774.156389	22006.151857
67.536000	0.015646	0.017660	0.015230	0.013635	6242.955053	44109.002760	3803.054108	22221.278250
68.052000	0.015978	0.018115	0.015023	0.014438	6239.154703	44075.978042	3800.520103	22185.283076
68.536500	0.014073	0.018582	0.009402	0.017605	6198.407998	43819.795281	3778.699809	22043.865957
69.051500	0.012559	0.018050	0.010401	0.021606	6154.661359	43393.526752	3771.347481	21866.743909
69.537500	0.014356	0.017532	0.013844	0.018033	6197.257077	43680.392406	3788.611446	22024.875214
70.035500	0.016574	0.018457	0.018061	0.020966	6191.551586	43491.535556	3791.800675	21894.969283
70.535500	0.014824	0.019142	0.015178	0.025977	6138.095001	43087.767884	3772.339682	21675.063320
71.036000	0.012384	0.018207	0.015051	0.030601	6083.122466	42574.875125	3760.795492	21474.378276
71.536000	0.014569	0.019649	0.018987	0.029808	6106.181341	42780.280397	3772.284908	21508.622302
72.036500	0.013414	0.019571	0.013043	0.032365	6077.456354	42538.189571	3751.720909	21398.380080
72.536000	0.014111	0.020540	0.020068	0.038008	6039.563777	42112.314282	3755.036281	21157.329693
73.036500	0.013467	0.020152	0.013308	0.039989	6019.620994	41898.240168	3734.239723	21073.433559
73.539500	0.012644	0.020465	0.016515	0.037606	6031.452391	42141.982947	3747.491382	21174.391995
74.037500	0.013148	0.019655	0.011697	0.038093	6031.590784	42024.587657	3734.912093	21153.733796
74.537500	0.012546	0.020380	0.021809	0.042004	5997.460562	41737.510699	3749.630330	20988.506742
75.035000	0.010008	0.020114	0.015554	0.044270	5961.524510	41510.919643	3729.458444	20893.483242
75.535500	0.011636	0.020591	0.015837	0.041832	5991.914117	41771.920419	3735.856286	20995.765677
76.035500	0.011423	0.021572	0.021000	0.043493	5977.869172	41710.858866	3744.150688	20926.006235
76.536000	0.011634	0.021141	0.017342	0.045629	5963.515276	41481.324624	3730.465071	20836.719200
77.039000	0.010550	0.020993	0.012643	0.049381	5927.711787	41135.150683	3710.824435	20680.935780
77.537000	0.012656	0.020895	0.017314	0.044966	5976.080635	41518.458625	3731.954870	20864.378006
78.036500	0.015810	0.020535	0.018250	0.044575	6002.673351	41521.183419	3735.076777	20880.702612
78.536500	0.014809	0.021593	0.010951	0.046922	5977.555626	41406.406556	3712.590809	20782.885886
79.037500	0.012432	0.021587	0.015864	0.045012	5974.068229	41576.267927	3728.446033	20862.484523
79.534500	0.014726	0.021865	0.016655	0.044470	5995.314456	41649.614261	3731.573052	20885.117881
80.035000	0.016033	0.022370	0.017692	0.044225	6007.001482	41716.811209	3734.588938	20895.366797
80.535000	0.016485	0.022465	0.019049	0.043941	6012.554795	41750.851475	3738.462553	20907.254573
81.038500	0.014513	0.021818	0.018972	0.047405	5971.732346	41383.440553	3730.120055	20762.802977
81.536000	0.017701	0.024010	0.019415	0.043779	6022.984079	41904.398635	3739.711034	20914.043381
82.036500	0.017444	0.023650	0.021552	0.043608	6022.329911	41887.299244	3745.191347	20921.177510
82.536000	0.019760	0.023224	0.025092	0.042192	6050.734385	41976.616335	3757.056661	20980.598333
83.039500	0.019839	0.024314	0.020723	0.043076	6044.585899	41995.258876	3744.484653	20943.479953
83.540000	0.020971	0.023113	0.021396	0.042029	6061.259176	41981.301086	3748.585093	20987.464175
84.034500	0.020552	0.023893	0.021659	0.041953	6058.631190	42058.694647	3749.393745	20990.664724
84.535000	0.019730	0.024508	0.021865	0.042717	6046.499439	42045.309834	3748.061795	20958.568484
85.035500	0.022185	0.024575	0.019602	0.041896	6071.603527	42125.673827	3744.625530	20993.059626
85.538500	0.020978	0.023459	0.027238	0.041006	6069.169519	42105.237498	3765.110502	21030.540327
86.035500	0.021174	0.024136	0.019943	0.040484	6074.689184	42213.982750	3748.802675	21052.541450
86.536000	0.022648	0.024920	0.019721	0.040884	6082.970831	42248.870488	3747.317609	21035.659054
87.036500	0.020086	0.024784	0.022014	0.045241	6029.990642	41842.467361	3742.407467	20852.912806
87.538500	0.021966	0.026077	0.026831	0.040217	6082.853239	42415.013967	3766.035759	21063.800718
88.037000	0.023015	0.025735	0.024243	0.038966	6100.656488	42498.148585	3762.796868	21116.715187
88.537000	0.022146	0.024635	0.022836	0.038439	6097.996781	42445.742655	3760.666853	21139.025749
89.034500	0.019062	0.024513	0.022377	0.041848	6048.036042	42124.406252	3751.364394	20995.085645
89.535000	0.021441	0.024870	0.020589	0.036721	6105.861273	42624.612934	3759.390280	21212.014168
90.035000	0.021048	0.025114	0.024844	0.036134	6107.375000	42701.001221	3771.139814	21237.042214
90.535500	0.021014	0.025044	0.023006	0.035980	6108.311685	42708.728217	3767.040510	21243.606225
91.035500	0.019618	0.025090	0.020154	0.040146	6065.328704	42331.534632	3750.117566	21066.828841
91.539000	0.023858	0.024951	0.027735	0.034718	6140.393483	42816.406139	3781.703009	21297.477414
92.036000	0.027237	0.025513	0.027513	0.035060	6164.313745	42836.702153	3780.312601	21282.848119
92.539500	0.023878	0.025001	0.029143	0.034065	6145.680285	42881.317219	3786.793534	21325.419790
93.033500	0.024234	0.025571	0.025150	0.033861	6150.087470	42952.930814	3777.451931	21334.160648
93.534500	0.023232	0.024195	0.023108	0.032726	6151.133200	42930.628700	3775.228308	21382.866209
94.034500	0.023983	0.025514	0.025841	0.033652	6149.756927	42966.986310	3779.663229	21343.112762
94.535500	0.025736	0.026297	0.024886	0.035143	6151.820323	42901.498718	3773.663817	21279.324505
95.035500	0.023984	0.025700	0.025855	0.033330	6152.296127	43014.002255	3780.489163	21356.914628
95.536000	0.023844	0.025706	0.021063	0.033522	6149.681086	42996.772181	3768.291314	21348.684659
96.036500	0.026780	0.026336	0.022316	0.033609	6172.189798	43047.143264	3771.131999	21344.957755
96.536500	0.023994	0.027104	0.027181	0.035081	6138.607910	42981.876810	3779.445423	21281.959717
97.037000	0.023352	0.025435	0.023800	0.032858	6151.045302	43033.278363	3776.602552	21377.207892
97.537000	0.027064	0.025818	0.026136	0.033710	6173.634352	42989.764556	3780.246036	21340.634633
98.037000	0.022613	0.026332	0.021643	0.033315	6141.630423	43073.985510	3770.207878	21357.559015
98.534500	0.026153	0.026528	0.026949	0.034841	6157.493007	42950.836182	3779.465856	21292.234661
99.035000	0.027744	0.026264	0.025656	0.033926	6177.316616	43011.082470	3778.535504	21331.390494
99.535500	0.026204	0.027152	0.029897	0.034508	6160.519027	43039.448787	3787.564022	21306.468182
100.035500	0.024847	0.027580	0.022941	0.035557	6141.564265	42981.809665	3767.907309	21261.619107
100.538500	0.027214	0.026592	0.029047	0.035628	6159.653095	42883.946303	3782.693559	21258.609902
101.036500	0.024570	0.026600	0.026237	0.040708	6099.206745	42417.996355	3763.406046	21043.102957
101.536500	0.026916	0.026190	0.028980	0.035773	6156.162239	42833.434264	3782.171378	21252.444034
102.042000	0.030232	0.025773	0.028191	0.035233	6186.709706	42844.807887	3781.557845	21275.494010
102.534000	0.029224	0.027501	0.026296	0.037059	6164.225353	42835.635043	3772.426681	21197.624648
103.035000	0.024719	0.025941	0.027504	0.041435	6094.731278	42291.659925	3764.715979	21012.477572
103.535000	0.026774	0.025772	0.027793	0.036410	6150.017112	42736.222488	3777.685522	21225.290648
104.035500	0.029692	0.026260	0.025027	0.036674	6170.974745	42756.761594	3770.269933	21214.022712
104.535500	0.028111	0.026438	0.028357	0.037501	6151.953874	42697.063839	3776.390530	21178.860773
105.036000	0.027684	0.025945	0.025950	0.041036	6120.881393	42328.339071	3761.916538	21029.252485
105.535500	0.026728	0.027153	0.029243	0.037341	6142.330195	42777.545935	3778.957740	21185.644526
106.037000	0.027886	0.027035	0.032149	0.037720	6148.454372	42731.860536	3785.186749	21169.544680
106.539500	0.029287	0.026895	0.027373	0.037692	6159.727998	42721.610109	3773.513403	21170.761446
107.037500	0.026730	0.027226	0.026347	0.043401	6095.071900	42229.641511	3757.167483	20929.854509
107.534000	0.029005	0.026554	0.031064	0.037708	6157.373784	42688.687967	3782.539908	21170.073288
108.038000	0.028688	0.027420	0.030723	0.038766	6146.536979	42670.979050	3779.092369	21125.168449
108.535500	0.028781	0.027651	0.032751	0.038830	6146.763714	42686.401988	3783.933087	21122.467508
109.035000	0.025724	0.027557	0.027800	0.043595	6085.796056	42242.184802	3760.205094	20921.753373
109.538500	0.028783	0.026661	0.028390	0.039028	6145.225135	42577.327218	3772.731124	21114.086864
110.036000	0.027297	0.027444	0.030844	0.039780	6127.675203	42580.208476	3776.900074	21082.290074
