sample name	sample
index	357
start time	 03-04-2021  10:32:49 AM
880	-0.049286
Peak Time (s)	91.535
Peak Height 	-0.04929
calc peak height	90,93
Baseline Time (s)	11.536
Baseline Value 	-0.001241
subtract baseline	10,4
Abs	-0.088146
Peak Time (s)	92.536
Peak Height 	-0.08815
calc peak height	90,93
Baseline Time (s)	11.035
Baseline Value 	0.003201
subtract baseline	10,3
PK_550	-0.010075
Peak Time (s)	91.535
Peak Height 	-0.01007
calc peak height	90,93
Baseline Time (s)	10.034
Baseline Value 	5.6921E-4
subtract baseline	10,2
PK_880	-0.063891
Peak Time (s)	90.537
Peak Height 	-0.06389
calc peak height	90,93
Baseline Time (s)	11.035
Baseline Value 	1.0342E-4
subtract baseline	10,1


Time (s)	A880-A510	A880-A775	A880-A975	A880	I510	I775	I975	I880	
0.034500	-0.005235	-0.001606	-0.006280	0.005735	6777.445509	47092.162814	3874.220136	24799.113545
0.537000	-0.003250	-0.000849	-0.005004	0.003962	6812.504857	47351.095839	3882.406660	24889.374980
1.035000	-0.003359	-0.000743	-0.004550	0.003096	6819.613547	47451.079852	3885.971925	24933.646927
1.535500	-0.000347	-0.000825	-0.003000	-0.000405	6881.201430	47804.172391	3899.702781	25113.356475
2.035500	-0.001263	-0.000365	-0.001992	0.003555	6835.007591	47442.732764	3891.658855	24910.199679
2.536000	0.000965	-0.000306	-0.005539	-0.000242	6892.172330	47841.256843	3892.338506	25104.997223
3.036000	0.002974	-0.000494	0.001188	-0.001413	6922.661446	47943.231281	3913.998851	25165.377884
3.539500	-0.001597	-0.000632	-0.001735	0.000602	6859.752480	47719.832307	3900.408046	25061.502169
4.037000	0.000604	-0.000162	-0.002325	0.001116	6875.785325	47715.327935	3897.392899	25035.117878
4.540000	0.000795	0.000258	-0.004264	0.000734	6881.232458	47798.358293	3893.150015	25054.721572
5.037500	-0.001450	-0.000796	-0.003733	0.000067	6866.228742	47758.272061	3896.415123	25089.062611
5.534500	0.000589	0.000518	-0.000842	0.000568	6880.856213	47842.580283	3902.949401	25063.275842
6.035000	-0.000180	-0.000135	0.000258	0.000449	6874.662024	47787.228531	3906.296859	25069.386421
6.538500	0.000251	-0.000083	-0.003949	0.000302	6880.167064	47807.815794	3895.184596	25076.960752
7.036000	0.000477	-0.000271	0.000320	0.000300	6882.342222	47788.512860	3906.878840	25077.058063
7.537000	-0.002769	-0.001031	-0.002202	-0.000691	6860.906068	47812.561702	3902.673894	25128.129075
8.036500	-0.002068	-0.000142	-0.001345	-0.000092	6861.863555	47842.544596	3903.379694	25097.226613
8.537000	-0.000175	0.000074	-0.000249	0.000087	6878.158561	47846.466853	3905.900461	25088.040741
9.037000	-0.001701	0.000255	0.001767	0.000280	6861.820767	47845.194389	3910.919841	25078.088686
9.537500	0.000066	-0.000522	-0.004612	-0.000406	6885.157861	47835.844664	3895.307744	25113.448645
10.034500	0.002253	0.000000	-0.000825	0.000091	6901.305680	47838.363115	3904.305467	25087.823649
10.535500	-0.000880	-0.000246	0.000729	-0.000487	6876.906501	47872.789241	3910.171593	25117.583225
11.035000	0.000000	-0.000357	0.000000	-0.000401	6884.477853	47852.417366	3907.926711	25113.166038
11.535500	0.002127	0.000234	0.000591	0.000000	6900.970839	47872.109384	3908.451059	25092.507053
12.036000	-0.001749	-0.000352	-0.008508	-0.001099	6874.460240	47925.328382	3886.610177	25149.156607
12.536500	-0.001711	-0.000422	-0.003365	-0.000680	6870.841664	47874.546334	3899.457088	25127.539946
13.039500	0.000765	-0.000187	0.002006	-0.002817	6914.918943	48121.599280	3920.164754	25238.035746
13.536500	-0.001268	-0.000506	-0.000630	-0.002132	6888.896747	48016.975982	3910.963116	25202.596285
14.034500	-0.000938	-0.000415	-0.002141	-0.001769	6888.583201	47988.570499	3905.801361	25183.807443
14.537000	-0.002026	-0.000084	-0.000681	0.001864	6843.758668	47646.106246	3899.841627	24996.736708
15.035000	0.002257	0.000067	0.002722	-0.000627	6908.218466	47919.889286	3916.072662	25124.803360
15.539500	-0.001628	-0.000121	0.002408	-0.000131	6866.419706	47848.895673	3913.829502	25099.268878
16.036000	0.000840	-0.000175	0.003849	-0.002025	6908.035259	48040.228731	3923.092971	25197.012115
16.535500	0.000736	0.000040	-0.000073	-0.001506	6902.075463	48008.597968	3910.770632	25170.191478
17.035500	0.001544	0.000580	-0.002708	-0.001029	6905.243978	48015.194957	3902.213546	25145.587358
17.537500	0.001500	-0.000383	-0.004561	-0.001857	6912.765773	48001.043971	3899.406221	25188.332863
18.036500	0.000055	-0.000655	-0.001636	-0.000634	6887.220219	47845.561701	3904.067676	25125.167217
18.537500	-0.002016	-0.000821	-0.000030	0.000240	6859.212495	47737.781459	3906.079570	25080.129896
19.034500	0.001387	-0.000212	-0.003341	0.000679	6887.401697	47755.349219	3895.811591	25057.550237
19.534500	-0.000401	-0.000999	0.000815	0.000372	6873.293607	47705.674271	3908.042714	25073.339980
20.035000	0.000658	0.000011	-0.002349	0.001074	6876.689845	47737.513867	3897.441735	25037.248159
20.535000	-0.001194	0.000188	0.003320	0.001239	6857.544564	47738.887003	3912.561931	25028.792765
21.035500	-0.002462	-0.000808	0.000466	0.000647	6851.144539	47696.964870	3906.324883	25059.212729
21.536000	-0.002225	-0.000122	-0.004133	0.001101	6849.082329	47720.998807	3892.509129	25035.862945
22.036000	-0.001570	-0.000275	-0.003310	0.001234	6854.021742	47691.442131	3894.387220	25029.045441
22.539500	-0.001623	0.000649	-0.001437	0.001361	6852.320708	47773.932030	3899.149427	25022.501824
23.037000	-0.001832	-0.000568	-0.005265	0.000459	6858.886992	47741.348233	3891.178832	25068.904111
23.537000	-0.000389	0.000233	-0.001428	0.000975	6867.674384	47770.779591	3900.230056	25042.337886
24.037000	-0.000515	0.000041	0.002846	0.000853	6867.647703	47763.583494	3912.320164	25048.626818
24.535000	-0.001075	-0.000425	0.000693	0.001203	6859.008092	47679.131295	3905.419232	25030.632648
25.035000	-0.002223	0.000986	0.000725	0.001782	6842.674745	47765.192929	3903.918536	25000.910338
25.535500	-0.000192	0.000330	0.000826	0.000880	6870.459687	47790.795634	3906.673807	25047.245544
26.035500	-0.000560	-0.000177	-0.000158	0.000743	6868.258293	47752.313015	3904.344766	25054.257341
26.536500	-0.000740	0.000576	-0.001711	0.001659	6857.860828	47735.564293	3897.588844	25007.249710
27.039500	-0.001169	0.000191	0.000479	0.001075	6859.326085	47756.135204	3905.183249	25037.206496
27.537000	0.000584	-0.000117	-0.002896	0.000644	6880.083761	47768.883410	3897.124674	25059.388463
28.039500	0.001892	-0.000034	0.001756	-0.002295	6920.735652	48083.121386	3918.018817	25210.994465
28.540000	0.001343	-0.000141	-0.000055	-0.001795	6910.662010	48019.763618	3911.618049	25185.115922
29.045500	-0.001001	-0.000727	-0.000961	-0.002531	6895.258233	48035.443492	3911.149972	25223.216677
29.534500	0.000777	0.000306	0.003542	-0.001471	6902.127194	48032.590944	3920.695197	25168.365611
30.035000	0.000528	0.000519	-0.001607	-0.001824	6903.132607	48091.708343	3907.420540	25186.658877
30.536000	-0.000856	0.000103	0.004221	-0.001673	6888.450045	48032.516914	3923.149174	25178.841974
31.038500	0.002527	0.000923	-0.000473	-0.000758	6912.071584	48022.667783	3907.608824	25131.583050
31.536500	-0.002258	-0.000512	0.000540	0.002221	6838.202292	47564.938232	3902.204836	24978.405367
32.036500	-0.001093	0.000159	0.000392	0.001964	6851.631212	47660.816203	3902.505974	24991.591540
32.540000	0.001944	0.000467	0.000978	-0.000988	6908.685969	47999.125653	3912.246162	25143.469985
33.037000	-0.000529	-0.000941	-0.000267	-0.002080	6895.467380	47966.249233	3911.824063	25199.905876
33.537000	0.000433	0.000051	0.000826	0.001800	6867.654176	47666.654819	3904.147014	25000.016070
34.035000	0.002090	0.000623	-0.000140	-0.000752	6907.819492	47990.757069	3908.508691	25131.262781
34.535500	-0.001581	-0.000280	0.001523	-0.001874	6883.440176	48013.582739	3916.203986	25189.202796
35.035500	0.000231	0.000590	0.004205	0.000275	6880.237669	47880.595120	3917.685610	25078.364075
35.536000	-0.000489	0.000082	-0.001743	0.001928	6857.686317	47656.570690	3896.764786	24993.412863
36.036000	-0.001845	-0.000569	0.002225	0.000899	6854.593249	47695.623082	3910.476036	25046.244762
36.539000	-0.000450	-0.000006	0.000029	0.001341	6863.629265	47708.204972	3903.219054	25023.557772
37.036500	-0.000629	0.000548	0.002682	0.002143	6854.329013	47682.515932	3908.305895	24982.417790
37.537000	-0.001574	0.000344	0.002501	0.002234	6844.532799	47651.997304	3907.557355	24977.756229
38.037500	-0.002904	-0.000204	-0.003468	0.001011	6843.523286	47721.938255	3894.564832	25040.522946
38.537000	-0.000319	0.000133	-0.000468	0.001620	6862.226312	47693.683395	3901.093034	25009.245499
39.035000	-0.001190	0.000005	-0.001015	0.001662	6853.577066	47676.158830	3899.481136	25007.092749
39.535500	-0.002616	-0.000527	-0.003587	0.002439	6832.778726	47541.021135	3890.357942	24967.264973
40.036000	-0.000192	0.000080	0.001507	0.001717	6862.502110	47678.182911	3906.245545	25004.236802
40.536000	-0.001211	-0.000790	-0.000070	0.000807	6861.472487	47682.335279	3904.412984	25050.971242
41.036000	-0.000556	-0.000039	-0.002592	0.001736	6858.881162	47664.006674	3894.974382	25003.306500
41.536500	-0.002603	0.000168	0.002297	0.001853	6838.418898	47673.253878	3908.045193	24997.277980
42.037000	-0.001646	0.000650	-0.001292	0.001833	6847.636687	47725.183054	3898.255567	24998.297266
42.537000	-0.000175	0.000043	-0.003338	0.001527	6864.470592	47693.937181	3893.511469	25013.984642
43.037000	-0.002216	-0.000001	0.000059	0.001790	6842.663035	47662.172164	3902.067798	25000.489390
43.534500	-0.002288	-0.000278	0.003632	0.001380	6845.858378	47676.059788	3913.035499	25021.575547
44.035000	-0.001068	0.000387	-0.003813	0.001618	6855.143067	47720.164206	3891.975089	25009.346057
44.535500	-0.000838	-0.000149	0.004130	0.001347	6859.891071	47692.787197	3914.505245	25023.263975
45.036000	-0.000477	-0.000102	-0.001875	-0.001382	6889.286876	47980.809591	3905.465520	25163.773354
45.536000	-0.002707	0.000392	-0.004000	0.004352	6813.946843	47438.619765	3884.063710	24869.504016
46.039000	0.000789	0.000105	-0.002202	-0.001256	6900.194731	47989.391696	3904.224631	25157.307251
46.536500	-0.000523	0.000139	0.004849	-0.001130	6886.441691	47979.736603	3923.385760	25150.773020
47.036500	0.003013	0.000579	-0.001167	-0.000983	6918.895780	48010.219378	3906.316913	25143.162739
47.537000	0.000368	-0.000008	-0.001539	0.000564	6878.789458	47788.416290	3901.051256	25063.462734
48.037500	0.002046	0.000081	-0.000425	-0.001281	6912.482218	47989.461130	3909.180751	25158.580987
48.549000	0.000572	-0.000226	0.002475	-0.001548	6900.901025	47985.162936	3917.942267	25172.352920
49.038500	-0.001737	0.000828	-0.003010	0.002684	6838.743710	47655.553458	3891.259667	24954.701167
49.535500	-0.003049	-0.000534	-0.002279	0.004263	6811.577707	47352.603686	3888.959942	24874.047398
50.053500	0.000782	0.000594	0.001026	-0.001181	6899.397822	48032.470661	3912.910475	25153.405254
50.543500	0.001052	0.000111	-0.001139	-0.001386	6903.953676	48003.474237	3907.504767	25164.010121
51.036500	0.000831	-0.000007	0.000643	-0.001338	6901.371887	47986.203258	3912.284704	25161.515082
51.539000	-0.002156	-0.000070	-0.001405	0.004824	6814.686290	47342.602064	3889.808116	24845.463309
52.037500	0.001435	-0.000188	0.000194	0.000356	6890.943443	47791.302859	3906.376353	25074.169237
52.537500	0.000170	-0.000789	-0.001560	-0.003905	6919.660920	48172.380450	3913.293207	25294.507885
53.037500	-0.017060	-0.012555	-0.008565	0.320370	4645.402324	23709.850732	3272.202780	13422.633035
53.535500	-0.074849	-0.018568	-0.089084	0.041824	5905.822064	41994.889202	3595.869865	23039.070198
54.035000	-0.084736	-0.063423	-0.100886	-0.193787	8061.741389	63631.194453	4191.816510	37670.464746
54.535500	-0.088495	-0.110756	-0.092577	-0.254495	8807.015219	65535.000000	4446.714293	42912.986773
55.039000	-0.163162	-0.304696	-0.167691	-0.448435	10723.623126	65535.000000	4992.640529	65535.000000
55.539000	-0.079231	-0.211230	-0.092367	-0.354969	10550.295163	65535.000000	4899.330519	53373.415226
56.036500	-0.045666	-0.174183	-0.060429	-0.317922	10487.966599	65535.000000	4873.749756	49232.256693
56.537000	-0.047013	-0.127346	-0.063182	-0.271085	9674.610492	65535.000000	4640.475049	44477.760784
57.037000	-0.058187	-0.084044	-0.077298	-0.227708	8856.382069	65524.120802	4401.348487	40509.199288
57.537500	-0.066400	-0.060281	-0.087859	-0.198557	8352.406767	64750.344656	4253.723268	38056.442729
58.035000	-0.058696	-0.055610	-0.086011	-0.194068	8394.076719	64776.204296	4244.373471	37693.093262
58.535000	-0.058136	-0.048185	-0.086435	-0.183735	8268.328552	64362.538586	4206.884118	36871.019001
59.037500	-0.055090	-0.036899	-0.083605	-0.167286	8100.409333	63634.553785	4160.733709	35601.984214
59.535000	-0.059423	-0.030243	-0.090393	-0.154899	7898.071742	62836.592328	4098.156837	34677.567418
60.035500	-0.054886	-0.027879	-0.085427	-0.149352	7886.086832	62397.822806	4096.303241	34272.040396
60.536500	-0.056110	-0.024190	-0.085156	-0.139059	7751.494256	61497.926333	4064.724718	33533.217700
61.036500	-0.057597	-0.021137	-0.089309	-0.130713	7639.362614	60786.512622	4026.345861	32946.862851
61.536500	-0.058754	-0.018937	-0.087390	-0.124168	7553.287557	60208.800995	4012.418768	32494.839812
62.037500	-0.062242	-0.016626	-0.092493	-0.113046	7394.149702	59055.071424	3964.727847	31742.149741
62.537000	-0.062694	-0.010195	-0.093475	-0.093324	7183.030153	57358.586775	3906.407234	30454.035982
63.035000	-0.068045	-0.015040	-0.093985	-0.094234	7137.855759	56866.086527	3907.509122	30512.175516
63.535000	-0.064633	-0.023413	-0.099764	-0.132090	7575.971323	60666.396494	3999.155541	33042.805707
64.035500	-0.063292	-0.021147	-0.100621	-0.137528	7652.006237	61702.765182	4012.805183	33424.810792
64.536000	-0.065405	-0.017674	-0.105889	-0.129597	7539.764859	61100.829278	3973.862988	32869.284581
65.036000	-0.064233	-0.016293	-0.103943	-0.127761	7532.446973	61039.724383	3974.184248	32742.128326
65.563500	-0.068649	-0.014279	-0.106069	-0.121631	7417.534623	60489.998687	3950.415613	32321.434106
66.037000	-0.064272	-0.014462	-0.100260	-0.123690	7487.328015	60740.001668	3973.056145	32462.098375
66.537000	-0.064495	-0.012280	-0.099465	-0.119236	7436.506036	60437.510743	3962.477319	32158.704740
67.037000	-0.065494	-0.011748	-0.097533	-0.116279	7393.951228	60116.304914	3959.528290	31958.993769
67.537500	-0.069264	-0.009781	-0.105990	-0.106624	7252.366022	59109.925492	3908.568044	31316.247549
68.035000	-0.065779	-0.009725	-0.101125	-0.109043	7314.095262	59432.073717	3928.809578	31475.995260
68.535500	-0.065677	-0.009403	-0.102099	-0.105862	7281.807086	59060.239136	3917.222112	31266.173439
69.036000	-0.067133	-0.008092	-0.100934	-0.102097	7227.558137	58743.036497	3910.029149	31019.831685
69.539000	-0.064786	-0.008326	-0.095623	-0.099455	7224.515417	58373.511644	3917.411446	30848.220593
70.036500	-0.065054	-0.008258	-0.099482	-0.097277	7199.339933	58103.956815	3900.770327	30707.528591
70.536500	-0.065996	-0.008492	-0.099392	-0.095014	7166.583809	57786.796602	3894.838617	30562.151322
71.037000	-0.064128	-0.007568	-0.097115	-0.092243	7157.386129	57553.199623	3893.493515	30385.095668
71.537500	-0.069862	-0.008334	-0.096598	-0.084293	7020.455792	56464.586944	3873.441987	29883.388878
72.037500	-0.064690	-0.007991	-0.094362	-0.087422	7103.011733	56895.679256	3887.882085	30079.772660
72.534500	-0.065363	-0.007796	-0.097908	-0.084808	7070.128333	56594.913747	3871.320098	29915.620540
73.035500	-0.066392	-0.008190	-0.096477	-0.083400	7045.923083	56372.143690	3871.382824	29827.642344
73.536000	-0.067345	-0.008453	-0.097670	-0.080710	7009.972653	56008.823630	3861.060811	29660.280800
74.036000	-0.069033	-0.008972	-0.103044	-0.079550	6982.077530	55803.345482	3843.899785	29588.415350
74.536000	-0.068547	-0.009702	-0.100023	-0.077900	6970.733103	55513.397738	3847.478958	29486.549234
75.036500	-0.067979	-0.009087	-0.098055	-0.075027	6948.355570	55239.877603	3845.115799	29310.108479
75.536500	-0.070345	-0.009692	-0.099884	-0.072203	6898.387666	54827.138578	3833.039135	29137.806075
76.037000	-0.068184	-0.009494	-0.095228	-0.071176	6909.260885	54727.987060	3842.447166	29075.447131
76.537000	-0.070773	-0.010222	-0.098504	-0.069632	6869.801961	54456.840355	3829.970798	28981.968328
77.034500	-0.068910	-0.010738	-0.097518	-0.067908	6871.116819	54190.854332	3828.071895	28877.899794
77.534500	-0.073634	-0.010723	-0.104567	-0.060098	6753.674510	53276.081201	3790.529215	28411.842187
78.035500	-0.069425	-0.010230	-0.095044	-0.064064	6829.893470	53797.479710	3824.558926	28647.504415
78.535500	-0.066633	-0.010720	-0.097184	-0.062304	6839.611619	53533.670057	3814.610332	28542.641149
79.038500	-0.069902	-0.011438	-0.099452	-0.061623	6802.522818	53370.386835	3807.147181	28502.176508
79.536000	-0.073411	-0.011570	-0.099704	-0.054705	6706.218581	52555.619379	3789.215959	28094.897353
80.036500	-0.067262	-0.010668	-0.099591	-0.058420	6797.263239	53087.637513	3798.752542	28312.778587
80.536500	-0.069191	-0.011140	-0.093270	-0.057792	6773.460668	52960.436032	3813.094298	28275.845290
81.037500	-0.067375	-0.012104	-0.095344	-0.057388	6786.584689	52802.526683	3806.827332	28252.079850
81.537000	-0.072027	-0.011625	-0.101080	-0.049695	6673.267739	51978.270028	3773.491542	27803.932612
82.035000	-0.066159	-0.011073	-0.094546	-0.054715	6773.043364	52613.653426	3802.110363	28095.431461
82.535000	-0.068316	-0.010805	-0.091072	-0.053966	6746.168575	52558.464163	3808.972977	28051.729694
83.036000	-0.066931	-0.012269	-0.098570	-0.053894	6758.287332	52382.688187	3790.015745	28047.549090
83.536000	-0.068496	-0.012319	-0.095437	-0.049523	6703.777952	51880.202814	3786.949215	27793.994334
84.036500	-0.065608	-0.012195	-0.090446	-0.052518	6757.802685	52234.128178	3806.897960	27967.446935
84.536500	-0.065602	-0.011815	-0.093828	-0.051699	6750.289883	52184.149950	3796.358365	27919.889852
85.037000	-0.063232	-0.010609	-0.090548	-0.050467	6760.806867	52181.236208	3801.485039	27848.546755
85.537000	-0.068637	-0.010791	-0.094447	-0.046809	6677.824680	51746.237752	3782.691148	27637.842123
86.037500	-0.064398	-0.010892	-0.094755	-0.049633	6742.346782	52054.304773	3788.909571	27800.322456
86.534500	-0.065906	-0.011451	-0.095387	-0.049961	6731.494265	52028.025671	3788.157347	27819.271505
87.035000	-0.067282	-0.011306	-0.089614	-0.049664	6716.161439	52010.920092	3801.813219	27802.134453
87.535500	-0.069059	-0.011400	-0.098191	-0.044923	6656.975845	51465.668977	3768.898684	27529.894780
88.036000	-0.064573	-0.010540	-0.092744	-0.048932	6734.287374	52014.715566	3792.164316	27759.916503
88.538500	-0.067607	-0.010923	-0.095111	-0.049452	6711.241296	52030.186057	3787.577621	27789.857342
89.036500	-0.064216	-0.010766	-0.091231	-0.048784	6736.213760	51972.308694	3795.565344	27751.386536
89.536500	-0.065648	-0.011168	-0.096405	-0.048394	6719.493001	51882.633319	3781.771227	27728.913842
90.037000	-0.063983	-0.011167	-0.092225	-0.049567	6745.558332	52015.642672	3795.038206	27796.539904
90.537000	-0.063891	-0.010893	-0.092222	-0.049893	6749.415995	52083.652542	3795.858512	27815.331334
91.037000	-0.064828	-0.010847	-0.093974	-0.050059	6742.309380	52107.728850	3791.906832	27824.935596
91.535000	-0.066229	-0.010075	-0.093860	-0.049286	6722.334136	52107.606480	3790.268719	27780.273352
92.035000	-0.065940	-0.011382	-0.093486	-0.051447	6744.852285	52204.831861	3796.582110	27905.282339
92.536000	-0.066257	-0.010801	-0.088146	-0.051356	6741.085977	52260.517381	3809.768856	27899.975574
93.038500	-0.065032	-0.010964	-0.092016	-0.052108	6759.331926	52327.748498	3801.918103	27943.618654
93.536000	-0.068305	-0.010951	-0.094786	-0.048879	6699.651951	51962.171573	3786.966567	27756.840546
94.036500	-0.063529	-0.011271	-0.093421	-0.052867	6780.310755	52379.413926	3800.296359	27987.737611
94.537000	-0.064065	-0.010771	-0.092462	-0.052563	6772.504812	52401.837146	3801.942064	27970.076763
95.037000	-0.063551	-0.010995	-0.092667	-0.053995	6790.610885	52540.121825	3805.025584	28053.458067
95.537500	-0.066791	-0.010961	-0.086904	-0.051887	6741.064435	52302.848373	3814.261185	27930.794924
96.034500	-0.063457	-0.010990	-0.091434	-0.054300	6794.328871	52575.607682	3808.902728	28071.247449
96.535000	-0.065093	-0.011062	-0.093204	-0.054637	6782.216241	52605.921870	3805.288473	28090.878400
97.035500	-0.066464	-0.010484	-0.093267	-0.054497	6768.195407	52656.267721	3804.778326	28082.746370
97.535500	-0.063514	-0.009776	-0.093766	-0.050643	6759.820032	52296.177299	3793.877637	27858.686543
98.036000	-0.064209	-0.010859	-0.091023	-0.055011	6793.940274	52672.301943	3811.739281	28112.764700
98.567500	-0.064816	-0.010731	-0.092842	-0.055340	6791.345490	52724.788532	3807.971910	28131.982013
99.036500	-0.063184	-0.011474	-0.093504	-0.055425	6807.384560	52649.121961	3806.517949	28136.952714
