sample name	sample
index	331
start time	 03-01-2021  10:19:53 AM
880	-0.041315
Peak Time (s)	90.537
Peak Height 	-0.04132
calc peak height	90,93
Baseline Time (s)	9.537
Baseline Value 	-0.00479
subtract baseline	10,4
Abs	-0.059451
Peak Time (s)	91.038
Peak Height 	-0.05945
calc peak height	90,93
Baseline Time (s)	10.535
Baseline Value 	0.003638
subtract baseline	10,3
PK_550	-0.002101
Peak Time (s)	92.535
Peak Height 	-0.002101
calc peak height	90,93
Baseline Time (s)	8.537
Baseline Value 	-1.1545E-4
subtract baseline	10,2
PK_880	-0.035584
Peak Time (s)	92.535
Peak Height 	-0.03558
calc peak height	90,93
Baseline Time (s)	11.036
Baseline Value 	0.001161
subtract baseline	10,1


Time (s)	A880-A510	A880-A775	A880-A975	A880	I510	I775	I975	I880	
0.034500	0.001697	0.000346	0.003955	0.000523	6932.883807	48625.378669	3913.780064	25484.272849
0.538000	-0.001899	0.000998	-0.005248	0.004858	6856.084693	48237.581901	3875.898891	25257.872356
1.038000	-0.002885	0.000737	-0.000520	0.006172	6834.064532	48072.632699	3885.338183	25189.648407
1.535500	0.000092	-0.000384	-0.001892	0.000495	6917.498806	48551.133281	3897.350519	25485.713352
2.035500	-0.000419	-0.000392	0.000706	-0.000984	6926.944121	48706.712688	3908.837027	25563.521017
2.536000	0.002052	0.000321	-0.001429	-0.000970	6950.976688	48780.772186	3902.769689	25562.760699
3.036500	-0.001044	-0.000311	-0.000096	0.004294	6869.720240	48159.483634	3891.748934	25287.191407
3.539500	0.000320	0.000249	-0.001543	0.000200	6922.595140	48649.263099	3899.159342	25501.219945
4.036500	-0.000190	0.000303	-0.003093	0.000251	6917.132294	48649.494858	3894.669423	25498.536814
4.537000	-0.000055	0.000554	-0.001925	0.000285	6918.108111	48672.466354	3897.845793	25496.742712
5.037000	0.000287	-0.000091	0.001327	-0.000162	6925.803378	48651.509673	3908.269093	25520.248166
5.538000	0.000542	0.000066	-0.000032	-0.000010	6926.810273	48652.075821	3904.000129	25512.260317
6.035000	0.000569	-0.000026	0.004707	-0.000241	6929.321557	48666.728978	3918.094179	25524.388434
6.539000	-0.000748	-0.000088	0.002344	-0.000158	6915.679290	48651.355992	3911.137199	25520.015943
7.036000	-0.001171	-0.000351	-0.003128	-0.000180	6911.774145	48625.948131	3895.779728	25521.178742
7.535500	0.000678	0.000969	-0.002524	0.000898	6919.285860	48651.586688	3894.453493	25464.602281
8.039000	-0.001171	-0.000099	0.007669	0.000072	6909.325511	48625.971825	3925.671973	25507.954365
8.536500	-0.000730	0.000000	-0.000343	-0.000099	6915.277155	48654.471608	3903.373823	25516.913125
9.037000	-0.002635	-0.000184	-0.000472	-0.000386	6899.564378	48665.410389	3903.821536	25532.028732
9.537000	0.000955	0.000347	0.000629	0.000000	6930.742890	48680.804873	3905.836976	25511.734115
10.037000	-0.000473	0.000227	0.001652	0.000195	6914.919783	48647.475007	3908.179684	25501.501377
10.535000	0.001019	-0.000018	0.000000	0.000036	6931.011672	48638.292458	3903.961364	25509.835095
11.035500	0.000000	0.000765	0.002507	0.000614	6915.447960	48660.059204	3909.413361	25479.497336
11.535500	0.000047	-0.000287	-0.000135	-0.000306	6924.867187	48646.068710	3904.544015	25527.818441
12.036000	0.000105	-0.000117	0.001108	-0.000484	6927.178959	48682.884416	3908.560229	25537.205793
12.536500	0.001417	0.000061	0.002920	-0.000627	6941.398316	48716.972253	3914.106815	25544.725591
13.036500	0.002875	0.000167	0.001171	-0.001964	6968.854692	48870.070856	3912.934747	25615.203293
13.537000	0.000426	0.000360	0.000983	-0.001747	6942.650672	48867.444263	3911.782974	25603.707289
14.037000	0.000456	0.000205	0.002061	-0.001403	6939.583396	48814.493919	3913.867596	25585.581546
14.536500	0.000023	0.000190	-0.001650	0.002108	6901.154836	48441.611602	3893.514103	25401.212745
15.034500	0.000929	0.000304	0.000368	-0.000216	6932.605094	48699.113335	3905.713158	25523.112866
15.538000	0.001060	-0.000043	0.002571	-0.001786	6949.262067	48828.786319	3916.411137	25605.801803
16.035500	0.001387	0.000171	0.003612	-0.001690	6951.515883	48841.320876	3919.103955	25600.704523
16.535500	-0.000876	0.000188	0.001967	-0.002027	6932.661617	48878.979532	3915.377002	25618.522996
17.038500	-0.002004	0.000404	-0.001517	0.001050	6891.769552	48575.772551	3896.848858	25456.638949
17.539500	-0.000251	-0.000122	0.001361	-0.002833	6946.662293	48931.700754	3915.945986	25661.102330
18.036500	0.002865	-0.000013	0.002122	-0.002519	6974.228256	48909.900061	3917.219409	25644.484652
18.536500	-0.000423	0.000968	-0.000859	0.001276	6904.892486	48611.431754	3898.056920	25444.752167
19.040000	-0.000864	0.000851	-0.002423	0.001497	6898.483074	48575.763029	3893.059402	25433.201179
19.534000	-0.001600	0.000526	0.001954	0.001221	6894.023763	48570.611082	3906.130747	25447.663762
20.035000	-0.002348	-0.000321	0.000403	0.000774	6891.111580	48528.344909	3903.018153	25471.114378
20.535000	-0.000851	-0.000591	-0.006631	0.000880	6904.586895	48488.712965	3883.068271	25465.527412
21.035500	0.000836	0.000592	-0.000531	0.001578	6914.200841	48539.847128	3898.132127	25428.947172
21.536000	0.000456	0.000151	0.000087	0.001005	6916.085378	48553.858477	3901.478002	25459.003797
22.039000	-0.000844	0.000959	-0.000500	0.001479	6898.851463	48589.079964	3898.497799	25434.159756
22.536500	0.000387	0.000845	-0.000614	0.001430	6911.271760	48582.165578	3898.313646	25436.692364
23.036500	0.000832	0.000739	0.005498	0.001322	6916.653477	48582.483909	3915.895946	25442.388884
23.537000	0.000216	0.000509	-0.000042	0.001073	6913.089941	48584.407464	3900.925027	25455.431844
24.037000	-0.001268	-0.000595	-0.001054	0.000829	6901.038726	48493.601385	3898.763993	25468.195985
24.534500	-0.000212	0.000978	0.000652	0.001468	6905.079695	48592.168884	3901.763131	25434.695734
25.038000	0.000240	0.000018	0.002355	0.001009	6913.932751	48539.287078	3907.863897	25458.763242
25.535500	0.000661	0.000746	0.004503	0.001220	6915.982757	48593.925592	3913.354436	25447.712917
26.035500	-0.000185	0.000084	-0.001837	0.000978	6910.108734	48549.548674	3896.151184	25460.391326
26.536000	0.001184	0.000193	0.004653	0.000922	6923.984110	48567.026052	3914.628995	25463.351923
27.036500	-0.000306	0.000436	-0.001413	0.001099	6907.758078	48574.000443	3897.001458	25454.050510
27.537000	-0.002064	0.000443	0.001325	0.001229	6889.454964	48560.889064	3904.332820	25447.220283
28.037000	0.001648	0.000653	0.003454	-0.001021	6947.514095	48821.500646	3916.746443	25565.439889
28.537000	0.003062	0.000529	0.001930	-0.001199	6963.162147	48827.233793	3912.918446	25574.850613
29.068500	0.000458	0.000808	0.000815	0.000112	6924.793470	48717.702886	3906.045762	25505.836962
29.538000	0.001771	0.000624	0.004523	-0.000639	6944.984382	48777.920628	3918.705078	25545.366000
30.035500	0.000187	0.000265	0.003007	-0.001509	6937.988392	48832.146054	3916.862447	25591.171491
30.538500	0.003378	-0.000469	-0.001217	-0.002097	6975.129763	48816.685194	3906.549230	25622.226729
31.036000	-0.000466	0.000815	0.002003	0.001194	6905.282121	48603.932287	3906.345850	25449.069070
31.539000	-0.001658	0.000862	0.004190	0.000866	6896.893752	48643.650693	3913.471421	25466.267459
32.038000	-0.000201	0.000248	0.001985	0.002311	6897.014160	48426.343480	3903.143848	25390.606106
32.553000	0.001536	0.000247	-0.000705	-0.001389	6950.026910	48817.479933	3905.994155	25584.843156
33.037500	0.000999	0.000823	0.001498	0.001861	6913.028527	48534.368829	3903.039033	25414.120404
33.537000	0.001863	0.001084	0.005196	-0.000642	6945.906591	48826.961074	3920.632899	25545.480038
34.034500	-0.000242	0.000589	-0.003188	-0.001171	6930.489276	48830.622349	3898.390127	25573.357982
34.535000	0.002236	0.000528	0.000735	-0.000832	6951.433963	48788.133317	3908.488930	25555.487169
35.038000	-0.002115	0.000308	-0.000406	0.002312	6878.500122	48432.516596	3896.423093	25390.535413
35.536000	-0.002509	0.000208	0.002234	0.001479	6882.738033	48509.815363	3906.194678	25434.142488
36.036000	-0.000836	0.000129	0.004237	0.001653	6897.234670	48483.160179	3911.371461	25425.037506
36.536000	0.000404	0.000416	0.002765	0.001842	6907.436429	48493.496831	3906.668986	25415.140525
37.036000	-0.000421	0.000862	0.005868	0.002603	6892.061951	48460.314293	3913.305756	25375.370115
37.537000	-0.000049	0.000345	0.003392	0.001888	6902.585853	48481.041798	3908.308460	25412.703876
38.036500	-0.000605	0.000584	0.002362	0.002098	6895.159812	48484.135369	3904.806457	25401.717287
38.537500	-0.001537	0.000796	0.002931	0.002132	6885.817069	48502.951715	3906.317068	25399.955432
39.035000	0.000154	-0.000002	-0.002847	0.001650	6906.870603	48469.652684	3891.449312	25425.193474
39.535000	-0.000028	0.000984	0.002106	0.001961	6902.078922	48540.802927	3904.472716	25408.895547
40.035500	-0.000245	0.000616	-0.003576	0.001566	6903.812269	48543.599700	3889.649440	25429.575710
40.536000	0.000624	0.000193	0.001264	0.001906	6908.952725	48463.206575	3902.255256	25411.777393
41.041500	-0.000799	0.001100	0.000965	0.002609	6888.338135	48484.634500	3899.436501	25375.020518
41.536000	0.000105	0.001306	0.000479	0.002466	6898.479714	48521.520794	3898.473683	25382.501510
42.039500	0.000872	0.001185	-0.001168	0.002107	6909.403182	48546.596810	3894.862510	25401.261955
42.539500	-0.001377	0.000440	0.006314	0.001907	6889.539996	48489.108915	3916.550586	25411.708387
43.040000	0.000285	0.000281	0.001671	0.001699	6907.672947	48494.336559	3903.985325	25422.636739
43.535000	0.000361	0.000449	-0.001810	0.002555	6900.096013	48421.752755	3891.817084	25377.838773
44.036000	-0.001294	0.000834	0.002136	0.002455	6885.046445	48472.906455	3903.165106	25383.096687
44.535000	-0.000388	0.000384	0.005959	0.002033	6897.890864	48469.854999	3915.182263	25405.128338
45.035500	0.000649	0.000243	0.006598	0.000747	6920.475962	48590.803182	3920.671751	25472.516166
45.536500	0.000839	-0.000023	0.003273	-0.001390	6943.210717	48788.882388	3917.281551	25584.903524
46.036500	0.001573	0.000764	0.001631	-0.000994	6946.517279	48830.375191	3911.484762	25564.014784
46.536500	-0.000736	0.000031	0.004518	-0.001490	6928.784684	48805.231224	3921.120893	25590.188123
47.036500	0.001163	0.000958	0.006212	0.002488	6908.539966	48482.509545	3914.609526	25381.375928
47.537000	0.002752	0.000559	0.000415	-0.001258	6960.696714	48836.662749	3908.791118	25577.956799
48.034500	0.001788	0.000785	0.006608	-0.001298	6951.610500	48864.931507	3926.558241	25580.050229
48.563000	0.002447	0.000027	0.003128	-0.001689	6961.930888	48825.956788	3917.720089	25600.658560
49.035000	-0.001324	0.000741	0.004908	0.002277	6886.481267	48481.873945	3911.503319	25392.390907
49.541500	-0.000654	0.000155	0.006381	0.001483	6900.653982	48503.825519	3917.953232	25433.940709
50.060500	0.000729	0.000896	0.000609	-0.001127	6939.548266	48858.503598	3908.967524	25571.024899
50.539000	0.001628	0.000360	-0.001090	-0.001887	6955.827907	48882.385428	3906.312489	25611.139668
51.036500	0.000961	0.000296	0.003614	-0.000996	6940.545477	48781.022145	3917.132635	25564.161731
51.536500	0.001854	-0.000836	0.010426	-0.003504	6973.976520	48927.172047	3943.976975	25696.635977
52.037000	0.000953	0.001010	0.008331	-0.000020	6930.919377	48753.086166	3927.836622	25512.761942
52.537500	0.002993	-0.002285	0.004111	-0.007819	7028.129765	49233.257029	3938.168929	25926.390879
53.037500	-0.020895	-0.015106	-0.022723	0.183709	5331.213081	31768.025333	3440.808692	17639.290022
53.535000	-0.034613	-0.022666	-0.059117	-0.060342	7179.761488	52807.678813	3907.522049	28913.764686
54.035000	-0.040513	-0.159459	-0.060471	-0.295432	10301.398258	65535.000000	4782.958120	47750.799158
54.535500	-0.027836	-0.172306	-0.044525	-0.308279	10762.209397	65535.000000	4927.138211	49103.736701
55.038500	-0.047462	-0.164278	-0.059744	-0.300251	10264.142210	65535.000000	4809.989763	48253.586536
55.536500	-0.051789	-0.176560	-0.067023	-0.312532	10404.179350	65535.000000	4834.672175	49560.519275
56.036500	-0.069525	-0.303926	-0.085584	-0.439898	12619.701426	65535.000000	5448.259869	65535.000000
56.536500	-0.104395	-0.303926	-0.127250	-0.439898	11853.495903	65535.000000	5194.974655	65535.000000
57.037000	-0.019913	-0.174580	-0.044093	-0.310552	10954.003373	65535.000000	4941.185972	49347.337537
57.537000	-0.030603	-0.121294	-0.050365	-0.257267	9821.886069	65535.000000	4651.356871	43959.774663
58.034500	-0.035743	-0.097835	-0.060288	-0.233807	9367.276530	65535.000000	4505.471878	41789.521288
58.535000	-0.030615	-0.083503	-0.056061	-0.219476	9227.233906	65535.000000	4463.478181	40520.237760
59.035000	-0.028948	-0.064057	-0.060161	-0.199202	8953.004496	65415.338197	4366.116050	38794.714560
59.535500	-0.030843	-0.047037	-0.060628	-0.174644	8582.840969	64336.164581	4271.682204	36809.651635
60.035500	-0.031740	-0.034120	-0.060989	-0.153332	8288.999270	63156.242665	4194.176948	35175.644103
60.536000	-0.032051	-0.023644	-0.062611	-0.131243	8007.476037	61561.029325	4113.701387	33564.562587
61.036500	-0.033473	-0.017812	-0.064245	-0.120324	7858.473091	60875.635180	4072.844298	32797.997674
61.536500	-0.033689	-0.014710	-0.061550	-0.106873	7698.308726	59505.630404	4038.757695	31879.675157
62.037000	-0.035708	-0.012782	-0.061686	-0.103584	7637.461080	59328.049270	4028.084142	31659.475514
62.537500	-0.037974	-0.010242	-0.068252	-0.071649	7262.679987	55621.984712	3913.676385	29605.524700
63.035000	-0.042711	-0.010034	-0.068962	-0.067204	7167.002200	55108.294559	3899.117719	29331.482423
63.535500	-0.041877	-0.006497	-0.069358	-0.067634	7180.050972	55589.056234	3899.211103	29357.823997
64.035500	-0.043030	-0.006171	-0.071853	-0.077070	7266.537354	56791.402415	3918.862481	29943.679329
64.538500	-0.047416	-0.005896	-0.066173	-0.075673	7205.982356	56651.791805	3931.143731	29856.125900
65.036000	-0.045586	-0.005164	-0.067494	-0.073566	7203.105301	56481.313969	3921.306096	29724.659027
65.544000	-0.044507	-0.004233	-0.072680	-0.070686	7184.422434	56240.491029	3898.455419	29545.933535
66.037000	-0.043896	-0.004016	-0.067284	-0.066594	7148.532826	55764.880148	3902.121143	29294.087179
66.536500	-0.044462	-0.004045	-0.068017	-0.064157	7117.798645	55464.337827	3893.227546	29145.165330
67.037000	-0.043364	-0.004262	-0.070034	-0.061474	7101.666686	55113.363944	3880.166873	28982.263148
67.537500	-0.043829	-0.004384	-0.070123	-0.060768	7089.777728	55013.445044	3877.968950	28939.537348
68.035000	-0.042665	-0.004184	-0.071345	-0.059849	7092.268557	54926.917200	3872.076230	28884.065029
68.535500	-0.041471	-0.003353	-0.069906	-0.058906	7094.809040	54913.405018	3873.438148	28827.217606
69.036000	-0.040224	-0.003239	-0.067170	-0.057689	7095.115125	54780.957930	3877.622816	28754.088051
69.536000	-0.042230	-0.003068	-0.067838	-0.057979	7077.735999	54836.327756	3876.577716	28771.478955
70.036000	-0.043086	-0.004066	-0.065075	-0.058262	7071.950615	54750.576505	3885.003684	28788.506605
70.537000	-0.041033	-0.003753	-0.071968	-0.057891	7088.956609	54743.521382	3865.009478	28766.184854
71.036500	-0.041382	-0.003305	-0.071411	-0.056602	7072.393117	54642.964977	3863.012457	28688.931153
71.540000	-0.041112	-0.003913	-0.067341	-0.057000	7079.148735	54617.782887	3875.252153	28712.777574
72.037500	-0.039861	-0.003302	-0.067602	-0.056059	7082.270953	54578.307940	3871.945198	28656.405480
72.538000	-0.041763	-0.003861	-0.064644	-0.055858	7061.053433	54487.603156	3879.540722	28644.410259
73.035000	-0.040364	-0.003823	-0.069038	-0.056229	7078.912760	54536.475510	3868.474592	28666.590270
73.535500	-0.039353	-0.003911	-0.065236	-0.056138	7088.215680	54515.139047	3878.678347	28661.154162
74.038500	-0.038992	-0.003599	-0.065068	-0.055928	7089.756186	54527.243065	3878.563704	28648.616134
74.536000	-0.038620	-0.003311	-0.064893	-0.055906	7093.301341	54558.969446	3878.983616	28647.277157
75.036000	-0.038124	-0.003362	-0.066562	-0.056210	7101.416087	54589.175712	3875.220221	28665.423957
75.536500	-0.037897	-0.002907	-0.061390	-0.055974	7101.318851	54615.345754	3888.886990	28651.323721
76.037000	-0.037545	-0.002783	-0.063338	-0.056324	7108.464153	54672.065479	3884.444547	28672.273256
76.537500	-0.037223	-0.002842	-0.062166	-0.054616	7094.384622	54461.162353	3882.961959	28570.312625
77.035000	-0.036463	-0.002425	-0.065298	-0.054729	7103.248102	54524.278511	3874.623592	28577.020062
77.534500	-0.037144	-0.002775	-0.066839	-0.056248	7111.771999	54663.954673	3874.563791	28667.743293
78.035000	-0.036538	-0.002863	-0.060549	-0.056409	7119.592567	54672.678301	3892.445645	28677.362562
78.536000	-0.038130	-0.001493	-0.066977	-0.053450	7073.405891	54482.902438	3866.510484	28500.897961
79.035500	-0.036330	-0.002192	-0.062073	-0.055154	7108.925381	54602.868950	3884.708261	28602.363766
79.536000	-0.037445	-0.003027	-0.063823	-0.056861	7114.950840	54707.234268	3884.590382	28704.440518
80.036000	-0.037945	-0.002937	-0.063508	-0.057063	7111.911726	54742.160843	3886.025941	28716.511658
80.537000	-0.037625	-0.002323	-0.064388	-0.054521	7089.335325	54511.567586	3876.555184	28564.607138
81.037500	-0.035987	-0.002723	-0.066955	-0.056874	7129.964537	54745.135633	3875.966817	28705.193581
81.534500	-0.035646	-0.002492	-0.064418	-0.056945	7134.181993	54781.309001	3883.172415	28709.455135
82.035000	-0.035041	-0.002288	-0.062450	-0.056608	7136.930388	54765.446552	3887.702528	28689.290137
82.535500	-0.035696	-0.001722	-0.064006	-0.053223	7095.743354	54428.511465	3874.033883	28487.411973
83.035500	-0.037714	-0.002746	-0.062683	-0.055664	7100.031316	54597.558743	3884.431327	28632.793756
83.538500	-0.038450	-0.003130	-0.064861	-0.056314	7099.162419	54629.399255	3880.201886	28671.686289
84.036000	-0.034695	-0.002648	-0.065223	-0.055732	7131.504500	54617.475341	3877.595016	28636.892751
84.536500	-0.040127	-0.002992	-0.065647	-0.052131	7040.044909	54147.887300	3866.540006	28422.584493
85.036500	-0.036098	-0.002212	-0.061301	-0.053700	7096.504343	54427.046703	3882.819205	28515.762786
85.542500	-0.036149	-0.003289	-0.068249	-0.054215	7101.215636	54360.177423	3865.126084	28546.414223
86.037000	-0.037684	-0.003093	-0.068480	-0.053743	7080.868001	54327.264803	3863.209675	28518.309051
86.535000	-0.038650	-0.002522	-0.065737	-0.048417	7017.698751	53765.114762	3856.189366	28203.483965
87.035000	-0.037129	-0.002835	-0.063259	-0.051353	7062.354110	54074.405394	3870.949021	28376.541639
87.535500	-0.035997	-0.002886	-0.057515	-0.051065	7070.861159	54034.374515	3886.011293	28359.523132
88.038000	-0.036604	-0.002651	-0.066799	-0.049840	7052.408189	53917.415368	3857.167143	28287.207137
88.536000	-0.039494	-0.003100	-0.067318	-0.045046	6975.884131	53302.893217	3842.848677	28006.190603
89.035500	-0.037642	-0.002890	-0.061230	-0.047802	7021.613877	53649.691826	3866.782307	28167.364473
89.536500	-0.036865	-0.002929	-0.063260	-0.047615	7027.505094	53623.203251	3860.736607	28156.419395
90.036500	-0.035677	-0.002445	-0.065074	-0.046485	7028.081443	53547.457779	3852.757457	28090.225077
90.537000	-0.039801	-0.002360	-0.069323	-0.041315	6936.207415	52955.569823	3827.585864	27789.617482
91.037500	-0.037470	-0.003028	-0.059451	-0.044123	6986.766293	53203.726391	3861.597932	27952.418893
91.537500	-0.036927	-0.002794	-0.064798	-0.043665	6987.603174	53177.768020	3845.905000	27925.792908
92.035000	-0.036717	-0.003336	-0.062585	-0.043237	6985.455833	53065.183880	3850.708966	27900.975187
92.535500	-0.035584	-0.002101	-0.068590	-0.041582	6980.289339	53016.524991	3830.233549	27805.053479
93.035500	-0.035093	-0.003293	-0.063108	-0.041140	6980.774432	52827.511365	3843.665144	27779.503355
93.536000	-0.034615	-0.002629	-0.063495	-0.040597	6980.134839	52841.539542	3841.175998	27748.171192
94.036500	-0.035166	-0.002985	-0.065886	-0.039902	6967.838163	52720.286633	3832.949211	27708.103373
94.539500	-0.035185	-0.002677	-0.060671	-0.038678	6955.597466	52614.814397	3843.594963	27637.631201
95.037000	-0.033737	-0.001800	-0.063003	-0.037491	6958.168088	52579.259105	3834.201375	27569.548906
95.593000	-0.038756	-0.003268	-0.058547	-0.038293	6916.915934	52502.903394	3848.266332	27615.554610
96.034500	-0.035971	-0.002176	-0.060897	-0.036940	6930.881727	52472.970598	3838.344781	27538.020013
96.554000	-0.035927	-0.002436	-0.063031	-0.036649	6928.462788	52409.788595	3831.890288	27521.339616
97.035000	-0.036172	-0.002381	-0.065084	-0.035736	6917.175823	52311.696826	3824.049674	27469.195448
97.535000	-0.035733	-0.002499	-0.060836	-0.035712	6921.219312	52295.460527	3835.235492	27467.852347
98.035500	-0.035732	-0.001983	-0.058396	-0.034785	6912.212497	52248.576109	3839.270417	27415.034043
98.555500	-0.040211	-0.001684	-0.069155	-0.029003	6813.590460	51627.007532	3795.929811	27087.995292
99.039000	-0.037240	-0.001807	-0.062917	-0.034419	6894.014524	52226.817420	3826.290064	27394.160884
