sample name	sample
index	330
start time	 03-01-2021  10:17:29 AM
880	-0.051371
Peak Time (s)	91.54
Peak Height 	-0.05137
calc peak height	90,93
Baseline Time (s)	9.037
Baseline Value 	-0.002914
subtract baseline	10,4
Abs	-0.057358
Peak Time (s)	92.035
Peak Height 	-0.05736
calc peak height	90,93
Baseline Time (s)	11.536
Baseline Value 	0.002565
subtract baseline	10,3
PK_550	-0.005647
Peak Time (s)	92.538
Peak Height 	-0.005647
calc peak height	90,93
Baseline Time (s)	8.536
Baseline Value 	2.2074E-4
subtract baseline	10,2
PK_880	-0.036945
Peak Time (s)	92.538
Peak Height 	-0.03695
calc peak height	90,93
Baseline Time (s)	8.536
Baseline Value 	0.001458
subtract baseline	10,1


Time (s)	A880-A510	A880-A775	A880-A975	A880	I510	I775	I975	I880	
0.036500	0.002404	-0.000266	-0.000590	-0.000445	6944.002537	48647.662892	3896.421733	25508.743921
0.537500	-0.004524	-0.000827	0.000178	0.005064	6823.879325	48009.914525	3883.211249	25221.110493
1.040500	-0.001779	0.000668	0.001337	0.003434	6865.738709	48337.089360	3890.965983	25305.826260
1.538000	0.000661	0.001033	0.003290	-0.000428	6926.793820	48783.423005	3907.293192	25507.839512
2.041000	-0.000327	0.000831	-0.001922	-0.000202	6914.960595	48738.088457	3892.015283	25495.973610
2.536000	0.001273	0.000395	-0.004847	0.000746	6921.309087	48591.583986	3881.252236	25446.237610
3.036000	0.002616	-0.000626	0.004422	-0.002148	6962.809716	48789.869774	3915.382941	25598.394629
3.536000	-0.001038	0.000232	-0.001594	0.000416	6902.058072	48609.242347	3891.207458	25463.564471
4.036500	-0.000217	-0.000443	-0.002482	-0.000162	6915.651374	48599.017847	3890.342759	25493.896754
4.539500	-0.000305	-0.000535	0.001585	0.000376	6909.558225	48532.505828	3900.221259	25465.654715
5.037000	-0.001434	-0.000194	0.001373	0.000121	6901.071187	48595.373345	3900.341325	25479.024803
5.537500	0.000030	0.000146	-0.000509	0.000486	6911.746130	48592.745322	3894.041825	25459.863863
6.040000	0.000632	0.000174	0.002614	0.000534	6917.133677	48590.631703	3902.671932	25457.376584
6.535000	-0.001986	-0.000339	0.001457	-0.000403	6900.810508	48635.567188	3902.053217	25506.572038
7.038500	0.000263	0.000331	0.000349	0.000380	6915.044639	48623.436364	3896.739843	25465.424418
7.536000	-0.001347	0.000046	-0.001836	-0.000002	6903.112349	48633.818610	3891.700409	25485.496650
8.035500	-0.001213	0.001184	0.002687	0.001009	6894.603225	48647.237114	3901.539318	25432.463209
8.536000	0.000000	0.000000	-0.000971	0.000136	6914.857578	48614.307666	3893.730188	25478.234973
9.036500	-0.000130	-0.000216	-0.001263	0.000000	6914.917017	48605.832075	3893.292459	25485.384927
9.537500	-0.000028	0.000159	0.002254	0.000604	6910.036252	48581.680985	3901.462974	25453.690747
10.042500	0.000879	0.000185	0.003098	0.000243	6922.376112	48622.551848	3904.856945	25472.610017
10.535000	-0.002136	-0.000719	-0.004933	-0.001102	6906.127994	48669.194090	3886.137969	25543.308009
11.035000	0.000702	-0.000121	0.000288	-0.000339	6926.327059	48651.814729	3898.588258	25503.184688
11.535500	0.000431	0.000150	0.000000	-0.000409	6924.369100	48687.829398	3897.975706	25506.866018
12.035500	-0.001125	0.000077	-0.001147	-0.000131	6906.521878	48650.705963	3893.984211	25492.273483
12.536000	0.000062	-0.000034	0.001239	0.000219	6914.657820	48601.920603	3899.689629	25473.888534
13.036000	0.002214	-0.000015	0.000945	-0.002029	6957.686356	48842.245913	3905.194817	25592.155065
13.536500	0.001275	0.000360	0.002614	-0.001819	6946.402256	48859.716570	3909.316069	25581.062742
14.036500	0.000248	0.000310	0.001321	-0.000127	6919.834986	48674.931484	3900.895729	25492.066349
14.537500	-0.002937	-0.000494	0.001370	0.001176	6876.329263	48452.455606	3897.371262	25423.725720
15.038000	-0.001717	-0.000601	-0.001917	-0.002189	6920.777402	48796.968659	3897.589601	25600.566603
15.559500	-0.003108	-0.000475	-0.002523	0.002197	6864.855533	48346.983370	3883.670461	25370.353810
16.035500	0.000558	-0.000560	-0.000218	-0.002453	6945.595317	48829.347688	3903.107853	25614.507649
16.538500	0.000521	0.000045	-0.002562	-0.002461	6945.306673	48894.491167	3896.545930	25614.931668
17.036000	0.002782	-0.000298	0.003136	-0.002191	6964.876373	48829.399415	3911.852913	25600.706868
17.536000	-0.001819	-0.000506	0.000669	0.000106	6897.485962	48564.087518	3898.406583	25479.823592
18.042500	0.000105	0.000078	0.001033	0.000047	6916.742609	48632.002959	3899.594885	25482.912633
18.536500	-0.001424	-0.000051	-0.000043	0.000442	6898.057914	48576.601750	3895.470035	25462.189813
19.036500	0.001024	0.000305	0.001523	0.000904	6917.354533	48565.447159	3898.565794	25437.997621
19.537000	0.001383	0.000110	0.003675	0.000855	6921.331568	48550.027828	3904.759050	25440.558236
20.035000	-0.001164	-0.000382	0.003079	0.000190	6903.022031	48568.174022	3904.950708	25475.389046
20.535000	-0.000602	0.000273	-0.000185	0.000829	6902.281101	48569.990295	3893.990598	25441.922485
21.035000	-0.000626	0.000585	-0.002639	0.001182	6898.621071	48565.648027	3886.165235	25423.423980
21.538500	-0.001031	-0.000406	-0.002896	0.001139	6895.110206	48465.639332	3885.570706	25425.665770
22.039000	-0.001219	-0.000257	0.001912	0.000395	6900.497308	48559.782677	3901.088145	25464.636245
22.536000	-0.001734	-0.000314	-0.002426	0.000299	6896.439392	48563.976812	3889.215618	25469.713735
23.037000	-0.002323	-0.000869	0.000120	-0.000028	6893.897130	48539.811458	3897.242709	25486.848411
23.539500	0.000973	-0.000740	0.001944	0.000269	6923.045497	48522.133762	3901.534429	25471.292304
24.037500	-0.000479	-0.000340	0.001731	0.000258	6909.017153	48565.553874	3900.966047	25471.870335
24.535000	0.000367	-0.000189	-0.004890	0.000147	6918.322692	48593.138453	3882.793058	25477.666962
25.038000	0.000716	0.000476	0.003230	0.001035	6913.083815	48569.732426	3902.998012	25431.144984
25.535500	-0.001217	-0.001029	-0.004506	0.000011	6904.242765	48518.867467	3884.233282	25484.789244
26.035500	0.000282	-0.000028	0.003259	0.000190	6917.081848	48605.632854	3905.461389	25475.421682
26.536000	0.000602	0.000279	0.003784	0.001083	6911.509563	48543.786560	3904.422831	25428.630936
27.036000	-0.001793	0.000610	0.002635	0.000792	6891.092557	48609.454458	3902.004916	25443.848184
27.536000	-0.004653	-0.000592	-0.002049	0.001756	6854.258062	48381.144230	3886.211902	25393.419214
28.037500	0.000987	-0.000039	0.003966	-0.002137	6946.699102	48851.098027	3914.054520	25597.830888
28.537000	0.000922	0.000019	0.004991	-0.002092	6945.621850	48852.493429	3916.843822	25595.474854
29.034500	0.001274	0.000917	0.002463	-0.001417	6942.458770	48876.225075	3907.752473	25559.912061
29.538000	-0.003852	0.000636	0.000116	0.004309	6837.485375	48241.959618	3885.133063	25260.311625
30.035000	0.001758	-0.000144	0.003391	-0.002175	6954.644080	48844.002804	3912.531067	25599.852997
30.535500	-0.000881	-0.000016	0.000124	-0.002004	6927.132861	48839.428357	3902.809281	25590.828569
31.054500	0.001651	0.000493	0.003216	-0.001591	6947.854124	48849.668970	3910.377762	25569.050977
31.536000	-0.000701	-0.000193	0.002543	0.002198	6888.063572	48376.568355	3897.797113	25370.321655
32.036000	0.001146	0.000163	0.002915	-0.000866	6935.821189	48737.698403	3907.475159	25530.911659
32.547000	0.001128	0.000499	0.002208	-0.001446	6941.314470	48834.820420	3907.113102	25561.398649
33.036500	0.001444	-0.000261	0.005453	-0.001863	6948.498509	48798.503277	3917.509117	25583.397780
33.537000	-0.001124	-0.000599	-0.002730	0.002956	6876.655210	48254.344448	3880.996267	25330.762411
34.037500	-0.003124	-0.000520	-0.004992	0.003416	6852.996763	48214.311720	3873.490065	25306.783065
34.538000	0.002164	0.000794	0.003597	-0.000982	6946.912448	48816.884323	3909.729216	25536.970647
35.038000	0.000261	0.000269	0.000514	0.001028	6908.729053	48548.499326	3895.388511	25431.500058
35.535500	-0.000775	0.000080	0.002317	0.001904	6890.182849	48436.238278	3897.988255	25385.659166
36.038500	-0.002339	0.000097	0.000963	0.002313	6871.141227	48394.900530	3893.050536	25364.273223
36.536500	-0.001084	-0.000370	-0.001896	0.000920	6896.728481	48492.542461	3888.963695	25437.166165
37.036000	-0.000199	0.000333	0.001867	0.001413	6900.524236	48514.671593	3898.101848	25411.347509
37.536500	-0.001221	0.000023	0.000883	0.001716	6887.692613	48450.088347	3894.496390	25395.506663
38.037000	-0.001436	-0.000010	0.002283	0.002910	6874.084192	48320.980248	3895.072810	25333.133605
38.534500	-0.001253	0.000069	0.000492	0.001020	6894.114675	48528.247569	3895.350640	25431.898865
39.038000	0.000938	-0.000234	0.003826	0.001430	6911.403087	48453.072017	3903.564363	25410.465637
39.535000	-0.002059	0.000140	0.002128	0.001320	6883.418931	48504.027962	3899.094050	25416.189951
40.035500	-0.001431	-0.000616	0.001058	0.000387	6898.515881	48522.732832	3898.710648	25465.053374
40.535500	-0.000437	-0.000294	0.004509	0.000959	6902.608877	48496.388252	3906.817455	25435.079472
41.036000	-0.001580	-0.000416	0.003430	0.000293	6897.988347	48553.771630	3905.654476	25470.022004
41.536000	-0.000761	-0.000714	0.002038	0.000560	6903.347385	48494.166416	3900.977770	25456.015436
42.036500	-0.000492	0.000248	-0.000426	0.001175	6899.988253	48530.748973	3892.348955	25423.781818
42.537000	-0.000037	0.000547	0.000899	0.001567	6900.598595	48520.934229	3894.957925	25403.278113
43.037000	-0.002023	-0.000835	0.001289	0.000669	6890.057055	48469.942744	3898.567670	25450.293742
43.537500	-0.002554	-0.000588	0.000653	0.001260	6879.220250	48433.684909	3895.128548	25419.328804
44.037500	-0.000883	-0.000327	0.006088	0.000960	6898.282970	48492.836915	3911.286408	25435.047616
44.535000	-0.001946	0.000260	-0.004073	0.001439	6883.357417	48504.188748	3881.476962	25409.961966
45.035500	0.001435	0.000325	0.000921	-0.002603	6955.669306	48939.462779	3906.745622	25622.436810
45.536000	-0.003618	-0.000414	-0.001723	0.004328	6839.547536	48129.964001	3879.987833	25259.344624
46.036000	-0.003912	-0.000341	-0.000205	0.003876	6841.041252	48184.828800	3885.442308	25282.803183
46.536500	0.000737	-0.000155	-0.000140	-0.001883	6941.759048	48811.771414	3901.723384	25584.434359
47.036500	0.000240	0.000271	0.002271	-0.001908	6937.151067	48859.788330	3908.599820	25585.784952
47.537000	-0.003114	-0.000512	-0.004421	0.004007	6847.436929	48153.280434	3873.432898	25276.018255
48.037000	-0.001585	0.000212	-0.004763	0.004310	6859.185419	48197.326094	3871.662014	25260.247163
48.556500	0.000356	-0.000861	0.004242	-0.002827	6947.272882	48837.088436	3916.803628	25634.247400
49.035000	0.000156	0.000929	0.000241	0.002334	6895.031053	48480.381973	3890.976570	25363.188214
49.540500	-0.004070	-0.000323	-0.000337	0.004116	6837.246930	48161.666268	3884.410670	25270.333649
50.049500	-0.002960	-0.000060	-0.002928	0.002945	6859.096830	48312.012703	3880.479355	25331.317728
50.536000	0.001632	0.000050	0.003311	-0.002011	6951.794942	48847.198493	3911.836836	25591.197451
51.036500	0.001483	-0.000636	-0.000101	-0.002924	6959.296083	48871.338394	3904.767605	25639.395461
51.536500	-0.002379	0.000296	0.001916	0.003745	6856.994994	48265.476443	3891.715282	25289.662075
52.037000	0.001755	0.001352	0.004173	0.003876	6895.579981	48362.526298	3897.659093	25282.803780
52.537000	0.001457	-0.001367	0.002479	-0.001722	6947.238840	48666.263740	3908.662186	25575.963233
53.037500	-0.010975	-0.015168	-0.008489	0.271928	4892.544290	26413.132927	3317.775339	14876.713829
53.534500	-0.042782	-0.020395	-0.065510	0.026689	6291.259523	43909.826781	3663.993772	24126.587594
54.035000	-0.051070	-0.068214	-0.066580	-0.192642	8545.401912	63866.363348	4306.792407	38212.405611
54.535500	-0.036214	-0.109702	-0.042542	-0.245820	9538.648313	65535.000000	4623.418820	42839.735932
55.035500	-0.143704	-0.295890	-0.151466	-0.432008	10899.487619	65535.000000	5001.920369	64332.231299
55.536000	-0.115613	-0.304283	-0.128775	-0.440400	11619.052946	65535.000000	5174.228137	65535.000000
56.036500	-0.094675	-0.304283	-0.111550	-0.440400	12060.131931	65535.000000	5275.162609	65535.000000
56.536000	-0.113150	-0.304283	-0.131395	-0.440400	11669.843205	65535.000000	5159.223274	65535.000000
57.037000	-0.019545	-0.173990	-0.036793	-0.310108	10942.303452	65535.000000	4963.591260	49245.805760
57.537000	-0.028848	-0.127611	-0.044021	-0.263728	9949.119157	65535.000000	4698.368451	44530.059599
58.037000	-0.039108	-0.104645	-0.058735	-0.240762	9414.372518	65535.000000	4530.593051	42374.882603
58.535000	-0.035610	-0.094175	-0.056467	-0.230293	9307.267445	65535.000000	4495.967828	41429.605823
59.035000	-0.032092	-0.075789	-0.056317	-0.211906	9084.515665	65535.000000	4421.273942	39823.644185
59.535500	-0.030966	-0.061180	-0.059787	-0.195489	8863.245693	65273.865684	4343.316395	38446.061792
60.036000	-0.030742	-0.046271	-0.060286	-0.173716	8564.340171	64292.663976	4260.139597	36697.498631
60.536000	-0.029923	-0.027665	-0.056507	-0.142600	8168.421994	62543.736500	4163.715943	34346.086902
61.036000	-0.032380	-0.026638	-0.057972	-0.138540	8086.807236	62127.262665	4144.953244	34051.493171
61.536500	-0.034154	-0.022344	-0.063180	-0.127026	7924.141321	61147.491387	4089.602695	33230.909647
62.037000	-0.039722	-0.017552	-0.065948	-0.113846	7702.945511	60029.419793	4038.764236	32317.927943
62.534000	-0.037944	-0.015099	-0.064801	-0.103379	7603.624048	58981.282685	4009.905885	31612.370602
63.035000	-0.040500	-0.014929	-0.066411	-0.098272	7517.657887	58345.106637	3989.487255	31274.212367
63.535000	-0.041517	-0.013872	-0.071294	-0.102961	7558.664580	59086.353167	3988.904604	31584.566810
64.053000	-0.047285	-0.012804	-0.070867	-0.101862	7482.266069	59082.204718	3986.877596	31511.501564
64.536000	-0.047007	-0.012286	-0.070597	-0.101677	7483.286305	59125.460674	3987.135080	31499.221353
65.039000	-0.045285	-0.012767	-0.072538	-0.102715	7513.851361	59197.872523	3984.417077	31568.155540
65.541000	-0.049018	-0.012523	-0.073446	-0.097667	7417.280516	58576.341538	3966.645375	31234.441476
66.036000	-0.046335	-0.012177	-0.074719	-0.095982	7428.160207	58404.354316	3957.910454	31123.894596
66.537000	-0.044895	-0.012693	-0.068818	-0.099265	7479.983794	58760.410475	3985.231822	31339.658006
67.037000	-0.044523	-0.012098	-0.066150	-0.096271	7451.135978	58451.452970	3984.249020	31142.789740
67.537500	-0.046763	-0.011354	-0.070120	-0.087772	7334.833719	57464.990329	3947.325260	30591.413007
68.038000	-0.045430	-0.011577	-0.067848	-0.086988	7340.696971	57337.997333	3951.675730	30541.040922
68.535500	-0.042237	-0.010758	-0.069760	-0.086438	7369.099913	57371.915777	3944.485625	30505.829408
69.036000	-0.045668	-0.010783	-0.071775	-0.083599	7302.011091	57012.505450	3930.424867	30324.555305
69.535500	-0.048727	-0.010932	-0.072507	-0.075736	7187.434769	56019.687301	3905.913388	29828.672394
70.036000	-0.045477	-0.010168	-0.072262	-0.075373	7217.449464	56069.053695	3905.578977	29806.018825
70.536500	-0.042633	-0.010440	-0.064921	-0.076681	7260.945800	56196.424202	3930.241006	29887.785763
71.037000	-0.043455	-0.009878	-0.068504	-0.074994	7234.605611	56057.985952	3915.154463	29782.333009
71.537000	-0.045017	-0.009221	-0.067860	-0.068416	7150.201498	55335.608723	3898.388096	29375.073375
72.040000	-0.045129	-0.009740	-0.068865	-0.067078	7135.329603	55111.011132	3891.831509	29293.007255
72.537500	-0.042465	-0.009162	-0.065464	-0.069202	7184.619574	55438.023039	3907.349843	29423.393450
73.035000	-0.041725	-0.008619	-0.063660	-0.067549	7175.180089	55303.533523	3907.778552	29321.864712
73.535500	-0.041326	-0.007914	-0.064959	-0.062517	7127.571488	54781.955716	3890.003458	29015.041107
74.035500	-0.038240	-0.007586	-0.058864	-0.065067	7185.556902	55128.213648	3914.339356	29170.064568
74.536500	-0.040124	-0.008760	-0.062644	-0.065948	7175.181473	55092.819527	3906.125789	29223.837782
75.036000	-0.040190	-0.008089	-0.066081	-0.065677	7171.701635	55141.077302	3895.695209	29207.279510
75.536500	-0.040247	-0.008267	-0.068576	-0.062693	7140.416352	54760.611068	3880.449523	29025.674638
76.037000	-0.038758	-0.008173	-0.067898	-0.065435	7184.001079	55101.769091	3889.944484	29192.501410
76.537000	-0.037818	-0.007362	-0.065501	-0.064672	7185.833639	55107.592436	3894.507579	29145.985749
77.037500	-0.038322	-0.007590	-0.061440	-0.064862	7182.589035	55103.004897	3906.458014	29157.582432
77.538000	-0.038932	-0.008184	-0.061081	-0.064725	7174.859527	55014.796665	3907.084544	29149.198420
78.035000	-0.039500	-0.007728	-0.067843	-0.062401	7145.095332	54790.362679	3881.670651	29008.028379
78.535500	-0.037849	-0.008300	-0.060784	-0.064821	7187.066033	55012.505193	3908.199291	29155.102073
79.035500	-0.039098	-0.008487	-0.061977	-0.065092	7176.936560	55022.492588	3905.589029	29171.566768
79.536000	-0.037563	-0.007860	-0.065071	-0.064502	7186.718445	55027.120740	3895.235618	29135.667309
80.036000	-0.038879	-0.008417	-0.061434	-0.065049	7178.758743	55025.821066	3907.004535	29168.966177
80.536500	-0.037830	-0.008016	-0.065970	-0.064672	7185.706263	55028.634868	3893.196148	29145.976272
81.037000	-0.037570	-0.007308	-0.063321	-0.064010	7181.553878	55034.325150	3898.762117	29105.697921
81.540000	-0.036486	-0.007565	-0.066750	-0.064360	7196.408776	55045.423600	3890.148536	29126.978341
82.034500	-0.038739	-0.007449	-0.061345	-0.062316	7152.031637	54813.575053	3899.553262	29002.847773
82.538000	-0.038791	-0.007651	-0.064253	-0.063792	7166.682527	54966.636486	3895.536825	29092.416361
83.035000	-0.037807	-0.007510	-0.062464	-0.063597	7174.822125	54960.205281	3900.009169	29080.566941
83.535500	-0.039613	-0.006869	-0.066631	-0.058266	7101.706065	54398.865543	3873.607876	28758.597798
84.036000	-0.040200	-0.006887	-0.062928	-0.059979	7113.169567	54601.038065	3888.592239	28861.628370
84.536500	-0.038339	-0.007912	-0.067694	-0.062435	7157.372542	54772.419057	3882.177046	29010.086133
85.036500	-0.037096	-0.007819	-0.066128	-0.062462	7170.448637	54786.716254	3886.594547	29011.668466
85.536500	-0.041898	-0.007547	-0.064445	-0.057631	7072.143259	54242.891394	3877.879989	28720.511570
86.037000	-0.037932	-0.006669	-0.061946	-0.059547	7131.900014	54575.474985	3890.122767	28835.574933
86.537000	-0.038957	-0.007591	-0.066017	-0.061522	7141.642126	54701.402958	3884.295338	28954.796619
87.034500	-0.037468	-0.007040	-0.062564	-0.060474	7146.167001	54641.928520	3890.985142	28891.465015
87.541000	-0.041188	-0.006844	-0.064350	-0.056028	7063.129477	54136.132943	3873.724414	28624.593499
88.038500	-0.037323	-0.006328	-0.067021	-0.058600	7128.453083	54503.169448	3873.451300	28778.633209
88.535500	-0.036814	-0.006960	-0.060945	-0.059662	7144.539289	54554.485893	3893.238373	28842.523322
89.036000	-0.035751	-0.006644	-0.063361	-0.059000	7148.657138	54513.116742	3884.666346	28802.680629
89.536000	-0.039311	-0.006017	-0.059855	-0.055287	7074.591299	54146.305404	3884.091802	28580.358318
90.036500	-0.037545	-0.006788	-0.063282	-0.056741	7107.230127	54227.212619	3878.631922	28667.183767
90.536500	-0.037499	-0.006445	-0.064356	-0.057342	7113.812469	54339.357193	3877.326480	28703.165339
91.040000	-0.038187	-0.006479	-0.060115	-0.056608	7099.346268	54248.177211	3887.036923	28659.235979
91.540000	-0.040565	-0.005778	-0.060737	-0.051371	7022.691080	53712.614971	3870.858097	28347.985618
92.035000	-0.038410	-0.006401	-0.057358	-0.054842	7079.199576	54048.129442	3889.796239	28553.851237
92.538000	-0.036945	-0.005647	-0.062032	-0.054757	7093.176239	54127.392047	3876.608753	28548.825728
93.035500	-0.037795	-0.005701	-0.062641	-0.053835	7075.239835	54011.980336	3872.397266	28493.973645
93.535500	-0.039662	-0.005905	-0.064645	-0.049281	7010.863092	53452.793714	3854.517513	28224.776690
94.036000	-0.037370	-0.005886	-0.067806	-0.051493	7055.918066	53714.314605	3851.955570	28355.191640
94.536500	-0.036632	-0.005198	-0.064205	-0.051737	7065.799510	53823.809678	3862.378715	28369.586575
95.037000	-0.036111	-0.005211	-0.063832	-0.051462	7068.287324	53789.896215	3862.646871	28353.341775
95.604500	-0.037359	-0.004900	-0.066431	-0.047424	7015.298736	53353.366656	3844.701894	28115.795717
96.040000	-0.037899	-0.005428	-0.066207	-0.049527	7030.893723	53537.399393	3850.960890	28239.217467
96.562000	-0.036427	-0.004707	-0.062324	-0.049260	7042.967074	53590.573164	3860.756144	28223.517634
97.035000	-0.036733	-0.005155	-0.059552	-0.049029	7037.587086	53511.016086	3867.687579	28209.948235
97.535500	-0.036553	-0.004527	-0.060078	-0.048168	7030.772129	53483.792960	3863.899775	28159.413591
98.035500	-0.036910	-0.005179	-0.064077	-0.048152	7027.045299	53405.707712	3853.001944	28158.460392
98.536500	-0.036058	-0.005177	-0.062496	-0.047866	7032.703110	53372.674589	3856.505824	28141.709034
99.036500	-0.036104	-0.004507	-0.060733	-0.046889	7022.484405	53336.813693	3858.637112	28084.514542
