sample name	sample
index	1287
start time	 04-29-2021  02:56:29 PM
880	0.107477
Peak Time (s)	91.035
Peak Height 	0.1075
calc peak height	90,93
Baseline Time (s)	10.536
Baseline Value 	-0.004646
subtract baseline	10,4
Abs	0.094526
Peak Time (s)	91.536
Peak Height 	0.09453
calc peak height	90,93
Baseline Time (s)	11.036
Baseline Value 	0.003549
subtract baseline	10,3
PK_550	0.041001
Peak Time (s)	92.536
Peak Height 	0.041
calc peak height	90,93
Baseline Time (s)	9.034
Baseline Value 	3.7916E-4
subtract baseline	10,2
PK_880	0.079671
Peak Time (s)	90.535
Peak Height 	0.07967
calc peak height	90,93
Baseline Time (s)	10.036
Baseline Value 	0.003124
subtract baseline	10,1


Time (s)	A880-A510	A880-A775	A880-A975	A880	I510	I775	I975	I880	
0.038000	-0.001760	-0.000128	-0.004528	0.002982	6303.621715	41225.270294	3852.920953	20897.666251
0.535500	-0.002688	-0.000396	-0.003941	0.004817	6282.451280	41040.516208	3850.306939	20822.025717
1.036000	-0.004139	-0.000551	0.000601	0.004614	6272.938325	41044.732205	3860.277705	20830.404918
1.536500	0.000203	-0.000209	-0.000127	0.002151	6325.159304	41291.329216	3863.950039	20932.022092
2.037000	-0.002070	-0.000146	-0.001035	0.002127	6307.812886	41298.964201	3862.078111	20933.009424
2.536500	-0.001583	0.000939	-0.007663	0.002872	6305.818810	41328.916443	3846.603276	20902.190440
3.038000	-0.004276	-0.000803	-0.004115	0.004475	6272.953049	41034.848724	3850.660062	20836.121105
3.540000	-0.000806	-0.000361	-0.000275	0.000201	6332.442900	41450.169279	3867.779174	21012.858392
4.037000	-0.003190	-0.000001	-0.000776	0.000753	6309.757256	41433.108982	3865.538113	20989.933887
4.535000	-0.000660	0.000537	-0.003808	0.000964	6327.660458	41462.091728	3858.675120	20981.173684
5.035500	-0.003325	-0.000471	-0.001799	0.002959	6291.785130	41197.032060	3858.705486	20898.602151
5.535500	-0.001003	0.000690	-0.001410	0.000874	6325.706206	41483.611792	3863.935906	20984.916345
6.036000	-0.002414	-0.000219	-0.000575	0.000226	6319.807677	41460.487767	3867.087128	21011.832765
6.536500	-0.001591	0.000717	-0.003964	0.000726	6322.304138	41499.239773	3858.849358	20991.084862
7.036500	-0.000577	0.000639	-0.001705	0.000635	6330.851553	41500.329149	3863.818182	20994.846564
7.537000	-0.000073	0.000849	-0.003818	0.000486	6335.919081	41532.218403	3859.663948	21001.044136
8.037000	-0.001333	0.001214	-0.000218	0.000849	6323.351943	41532.386606	3866.522276	20985.980718
8.537500	0.000110	0.000326	0.003370	0.000059	6340.651324	41523.616175	3875.879664	21018.763641
9.034500	0.000133	0.000000	-0.003069	0.000369	6338.420532	41467.273998	3861.493049	21005.895690
9.535000	-0.000756	0.000007	0.003634	-0.000127	6335.371734	41511.846163	3876.848489	21026.514669
10.035500	0.000000	-0.000186	0.001953	-0.000550	6344.529887	41532.208186	3874.145824	21044.105877
10.535500	-0.000486	-0.000545	-0.003262	0.000000	6336.480312	41451.652408	3861.865486	21021.234522
11.036000	0.000783	0.001425	0.000000	0.000789	6340.215541	41556.413805	3867.114395	20988.473564
11.536500	-0.003440	-0.000032	-0.001175	-0.000251	6315.573965	41519.420063	3866.827992	21031.691120
12.036500	-0.001477	0.000255	-0.002258	-0.000064	6329.299436	41528.235813	3864.128546	21023.886613
12.534000	0.000469	0.000669	0.000547	0.000705	6338.427894	41496.814066	3868.458067	20991.950581
13.040000	-0.001800	-0.000534	-0.002630	0.003844	6296.692525	41113.705107	3855.094157	20862.090345
13.537500	-0.001345	-0.000525	-0.001143	-0.000093	6330.543639	41461.739760	3866.558941	21025.108154
14.035000	-0.001871	0.000277	-0.001433	0.002343	6307.678495	41317.286818	3860.779366	20924.084805
14.535500	-0.002810	0.000864	-0.000997	0.002741	6297.402624	41333.913372	3860.858188	20907.595204
15.038500	-0.003396	0.000911	-0.003679	0.006350	6265.391826	41020.780831	3847.658136	20759.122822
15.535500	-0.001634	0.000083	0.000418	0.000170	6326.269413	41492.199226	3869.323145	21014.154835
16.035500	-0.002143	0.000284	0.005051	0.000729	6318.018251	41460.534698	3878.055277	20990.935180
16.537000	-0.002890	0.000996	-0.004369	0.003929	6287.696630	41240.781618	3851.269688	20858.603429
17.036000	-0.001105	0.000968	-0.004229	0.004088	6300.150623	41224.317351	3851.229718	20852.025909
17.537500	-0.000204	0.000152	-0.001376	0.000914	6331.578647	41432.405779	3863.923513	20983.254602
18.037000	-0.002381	0.001266	0.003461	0.002388	6303.410197	41400.652517	3871.085302	20922.208735
18.535000	-0.003163	-0.000057	0.003098	0.001254	6306.111901	41383.879002	3872.733933	20969.146636
19.035500	-0.002407	0.000648	-0.006871	0.001727	6308.293333	41404.425341	3850.642780	20949.546761
19.535500	-0.003617	-0.000752	-0.004422	0.000771	6306.341354	41365.161936	3857.787957	20989.203889
20.035000	-0.001212	0.000261	0.002418	0.001616	6318.362480	41380.086293	3870.507384	20954.182429
20.536000	-0.001402	0.000985	-0.002715	0.002103	6313.134917	41400.941826	3858.577381	20933.986293
21.036000	-0.003857	0.000895	-0.001454	0.002849	6288.558659	41327.066680	3859.664998	20903.145229
21.537000	-0.001742	0.000768	-0.003695	0.001881	6312.229013	41401.446999	3856.982542	20943.198697
22.036500	-0.001351	-0.001289	-0.000773	0.001022	6321.871369	41295.667657	3864.975291	20978.794156
22.540000	-0.002114	0.000263	-0.000493	0.002033	6308.197530	41343.388141	3863.425088	20936.895841
23.034500	-0.001652	-0.000013	-0.003256	0.002311	6309.605177	41294.427694	3856.999825	20925.383836
23.535000	-0.001522	0.000772	-0.001614	0.002441	6309.614861	41352.309323	3860.189347	20920.026358
24.036000	-0.000232	0.000768	-0.000134	0.002778	6316.956809	41322.212848	3862.607348	20906.087261
24.535500	-0.001540	0.000349	0.001889	0.002289	6310.640334	41328.341451	3867.940329	20926.292753
25.038000	-0.001336	0.000554	0.002348	0.002413	6311.259471	41335.490269	3868.654614	20921.169720
25.536500	-0.002544	-0.000192	0.000597	0.001781	6306.822938	41325.428570	3866.274259	20947.335177
26.039500	0.000234	0.000714	0.001490	0.002193	6325.069084	41369.034480	3867.295467	20930.258280
26.536500	-0.002144	0.000078	0.004676	0.001676	6310.711186	41358.630609	3875.212785	20951.692860
27.037000	0.002588	0.000769	-0.000760	-0.000004	6360.450526	41568.556183	3867.184042	21021.391154
27.539500	-0.000295	0.000518	0.004461	0.000171	6336.639753	41530.789237	3877.986681	21014.133632
28.040000	-0.001910	0.000888	-0.001837	0.001163	6316.469592	41475.610740	3862.420338	20972.948557
28.535000	-0.003469	0.001064	0.003907	0.006374	6264.649563	41032.024045	3863.547702	20758.104619
29.036500	-0.004421	-0.000409	0.000362	0.003851	6276.606161	41124.082665	3861.385463	20861.805270
29.535500	-0.001808	0.000434	0.004973	0.000583	6321.732482	41486.784044	3878.202231	20997.004547
30.036000	-0.001446	0.000683	0.003145	0.000704	6323.594884	41498.116871	3874.012245	20991.975816
30.535500	-0.003437	-0.000094	-0.003328	0.004740	6277.324462	41073.786015	3851.750537	20825.205661
31.036000	-0.004270	-0.000164	-0.007079	0.002601	6287.294642	41255.611875	3848.383094	20913.399292
31.537000	0.001009	0.000243	-0.001807	0.000260	6346.080127	41498.434470	3864.396771	21010.419062
32.039500	-0.001616	0.000424	0.000160	0.000553	6323.450018	41488.498894	3867.957009	20998.247029
32.534500	-0.003864	-0.000533	-0.006059	0.004047	6279.349566	41095.959056	3847.494278	20853.715719
33.035000	-0.001217	0.000176	0.001920	0.000127	6329.833294	41504.323422	3872.624695	21015.955314
33.535000	0.001937	0.001079	0.002633	-0.001214	6364.822037	41703.763771	3877.032418	21071.767723
34.035500	-0.003143	0.000973	-0.001362	0.002480	6296.853399	41366.602675	3860.639022	20918.410694
34.536000	-0.000631	0.000659	0.000671	0.004156	6303.273138	41191.162169	3861.393502	20849.240923
35.036000	-0.001901	0.000444	0.003096	0.002272	6307.991151	41338.209167	3870.552983	20927.008460
35.536500	-0.001586	0.000722	0.002501	0.002194	6311.014109	41369.668066	3869.448393	20930.219298
36.036500	-0.001792	0.000342	0.003430	0.002360	6308.156027	41321.479597	3871.078692	20923.357543
36.539500	-0.003389	-0.000607	-0.004832	0.002866	6292.012705	41193.309975	3852.526878	20902.456383
37.037000	-0.002092	0.000553	-0.004912	0.001977	6308.798041	41373.947382	3854.223227	20939.224356
37.534500	-0.000560	0.000906	0.002852	0.002577	6315.975656	41352.107210	3869.380846	20914.384944
38.035500	-0.002596	0.000490	0.000641	0.002182	6303.341223	41350.227216	3865.514599	20930.714904
38.535500	-0.002811	0.000801	0.000066	0.002391	6300.086342	41359.305431	3863.850716	20922.095630
39.035500	-0.001880	0.001149	0.001469	0.002924	6303.137364	41342.872897	3865.695136	20900.035284
39.536000	-0.001430	0.000753	-0.001423	0.002563	6309.373452	41339.785204	3860.333306	20914.961142
40.036000	0.000635	0.001053	-0.004539	0.002858	6323.026291	41340.206679	3853.156489	20902.764737
40.536500	-0.003517	-0.000113	-0.002392	0.003520	6286.028996	41179.234703	3856.276072	20875.462899
41.036500	0.000213	-0.000260	0.000199	0.001934	6326.915033	41305.888421	3865.102570	20940.981966
41.537000	-0.001127	-0.000084	0.001324	0.001975	6316.243499	41317.840094	3867.406960	20939.284365
42.034500	-0.000560	-0.000466	0.005371	0.002039	6320.129276	41278.469352	3875.925194	20936.641271
42.534500	-0.002005	0.000191	-0.002163	0.002104	6308.490424	41330.762177	3859.742236	20933.975706
43.035500	-0.000904	0.000700	-0.000475	0.002537	6313.628606	41337.455426	3862.393966	20916.055531
43.536000	0.000837	0.000003	-0.000730	0.000900	6339.767011	41420.489940	3865.324886	20983.837506
44.035500	0.000262	0.000977	-0.002528	0.000981	6334.676063	41499.641162	3861.344287	20980.507911
44.535500	-0.004978	0.000361	0.000361	0.006644	6251.168368	40946.895559	3855.494618	20747.050956
45.036500	-0.005347	0.001393	0.001127	0.004213	6266.801746	41250.764801	3862.238061	20846.892496
45.536500	0.000584	0.000624	-0.002660	0.000936	6337.521447	41472.319231	3861.160134	20982.364757
46.040000	-0.000454	0.000535	0.004405	0.000648	6331.709926	41489.963694	3876.839107	20994.310495
46.537000	-0.004748	0.000415	-0.005032	0.005740	6259.752840	41030.709283	3846.110549	20784.121808
47.035000	-0.002653	-0.000387	-0.000588	0.004713	6283.522752	41050.501351	3857.562268	20826.332839
47.534500	-0.001910	0.000369	-0.002599	0.002527	6305.962440	41309.082481	3857.927716	20916.444446
48.035000	-0.000001	0.000751	-0.001411	0.000879	6333.429093	41488.694452	3863.924494	20984.730658
48.535500	-0.004510	0.000871	-0.002408	0.005302	6264.883413	41109.117037	3852.500283	20802.109186
49.035500	-0.001949	0.000512	0.000035	0.004043	6294.031189	41188.207797	3860.289738	20853.908532
49.536500	0.000547	0.000408	0.000780	-0.002450	6363.620819	41754.240928	3875.707233	21123.419799
50.036500	-0.000454	0.000518	0.001141	0.000381	6333.775150	41512.089054	3870.414223	21005.382334
50.537000	-0.004812	-0.000276	-0.001976	0.018392	6164.728726	39879.861520	3826.371278	20272.427737
51.036500	-0.007409	-0.038866	0.068919	0.589370	3820.168573	12057.000393	3222.185676	7610.798159
51.534500	-0.025502	-0.035422	-0.007854	0.003756	6120.453565	38178.361284	3844.369135	20865.743516
52.034500	-0.025874	-0.080379	-0.016486	-0.276400	8973.344721	63465.627852	4627.466294	37088.969119
52.535000	-0.026627	-0.111657	-0.014613	-0.321652	9621.464537	65442.915891	4820.546572	40836.690928
53.035000	-0.023523	-0.086937	-0.007896	-0.289652	9193.086785	64404.997461	4714.354638	38146.356072
53.536000	-0.017108	-0.055167	-0.004858	-0.241550	8623.180944	62138.343555	4539.752326	34457.450168
54.036000	-0.011060	-0.031571	-0.001824	-0.181353	7960.076384	57358.090702	4342.808192	30380.953261
54.536500	-0.019942	-0.029203	-0.009821	-0.181124	7856.406335	57626.464658	4316.541460	30366.507825
55.036500	-0.024654	-0.030057	-0.016459	-0.190498	7909.184098	58708.840830	4325.221675	30964.435352
55.539500	-0.016223	-0.035558	-0.006824	-0.206978	8200.987599	60135.277102	4410.895433	32047.438121
56.036500	-0.012169	-0.026063	-0.005326	-0.168563	7802.795793	56454.212462	4291.263332	29585.270930
56.534500	-0.011993	-0.018780	-0.003746	-0.118889	7281.823243	51482.464520	4149.909812	26707.854904
57.035000	-0.004602	-0.011842	0.003596	-0.085215	7028.408181	48587.466482	4078.898106	24936.241798
57.535500	-0.000148	-0.007132	0.008122	-0.049561	6746.822694	45451.880449	4000.322497	23204.322732
58.035500	0.002073	-0.003710	0.007682	-0.041164	6693.438393	44968.223764	3979.021438	22816.703161
58.536000	0.007024	-0.001424	0.011750	-0.026629	6612.093059	43800.968168	3954.346102	22163.204859
59.036000	0.014480	0.003190	0.014489	-0.014930	6576.649560	43140.581484	3933.692298	21652.867606
59.536500	0.017231	0.005646	0.017359	-0.005828	6524.236036	42530.939330	3919.576095	21265.231492
60.036500	0.020697	0.007526	0.017297	0.008737	6434.459594	41392.703797	3887.225431	20661.544153
60.537000	0.018708	0.008647	0.026987	0.027270	6274.393355	39883.700995	3868.190892	19922.162923
61.037500	0.022676	0.012315	0.026566	0.051791	6121.487980	38154.257509	3816.544316	18991.088978
61.534000	0.025241	0.013468	0.031039	0.036763	6251.927035	39488.973616	3856.670594	19555.456756
62.035000	0.026299	0.018850	0.026264	0.035554	6269.115593	40047.064308	3849.196324	19601.697149
62.535500	0.027868	0.018091	0.031870	0.033960	6293.262591	40118.356843	3864.350190	19662.908882
63.036000	0.030570	0.019249	0.028046	0.033261	6319.416559	40277.426503	3857.743029	19689.802886
63.537000	0.032886	0.019586	0.029785	0.034690	6326.271290	40183.834931	3858.396911	19634.860740
64.039000	0.030122	0.020362	0.035707	0.034594	6305.699637	40258.550941	3871.170200	19638.541918
64.536500	0.028900	0.020754	0.029538	0.042953	6232.832793	39581.168871	3840.629030	19320.622920
65.039500	0.033766	0.021158	0.037845	0.046614	6241.912238	39307.837537	3850.286351	19183.314419
65.537500	0.036273	0.022654	0.039712	0.045457	6269.660568	39530.298987	3856.626493	19226.583086
66.037500	0.035800	0.022870	0.042355	0.048339	6244.242538	39306.766454	3856.124074	19119.015967
66.535000	0.037976	0.023404	0.035540	0.056298	6200.883509	38691.151009	3825.576226	18825.600799
67.035000	0.037248	0.023416	0.041035	0.058273	6180.815081	38530.200878	3832.761305	18753.633738
67.535500	0.043998	0.024864	0.043469	0.056966	6241.000603	38756.349091	3840.460818	18801.230376
68.035500	0.046323	0.025822	0.047919	0.058374	6247.923270	38719.243233	3846.768494	18749.944982
68.536500	0.043149	0.026374	0.047849	0.062646	6192.139300	38414.617284	3837.778051	18595.422238
69.036500	0.042767	0.025911	0.048738	0.061677	6196.507995	38455.878548	3841.613417	18630.343652
69.539500	0.046612	0.027760	0.050933	0.058512	6249.065495	38867.640241	3852.776168	18744.938149
70.037000	0.048713	0.028958	0.048042	0.061123	6245.209659	38751.132030	3841.318907	18650.325913
70.537000	0.044383	0.027112	0.045975	0.066457	6173.057311	38164.797008	3826.138221	18458.826412
71.035000	0.047879	0.029116	0.052035	0.065066	6209.345497	38440.838981	3841.424014	18508.547763
71.535000	0.050871	0.030058	0.051402	0.067322	6214.846041	38333.776261	3835.466449	18428.014792
72.035000	0.050008	0.031421	0.062122	0.069431	6192.692230	38273.057575	3853.340040	18353.067495
72.536000	0.049214	0.030941	0.059478	0.073350	6157.862137	37917.510050	3839.683943	18214.802610
73.039000	0.052592	0.031293	0.065777	0.069500	6211.426334	38257.047066	3860.888381	18350.614570
73.536000	0.054673	0.032929	0.060903	0.070949	6216.154871	38272.340657	3847.621091	18299.377845
74.036500	0.054562	0.032956	0.065536	0.072110	6206.656195	38180.331439	3854.883632	18258.443467
74.536500	0.055813	0.033850	0.058829	0.076717	6181.709423	37880.745175	3831.429579	18097.016317
75.037000	0.058058	0.034323	0.069122	0.075284	6209.048997	38034.176007	3855.749313	18147.035589
75.537000	0.060448	0.035911	0.062282	0.077347	6211.499162	37995.899072	3837.225076	18075.096291
76.035000	0.060459	0.035550	0.063418	0.077677	6209.116637	37940.257846	3838.885430	18063.604771
76.535500	0.064518	0.036848	0.062897	0.079582	6225.236145	37891.433758	3833.894229	17997.498591
77.035500	0.062509	0.036409	0.064447	0.080091	6206.395417	37815.317037	3836.034004	17979.897905
77.536000	0.064501	0.036771	0.072261	0.080865	6215.496503	37782.381638	3850.630007	17953.164077
78.036000	0.064288	0.036215	0.069906	0.081873	6206.372936	37657.307272	3843.627428	17918.405221
78.536500	0.066150	0.037513	0.073856	0.086072	6188.985707	37426.544750	3843.111566	17774.503619
79.039500	0.066912	0.038110	0.073409	0.084655	6205.194594	37586.574293	3845.125199	17822.908189
79.537000	0.065504	0.036391	0.074434	0.083891	6200.400739	37510.596129	3848.849965	17849.076923
80.036500	0.067983	0.038011	0.078394	0.086482	6199.567317	37433.474829	3851.709586	17760.523376
80.537500	0.066579	0.037135	0.073437	0.085689	6195.021344	37426.917262	3843.037185	17787.566460
81.035000	0.068697	0.037976	0.075269	0.086938	6201.481944	37394.533070	3844.245540	17744.976022
81.535500	0.071540	0.037207	0.073672	0.087129	6221.295672	37318.589824	3840.542858	17738.478124
82.036000	0.073009	0.037752	0.077924	0.088083	6225.160303	37286.290392	3847.386692	17706.069917
82.536000	0.069848	0.037872	0.068026	0.090521	6183.420141	37103.727031	3822.053635	17623.521245
83.036500	0.074104	0.037992	0.083313	0.089552	6222.351778	37189.348020	3855.586574	17656.270235
83.536500	0.075060	0.037823	0.075968	0.090059	6225.728104	37136.212629	3839.234578	17639.147710
84.037000	0.076322	0.037823	0.086063	0.090312	6233.305533	37116.308097	3859.778076	17630.573681
84.537000	0.072523	0.037176	0.081663	0.091757	6194.098098	36952.343003	3847.521476	17581.876690
85.034500	0.073805	0.037015	0.080745	0.094115	6186.114928	36756.000711	3840.723775	17502.714436
85.535000	0.076219	0.037751	0.085454	0.093129	6211.414624	36890.070125	3852.574061	17535.755298
86.035500	0.074505	0.037198	0.086393	0.093500	6195.871368	36818.032273	3853.765065	17523.295662
86.535500	0.075495	0.037849	0.085800	0.096078	6184.085821	36668.303072	3847.137918	17437.129311
87.035500	0.076460	0.037880	0.083928	0.096036	6191.558751	36673.910773	3843.336361	17438.526165
87.536500	0.074527	0.037550	0.081055	0.096948	6170.498695	36577.793572	3835.521826	17408.158689
88.036000	0.077376	0.038310	0.078293	0.097713	6185.909932	36577.376931	3828.302113	17382.746095
88.539000	0.074516	0.037889	0.090562	0.098644	6157.930518	36473.018094	3851.722582	17351.859006
89.036500	0.073666	0.037158	0.082521	0.103021	6119.747271	36081.510539	3826.103122	17207.564670
89.537000	0.077432	0.039150	0.087142	0.100874	6162.972157	36398.346781	3839.974408	17278.155873
90.035000	0.077877	0.038587	0.092477	0.101180	6163.999507	36331.644459	3850.424440	17268.086594
90.535000	0.079671	0.039838	0.084845	0.104388	6153.602980	36181.706699	3828.052065	17162.801838
91.035000	0.078215	0.039821	0.086326	0.107477	6120.414582	35945.157454	3824.778540	17062.126368
91.536000	0.077569	0.039767	0.094526	0.105007	6133.695425	36128.995182	3846.715751	17142.554147
92.036000	0.079401	0.039850	0.091179	0.105183	6145.793283	36121.944966	3839.412258	17136.819454
92.536000	0.077653	0.041001	0.087069	0.107413	6116.803862	36039.707132	3826.419288	17064.210625
93.036500	0.077717	0.042011	0.090470	0.113002	6076.986825	35693.169101	3821.979254	16883.915584
93.536500	0.078413	0.042267	0.092876	0.109635	6106.216520	35967.066437	3833.743058	16992.255234
94.037000	0.079743	0.040818	0.092255	0.108897	6121.199237	35913.073135	3833.982209	17016.103640
94.537500	0.079635	0.042031	0.090744	0.111457	6101.879248	35811.110067	3825.668337	16933.505544
95.037000	0.078636	0.041483	0.091787	0.115440	6066.123043	35470.564170	3819.714300	16805.980072
95.535500	0.082249	0.042123	0.094733	0.112209	6115.350907	35761.340691	3832.272262	16909.335189
96.035500	0.081737	0.042091	0.089804	0.112961	6106.210393	35702.229738	3820.714696	16885.228363
