sample name	sample
index	376
start time	 03-04-2021  01:52:37 PM
880	-0.010634
Peak Time (s)	91.535
Peak Height 	-0.01063
calc peak height	90,93
Baseline Time (s)	9.536
Baseline Value 	-0.002334
subtract baseline	10,4
Abs	-0.001035
Peak Time (s)	92.038
Peak Height 	-0.001035
calc peak height	90,93
Baseline Time (s)	11.036
Baseline Value 	0.002543
subtract baseline	10,3
PK_550	-0.001323
Peak Time (s)	91.535
Peak Height 	-0.001323
calc peak height	90,93
Baseline Time (s)	8.534
Baseline Value 	4.3812E-4
subtract baseline	10,2
PK_880	-0.005543
Peak Time (s)	90.038
Peak Height 	-0.005543
calc peak height	90,93
Baseline Time (s)	11.036
Baseline Value 	6.2828E-4
subtract baseline	10,1


Time (s)	A880-A510	A880-A775	A880-A975	A880	I510	I775	I975	I880	
0.035500	-0.003569	-0.000756	-0.001864	0.007081	6790.068973	46663.782936	3975.198398	24729.262626
0.535500	-0.002916	-0.001072	-0.006861	0.003881	6824.851387	46955.306368	3970.596520	24890.850976
1.036000	-0.001069	-0.000122	-0.008502	0.004119	6839.470162	47027.635068	3965.805618	24878.803986
1.538000	-0.000864	-0.000404	0.001569	0.000846	6871.255558	47332.389448	4000.283577	25045.234235
2.036500	-0.000942	-0.000091	-0.003135	0.003375	6847.409409	47106.428242	3981.463022	24916.528672
2.539500	-0.000254	-0.000505	0.002932	0.000777	6877.491201	47329.151626	4004.047195	25048.762210
3.037000	0.001347	-0.000262	-0.004544	-0.000867	6907.429017	47522.616047	3988.796415	25132.855609
3.537500	0.000990	-0.000542	-0.001270	0.000748	6889.214196	47328.388437	3993.114730	25050.254840
4.037000	-0.002135	-0.000419	-0.000680	0.000780	6860.219587	47337.687368	3994.569001	25048.611389
4.535000	0.000135	0.000353	0.000775	0.001119	6877.926341	47381.971634	3997.489025	25031.324259
5.035000	-0.001253	-0.000834	0.002174	0.000108	6874.461080	47363.965170	4003.811281	25082.948091
5.535500	0.000100	-0.000607	0.004492	0.000392	6884.294448	47358.112033	4009.178895	25068.426187
6.035500	0.001848	0.000105	-0.005426	0.000615	6898.362912	47408.211624	3982.675130	25057.056220
6.536000	-0.000916	0.000013	0.001895	0.000797	6871.234016	47380.155050	4001.268118	25047.751950
7.036000	-0.002510	-0.000597	0.000400	0.000336	6860.851472	47365.001444	3998.556588	25071.320453
7.536500	-0.003320	-0.001134	-0.002534	-0.000361	6859.823035	47381.313622	3992.712772	25106.971323
8.037000	-0.001333	-0.000223	-0.002833	0.000101	6873.798166	47427.320153	3990.728747	25083.332340
8.534500	0.000730	0.000000	0.001984	-0.000048	6894.162552	47465.489294	4003.723456	25090.958531
9.037500	-0.000819	-0.000092	-0.003338	0.000426	6875.536109	47407.423203	3988.573566	25066.714479
9.535500	0.000353	0.000228	0.000713	0.000000	6890.236408	47483.886820	4000.257808	25088.482625
10.035500	-0.001654	-0.000165	-0.005303	-0.000028	6872.032209	47446.532358	3984.656762	25089.929474
10.535500	0.000815	-0.000339	0.002228	-0.000260	6896.902349	47452.380551	4004.922481	25101.775976
11.036000	0.000000	0.000148	0.000000	0.000334	6883.910446	47441.511424	3997.514570	25071.417703
11.536000	-0.001052	0.000164	-0.003186	0.001724	6861.496944	47300.821546	3985.599216	25000.484608
12.039500	0.000176	0.000407	-0.001885	0.000311	6885.748391	47470.457365	3992.652214	25072.605079
12.537000	0.000695	0.000053	-0.000316	0.000118	6892.310377	47453.896418	3997.253936	25082.470441
13.037000	0.000741	0.000739	0.006000	-0.001324	6906.054326	47672.680168	4017.733950	25156.295402
13.534500	-0.001133	-0.000214	-0.001416	0.000856	6868.705242	47350.975574	3992.454840	25044.759831
14.035000	-0.000701	-0.000150	-0.000588	-0.000303	6883.324758	47476.281388	3997.642743	25104.000413
14.535500	-0.002998	-0.000046	-0.002854	0.001774	6843.267548	47274.213328	3986.332212	24997.947517
15.035500	-0.001954	0.000301	-0.001052	-0.000158	6870.479895	47507.706686	3996.049557	25096.585205
15.556000	-0.001918	-0.000355	-0.000651	0.000526	6864.530870	47370.236266	3995.308385	25061.581701
16.036500	-0.000683	-0.000332	-0.001614	-0.000676	6886.922731	47495.881852	3995.933933	25123.101635
16.536000	-0.000572	-0.000704	-0.001875	-0.001066	6891.541285	47497.645408	3996.272028	25143.073249
17.037000	0.001514	-0.000326	-0.000373	-0.000535	6905.911437	47482.043172	3998.813538	25115.884753
17.537000	0.000366	0.000196	-0.001228	-0.000567	6895.591197	47538.863240	3996.658512	25117.510613
18.037500	-0.000876	-0.000193	-0.000912	0.000192	6877.156558	47420.992477	3995.499061	25078.656398
18.534500	-0.001221	0.000090	-0.005448	0.000964	6866.905440	47371.003739	3981.716891	25039.241627
19.035000	-0.001830	-0.000285	-0.001652	0.000863	6862.250176	47342.898935	3991.818396	25044.368242
19.535500	-0.001221	-0.000012	-0.001421	0.001679	6860.363168	47287.458449	3990.297938	25002.783520
20.035500	-0.001522	-0.000647	-0.001363	0.000395	6869.357137	47353.729097	3993.792953	25068.275665
20.536000	-0.000712	-0.000340	0.002511	0.001153	6869.844354	47307.695777	4001.952572	25029.596879
21.036500	0.000260	-0.000116	0.003729	0.001078	6879.456867	47338.281770	4005.355408	25033.430504
21.539000	-0.001252	0.000318	-0.002115	0.001504	6861.674716	47338.968457	3988.947053	25011.679597
22.037000	-0.000674	-0.000022	-0.002080	0.001229	6869.493060	47332.427297	3989.754499	25025.731336
22.538000	0.000775	-0.000309	-0.001217	0.000813	6886.628109	47345.531059	3993.084159	25046.926299
23.037500	-0.002320	-0.000136	0.000127	0.001237	6854.344774	47319.822335	3995.484257	25025.283167
23.535000	0.001666	0.000528	0.002694	0.002071	6883.254944	47302.479157	4000.022048	24982.811694
24.035000	-0.000173	-0.000208	-0.006712	0.000994	6876.248727	47337.400678	3978.381689	25037.711976
24.535500	-0.001788	-0.000066	0.001655	0.001129	6860.200911	47338.149823	3999.768696	25030.819747
25.036000	-0.001067	0.000338	-0.004653	0.000848	6869.380606	47408.245242	3984.070719	25045.143691
25.536000	-0.000342	0.000173	-0.003420	0.001097	6873.753402	47365.854301	3986.618770	25032.456194
26.039000	-0.000319	0.000000	0.001453	0.000863	6876.108703	47372.048711	3999.933914	25044.365806
26.536500	-0.000524	0.000515	-0.000044	0.001475	6868.612749	47362.191286	3994.418054	25013.189099
27.037000	-0.001320	-0.000563	-0.003197	0.000619	6869.164049	47339.419394	3988.438403	25056.861781
27.537500	-0.000297	0.000177	0.001051	-0.000394	6887.869743	47519.073773	4002.179932	25108.622357
28.037500	0.002320	-0.000178	-0.004813	-0.002590	6932.470654	47708.608246	3992.580690	25221.343915
28.535500	0.001115	0.000100	0.000470	-0.000518	6902.059999	47523.991435	4000.979529	25115.015995
29.040500	0.000858	0.000069	0.002480	-0.000596	6900.400962	47528.804983	4006.474578	25118.984745
29.536000	0.001017	0.000131	-0.000647	0.001416	6883.312604	47328.941731	3992.997901	25016.181218
30.036000	0.000659	0.000618	0.001096	0.000546	6888.030320	47467.957537	3999.830304	25060.583867
30.536000	-0.000072	-0.000156	-0.001299	-0.000841	6894.077174	47530.863378	3997.189402	25131.547947
31.043000	0.000402	0.000140	0.000849	-0.000840	6898.439397	47561.105770	4002.821334	25131.481530
31.537000	-0.001636	0.000111	-0.003960	0.003372	6841.116649	47127.197001	3979.344662	24916.676727
32.037000	0.000035	-0.000182	-0.000690	0.000871	6879.287347	47352.622253	3994.306629	25043.978365
32.567000	-0.001599	-0.000274	0.001457	-0.000559	6877.420992	47489.856559	4003.681902	25117.115053
33.038000	-0.000218	-0.000116	-0.002952	-0.000715	6891.566582	47521.988668	3992.544025	25125.076100
33.535000	-0.003188	0.000416	-0.000066	0.002236	6837.324304	47274.162846	3992.373247	24974.403622
34.038000	-0.000035	-0.000881	0.000423	-0.000919	6895.128536	47464.395139	4001.907644	25135.511282
34.535500	0.000122	0.000517	-0.002346	0.000797	6880.771527	47431.747529	3990.184861	25047.743350
35.036000	-0.000429	0.000441	0.002631	0.002330	6861.641365	47267.106405	3999.176732	24969.612918
35.539000	-0.002750	0.000254	0.001034	0.002140	6842.193902	47267.537713	3995.496514	24979.312992
36.036500	-0.002193	-0.000012	-0.001622	0.001307	6854.869640	47325.356299	3990.741072	25021.721922
36.537000	-0.000286	-0.000585	-0.002555	0.000698	6877.928120	47329.099312	3989.898682	25052.791450
37.037000	-0.001101	-0.000249	-0.002801	0.001456	6863.497542	47285.942691	3987.293619	25014.147530
37.535000	0.000001	-0.000013	-0.002582	0.003201	6857.605880	47131.993355	3983.341182	24925.345394
38.035000	0.000454	-0.000060	-0.000613	0.001368	6878.574580	47314.289471	3993.212333	25018.650838
38.535500	-0.002820	-0.000182	-0.001385	0.001489	6847.488462	47289.465190	3990.885100	25012.460003
39.036000	-0.002913	0.000179	0.001146	0.001890	6842.985376	47285.338018	3996.441825	24992.034088
39.536000	-0.000150	-0.000029	-0.000103	0.001554	6871.319937	47298.425557	3994.057494	25009.151678
40.036000	-0.002241	-0.001041	0.000337	0.001440	6853.215544	47206.821298	3995.504845	25014.966292
40.536500	0.000183	0.000835	0.000284	0.002493	6865.760399	47290.811537	3992.616530	24961.356027
41.037000	-0.000904	0.000587	-0.000517	0.001909	6861.154741	47325.158470	3992.053105	24991.070242
41.537000	-0.002948	-0.000472	-0.004775	0.003060	6832.019516	47099.682900	3978.050874	24932.547238
42.034500	-0.000746	0.000260	0.000373	0.001889	6862.776178	47293.722386	3994.423700	24992.057581
42.535000	-0.002393	-0.000071	0.000246	0.001839	6848.190457	47265.012652	3994.224812	24994.639910
43.035000	-0.000729	0.000046	-0.003960	0.001637	6865.244328	47297.590590	3983.820982	25004.916986
43.535500	-0.002336	-0.000589	-0.003065	0.001829	6848.795316	47213.149175	3985.639720	24995.122616
44.035500	-0.001467	-0.000367	-0.000309	0.001177	6862.700336	47302.485986	3994.502504	25028.378432
44.536000	0.000288	0.000086	0.001299	-0.002426	6912.062394	47718.858601	4008.186022	25212.887681
45.042000	0.001421	0.000200	0.002382	-0.000612	6905.755553	47543.896644	4006.258425	25119.804171
45.536500	-0.002566	-0.000187	-0.002600	0.003459	6831.859926	47088.046976	3982.628412	24912.259808
46.037000	-0.000810	0.000605	-0.000169	0.000182	6877.856675	47503.899622	3997.469039	25079.159436
46.534500	0.002736	0.000631	-0.003427	0.000365	6908.886567	47487.807557	3988.496861	25069.801893
47.037500	0.002434	0.000169	0.001347	-0.000256	6911.833534	47504.120778	4002.593458	25101.554042
47.535000	-0.006397	-0.000661	-0.003783	0.003679	6795.227561	47017.564744	3979.010542	24901.113226
48.053000	-0.001146	0.000574	0.000998	-0.000044	6876.851362	47524.030931	4001.121612	25090.744235
48.535500	-0.002561	0.000023	-0.001117	0.002141	6843.902792	47243.755071	3989.886288	24979.251564
49.036000	-0.000572	0.000044	-0.002610	0.002191	6861.619872	47240.830984	3985.884344	24976.725814
49.555000	-0.000239	0.000784	-0.003625	0.005123	6837.890870	47017.664500	3975.704035	24828.005988
50.036500	-0.000555	0.000306	-0.001778	0.000368	6878.492661	47454.166904	3992.780542	25069.672184
50.537500	-0.001268	0.000073	0.001916	-0.000572	6880.579279	47526.764422	4004.925649	25117.768314
51.036500	0.000998	0.000334	0.001528	-0.002604	6920.311629	47763.006159	4009.263656	25222.084651
51.537500	-0.003822	0.000051	-0.000611	0.004386	6812.081427	47018.095223	3985.374800	24865.295528
52.035000	0.003312	-0.000336	-0.001734	0.002836	6891.368652	47136.334927	3986.480819	24943.891756
52.535000	-0.012170	-0.009120	0.005815	0.289897	4881.821717	25289.151488	3452.235314	14270.846579
53.035500	-0.016416	-0.031136	0.000928	-0.098521	7719.572196	54938.005927	4291.121491	30744.704788
53.536000	-0.013570	-0.061664	0.000662	-0.198317	9008.194824	63934.517378	4659.516646	37944.024263
54.036000	-0.050369	-0.302495	-0.032529	-0.450392	12936.252237	65535.000000	5838.258426	65535.000000
54.539000	-0.046250	-0.302495	-0.031933	-0.450392	13032.027754	65535.000000	5842.347076	65535.000000
55.036500	0.001909	-0.121487	0.019471	-0.269384	10358.226772	65535.000000	5073.068890	44178.600343
55.537000	-0.018911	-0.073667	-0.001816	-0.217546	9207.112363	64958.313899	4730.249317	39531.552985
56.037000	-0.015743	-0.076763	-0.001211	-0.224131	9350.684876	65458.813552	4761.458999	40091.598323
56.537000	-0.002648	-0.089715	0.000576	-0.237613	9758.625809	65535.000000	4829.463150	41264.926959
57.034500	-0.001815	-0.085844	-0.003527	-0.233741	9710.697684	65535.000000	4793.642948	40924.200142
57.535000	-0.001472	-0.066344	-0.002784	-0.213963	9412.028285	65494.914574	4710.756013	39230.336885
58.035000	0.001112	-0.058427	0.003078	-0.203702	9297.687690	65158.002174	4692.114189	38381.482895
58.535500	0.002174	-0.045028	-0.001364	-0.184319	9032.842626	64306.174766	4594.356417	36831.690718
59.038500	0.002681	-0.030612	-0.002883	-0.159072	8692.478571	62794.009472	4490.743191	34914.048226
59.536000	-0.002820	-0.017786	-0.005487	-0.129280	8239.301087	60499.769449	4373.584071	32790.040872
60.036500	0.001406	-0.014531	-0.000551	-0.113222	8095.427133	58826.869137	4335.336555	31704.188137
60.534000	0.001200	-0.017332	-0.005460	-0.126422	8253.644657	60181.854561	4363.755904	32593.813082
61.037500	-0.002533	-0.008603	-0.003155	-0.059258	7445.202665	52971.830163	4155.256770	28335.713380
61.537500	-0.007485	-0.008476	-0.006816	-0.035506	7153.623280	50321.263917	4076.075375	26980.713783
62.035000	-0.005605	-0.008802	-0.002048	-0.034909	7166.254847	50220.719909	4087.802066	26947.615738
62.535500	-0.007870	-0.007532	0.000168	-0.031735	7112.984087	50013.809133	4085.102103	26772.364345
63.035500	-0.009475	-0.003845	-0.004505	-0.029802	7078.690521	50204.342692	4066.618663	26666.219407
63.536000	-0.015128	-0.005290	-0.013185	-0.032331	7048.635014	50322.498588	4049.661086	26805.150606
64.036500	-0.010293	-0.004173	-0.006257	-0.037930	7149.858702	51061.385146	4084.451078	27115.649645
64.536000	-0.007534	-0.004075	-0.003922	-0.039123	7188.831546	51204.825287	4094.434927	27182.350156
65.036500	-0.007133	-0.004459	-0.008134	-0.042298	7224.411412	51516.210203	4091.492422	27360.686411
65.536500	-0.006404	-0.004359	-0.002805	-0.043541	7244.153448	51666.681462	4110.255586	27430.871162
66.038000	-0.003637	-0.004543	0.000699	-0.044858	7285.323980	51794.058909	4124.202372	27505.407226
66.534500	-0.004880	-0.004744	-0.006924	-0.045664	7280.897822	51862.148852	4104.526878	27551.172375
67.035500	-0.005562	-0.004313	-0.002585	-0.046310	7280.536597	51983.764880	4118.885314	27587.904100
67.535500	-0.005083	-0.004897	-0.006975	-0.046307	7285.348783	51917.403246	4106.223227	27587.716275
68.038500	-0.004651	-0.004837	-0.001441	-0.046013	7286.746251	51891.009886	4121.338689	27571.006159
68.539000	-0.005223	-0.004338	-0.001187	-0.045158	7272.314784	51850.871066	4119.597189	27522.430125
69.036500	-0.004943	-0.004402	-0.002121	-0.044164	7265.106832	51731.799288	4114.019808	27466.076384
69.536000	-0.006056	-0.005159	-0.006523	-0.043619	7248.423030	51585.632265	4099.826056	27435.231739
70.037000	-0.004830	-0.004568	-0.002665	-0.041864	7243.113351	51455.424079	4105.841701	27336.199873
70.534500	-0.005414	-0.003905	-0.004317	-0.039885	7217.475009	51308.517671	4095.473331	27224.990078
71.037500	-0.004581	-0.003790	-0.003231	-0.038632	7213.295992	51181.890815	4095.002775	27154.879113
71.535000	-0.005277	-0.004171	-0.000432	-0.037253	7192.659713	50986.575679	4099.041297	27077.882304
72.035500	-0.005129	-0.004091	-0.004986	-0.036272	7184.412948	50886.973389	4083.362858	27023.283103
72.535500	-0.006557	-0.004131	-0.003255	-0.034866	7156.452606	50727.581899	4084.276996	26945.238617
73.036000	-0.006805	-0.005273	-0.005948	-0.034681	7152.198983	50581.623160	4076.196112	26934.992283
73.536500	-0.011723	-0.004646	-0.008803	-0.027277	7032.873520	49843.552892	4047.824015	26528.327406
74.036500	-0.005043	-0.004181	-0.006983	-0.030565	7129.142035	50250.831490	4061.865098	26708.043782
74.536500	-0.007361	-0.004957	-0.004269	-0.030311	7104.089627	50138.741646	4068.687586	26694.106647
75.037500	-0.005978	-0.004293	-0.000275	-0.028650	7101.391728	50030.436364	4075.194443	26603.210837
75.534500	-0.011215	-0.004258	-0.007797	-0.021611	6983.907273	49276.674778	4035.153734	26221.738965
76.035000	-0.007275	-0.003932	-0.009048	-0.026564	7068.683679	49843.752497	4045.208280	26489.537768
76.535000	-0.007293	-0.004493	-0.005165	-0.025519	7058.455289	49670.496620	4052.971879	26432.771534
77.035500	-0.006254	-0.002979	-0.002345	-0.023697	7050.937349	49637.190521	4055.714359	26334.126988
77.535000	-0.009788	-0.004119	-0.009134	-0.018897	6971.779573	49002.552863	4024.249895	26076.309118
78.039000	-0.006070	-0.003329	-0.001805	-0.022658	7042.751060	49488.040103	4054.342594	26278.074177
78.539000	-0.006149	-0.003377	-0.002386	-0.022144	7037.074671	49427.828110	4051.335865	26250.388716
79.036500	-0.008691	-0.003845	-0.002262	-0.021966	7011.158801	49358.639124	4051.187775	26240.824613
79.536500	-0.011323	-0.004437	-0.008493	-0.016827	6938.016851	48749.856418	4020.429713	25966.010523
80.037500	-0.005476	-0.002794	-0.002454	-0.020599	7028.754238	49324.998306	4046.925887	26167.423396
80.534500	-0.005390	-0.002353	-0.007258	-0.019839	7022.329163	49290.871505	4031.825142	26126.683579
81.035000	-0.007131	-0.002860	-0.001881	-0.019523	7002.790887	49203.064935	4045.552159	26109.792856
81.538000	-0.009053	-0.002384	-0.009375	-0.013178	6925.165466	48581.587473	4008.394516	25772.793533
82.036000	-0.006164	-0.002710	-0.002958	-0.018602	7003.220197	49120.886501	4040.113003	26060.561818
82.537500	-0.006342	-0.002932	-0.005307	-0.018438	6999.987303	49079.926191	4033.309227	26051.821801
83.036500	-0.005062	-0.001578	-0.001647	-0.017073	6999.175572	49078.705106	4039.520592	25979.080406
83.536500	-0.007671	-0.002300	-0.007359	-0.015607	6960.759414	48846.648056	4020.199271	25901.207705
84.037000	-0.006047	-0.003065	-0.007387	-0.017559	6994.448221	48972.358462	4025.347067	26004.920386
84.537500	-0.005915	-0.001770	-0.003340	-0.016256	6983.388633	48971.543802	4032.728830	25935.665309
85.037500	-0.006430	-0.002601	-0.004871	-0.016500	6980.836686	48909.366817	4029.261615	25948.610745
85.536000	-0.008307	-0.002767	-0.006622	-0.013307	6933.312673	48555.022890	4016.036328	25779.623944
86.038000	-0.006676	-0.002329	-0.006098	-0.015907	6972.932866	48875.402816	4024.374093	25917.139638
86.536000	-0.006469	-0.002193	-0.003439	-0.015943	6975.222009	48893.558549	4031.616046	25919.042898
87.036000	-0.006269	-0.002093	-0.006104	-0.015474	6972.690122	48854.527965	4023.198272	25894.169772
87.539500	-0.005781	-0.001702	-0.005119	-0.015269	6975.351311	48874.243860	4025.290106	25883.329345
88.036500	-0.007024	-0.001246	-0.001070	-0.014851	6959.743032	48878.201860	4035.064859	25861.176134
88.537000	-0.006770	-0.002172	-0.002046	-0.015198	6965.382513	48817.004386	4033.365206	25879.564184
89.036500	-0.005140	-0.002041	-0.007988	-0.014708	6976.099799	48778.990759	4016.126941	25853.602765
89.534500	-0.008648	-0.002163	-0.004699	-0.014589	6942.086131	48753.616498	4024.590246	25847.304392
90.037500	-0.005543	-0.002040	-0.004030	-0.014349	6968.926038	48741.210336	4025.739627	25834.597587
90.535000	-0.006156	-0.001396	-0.002643	-0.013705	6957.132290	48741.226760	4027.734169	25800.587403
91.037500	-0.005961	-0.002071	-0.002769	-0.014001	6961.742345	48701.270681	4028.193983	25816.254904
91.535500	-0.008340	-0.001323	-0.005877	-0.010634	6908.165846	48425.947823	4010.915369	25639.057863
92.037500	-0.006737	-0.001462	-0.001035	-0.013075	6945.801845	48667.947023	4030.368616	25767.396889
92.536000	-0.007981	-0.001760	-0.003639	-0.013217	6935.510212	48651.475981	4023.755826	25774.862270
93.036500	-0.004303	-0.001159	-0.000386	-0.012492	6963.141247	48638.382290	4030.543525	25736.666128
93.537000	-0.008901	-0.000988	-0.005138	-0.007643	6875.413477	48148.488896	4004.969527	25482.854335
94.037500	-0.004769	-0.001441	-0.000848	-0.012045	6954.573080	48561.708027	4028.099841	25713.148706
94.537500	-0.007467	-0.000900	-0.004789	-0.011387	6923.261215	48549.358848	4015.802668	25678.567021
95.099500	-0.005777	-0.000672	0.000162	-0.011712	6942.025606	48607.507739	4029.918200	25695.625023
95.535000	-0.009051	-0.001693	-0.007953	-0.007596	6873.606116	48070.226420	3997.455441	25480.421565
97.038500	-0.005152	-0.000517	0.001984	-0.010575	6937.252848	48504.295169	4031.763379	25635.964340
98.130000	-0.007032	-0.001266	0.001049	-0.011130	6924.910518	48483.905185	4030.742103	25665.074594
98.222500	-0.004399	-0.000004	-0.003693	-0.010125	6940.076492	48510.855483	4015.361410	25612.396677
98.346500	-0.004351	-0.000805	-0.002413	-0.010859	6947.381383	48503.850604	4020.726701	25650.846609
98.490000	-0.005335	-0.001101	-0.001932	-0.011109	6940.536880	48499.068881	4022.684354	25663.998947
98.598500	-0.006160	-0.001203	-0.003320	-0.011364	6935.221025	48515.140694	4019.656522	25677.388794
99.034500	-0.005799	-0.000853	-0.003469	-0.010954	6934.754708	48508.827557	4018.163261	25655.839123
99.534000	-0.009328	-0.001227	-0.008841	-0.005990	6856.350115	47951.801595	3990.944900	25396.970805
100.035000	-0.005760	-0.000487	-0.008366	-0.010231	6928.382203	48471.322874	4003.282956	25617.936748
100.535000	-0.005642	-0.001057	-0.004558	-0.010696	6933.817627	48460.332805	4014.579286	25642.325372
101.035500	-0.006810	-0.001050	-0.000751	-0.010625	6922.278036	48453.583178	4024.548623	25638.580450
