sample name	sample
index	314
start time	 02-25-2021  03:01:08 PM
880	-0.017400
Peak Time (s)	92.535
Peak Height 	-0.0174
calc peak height	90,93
Baseline Time (s)	11.536
Baseline Value 	-0.004615
subtract baseline	10,4
Abs	-0.006444
Peak Time (s)	90.037
Peak Height 	-0.006444
calc peak height	90,93
Baseline Time (s)	10.037
Baseline Value 	0.006319
subtract baseline	10,3
PK_550	-0.000932
Peak Time (s)	90.037
Peak Height 	-9.3202E-4
calc peak height	90,93
Baseline Time (s)	11.536
Baseline Value 	8.3009E-4
subtract baseline	10,2
PK_880	-0.005378
Peak Time (s)	91.038
Peak Height 	-0.005378
calc peak height	90,93
Baseline Time (s)	11.036
Baseline Value 	0.003012
subtract baseline	10,1


Time (s)	A880-A510	A880-A775	A880-A975	A880	I510	I775	I975	I880	
0.034500	-0.001752	-0.000050	-0.003129	0.002440	6830.927885	44977.823101	4006.697428	23835.012697
0.540500	-0.001518	-0.000242	-0.002021	0.003917	6819.941076	44816.995853	4005.803344	23764.227835
1.037500	-0.004933	0.000415	-0.004826	0.006133	6770.503720	44667.144557	3993.663195	23658.388150
1.535500	-0.001931	-0.000712	-0.003260	0.001648	6836.367805	44990.437913	4008.308120	23873.111650
2.035500	-0.000428	-0.000495	-0.004895	0.000697	6858.204217	45103.498533	4006.643927	23918.940657
2.536000	-0.000287	0.000238	-0.003170	0.000762	6858.882842	45168.243262	4010.690041	23915.792930
3.036500	-0.001743	-0.000810	-0.008812	0.004087	6816.440487	44745.910595	3989.008437	23756.052704
3.536500	0.000153	0.000580	-0.001099	0.000680	6863.537414	45209.366921	4015.962550	23919.730633
4.037000	0.000173	-0.000684	-0.003360	0.000725	6863.309938	45082.318755	4010.314609	23917.543590
4.537000	-0.002314	-0.000675	-0.004230	-0.000251	6849.842676	45177.936532	4010.575311	23964.687515
5.034000	0.000855	-0.000442	-0.008682	0.000084	6875.158480	45168.026390	3998.947203	23948.495865
5.537500	-0.000772	-0.000567	-0.003377	-0.000436	6865.254210	45206.429138	4013.114187	23973.640141
6.035000	-0.001705	-0.000182	-0.003662	-0.000094	6853.869811	45210.591081	4011.581198	23957.108524
6.535500	-0.000734	-0.000364	-0.000997	-0.000324	6864.589864	45215.220332	4018.682876	23968.230956
7.035500	0.001317	0.000154	0.001781	0.000297	6877.391001	45205.247183	4024.003910	23938.226427
7.536000	-0.000899	-0.000160	-0.001311	-0.000052	6860.682989	45208.647605	4017.240551	23955.084575
8.036500	0.000703	-0.000781	-0.004301	-0.000363	6877.808700	45178.513080	4010.676597	23970.122545
8.536500	0.001263	0.000164	-0.006590	0.000168	6878.056483	45218.713534	4003.808423	23944.432423
9.036500	-0.000310	-0.000519	0.000990	-0.000125	6866.602221	45180.826268	4023.091873	23958.609694
9.537000	-0.000241	0.000101	-0.002623	-0.000090	6866.901586	45237.652983	4014.112035	23956.906227
10.037500	0.000673	-0.000180	0.000000	0.000038	6873.937597	45197.971325	4020.246007	23950.736540
10.535000	-0.000378	-0.000381	-0.003319	-0.000239	6867.007222	45205.336100	4012.773767	23964.096370
11.035500	0.000000	0.000646	0.000337	0.000036	6867.934322	45278.450968	4021.083285	23950.840649
11.536000	0.000352	0.000000	0.001424	0.000000	6871.398645	45219.101629	4023.854925	23952.557053
12.036000	-0.000808	0.000919	-0.001104	0.001156	6850.720318	45196.101824	4014.782666	23896.802699
12.536000	0.000583	0.000296	-0.004949	-0.000237	6875.591397	45270.885472	4008.785888	23963.997585
13.037000	0.000123	-0.000135	-0.004948	-0.000864	6877.089263	45289.941981	4010.316932	23994.315218
13.536500	-0.001644	-0.000363	-0.003391	-0.000387	6857.030025	45221.483610	4012.959952	23971.272558
14.037500	-0.000243	-0.000338	-0.000372	0.002225	6846.235810	44970.799637	4013.955459	23845.354777
14.537000	-0.002247	-0.000552	-0.007821	0.001489	6834.970040	45021.251232	3997.632450	23880.754353
15.040000	0.000956	0.000048	-0.003391	0.000182	6875.179380	45206.076419	4011.567668	23943.760334
15.535000	0.000119	0.000119	0.000239	-0.000198	6871.083617	45249.870673	4021.416131	23962.104643
16.035500	-0.001178	0.000458	-0.004319	0.001665	6842.897231	45101.940551	4005.689148	23872.263224
16.535500	-0.000800	0.000322	0.001376	0.000166	6859.623524	45234.337724	4023.327943	23944.563454
17.036000	0.000501	-0.000448	0.000724	-0.003828	6907.171698	45548.837945	4031.618749	24138.293319
17.536000	-0.001833	-0.001330	-0.003311	-0.000364	6855.130072	45125.280184	4013.096612	23970.122752
18.036000	-0.000979	-0.000127	-0.005183	0.001108	6849.628984	45099.294933	4004.943379	23899.102481
18.537000	0.001161	-0.000159	-0.006364	0.001144	6868.401528	45092.629205	4001.989324	23897.354288
19.037000	-0.001654	-0.000092	-0.001948	0.000933	6845.173874	45119.567820	4013.259953	23907.534802
19.537500	0.000605	0.001095	-0.004620	0.001984	6855.931181	45132.779872	4004.182874	23856.940331
20.035000	-0.000869	0.000540	-0.006736	0.001435	6847.696472	45132.177853	4000.384639	23883.338821
20.535000	-0.001476	0.000041	-0.004951	0.000799	6847.957447	45145.566859	4006.257754	23914.002921
21.035500	-0.001750	-0.000008	-0.005112	0.001146	6842.428098	45107.109381	4005.023543	23897.261759
21.535500	-0.000157	0.000670	-0.000814	0.001738	6851.341679	45115.505944	4014.067399	23868.776095
22.036500	0.000069	0.000463	-0.000594	0.001052	6859.469666	45161.900699	4016.289146	23901.801254
22.536500	-0.000661	-0.000222	0.004389	0.001328	6850.497684	45068.805090	4027.910128	23888.510552
23.036500	-0.002563	-0.000649	-0.001576	0.000324	6842.514711	45124.633011	4015.666301	23936.911906
23.537000	-0.001846	0.000069	-0.002591	0.000670	6845.815492	45160.746064	4012.332217	23920.232288
24.037000	0.000105	-0.000112	-0.003594	0.001444	6856.291517	45068.136127	4007.992265	23882.912336
24.538000	-0.000726	0.000381	-0.000365	0.001288	6850.284486	45131.141286	4016.273671	23890.451656
25.035000	-0.001438	-0.000349	-0.003361	0.000983	6846.649951	45089.884911	4009.684619	23905.126251
25.535500	0.000278	-0.000010	-0.004742	0.001406	6858.173534	45081.751106	4005.290563	23884.749934
26.036000	-0.002318	0.000331	-0.000106	0.001421	6834.943557	45113.331917	4016.581574	23884.027996
26.536000	-0.000655	0.000082	0.001454	0.001063	6852.911929	45123.900749	4021.302674	23901.258058
27.036000	0.000629	0.000529	-0.003545	-0.000950	6882.410455	45363.127913	4013.962895	23998.511165
27.537000	-0.000132	-0.000328	-0.005839	-0.001432	6879.896059	45326.555355	4009.531503	24021.848798
28.036500	0.000480	0.000076	-0.001446	-0.000285	6875.100326	45254.184486	4017.481424	23966.343873
28.537000	-0.002330	0.000244	0.000498	-0.000104	6848.386312	45252.922440	4021.824320	23957.565446
29.034500	-0.003477	-0.000172	-0.009196	0.004401	6798.416679	44777.128635	3987.341405	23741.051975
29.535000	-0.000705	-0.000171	-0.002391	-0.000981	6870.720860	45297.837692	4016.867443	23999.982020
30.034500	0.001987	0.000155	-0.003961	-0.000513	6890.686123	45284.092910	4011.874055	23977.375012
30.535500	-0.003342	0.000134	0.001333	0.001850	6822.077498	45052.637603	4019.065521	23863.373402
31.036000	-0.000577	0.000149	-0.006200	0.001994	6845.321309	45040.226918	4000.330467	23856.472122
31.536000	0.000809	-0.000039	-0.002851	-0.000461	6879.626338	45260.066608	4014.463058	23974.817917
32.036500	0.001059	-0.000940	-0.003813	-0.001095	6887.565238	45234.128213	4013.658315	24005.498598
32.537000	0.000549	0.000051	0.001320	-0.000298	6875.838637	45253.000462	4024.333967	23966.951202
33.037000	-0.003118	-0.000459	-0.006045	0.003110	6812.940195	44873.782851	3998.009018	23802.881203
33.537000	-0.000386	0.000316	-0.002358	0.001231	6853.813979	45130.250526	4011.527697	23893.184119
34.034500	-0.000639	0.000505	-0.001103	0.001844	6846.101863	45089.186248	4013.098575	23863.664946
34.535000	-0.002618	-0.000123	-0.008474	0.001317	6833.213916	45079.437478	3996.473464	23889.051190
35.035500	-0.000964	-0.000527	-0.007397	0.001963	6842.155413	44977.848717	3997.513451	23857.943130
35.538000	0.000748	-0.000007	-0.002308	0.001569	6860.917284	45066.259283	4010.825135	23876.921629
36.036000	-0.003784	0.000039	-0.005217	0.001296	6823.066309	45097.136470	4004.404003	23890.038407
36.536000	-0.001309	-0.000258	-0.003739	0.001395	6844.145042	45058.833058	4007.758226	23885.301219
37.036500	-0.002680	0.000409	-0.008416	0.001876	6827.709913	45076.787484	3995.266228	23862.136068
37.537000	-0.000577	-0.000765	-0.000107	0.000640	6857.378947	45082.791354	4018.497518	23921.657661
38.037500	-0.000805	-0.000495	-0.010295	0.001137	6850.916668	45060.853165	3992.527500	23897.714953
38.543000	-0.001212	-0.001083	-0.000325	0.001086	6847.745633	45008.869735	4016.865946	23900.154824
39.035000	-0.001757	-0.000434	-0.007238	0.000794	6845.500612	45099.989841	4000.722803	23914.240199
39.535500	-0.001087	-0.001309	-0.002431	0.000761	6851.752412	45018.453141	4012.500138	23915.825206
40.035000	-0.001473	-0.000096	0.000631	0.001672	6840.215834	45047.598889	4017.774299	23871.935432
40.588500	-0.000776	0.000098	-0.004980	0.001324	6849.513665	45100.142900	4004.910174	23888.693863
41.036000	-0.000836	-0.000472	-0.002134	0.000973	6852.108498	45078.977367	4012.707202	23905.617404
41.539000	-0.000767	-0.000296	0.000108	0.001256	6850.199257	45068.580986	4017.513510	23891.967116
42.036500	-0.002314	0.000600	-0.004042	0.001160	6837.300143	45164.706737	4007.591580	23896.599263
42.537000	0.000105	0.000377	-0.004706	0.001769	6853.395984	45084.047594	4004.497697	23867.298358
43.037500	0.000981	-0.000093	0.002165	0.001447	6864.091925	45069.757776	4022.111928	23882.800406
43.539000	0.002459	0.000398	-0.001990	-0.003063	6917.963937	45556.702491	4022.987747	24101.023478
44.035000	-0.000104	0.000482	-0.002864	0.000725	6860.843814	45195.530237	4011.527629	23917.568557
44.534500	0.001834	0.000277	-0.000192	0.000031	6884.413078	45242.992212	4019.790324	23951.065141
45.035500	-0.001548	-0.000041	-0.003792	0.002256	6834.374866	44996.520519	4005.535051	23843.883082
45.536000	0.001038	-0.000065	-0.000515	-0.000364	6880.816341	45248.138721	4019.966972	23970.143358
46.036000	0.001163	-0.000258	-0.003124	0.000297	6876.009145	45165.238607	4011.938676	23938.210457
46.536500	0.002411	-0.000045	-0.002489	-0.000409	6893.565352	45254.542185	4015.223614	23972.331845
47.036500	-0.001594	-0.000678	-0.006119	0.002192	6834.532331	44941.138243	4000.044960	23846.928656
47.543000	0.001368	0.000292	-0.004712	0.001492	6867.143737	45102.731353	4005.154351	23880.631265
48.150000	-0.000286	-0.000174	-0.001142	-0.000736	6872.285329	45273.808259	4019.339909	23988.145623
48.535000	0.000046	-0.000157	-0.002616	-0.000732	6875.214558	45275.032420	4015.704842	23987.948351
49.035500	-0.001827	-0.000157	-0.004309	0.003241	6823.177725	44890.244811	4001.888193	23796.599586
49.541000	0.002459	0.000277	-0.001725	-0.002877	6916.277725	45526.682317	4023.183313	24091.989962
50.036000	0.000334	0.000085	-0.003949	-0.000217	6873.181351	45248.387892	4011.177432	23963.018463
50.536000	0.000482	0.000159	-0.002389	0.002041	6854.328173	45036.612701	4009.475902	23854.210573
51.036500	-0.017973	-0.016454	-0.002226	0.105792	5904.870753	34866.062867	3784.601171	19417.277512
51.537000	-0.033909	-0.025953	-0.001953	0.019154	6421.413342	41055.994334	3969.552849	23047.440798
52.037000	-0.036509	-0.025026	-0.013663	-0.087262	7349.860707	51721.245361	4218.042049	28620.875293
52.537000	-0.019677	-0.022375	-0.006815	-0.125480	7939.991107	56526.921950	4356.717710	30980.067591
53.034500	-0.020635	-0.018615	-0.005123	-0.087363	7513.483663	52457.024542	4243.528086	28626.848257
53.534500	-0.016344	-0.007055	-0.009469	-0.074588	7425.836825	52318.905740	4193.519003	27883.265726
54.035000	-0.010138	-0.007395	-0.009761	-0.079318	7539.134259	52819.742034	4206.294391	28156.048199
54.535500	-0.009692	-0.006462	-0.012419	-0.068591	7432.551285	51709.278564	4168.157561	27541.697671
55.036000	-0.007459	-0.007273	-0.009217	-0.076082	7533.292055	52463.953541	4198.529450	27969.100345
55.536000	-0.007065	-0.006091	-0.009862	-0.054278	7314.419827	50170.993068	4135.621247	26745.238508
56.036500	-0.009185	-0.007479	-0.005706	-0.046314	7215.009082	49166.460369	4125.268128	26313.294681
56.536500	-0.005035	-0.005860	-0.007587	-0.038392	7178.418615	48501.666800	4099.034309	25891.472114
57.037000	-0.008680	-0.005418	-0.008418	-0.029919	7062.970826	47668.266946	4074.673399	25448.673205
57.537000	-0.007890	-0.005610	-0.014177	-0.020716	6984.705319	46712.797638	4036.581857	24977.480175
58.035000	-0.006193	-0.005363	-0.004991	-0.022680	7018.569130	46935.734688	4064.842150	25077.167587
58.535000	-0.007211	-0.005357	-0.006003	-0.016378	6951.129953	46303.683614	4046.220019	24758.761223
59.035500	-0.004369	-0.005223	-0.009899	-0.011985	6936.986290	45881.339229	4025.493797	24539.537486
59.535500	-0.008140	-0.004214	-0.007315	-0.005856	6847.872514	45378.921606	4016.747756	24237.341996
60.036000	-0.007259	-0.004347	-0.010278	-0.007244	6868.120690	45501.604964	4012.886174	24305.412566
60.536500	-0.006306	-0.004478	-0.012151	-0.020054	6993.205549	46760.080204	4039.997310	24943.940935
61.036500	-0.009795	-0.005061	-0.009653	-0.029165	7045.456864	47627.519681	4069.535381	25409.717745
61.539500	-0.009968	-0.007060	-0.010218	-0.028382	7036.523026	47342.635939	4066.064862	25369.298763
62.037000	-0.007711	-0.002759	-0.012977	-0.029003	7063.470988	47847.895599	4060.581760	25401.345732
62.534500	-0.005213	-0.000631	-0.016833	-0.028619	7083.374590	48028.151521	4049.787160	25381.485506
63.035500	-0.008074	-0.000267	-0.010742	-0.028877	7058.875755	48092.615674	4065.987692	25394.806414
63.538000	-0.005081	0.000573	-0.010632	-0.026198	7061.827317	47902.262512	4059.405560	25256.970841
64.036000	-0.003139	0.000355	-0.011999	-0.025337	7071.992612	47790.919177	4053.729371	25212.842108
64.536000	-0.005502	-0.000878	-0.012339	-0.026289	7058.731532	47761.935222	4055.285960	25261.629667
65.036500	-0.007012	0.000517	-0.012422	-0.025465	7036.886375	47820.779297	4052.977439	25219.368311
65.536000	-0.005738	0.000582	-0.010238	-0.027859	7071.271496	48075.242667	4064.668446	25342.354220
66.036500	-0.004945	0.000085	-0.009433	-0.030101	7099.939120	48256.631598	4072.519044	25458.123460
66.537000	-0.006751	-0.000593	-0.009923	-0.032595	7106.461678	48446.131428	4077.711612	25587.596255
67.037500	-0.006982	-0.000636	-0.011695	-0.034332	7120.791413	48623.698902	4077.619501	25678.218690
67.537500	-0.008352	-0.001342	-0.005432	-0.036310	7126.586135	48757.446140	4099.225072	25781.853880
68.035500	-0.006899	-0.001026	-0.010913	-0.037312	7150.074074	48896.487727	4087.432933	25834.537120
68.538000	-0.005658	-0.002148	-0.006544	-0.038811	7176.439214	48936.215326	4102.907010	25913.551593
69.035500	-0.007325	-0.001291	-0.007169	-0.037440	7147.213275	48881.929932	4097.620765	25841.268715
69.535500	-0.004620	-0.001583	-0.009096	-0.038648	7184.901251	48978.806549	4095.722173	25904.955483
70.036000	-0.003400	-0.001267	-0.009279	-0.038542	7195.685239	49000.953883	4094.957245	25899.340450
70.537000	-0.005327	-0.001550	-0.006540	-0.038287	7174.581357	48944.091425	4101.528033	25885.913813
71.036500	-0.004072	-0.001370	-0.011377	-0.036964	7173.921112	48823.350794	4085.305484	25816.215738
71.537500	-0.004444	-0.001039	-0.007521	-0.036038	7161.419440	48760.770297	4092.993721	25767.588716
72.034500	-0.003815	-0.001719	-0.004529	-0.035630	7163.540545	48646.265440	4099.815986	25746.157352
72.535000	-0.004185	-0.002056	-0.009833	-0.034964	7153.581333	48540.931303	4084.113430	25711.255130
73.035500	-0.005531	-0.001765	-0.011963	-0.033637	7127.997340	48432.521906	4075.122541	25641.927314
73.535500	-0.005627	-0.001119	-0.008719	-0.032773	7118.845758	48409.731154	4081.305727	25596.863948
74.036000	-0.006070	-0.001921	-0.009765	-0.031118	7098.914784	48153.713464	4074.292252	25510.830316
74.536000	-0.004591	-0.001538	-0.010282	-0.031310	7114.783346	48213.484682	4073.450240	25520.780142
75.036000	-0.005689	-0.001658	-0.010375	-0.029246	7084.812969	47986.754940	4067.882016	25413.890497
75.535500	-0.005737	-0.001836	-0.010846	-0.029755	7089.160567	48021.068932	4067.979687	25440.195433
76.037000	-0.006099	-0.001840	-0.013435	-0.027977	7068.984724	47836.769610	4056.792148	25348.415529
76.537000	-0.003943	-0.002583	-0.006950	-0.028487	7094.139358	47812.712747	4074.765733	25374.706176
77.037000	-0.005967	-0.002638	-0.011991	-0.027227	7063.169152	47677.383577	4058.562567	25309.825301
77.538000	-0.007352	-0.002488	-0.010669	-0.027558	7053.275455	47726.785806	4062.789753	25326.829458
78.035500	-0.007616	-0.002563	-0.008949	-0.026119	7037.356892	47571.204878	4063.511406	25252.908843
78.536000	-0.006227	-0.002251	-0.010354	-0.026083	7050.002244	47599.489182	4059.821049	25251.037768
79.036000	-0.004173	-0.002340	-0.011511	-0.025418	7063.026658	47522.133652	4055.174020	25216.954339
79.536000	-0.007666	-0.002798	-0.008058	-0.025311	7029.350203	47464.418723	4063.725459	25211.509746
80.036000	-0.007622	-0.002162	-0.011591	-0.024465	7021.888687	47442.850282	4052.549488	25168.220327
80.537000	-0.006261	-0.002160	-0.012545	-0.024455	7034.468128	47442.010060	4050.103773	25167.703060
81.037000	-0.006126	-0.002080	-0.012357	-0.023448	7026.339351	47347.390563	4048.030856	25116.310665
81.537500	-0.006928	-0.002375	-0.013594	-0.023890	7022.987432	47362.273116	4046.023093	25138.845055
82.037500	-0.007135	-0.002505	-0.008922	-0.023917	7021.320440	47351.787506	4057.948965	25140.228856
82.535500	-0.008414	-0.001817	-0.014014	-0.023407	7004.712135	47369.989236	4043.744920	25114.190161
83.035500	-0.007090	-0.002540	-0.012595	-0.023010	7013.311034	47255.780573	4046.321976	25093.971110
83.535500	-0.007595	-0.002705	-0.005017	-0.023592	7014.021824	47298.228717	4067.120324	25123.638637
84.036000	-0.004930	-0.002380	-0.010719	-0.023023	7033.526749	47273.388487	4051.103858	25094.668526
84.536000	-0.007156	-0.001789	-0.010254	-0.022017	7003.496045	47231.120172	4049.731335	25043.455476
85.036500	-0.006264	-0.002872	-0.012407	-0.022425	7015.548792	47162.484499	4045.321357	25064.209756
85.537000	-0.005383	-0.001777	-0.010761	-0.021821	7018.120600	47212.357000	4047.951673	25033.501855
86.037000	-0.006944	-0.002245	-0.006899	-0.021919	7004.554868	47174.729874	4058.012002	25038.492383
86.537500	-0.007475	-0.002449	-0.012956	-0.021710	6997.702014	47132.712342	4042.134985	25027.856835
87.035000	-0.006764	-0.001295	-0.009291	-0.020405	6992.213180	47117.421296	4048.088866	24961.691785
87.535500	-0.007048	-0.002032	-0.005769	-0.021010	6995.178824	47104.073434	4058.574358	24992.355197
88.036000	-0.008580	-0.002097	-0.008937	-0.020012	6971.874783	46996.298118	4047.990885	24941.816344
88.535000	-0.006259	-0.001393	-0.006646	-0.019213	6985.880696	46986.710720	4051.769308	24901.450787
89.036500	-0.006970	-0.001295	-0.006191	-0.019373	6980.807634	47012.820264	4053.331836	24909.542415
89.536000	-0.004062	-0.001335	-0.009682	-0.019261	7006.627651	46997.370977	4044.213978	24903.856664
90.036500	-0.009066	-0.000932	-0.006444	-0.018006	6949.064779	46911.247653	4049.224269	24840.610190
90.537000	-0.006755	-0.001283	-0.008471	-0.018008	6970.239314	46875.956695	4044.107063	24840.691652
91.037500	-0.005378	-0.001509	-0.011892	-0.018042	6983.211158	46856.641786	4035.608522	24842.414969
91.535000	-0.006282	-0.001174	-0.007401	-0.017516	6970.055515	46837.252938	4045.563658	24815.910446
92.035500	-0.005613	-0.001489	-0.010070	-0.017546	6976.475550	46808.484683	4038.926820	24817.428312
92.535500	-0.006098	-0.001596	-0.009313	-0.017400	6970.679643	46783.028556	4040.459982	24810.092915
93.035500	-0.007301	-0.002094	-0.007149	-0.017659	6962.026394	46758.907844	4046.563141	24823.114337
93.536000	-0.004658	-0.001484	-0.005697	-0.016538	6975.989668	46707.554503	4047.398542	24766.794256
94.124000	-0.006331	-0.000638	-0.010941	-0.015564	6951.730118	46694.618686	4031.795310	24717.976887
94.537000	-0.005599	-0.000833	-0.001916	-0.015694	6959.615657	46688.060094	4054.846286	24724.479232
95.037000	-0.004030	-0.001157	-0.013159	-0.015782	6974.812067	46664.386987	4026.822510	24728.880874
95.537000	-0.005172	-0.001096	-0.011567	-0.015693	6963.526830	46661.647215	4030.558105	24724.459832
96.034500	-0.005829	-0.000850	-0.008368	-0.014824	6949.553824	46598.990527	4036.370127	24680.944622
96.534500	-0.003904	-0.000619	-0.007456	-0.014470	6963.928323	46586.661434	4037.766853	24663.257035
