sample name	sample
index	1355
start time	 05-03-2021  01:38:26 PM


Wavelength (nm)	Absorbance
494.344910	-0.244941
494.563924	-0.244941
494.782919	-0.244941
495.001897	0.032210
495.220856	-0.025501
495.439797	0.016327
495.658719	0.035171
495.877624	0.082305
496.096510	0.104415
496.315378	0.110782
496.534227	0.190519
496.753059	0.092934
496.971872	0.052337
497.190667	0.000092
497.409444	0.003924
497.628203	0.005580
497.846943	0.005281
498.065665	0.004699
498.284369	0.003186
498.503055	0.002240
498.721723	0.002313
498.940372	0.001816
499.159003	0.003196
499.377616	0.003111
499.596210	0.002278
499.814787	0.001827
500.033345	0.001814
500.251885	0.003287
500.470406	0.003605
500.688910	0.005024
500.907395	0.005254
501.125862	0.004284
501.344311	0.003535
501.562742	0.004811
501.781154	0.004251
501.999548	0.004211
502.217924	0.003441
502.436282	0.003186
502.654621	0.003207
502.872942	0.002277
503.091245	0.002747
503.309530	0.002728
503.527797	0.000896
503.746045	0.001628
503.964275	0.001487
504.182487	0.001222
504.400681	0.001923
504.618856	0.000876
504.837013	0.001233
505.055152	0.000883
505.273273	0.000424
505.491376	0.001558
505.709460	0.000903
505.927526	0.000821
506.145574	0.000394
506.363604	-0.000361
506.581615	0.000770
506.799608	0.001620
507.017583	0.002510
507.235540	0.002813
507.453478	0.002337
507.671399	0.002913
507.889301	0.002514
508.107185	0.003091
508.325050	0.003354
508.542898	0.002347
508.760727	0.001956
508.978538	0.001283
509.196330	0.001668
509.414105	0.001954
509.631861	0.001708
509.849599	0.001588
510.067319	0.001735
510.285021	0.000834
510.502704	0.001129
510.720369	0.000618
510.938016	0.000726
511.155645	0.000782
511.373255	0.000726
511.590848	0.001096
511.808422	0.001578
512.025977	0.001580
512.243515	0.002305
512.461034	0.001346
512.678536	0.001754
512.896018	0.001041
513.113483	0.000800
513.330930	0.000808
513.548358	0.000304
513.765768	-0.000201
513.983160	-0.000862
514.200533	-0.000801
514.417889	-0.000114
514.635226	-0.000759
514.852545	-0.000519
515.069845	-0.000589
515.287128	-0.000398
515.504392	-0.000170
515.721638	0.000462
515.938866	0.001500
516.156075	0.001507
516.373267	0.001595
516.590440	0.002191
516.807594	0.002762
517.024731	0.002614
517.241850	0.002313
517.458950	0.002242
517.676032	0.001903
517.893095	0.001373
518.110141	0.001557
518.327168	0.001640
518.544177	0.001394
518.761168	0.001233
518.978141	0.001261
519.195095	0.001198
519.412031	0.000923
519.628949	0.000962
519.845849	0.001169
520.062731	0.001121
520.279594	0.001634
520.496439	0.002026
520.713266	0.002076
520.930074	0.002420
521.146865	0.002508
521.363637	0.002876
521.580391	0.003002
521.797127	0.002624
522.013844	0.002605
522.230543	0.001367
522.447224	0.001505
522.663887	0.001054
522.880532	0.001064
523.097158	0.000548
523.313766	0.001024
523.530356	0.000764
523.746928	0.000874
523.963481	0.000799
524.180017	0.001239
524.396534	0.000608
524.613032	0.000793
524.829513	0.000942
525.045975	0.002277
525.262420	0.001809
525.478845	0.001544
525.695253	0.001531
525.911643	0.001298
526.128014	0.001595
526.344367	0.001808
526.560702	0.002345
526.777018	0.002317
526.993316	0.001997
527.209597	0.001710
527.425858	0.001786
527.642102	0.002435
527.858328	0.003425
528.074535	0.003517
528.290724	0.003892
528.506894	0.003798
528.723047	0.003842
528.939181	0.003781
529.155297	0.004542
529.371395	0.005468
529.587475	0.005199
529.803536	0.004927
530.019579	0.005395
530.235604	0.005842
530.451611	0.005784
530.667600	0.005737
530.883570	0.005752
531.099522	0.005461
531.315456	0.005553
531.531372	0.005328
531.747269	0.005365
531.963148	0.004928
532.179009	0.005001
532.394852	0.005746
532.610676	0.005949
532.826482	0.006650
533.042271	0.007438
533.258040	0.007378
533.473792	0.008139
533.689525	0.008412
533.905240	0.009191
534.120937	0.009484
534.336616	0.009153
534.552277	0.009806
534.767919	0.009434
534.983543	0.008843
535.199149	0.009226
535.414736	0.009537
535.630306	0.009797
535.845857	0.009901
536.061390	0.009782
536.276904	0.010475
536.492401	0.010406
536.707879	0.011053
536.923339	0.012007
537.138781	0.012180
537.354204	0.011967
537.569610	0.011527
537.784997	0.011476
538.000366	0.012042
538.215716	0.011420
538.431049	0.011442
538.646363	0.011111
538.861659	0.010880
539.076937	0.010793
539.292196	0.010897
539.507438	0.011190
539.722661	0.011396
539.937866	0.011223
540.153052	0.011509
540.368221	0.012043
540.583371	0.012476
540.798503	0.012514
541.013617	0.012640
541.228712	0.012557
541.443789	0.012805
541.658848	0.012968
541.873889	0.013388
542.088912	0.013880
542.303916	0.013569
542.518902	0.013759
542.733870	0.014024
542.948820	0.014210
543.163752	0.014569
543.378665	0.014475
543.593560	0.014300
543.808437	0.014113
544.023295	0.013883
544.238136	0.014033
544.452958	0.013993
544.667762	0.013965
544.882548	0.014070
545.097315	0.014275
545.312064	0.014793
545.526795	0.015291
545.741508	0.015319
545.956203	0.015925
546.170879	0.016144
546.385537	0.015904
546.600177	0.015988
546.814799	0.016039
547.029402	0.015375
547.243988	0.015374
547.458555	0.014925
547.673103	0.015140
547.887634	0.015157
548.102146	0.014669
548.316640	0.015214
548.531116	0.015377
548.745574	0.015686
548.960013	0.016408
549.174435	0.016143
549.388838	0.016487
549.603222	0.016306
549.817589	0.015801
550.031937	0.016360
550.246267	0.016394
550.460579	0.016416
550.674873	0.016586
550.889148	0.016891
551.103405	0.017695
551.317644	0.017977
551.531865	0.018324
551.746068	0.019049
551.960252	0.019008
552.174418	0.019020
552.388566	0.019274
552.602696	0.019246
552.816807	0.018895
553.030900	0.018748
553.244975	0.018717
553.459032	0.018869
553.673070	0.018670
553.887091	0.019057
554.101093	0.019632
554.315077	0.019868
554.529042	0.019801
554.742990	0.020358
554.956919	0.020407
555.170830	0.020558
555.384722	0.020805
555.598597	0.021281
555.812453	0.021345
556.026291	0.021197
556.240111	0.020934
556.453913	0.021002
556.667696	0.020806
556.881461	0.020934
557.095208	0.021025
557.308937	0.020879
557.522647	0.020604
557.736339	0.020547
557.950013	0.020244
558.163669	0.020358
558.377307	0.020502
558.590926	0.020777
558.804527	0.020859
559.018110	0.020740
559.231675	0.020692
559.445221	0.020475
559.658749	0.020662
559.872259	0.020836
560.085751	0.020820
560.299225	0.020904
560.512680	0.020572
560.726117	0.020491
560.939536	0.020466
561.152937	0.020642
561.366319	0.020916
561.579683	0.020783
561.793029	0.020832
562.006357	0.020728
562.219667	0.020702
562.432958	0.020809
562.646231	0.020649
562.859486	0.020917
563.072723	0.020883
563.285941	0.020693
563.499141	0.020829
563.712323	0.020884
563.925487	0.021221
564.138632	0.021105
564.351760	0.021343
564.564869	0.021425
564.777960	0.021085
564.991032	0.021015
565.204087	0.021010
565.417123	0.020963
565.630141	0.020763
565.843140	0.020605
566.056122	0.020816
566.269085	0.020701
566.482030	0.020784
566.694957	0.021115
566.907866	0.021491
567.120756	0.021598
567.333628	0.021597
567.546482	0.021688
567.759318	0.021743
567.972135	0.021638
568.184935	0.021666
568.397716	0.021614
568.610478	0.021555
568.823223	0.021341
569.035949	0.021782
569.248657	0.022231
569.461347	0.022147
569.674019	0.021866
569.886672	0.021732
570.099308	0.021561
570.311925	0.021326
570.524523	0.021198
570.737104	0.021112
570.949666	0.021074
571.162210	0.020426
571.374736	0.020679
571.587244	0.020802
571.799733	0.020954
572.012205	0.020996
572.224658	0.021360
572.437092	0.021595
572.649509	0.021688
572.861907	0.021145
573.074287	0.021175
573.286649	0.021164
573.498993	0.021289
573.711318	0.021038
573.923625	0.021300
574.135914	0.021367
574.348185	0.021352
574.560438	0.021170
574.772672	0.021703
574.984888	0.021708
575.197086	0.021338
575.409266	0.021352
575.621427	0.021599
575.833570	0.021573
576.045695	0.021317
576.257802	0.021127
576.469890	0.021339
576.681961	0.021237
576.894013	0.021564
577.106046	0.021756
577.318062	0.021842
577.530059	0.021831
577.742039	0.021968
577.954000	0.021882
578.165942	0.021798
578.377867	0.021685
578.589773	0.021693
578.801661	0.021395
579.013531	0.021593
579.225382	0.021552
579.437216	0.021662
579.649031	0.021765
579.860828	0.022104
580.072606	0.022485
580.284367	0.022658
580.496109	0.022656
580.707833	0.022972
580.919539	0.023171
581.131227	0.023482
581.342896	0.023656
581.554547	0.023246
581.766180	0.023230
581.977795	0.022821
582.189391	0.022597
582.400969	0.022434
582.612529	0.022494
582.824071	0.021899
583.035595	0.021707
583.247100	0.021560
583.458587	0.021733
583.670056	0.021662
583.881506	0.022086
584.092939	0.022296
584.304353	0.022529
584.515749	0.022393
584.727127	0.022558
584.938486	0.022401
585.149828	0.022393
585.361151	0.022313
585.572456	0.022322
585.783742	0.022392
585.995011	0.022392
586.206261	0.022275
586.417493	0.022443
586.628706	0.022610
586.839902	0.022930
587.051079	0.022769
587.262238	0.022525
587.473379	0.022797
587.684502	0.022674
587.895606	0.022859
588.106692	0.022803
588.317760	0.022682
588.528810	0.022883
588.739841	0.022703
588.950855	0.022825
589.161850	0.023154
589.372827	0.022936
589.583785	0.023248
589.794726	0.022979
590.005648	0.023387
590.216552	0.023309
590.427437	0.023396
590.638305	0.023695
590.849154	0.023826
591.059985	0.024059
591.270798	0.024496
591.481592	0.024000
591.692369	0.024120
591.903127	0.024142
592.113867	0.024594
592.324588	0.024354
592.535292	0.024309
592.745977	0.024503
592.956644	0.024740
593.167293	0.024402
593.377923	0.024940
593.588536	0.025092
593.799130	0.024742
594.009706	0.024612
594.220263	0.024626
594.430803	0.024688
594.641324	0.024752
594.851827	0.024258
595.062312	0.024616
595.272778	0.024208
595.483227	0.023847
595.693657	0.024293
595.904069	0.024577
596.114462	0.024820
596.324838	0.024405
596.535195	0.023989
596.745534	0.024539
596.955855	0.024363
597.166157	0.024562
597.376441	0.025012
597.586707	0.025041
597.796955	0.025005
598.007185	0.024864
598.217396	0.025324
598.427589	0.025505
598.637764	0.025428
598.847921	0.025651
599.058060	0.025455
599.268180	0.025552
599.478282	0.025549
599.688366	0.025557
599.898431	0.025917
600.108479	0.026011
600.318508	0.026175
600.528519	0.026233
600.738511	0.026367
600.948486	0.026724
601.158442	0.026533
601.368380	0.026430
601.578300	0.026516
601.788202	0.026449
601.998085	0.026502
602.207950	0.026960
602.417797	0.027229
602.627626	0.027335
602.837436	0.027572
603.047228	0.028002
603.257002	0.028275
603.466758	0.028263
603.676496	0.028619
603.886215	0.028728
604.095916	0.028521
604.305599	0.028187
604.515264	0.028128
604.724910	0.027954
604.934538	0.027876
605.144148	0.027841
605.353740	0.027724
605.563314	0.027568
605.772869	0.027536
605.982406	0.027501
606.191925	0.027683
606.401425	0.027609
606.610908	0.027923
606.820372	0.027841
607.029818	0.027801
607.239246	0.028052
607.448655	0.027965
607.658047	0.027869
607.867420	0.027992
608.076775	0.028169
608.286111	0.028205
608.495430	0.028086
608.704730	0.028225
608.914012	0.028372
609.123275	0.028350
609.332521	0.028253
609.541748	0.028194
609.750957	0.028182
609.960148	0.028017
610.169321	0.027986
610.378475	0.028153
610.587611	0.028396
610.796729	0.028402
611.005829	0.028279
611.214910	0.028750
611.423974	0.029057
611.633019	0.029140
611.842045	0.029324
612.051054	0.029652
612.260044	0.029657
612.469017	0.029731
612.677970	0.030191
612.886906	0.030661
613.095824	0.030442
613.304723	0.030480
613.513604	0.030646
613.722467	0.030485
613.931311	0.030234
614.140138	0.030370
614.348946	0.030398
614.557736	0.030008
614.766507	0.029885
614.975261	0.030211
615.183996	0.030264
615.392713	0.030198
615.601412	0.030398
615.810092	0.030489
616.018754	0.030454
616.227399	0.030381
616.436024	0.030374
616.644632	0.030391
616.853222	0.030253
617.061793	0.030353
617.270346	0.030502
617.478880	0.030596
617.687397	0.030717
617.895895	0.030716
618.104375	0.030713
618.312837	0.030964
618.521281	0.031308
618.729706	0.031448
618.938113	0.031613
619.146502	0.031693
619.354873	0.031740
619.563226	0.031924
619.771560	0.032082
619.979876	0.032376
620.188174	0.032523
620.396453	0.032452
620.604715	0.032746
620.812958	0.032698
621.021183	0.032658
621.229390	0.032918
621.437578	0.032916
621.645748	0.033054
621.853900	0.033163
622.062034	0.033250
622.270150	0.033147
622.478247	0.033218
622.686326	0.033521
622.894387	0.033620
623.102430	0.033508
623.310454	0.033523
623.518461	0.033625
623.726449	0.033628
623.934418	0.033661
624.142370	0.033848
624.350303	0.033619
624.558218	0.033604
624.766115	0.033852
624.973994	0.033954
625.181855	0.034293
625.389697	0.034074
625.597521	0.034068
625.805327	0.033993
626.013114	0.033973
626.220883	0.033957
626.428634	0.033746
626.636367	0.033725
626.844082	0.033954
627.051778	0.033806
627.259457	0.033780
627.467117	0.033780
627.674758	0.033958
627.882382	0.034252
628.089987	0.034514
628.297574	0.034555
628.505143	0.034663
628.712694	0.034721
628.920226	0.034985
629.127740	0.035411
629.335236	0.035469
629.542714	0.035478
629.750174	0.035360
629.957615	0.035451
630.165038	0.035699
630.372443	0.035874
630.579829	0.035870
630.787198	0.035879
630.994548	0.036073
631.201880	0.036370
631.409194	0.036449
631.616489	0.036421
631.823766	0.036638
632.031025	0.036616
632.238266	0.036675
632.445489	0.036629
632.652693	0.036638
632.859879	0.036744
633.067047	0.036647
633.274197	0.036602
633.481329	0.036830
633.688442	0.036830
633.895537	0.037128
634.102614	0.036864
634.309672	0.036902
634.516713	0.036978
634.723735	0.036692
634.930739	0.036736
635.137724	0.037149
635.344692	0.037248
635.551641	0.037205
635.758572	0.037086
635.965485	0.037303
636.172379	0.037393
636.379256	0.037469
636.586114	0.037648
636.792954	0.037656
636.999775	0.037395
637.206579	0.037206
637.413364	0.037292
637.620131	0.037214
637.826880	0.037055
638.033610	0.037067
638.240323	0.037018
638.447017	0.036809
638.653692	0.036719
638.860350	0.036582
639.066990	0.036633
639.273611	0.036466
639.480214	0.036582
639.686798	0.036703
639.893365	0.036797
640.099913	0.036803
640.306443	0.037065
640.512955	0.037145
640.719449	0.037311
640.925924	0.037598
641.132381	0.037787
641.338820	0.037819
641.545241	0.037846
641.751644	0.038055
641.958028	0.038316
642.164394	0.038257
642.370742	0.038505
642.577071	0.038653
642.783383	0.038399
642.989676	0.038518
643.195951	0.038840
643.402207	0.038993
643.608446	0.038959
643.814666	0.038945
644.020868	0.039183
644.227052	0.039305
644.433218	0.039576
644.639365	0.039851
644.845494	0.039867
645.051605	0.039985
645.257698	0.040228
645.463772	0.040257
645.669828	0.040538
645.875866	0.040611
646.081886	0.040622
646.287888	0.040503
646.493871	0.040741
646.699836	0.040894
646.905783	0.040825
647.111712	0.040722
647.317622	0.040783
647.523514	0.040731
647.729388	0.040872
647.935244	0.040987
648.141082	0.041025
648.346901	0.040954
648.552702	0.040846
648.758485	0.040723
648.964250	0.040886
649.169996	0.040964
649.375724	0.041024
649.581434	0.041039
649.787126	0.041005
649.992800	0.041087
650.198455	0.041142
650.404092	0.041480
650.609711	0.041704
650.815311	0.041743
651.020894	0.041812
651.226458	0.041811
651.432004	0.041647
651.637532	0.041716
651.843041	0.041843
652.048532	0.041783
652.254006	0.041538
652.459460	0.041493
652.664897	0.041465
652.870315	0.041611
653.075716	0.041496
653.281097	0.041774
653.486461	0.041941
653.691807	0.042020
653.897134	0.042376
654.102443	0.042667
654.307734	0.042940
654.513006	0.043280
654.718261	0.043500
654.923497	0.043896
655.128715	0.043978
655.333915	0.044184
655.539096	0.044260
655.744259	0.044208
655.949404	0.044201
656.154531	0.044199
656.359640	0.044175
656.564730	0.043892
656.769802	0.043893
656.974856	0.043901
657.179892	0.043964
657.384909	0.043937
657.589908	0.043797
657.794889	0.043767
657.999852	0.043762
658.204797	0.043633
658.409723	0.043660
658.614631	0.043407
658.819521	0.043216
659.024393	0.042820
659.229246	0.042723
659.434081	0.042663
659.638898	0.042507
659.843697	0.042438
660.048478	0.042377
660.253240	0.042156
660.457984	0.042211
660.662710	0.042181
660.867417	0.042335
661.072107	0.042343
661.276778	0.042466
661.481431	0.042431
661.686066	0.042460
661.890682	0.042552
662.095281	0.043126
662.299861	0.043243
662.504422	0.043557
662.708966	0.043832
662.913491	0.044028
663.117999	0.044082
663.322488	0.044332
663.526958	0.044497
663.731411	0.044523
663.935845	0.044424
664.140261	0.044741
664.344659	0.044776
664.549038	0.044882
664.753400	0.045080
664.957743	0.045346
665.162068	0.045499
665.366375	0.045651
665.570663	0.046021
665.774933	0.046254
665.979185	0.046127
666.183419	0.046109
666.387635	0.046147
666.591832	0.046334
666.796011	0.046305
667.000172	0.046410
667.204315	0.046384
667.408439	0.046407
667.612545	0.046376
667.816634	0.046477
668.020703	0.046745
668.224755	0.046546
668.428788	0.046404
668.632803	0.046438
668.836800	0.046493
669.040779	0.046544
669.244739	0.046744
669.448681	0.046718
669.652605	0.046850
669.856511	0.046867
670.060399	0.047036
670.264268	0.047190
670.468119	0.047358
670.671952	0.047492
670.875767	0.047631
671.079563	0.047458
671.283341	0.047578
671.487101	0.047522
671.690843	0.047707
671.894567	0.047767
672.098272	0.047883
672.301959	0.048065
672.505628	0.048191
672.709278	0.048307
672.912911	0.048701
673.116525	0.048941
673.320121	0.049261
673.523699	0.049284
673.727258	0.049479
673.930799	0.049537
674.134322	0.049664
674.337827	0.049618
674.541314	0.049713
674.744782	0.049778
674.948232	0.049750
675.151664	0.049808
675.355078	0.049927
675.558474	0.050051
675.761851	0.050097
675.965210	0.050100
676.168551	0.050176
676.371873	0.050207
676.575178	0.049957
676.778464	0.050120
676.981732	0.049919
677.184981	0.049844
677.388213	0.049887
677.591426	0.049770
677.794621	0.049801
677.997798	0.049853
678.200956	0.049962
678.404097	0.049992
678.607219	0.049912
678.810323	0.050114
679.013408	0.050184
679.216476	0.050085
679.419525	0.050241
679.622556	0.050198
679.825569	0.050250
680.028563	0.050399
680.231540	0.050507
680.434498	0.050725
680.637438	0.050903
680.840359	0.051137
681.043263	0.051234
681.246148	0.051428
681.449015	0.051545
681.651864	0.051689
681.854694	0.051504
682.057506	0.051854
682.260301	0.051813
682.463076	0.051762
682.665834	0.052006
682.868573	0.052420
683.071295	0.052490
683.273998	0.052550
683.476682	0.052699
683.679349	0.053011
683.881997	0.053025
684.084627	0.053374
684.287239	0.053510
684.489833	0.053323
684.692408	0.053292
684.894965	0.053403
685.097504	0.053490
685.300025	0.053554
685.502527	0.053409
685.705012	0.053244
685.907478	0.052953
686.109925	0.052906
686.312355	0.053090
686.514766	0.053037
686.717159	0.053000
686.919534	0.053113
687.121891	0.053173
687.324230	0.053472
687.526550	0.053635
687.728852	0.053587
687.931136	0.053730
688.133401	0.053784
688.335649	0.053860
688.537878	0.054027
688.740089	0.054178
688.942281	0.054297
689.144456	0.054428
689.346612	0.054700
689.548750	0.055036
689.750870	0.055058
689.952971	0.055035
690.155055	0.055101
690.357120	0.054927
690.559167	0.055084
690.761195	0.055152
690.963206	0.055072
691.165198	0.055049
691.367172	0.055275
691.569128	0.055332
691.771065	0.055624
691.972984	0.055621
692.174885	0.055946
692.376768	0.055907
692.578633	0.056003
692.780479	0.056033
692.982308	0.055967
693.184118	0.055932
693.385909	0.056090
693.587683	0.055968
693.789438	0.056204
693.991175	0.056296
694.192894	0.056235
694.394595	0.056245
694.596277	0.056233
694.797941	0.056481
694.999587	0.056419
695.201215	0.056276
695.402824	0.056286
695.604416	0.056281
695.805989	0.056301
696.007543	0.056425
696.209080	0.056583
696.410598	0.056845
696.612099	0.056957
696.813580	0.057042
697.015044	0.057195
697.216490	0.057383
697.417917	0.057428
697.619326	0.057430
697.820717	0.057438
698.022089	0.057403
698.223444	0.057349
698.424780	0.057328
698.626098	0.057602
698.827397	0.057941
699.028679	0.057980
699.229942	0.058037
699.431187	0.058270
699.632414	0.058418
699.833622	0.058514
700.034813	0.058696
700.235985	0.058698
700.437139	0.058506
700.638274	0.058309
700.839392	0.058243
701.040491	0.058283
701.241572	0.058235
701.442635	0.058310
701.643679	0.058394
701.844706	0.058576
702.045714	0.058539
702.246704	0.058591
702.447675	0.058626
702.648629	0.058556
702.849564	0.058456
703.050481	0.058439
703.251380	0.058449
703.452260	0.058348
703.653122	0.058245
703.853966	0.058307
704.054792	0.058264
704.255600	0.058219
704.456389	0.058130
704.657160	0.058224
704.857913	0.058221
705.058648	0.058146
705.259365	0.058254
705.460063	0.058079
705.660743	0.057948
705.861405	0.057944
706.062048	0.058029
706.262674	0.058187
706.463281	0.058050
706.663870	0.057976
706.864441	0.057841
707.064993	0.057478
707.265527	0.057400
707.466043	0.057496
707.666541	0.057373
707.867021	0.057361
708.067482	0.057324
708.267925	0.057528
708.468350	0.057434
708.668757	0.057443
708.869145	0.057631
709.069516	0.057677
709.269868	0.057653
709.470201	0.057638
709.670517	0.057561
709.870814	0.057625
710.071093	0.057528
710.271354	0.057507
710.471597	0.057527
710.671821	0.057622
710.872028	0.057703
711.072216	0.057609
711.272385	0.057874
711.472537	0.057932
711.672670	0.057965
711.872785	0.058016
712.072882	0.058072
712.272961	0.058289
712.473021	0.058161
712.673063	0.058091
712.873087	0.058208
713.073093	0.057853
713.273081	0.057815
713.473050	0.057758
713.673001	0.057572
713.872934	0.057497
714.072849	0.057229
714.272745	0.057267
714.472623	0.057161
714.672483	0.057296
714.872325	0.057455
715.072148	0.057385
715.271954	0.057327
715.471741	0.057560
715.671509	0.057605
715.871260	0.057832
716.070992	0.057830
716.270707	0.057852
716.470403	0.057639
716.670080	0.057914
716.869740	0.058099
717.069381	0.058315
717.269004	0.058317
717.468609	0.058483
717.668195	0.058365
717.867764	0.058273
718.067314	0.058343
718.266846	0.058377
718.466360	0.057995
718.665855	0.057874
718.865332	0.057619
719.064791	0.057340
719.264232	0.057026
719.463655	0.056833
719.663059	0.056763
719.862445	0.056525
720.061813	0.056242
720.261163	0.056256
720.460494	0.056055
720.659807	0.055814
720.859102	0.055510
721.058379	0.055330
721.257638	0.055367
721.456878	0.055199
721.656100	0.055209
721.855304	0.055239
722.054490	0.055152
722.253657	0.054874
722.452806	0.054956
722.651937	0.054972
722.851050	0.055103
723.050145	0.054853
723.249221	0.054840
723.448279	0.054565
723.647319	0.054482
723.846340	0.054430
724.045344	0.054733
724.244329	0.054613
724.443296	0.054609
724.642245	0.054383
724.841175	0.054413
725.040088	0.054389
725.238982	0.054401
725.437857	0.054432
725.636715	0.054269
725.835554	0.054047
726.034376	0.053844
726.233179	0.054141
726.431963	0.054225
726.630730	0.054192
726.829478	0.054234
727.028208	0.054480
727.226920	0.054295
727.425614	0.054268
727.624289	0.054369
727.822946	0.054596
728.021585	0.054364
728.220206	0.054452
728.418808	0.054535
728.617392	0.054571
728.815958	0.054332
729.014506	0.054268
729.213036	0.054323
729.411547	0.054122
729.610040	0.053683
729.808515	0.053511
730.006972	0.053362
730.205410	0.053214
730.403831	0.052998
730.602233	0.052987
730.800616	0.053022
730.998982	0.052851
731.197329	0.052941
731.395658	0.053160
731.593969	0.053136
731.792262	0.053159
731.990536	0.053010
732.188793	0.052884
732.387031	0.052755
732.585250	0.052767
732.783452	0.052778
732.981635	0.052552
733.179800	0.052403
733.377947	0.052382
733.576076	0.051924
733.774186	0.051785
733.972278	0.051795
734.170352	0.051593
734.368408	0.051483
734.566446	0.051327
734.764465	0.051160
734.962466	0.051190
735.160449	0.050953
735.358413	0.050914
735.556360	0.050787
735.754288	0.050931
735.952198	0.051027
736.150090	0.051066
736.347963	0.051244
736.545818	0.051273
736.743655	0.051390
736.941474	0.051638
737.139275	0.052030
737.337057	0.052239
737.534821	0.052019
737.732567	0.052186
737.930295	0.052162
738.128005	0.052149
738.325696	0.052381
738.523369	0.052508
738.721024	0.052427
738.918660	0.052295
739.116279	0.052170
739.313879	0.052220
739.511461	0.052145
739.709024	0.052121
739.906570	0.052185
740.104097	0.052329
740.301606	0.052182
740.499097	0.052137
740.696569	0.051971
740.894024	0.051967
741.091460	0.051918
741.288878	0.051994
741.486277	0.051925
741.683659	0.051685
741.881022	0.051198
742.078367	0.051031
742.275694	0.050994
742.473002	0.051146
742.670293	0.051166
742.867565	0.051124
743.064819	0.050902
743.262054	0.050751
743.459272	0.050826
743.656471	0.051009
743.853652	0.051144
744.050815	0.051137
744.247959	0.051120
744.445085	0.051121
744.642194	0.051128
744.839283	0.051197
745.036355	0.051370
745.233408	0.051297
745.430444	0.051234
745.627461	0.051005
745.824459	0.050944
746.021440	0.050742
746.218402	0.050751
746.415346	0.050585
746.612272	0.050487
746.809180	0.050265
747.006069	0.050013
747.202940	0.049954
747.399793	0.050027
747.596628	0.049847
747.793444	0.049940
747.990243	0.049732
748.187023	0.049858
748.383784	0.049982
748.580528	0.049948
748.777253	0.050076
748.973960	0.050022
749.170649	0.049903
749.367320	0.050013
749.563973	0.049945
749.760607	0.049992
749.957223	0.049978
750.153821	0.049849
750.350400	0.049916
750.546962	0.049816
750.743505	0.049745
750.940030	0.049796
751.136536	0.049857
751.333025	0.049993
751.529495	0.049966
751.725947	0.049942
751.922381	0.049937
752.118796	0.049954
752.315194	0.050057
752.511573	0.050092
752.707934	0.050050
752.904276	0.050062
753.100601	0.049818
753.296907	0.049909
753.493195	0.049781
753.689465	0.049583
753.885716	0.049555
754.081949	0.049536
754.278164	0.049453
754.474361	0.049426
754.670540	0.049113
754.866700	0.049196
755.062843	0.049108
755.258967	0.048887
755.455072	0.048777
755.651160	0.048491
755.847229	0.048367
756.043280	0.048291
756.239313	0.047905
756.435328	0.047855
756.631324	0.047653
756.827302	0.047582
757.023262	0.047640
757.219204	0.047741
757.415127	0.047646
757.611033	0.047482
757.806920	0.047326
758.002788	0.047395
758.198639	0.047377
758.394471	0.047442
758.590286	0.047329
758.786081	0.047313
758.981859	0.047108
759.177619	0.047050
759.373360	0.047098
759.569083	0.047045
759.764788	0.047028
759.960474	0.047117
760.156143	0.046891
760.351793	0.046805
760.547425	0.046677
760.743038	0.046667
760.938634	0.046910
761.134211	0.046917
761.329770	0.046813
761.525311	0.046903
761.720833	0.046702
761.916338	0.046917
762.111824	0.046924
762.307292	0.046963
762.502741	0.046888
762.698173	0.046742
762.893586	0.046737
763.088981	0.046889
763.284358	0.046811
763.479716	0.046862
763.675057	0.046902
763.870379	0.046905
764.065683	0.046971
764.260968	0.046892
764.456236	0.046884
764.651485	0.046688
764.846716	0.046672
765.041929	0.046471
765.237123	0.046495
765.432299	0.046242
765.627457	0.046103
765.822597	0.045904
766.017719	0.046086
766.212822	0.045943
766.407907	0.046064
766.602974	0.045933
766.798023	0.046075
766.993054	0.046053
767.188066	0.045897
767.383060	0.045919
767.578036	0.045934
767.772993	0.045588
767.967933	0.045668
768.162854	0.045529
768.357757	0.045567
768.552642	0.045568
768.747508	0.045663
768.942356	0.045578
769.137186	0.045871
769.331998	0.045885
769.526792	0.046251
769.721567	0.046218
769.916324	0.046192
770.111063	0.046138
770.305784	0.046231
770.500486	0.046120
770.695171	0.046327
770.889837	0.046050
771.084484	0.046053
771.279114	0.045625
771.473725	0.045491
771.668318	0.045390
771.862893	0.045477
772.057450	0.045377
772.251988	0.045263
772.446509	0.045229
772.641011	0.045144
772.835494	0.044955
773.029960	0.045270
773.224407	0.045349
773.418836	0.045401
773.613247	0.045290
773.807640	0.045017
774.002014	0.044874
774.196370	0.044722
774.390708	0.044642
774.585028	0.044605
774.779330	0.044454
774.973613	0.044293
775.167878	0.044124
775.362125	0.044003
775.556354	0.044012
775.750564	0.043994
775.944756	0.043793
776.138930	0.044018
776.333086	0.044265
776.527223	0.044285
776.721343	0.044362
776.915444	0.044495
777.109526	0.044643
777.303591	0.044806
777.497637	0.044938
777.691666	0.045256
777.885676	0.045091
778.079667	0.044856
778.273641	0.044773
778.467596	0.044823
778.661533	0.044935
778.855452	0.044803
779.049352	0.044866
779.243235	0.044856
779.437099	0.044955
779.630945	0.045028
779.824773	0.045095
780.018582	0.045434
780.212373	0.045679
780.406146	0.045743
780.599901	0.045940
780.793638	0.045922
780.987356	0.046231
781.181056	0.046195
781.374738	0.046219
781.568402	0.046351
781.762047	0.046106
781.955674	0.045879
782.149283	0.045683
782.342874	0.045754
782.536447	0.046023
782.730001	0.045636
782.923537	0.045527
783.117055	0.045400
783.310555	0.045327
783.504036	0.045383
783.697499	0.045430
783.890944	0.045655
784.084371	0.045597
784.277780	0.045333
784.471170	0.045552
784.664542	0.045623
784.857896	0.045638
785.051231	0.045608
785.244549	0.045741
785.437848	0.045851
785.631129	0.045717
785.824392	0.045789
786.017636	0.046003
786.210863	0.045763
786.404071	0.045782
786.597260	0.045828
786.790432	0.045846
786.983585	0.045797
787.176721	0.045586
787.369838	0.045515
787.562936	0.045310
787.756017	0.045082
787.949079	0.045279
788.142123	0.045257
788.335149	0.045455
788.528156	0.045401
788.721146	0.045417
788.914117	0.045672
789.107070	0.046003
789.300005	0.046175
789.492921	0.046271
789.685819	0.046458
789.878699	0.046608
790.071561	0.046715
790.264405	0.047013
790.457230	0.047131
790.650037	0.047024
790.842826	0.046917
791.035597	0.046822
791.228349	0.046778
791.421084	0.046804
791.613800	0.046859
791.806497	0.046834
791.999177	0.046967
792.191838	0.046892
792.384481	0.047128
792.577106	0.047304
792.769713	0.047689
792.962301	0.047897
793.154871	0.047963
793.347423	0.047979
793.539957	0.048070
793.732473	0.048270
793.924970	0.048494
794.117449	0.048493
794.309910	0.048406
794.502353	0.048429
794.694777	0.048695
794.887183	0.048662
795.079571	0.048884
795.271941	0.048754
795.464293	0.048757
795.656626	0.048903
795.848941	0.049117
796.041238	0.049496
796.233516	0.049588
796.425777	0.049706
796.618019	0.050027
796.810243	0.050284
797.002449	0.050629
797.194636	0.050577
797.386805	0.050627
797.578956	0.050664
797.771089	0.050450
797.963204	0.050458
798.155300	0.050294
798.347378	0.050125
798.539438	0.049868
798.731480	0.049845
798.923503	0.049887
799.115509	0.049859
799.307496	0.049753
799.499465	0.049954
799.691415	0.050004
799.883348	0.049930
800.075262	0.050008
800.267158	0.049965
800.459035	0.049992
800.650895	0.049823
800.842736	0.049949
801.034559	0.049851
801.226364	0.049595
801.418150	0.049610
801.609919	0.049801
801.801669	0.049754
801.993401	0.049911
802.185114	0.049906
802.376810	0.050212
802.568487	0.050163
802.760146	0.050506
802.951787	0.050798
803.143409	0.051015
803.335014	0.050902
803.526600	0.051150
803.718168	0.051230
803.909717	0.051285
804.101249	0.051432
804.292762	0.051456
804.484257	0.051403
804.675734	0.051382
804.867192	0.051283
805.058632	0.051677
805.250054	0.051773
805.441458	0.051844
805.632844	0.051928
805.824211	0.051865
806.015561	0.051868
806.206891	0.051948
806.398204	0.052118
806.589499	0.052328
806.780775	0.052183
806.972033	0.052168
807.163273	0.052253
807.354495	0.052177
807.545698	0.052324
807.736883	0.052666
807.928050	0.052768
808.119199	0.052889
808.310329	0.052889
808.501441	0.052902
808.692535	0.053156
808.883611	0.053349
809.074669	0.053771
809.265708	0.053794
809.456729	0.053705
809.647732	0.053837
809.838717	0.053990
810.029683	0.053894
810.220632	0.054224
810.411562	0.054273
810.602474	0.054437
810.793367	0.054368
810.984242	0.054493
811.175100	0.054850
811.365938	0.055012
811.556759	0.055370
811.747562	0.055742
811.938346	0.055704
812.129112	0.055713
812.319860	0.055694
812.510589	0.055811
812.701300	0.056029
812.891994	0.055960
813.082668	0.055973
813.273325	0.055833
813.463964	0.055882
813.654584	0.056027
813.845186	0.056061
814.035769	0.056227
814.226335	0.056282
814.416882	0.056158
814.607411	0.056023
814.797922	0.056019
814.988415	0.055833
815.178889	0.055969
815.369345	0.056027
815.559783	0.056178
815.750203	0.055966
815.940605	0.055975
816.130988	0.055883
816.321353	0.056059
816.511700	0.056319
816.702028	0.056397
816.892339	0.056369
817.082631	0.056492
817.272905	0.056673
817.463161	0.056776
817.653398	0.056853
817.843617	0.057060
818.033819	0.057223
818.224001	0.057319
818.414166	0.057344
818.604312	0.057181
818.794440	0.057116
818.984550	0.056903
819.174642	0.057081
819.364716	0.057269
819.554771	0.057678
819.744808	0.057992
819.934827	0.058003
820.124827	0.058435
820.314810	0.058656
820.504774	0.058950
820.694720	0.059394
820.884647	0.059544
821.074557	0.059468
821.264448	0.059155
821.454321	0.059157
821.644176	0.058994
821.834012	0.059041
822.023831	0.059217
822.213631	0.059205
822.403413	0.059108
822.593176	0.059161
822.782922	0.059451
822.972649	0.059810
823.162358	0.059751
823.352049	0.059930
823.541721	0.060193
823.731376	0.060348
823.921012	0.060453
824.110629	0.060534
824.300229	0.060761
824.489811	0.061064
824.679374	0.061116
824.868919	0.061090
825.058445	0.061491
825.247954	0.061401
825.437444	0.061576
825.626916	0.062011
825.816370	0.062274
826.005806	0.062577
826.195223	0.062584
826.384622	0.062850
826.574003	0.063166
826.763366	0.063310
826.952711	0.063311
827.142037	0.063121
827.331345	0.062893
827.520635	0.062699
827.709906	0.062566
827.899160	0.062379
828.088395	0.062003
828.277612	0.061897
828.466810	0.061727
828.655991	0.061846
828.845153	0.062252
829.034297	0.062295
829.223423	0.062443
829.412531	0.062257
829.601620	0.062513
829.790691	0.062648
829.979744	0.062593
830.168779	0.062469
830.357795	0.062542
830.546793	0.062276
830.735773	0.062406
830.924735	0.062449
831.113679	0.062666
831.302604	0.062685
831.491511	0.063097
831.680400	0.063161
831.869271	0.063559
832.058123	0.063645
832.246957	0.063809
832.435773	0.063973
832.624571	0.064129
832.813351	0.064337
833.002112	0.064621
833.190855	0.064769
833.379580	0.065177
833.568287	0.065314
833.756975	0.065478
833.945645	0.065983
834.134297	0.065887
834.322931	0.065949
834.511547	0.066028
834.700144	0.066034
834.888723	0.066007
835.077284	0.065968
835.265826	0.066046
835.454351	0.066262
835.642857	0.066141
835.831345	0.066640
836.019815	0.067031
836.208266	0.067342
836.396699	0.067779
836.585114	0.068050
836.773511	0.068640
836.961890	0.069083
837.150250	0.069415
837.338592	0.069740
837.526916	0.069732
837.715222	0.070069
837.903510	0.070104
838.091779	0.070045
838.280030	0.070049
838.468263	0.070000
838.656477	0.070217
838.844674	0.070237
839.032852	0.070520
839.221012	0.070940
839.409153	0.070959
839.597277	0.071355
839.785382	0.071390
839.973469	0.071770
840.161538	0.072017
840.349589	0.071962
840.537621	0.072236
840.725635	0.072164
840.913631	0.071938
841.101609	0.072053
841.289568	0.072052
841.477509	0.072315
841.665432	0.072249
841.853337	0.072337
842.041224	0.072467
842.229092	0.072081
842.416942	0.072251
842.604774	0.072581
842.792588	0.072825
842.980383	0.072919
843.168160	0.073009
843.355919	0.073033
843.543660	0.073002
843.731382	0.073159
843.919087	0.073875
844.106773	0.074086
844.294441	0.074307
844.482090	0.074315
844.669722	0.074549
844.857335	0.074810
845.044930	0.075346
845.232507	0.075996
845.420065	0.076301
845.607605	0.076345
845.795127	0.076710
845.982631	0.076802
846.170117	0.077222
846.357584	0.077261
846.545033	0.077582
846.732464	0.077755
846.919877	0.077631
847.107272	0.077572
847.294648	0.077726
847.482006	0.077499
847.669346	0.077644
847.856667	0.077537
848.043971	0.077698
848.231256	0.077619
848.418523	0.077555
848.605771	0.077772
848.793002	0.077962
848.980214	0.078019
849.167408	0.078490
849.354584	0.078671
849.541742	0.078955
849.728881	0.079017
849.916002	0.079241
850.103105	0.079482
850.290190	0.079395
850.477256	0.079384
850.664304	0.079529
850.851334	0.079380
851.038346	0.079315
851.225340	0.079286
851.412315	0.079415
851.599272	0.079498
851.786211	0.079317
851.973132	0.079374
852.160034	0.079632
852.346918	0.079765
852.533784	0.079848
852.720632	0.079995
852.907462	0.080166
853.094273	0.080432
853.281066	0.080585
853.467841	0.080780
853.654598	0.081044
853.841336	0.080954
854.028056	0.080816
854.214758	0.080984
854.401442	0.081028
854.588107	0.081255
854.774755	0.081426
854.961384	0.081417
855.147995	0.081785
855.334587	0.082044
855.521162	0.082574
855.707718	0.082744
855.894256	0.082913
856.080775	0.083277
856.267277	0.083501
856.453760	0.083477
856.640225	0.083866
856.826672	0.084091
857.013101	0.084145
857.199511	0.084146
857.385903	0.084601
857.572277	0.084679
857.758633	0.084842
857.944970	0.084848
858.131290	0.085370
858.317591	0.085591
858.503873	0.085634
858.690138	0.086093
858.876384	0.086324
859.062612	0.086363
859.248822	0.086796
859.435014	0.087182
859.621188	0.087324
859.807343	0.087384
859.993480	0.087716
860.179599	0.088121
860.365699	0.088216
860.551781	0.088268
860.737846	0.088594
860.923891	0.088817
861.109919	0.089052
861.295929	0.089361
861.481920	0.089580
861.667893	0.089763
861.853848	0.089978
862.039784	0.090177
862.225702	0.090567
862.411603	0.090813
862.597484	0.091042
862.783348	0.090961
862.969193	0.090958
863.155021	0.091051
863.340830	0.090858
863.526620	0.090796
863.712393	0.090854
863.898147	0.090763
864.083883	0.090508
864.269601	0.090453
864.455301	0.090681
864.640982	0.091017
864.826645	0.091067
865.012290	0.091489
865.197917	0.091632
865.383526	0.091399
865.569116	0.091593
865.754688	0.091552
865.940242	0.091452
866.125777	0.090841
866.311295	0.090637
866.496794	0.090509
866.682275	0.089942
866.867737	0.089653
867.053182	0.089777
867.238608	0.089807
867.424016	0.090159
867.609406	0.090292
867.794778	0.090562
867.980131	0.090569
868.165466	0.090765
868.350783	0.090777
868.536082	0.091246
868.721362	0.091573
868.906625	0.091456
869.091869	0.091597
869.277094	0.091505
869.462302	0.091710
869.647491	0.091476
869.832662	0.091197
870.017815	0.091407
870.202950	0.091267
870.388066	0.091076
870.573165	0.091156
870.758245	0.091252
870.943306	0.091446
871.128350	0.091594
871.313375	0.092070
871.498382	0.092394
871.683371	0.092595
871.868342	0.092656
872.053294	0.092792
872.238229	0.092928
872.423144	0.093039
872.608042	0.093380
872.792922	0.093594
872.977783	0.093668
873.162626	0.093904
873.347451	0.094316
873.532258	0.094635
873.717046	0.094639
873.901816	0.094723
874.086568	0.094362
874.271302	0.094111
874.456017	0.094160
874.640715	0.094340
874.825394	0.094655
875.010055	0.094435
875.194697	0.094508
875.379322	0.094891
875.563928	0.095237
875.748516	0.095715
875.933085	0.096042
876.117637	0.096360
876.302170	0.096362
876.486685	0.096080
876.671182	0.096191
876.855661	0.095941
877.040121	0.095810
877.224563	0.095631
877.408987	0.095935
877.593393	0.096196
877.777780	0.096033
877.962150	0.096088
878.146501	0.096185
878.330833	0.096171
878.515148	0.096535
878.699444	0.096760
878.883722	0.096912
879.067982	0.096976
879.252224	0.096842
879.436447	0.097054
879.620653	0.097066
879.804840	0.097278
879.989008	0.097115
880.173159	0.096955
880.357291	0.096815
880.541405	0.096458
880.725501	0.096138
880.909579	0.095985
881.093638	0.096227
881.277680	0.096195
881.461703	0.096079
881.645707	0.096391
881.829694	0.096560
882.013662	0.096731
882.197612	0.096959
882.381544	0.097144
882.565458	0.097235
882.749353	0.097158
882.933230	0.097472
883.117089	0.097403
883.300930	0.097424
883.484753	0.097347
883.668557	0.097316
883.852343	0.097403
884.036111	0.097405
884.219861	0.097779
884.403592	0.097538
884.587305	0.097352
884.771000	0.097453
884.954677	0.097411
885.138335	0.097507
885.321976	0.097538
885.505598	0.097649
885.689201	0.097587
885.872787	0.097545
886.056354	0.097796
886.239904	0.098117
886.423434	0.098341
886.606947	0.098635
886.790442	0.098549
886.973918	0.098773
887.157376	0.098564
887.340816	0.098571
887.524237	0.098086
887.707641	0.097811
887.891026	0.097566
888.074393	0.097334
888.257741	0.097335
888.441072	0.097831
888.624384	0.097570
888.807678	0.097557
888.990954	0.097351
889.174211	0.097430
889.357451	0.097039
889.540672	0.096957
889.723875	0.096788
889.907059	0.096540
890.090226	0.095963
890.273374	0.095852
890.456504	0.095777
890.639616	0.096132
890.822709	0.096276
891.005785	0.096541
891.188842	0.096797
891.371881	0.096866
891.554901	0.096764
891.737904	0.096796
891.920888	0.096940
892.103854	0.097236
892.286802	0.097282
892.469731	0.097265
892.652643	0.097513
892.835536	0.097445
893.018410	0.097494
893.201267	0.097713
893.384106	0.097826
893.566926	0.097690
893.749728	0.097445
893.932511	0.097000
894.115277	0.097054
894.298024	0.096826
894.480753	0.096520
894.663464	0.096426
894.846157	0.096111
895.028831	0.095746
895.211487	0.095800
895.394125	0.095779
895.576745	0.095843
895.759346	0.095470
895.941930	0.095202
896.124495	0.095216
896.307041	0.095174
896.489570	0.095149
896.672080	0.095137
896.854573	0.094563
897.037046	0.094393
897.219502	0.093985
897.401940	0.093659
897.584359	0.093605
897.766760	0.093207
897.949143	0.093067
898.131507	0.092882
898.313854	0.092690
898.496182	0.092963
898.678492	0.093008
898.860783	0.092907
899.043057	0.092857
899.225312	0.092639
899.407549	0.092573
899.589768	0.092437
899.771968	0.092500
899.954151	0.092380
900.136315	0.092185
900.318461	0.091898
900.500588	0.091592
900.682698	0.091805
900.864789	0.092239
901.046862	0.092160
901.228917	0.091688
901.410953	0.091399
901.592971	0.091262
901.774972	0.090714
901.956953	0.090434
902.138917	0.090458
902.320862	0.089950
902.502790	0.089409
902.684699	0.089075
902.866589	0.089071
903.048462	0.088631
903.230316	0.088392
903.412152	0.088571
903.593970	0.088282
903.775770	0.088225
903.957551	0.087993
904.139314	0.087861
904.321059	0.087720
904.502786	0.087832
904.684494	0.087637
904.866185	0.087333
905.047857	0.087082
905.229510	0.087161
905.411146	0.087088
905.592763	0.087144
905.774363	0.086761
905.955943	0.086612
906.137506	0.086556
906.319051	0.086482
906.500577	0.086503
906.682085	0.086389
906.863575	0.086258
907.045046	0.086071
907.226500	0.085851
907.407935	0.085750
907.589352	0.085964
907.770750	0.085653
907.952131	0.085685
908.133493	0.085876
908.314837	0.085712
908.496163	0.085493
908.677470	0.085293
908.858760	0.085460
909.040031	0.085297
909.221284	0.084873
909.402518	0.084903
909.583735	0.084784
909.764933	0.084452
909.946113	0.084244
910.127275	0.084317
910.308418	0.084194
910.489544	0.083782
910.670651	0.083722
910.851740	0.083414
911.032810	0.082951
911.213863	0.082765
911.394897	0.082317
911.575913	0.082094
911.756911	0.081493
911.937890	0.081039
912.118851	0.080912
912.299794	0.080611
912.480719	0.080733
912.661626	0.080437
912.842514	0.080216
913.023384	0.079698
913.204236	0.079380
913.385070	0.079660
913.565886	0.079573
913.746683	0.079487
913.927462	0.078944
914.108223	0.078444
914.288965	0.078134
914.469690	0.077659
914.650396	0.077706
914.831084	0.077366
915.011754	0.076610
915.192405	0.076294
915.373038	0.075383
915.553653	0.075185
915.734250	0.074287
915.914829	0.073622
916.095389	0.073399
916.275931	0.073334
916.456455	0.073151
916.636961	0.073054
916.817448	0.072598
916.997917	0.072199
917.178368	0.071888
917.358801	0.071975
917.539216	0.071895
917.719612	0.071319
917.899990	0.070492
918.080350	0.069895
918.260692	0.069069
918.441015	0.068931
918.621320	0.068978
918.801607	0.068397
918.981876	0.067949
919.162127	0.067526
919.342359	0.067458
919.522573	0.067706
919.702769	0.067831
919.882947	0.067780
920.063106	0.067327
920.243247	0.066916
920.423370	0.066823
920.603475	0.067103
920.783562	0.066855
920.963630	0.066540
921.143680	0.065890
921.323712	0.065244
921.503725	0.065146
921.683721	0.064790
921.863698	0.064733
922.043657	0.064631
922.223598	0.064378
922.403520	0.064135
922.583424	0.063947
922.763311	0.063867
922.943178	0.063879
923.123028	0.063580
923.302859	0.063909
923.482673	0.063294
923.662467	0.063256
923.842244	0.062687
924.022003	0.062745
924.201743	0.062141
924.381465	0.061727
924.561169	0.061133
924.740854	0.060986
924.920522	0.060185
925.100171	0.059984
925.279802	0.059354
925.459414	0.058700
925.639009	0.057799
925.818585	0.057877
925.998143	0.057790
926.177683	0.057604
926.357205	0.056832
926.536708	0.056425
926.716193	0.055668
926.895660	0.055027
927.075109	0.054833
927.254539	0.054305
927.433951	0.053429
927.613345	0.052623
927.792721	0.051840
927.972079	0.051429
928.151418	0.051143
928.330739	0.050703
928.510042	0.049852
928.689327	0.049550
928.868593	0.049338
929.047841	0.049107
929.227071	0.048511
929.406283	0.048655
929.585476	0.048373
929.764652	0.047721
929.943809	0.047460
930.122948	0.047483
930.302068	0.046946
930.481171	0.046394
930.660255	0.045438
930.839321	0.044937
931.018369	0.043816
931.197398	0.043146
931.376409	0.042661
931.555402	0.042398
931.734377	0.041523
931.913334	0.040581
932.092272	0.040221
932.271192	0.039850
932.450094	0.039098
932.628978	0.039348
932.807844	0.038655
932.986691	0.037683
933.165520	0.037276
933.344331	0.037039
933.523123	0.036545
933.701898	0.036322
933.880654	0.035744
934.059392	0.035668
934.238111	0.034750
934.416813	0.034869
934.595496	0.034472
934.774161	0.033112
934.952808	0.032664
935.131437	0.032074
935.310047	0.031084
935.488639	0.030971
935.667213	0.030770
935.845769	0.030029
936.024306	0.029055
936.202825	0.029320
936.381326	0.029068
936.559809	0.028839
936.738274	0.028173
936.916720	0.028001
937.095148	0.027660
937.273558	0.026873
937.451950	0.026537
937.630323	0.025777
937.808678	0.025063
937.987015	0.025385
938.165334	0.024661
938.343635	0.024612
938.521917	0.023848
938.700181	0.023547
938.878427	0.022317
939.056655	0.021154
939.234864	0.022245
939.413055	0.021818
939.591228	0.021030
939.769383	0.020245
939.947519	0.020524
940.125638	0.020652
940.303738	0.019134
940.481820	0.019463
940.659883	0.019764
940.837929	0.018503
941.015956	0.018123
941.193965	0.016929
941.371955	0.017073
941.549928	0.015934
941.727882	0.015202
941.905818	0.014902
942.083736	0.014992
942.261636	0.014428
942.439517	0.013087
942.617380	0.012373
942.795225	0.014015
942.973052	0.012684
943.150860	0.012735
943.328651	0.012197
943.506423	0.012666
943.684176	0.012190
943.861912	0.012396
944.039629	0.012951
944.217328	0.012683
944.395009	0.010977
944.572672	0.011358
944.750317	0.010896
944.927943	0.010657
945.105551	0.009249
945.283141	0.007693
945.460712	0.006661
945.638265	0.005578
945.815801	0.005188
945.993317	0.003971
946.170816	0.002582
946.348297	0.001756
946.525759	0.001407
946.703203	0.001053
946.880629	0.000860
947.058036	0.000512
947.235425	0.000857
947.412797	0.000465
947.590149	-0.000676
947.767484	0.000747
947.944800	-0.000097
948.122099	-0.000890
948.299379	-0.000513
948.476640	0.000155
948.653884	0.000269
948.831109	-0.001769
949.008316	-0.002370
949.185505	-0.000701
949.362676	-0.002131
949.539828	-0.002460
949.716962	-0.003124
949.894078	-0.003245
950.071176	-0.004225
950.248256	-0.005607
950.425317	-0.005501
950.602360	-0.005238
950.779385	-0.006043
950.956391	-0.005935
951.133380	-0.006559
951.310350	-0.006193
951.487302	-0.007059
951.664235	-0.008202
951.841151	-0.006779
952.018048	-0.007523
952.194927	-0.007805
952.371788	-0.007498
952.548631	-0.008096
952.725455	-0.008934
952.902261	-0.008142
953.079049	-0.007906
953.255819	-0.007093
953.432570	-0.008548
953.609303	-0.007110
953.786018	-0.007400
953.962715	-0.007594
954.139394	-0.007396
954.316054	-0.006605
954.492696	-0.008005
954.669320	-0.008334
954.845926	-0.007953
955.022513	-0.009308
955.199083	-0.008826
955.375634	-0.010215
955.552166	-0.010575
955.728681	-0.010182
955.905177	-0.009748
956.081655	-0.009690
956.258115	-0.011198
956.434557	-0.011913
956.610980	-0.010424
956.787385	-0.009876
956.963772	-0.010764
957.140141	-0.011906
957.316492	-0.010972
957.492824	-0.009371
957.669138	-0.007577
957.845434	-0.004329
958.021712	-0.002882
958.197971	-0.002721
958.374212	-0.003194
958.550435	-0.002860
958.726640	-0.001536
958.902826	-0.002138
959.078995	-0.003542
959.255145	-0.003396
959.431277	-0.005022
959.607390	-0.005107
959.783486	-0.004598
959.959563	-0.004406
960.135622	-0.000881
960.311662	-0.000188
960.487685	-0.001113
960.663689	-0.000687
960.839675	-0.001290
961.015643	-0.000847
961.191593	-0.003013
961.367524	-0.003803
961.543437	-0.003908
961.719332	-0.004506
961.895209	-0.004939
962.071067	-0.003534
962.246907	-0.002887
962.422730	-0.003011
962.598533	-0.002618
962.774319	-0.002305
962.950086	-0.002984
963.125835	-0.001534
963.301566	-0.000385
963.477279	0.000092
963.652973	-0.000175
963.828650	-0.000929
964.004308	-0.001200
964.179947	-0.000653
964.355569	0.001539
964.531172	0.002534
964.706757	0.002413
964.882324	0.001868
965.057873	0.003555
965.233403	0.004167
965.408916	0.004666
965.584410	0.003233
965.759885	0.001050
965.935343	-0.000768
966.110782	0.000995
966.286203	-0.001385
966.461606	-0.001341
966.636991	-0.002083
966.812357	-0.002235
966.987705	-0.002642
967.163035	-0.001364
967.338347	0.001355
967.513641	0.002107
967.688916	0.003255
967.864173	0.004331
968.039412	0.004593
968.214632	0.003331
968.389835	0.004805
968.565019	0.004664
968.740185	0.006719
968.915333	0.007262
969.090462	0.009197
969.265573	0.007372
969.440667	0.005395
969.615741	0.004640
969.790798	0.005410
969.965836	0.005803
970.140856	0.005700
970.315858	0.005890
970.490842	0.004565
970.665808	0.004399
970.840755	0.005059
971.015684	0.007165
971.190595	0.008177
971.365487	0.007420
971.540362	0.006775
971.715218	0.007703
971.890056	0.005349
972.064875	0.006698
972.239677	0.006318
972.414460	0.006348
972.589225	0.005888
972.763972	0.005205
972.938700	0.007333
973.113411	0.004627
973.288103	0.005509
973.462777	0.003369
973.637432	0.001532
973.812070	0.000758
973.986689	0.001912
974.161290	0.002870
974.335873	0.003383
974.510437	0.000832
974.684984	0.004105
974.859512	0.004512
975.034022	0.006484
975.208513	0.006296
975.382987	0.005686
975.557442	0.002511
975.731879	0.002784
975.906298	0.000865
976.080698	0.001822
976.255080	-0.001013
976.429445	-0.001987
976.603790	-0.001476
976.778118	0.001387
976.952427	0.001506
977.126719	0.005439
977.300992	0.006114
977.475246	0.008236
977.649483	0.009000
977.823701	0.009603
977.997901	0.007913
978.172083	0.009508
978.346247	0.008033
978.520392	0.008640
978.694519	0.005851
978.868628	0.005354
979.042719	0.004004
979.216791	0.003362
979.390845	0.003978
979.564882	0.005025
979.738899	0.003673
979.912899	0.003525
980.086880	0.003718
980.260843	0.005961
980.434788	0.005715
980.608715	0.005283
980.782623	0.004347
980.956514	0.004596
981.130386	0.005078
981.304240	0.004613
981.478075	0.003433
981.651892	0.003952
981.825692	0.001095
981.999472	-0.000576
982.173235	0.000494
982.346980	0.001227
982.520706	0.001970
982.694414	0.001423
982.868104	0.000790
983.041775	0.002989
983.215428	0.001961
983.389064	0.003714
983.562680	0.003430
983.736279	0.003005
983.909860	0.002320
984.083422	0.000383
984.256966	0.002507
984.430491	0.003755
984.603999	0.002253
984.777488	0.003461
984.950959	0.003628
985.124412	0.004176
985.297847	0.003799
985.471263	0.004241
985.644661	0.005393
985.818041	0.002209
985.991403	0.000550
986.164747	0.001134
986.338072	0.000504
986.511379	-0.000563
986.684668	-0.001336
986.857938	-0.002342
987.031191	-0.002574
987.204425	-0.002913
987.377641	-0.001557
987.550839	-0.000337
987.724018	-0.001540
987.897179	-0.001782
988.070322	-0.002597
988.243447	-0.002507
988.416554	-0.000546
988.589642	-0.000762
988.762712	-0.001624
988.935764	-0.000721
989.108798	0.000703
989.281813	-0.000229
989.454811	0.000776
989.627790	0.003243
989.800751	0.003807
989.973693	0.002821
990.146617	0.003012
990.319524	0.003143
990.492412	0.000043
990.665281	-0.000930
990.838133	0.000140
991.010966	-0.002109
991.183781	-0.003819
991.356578	-0.002693
991.529356	-0.002349
991.702117	-0.001432
991.874859	-0.001382
992.047583	0.001297
992.220288	0.001444
992.392976	0.002571
992.565645	0.004071
992.738296	0.005307
992.910929	0.005443
993.083543	0.005449
993.256139	0.003834
993.428718	0.004391
993.601277	0.003132
993.773819	0.003157
993.946342	0.001293
994.118848	0.001145
994.291335	0.000449
994.463803	-0.000849
994.636254	-0.003337
994.808686	-0.001772
994.981100	-0.001493
995.153496	-0.002664
995.325874	-0.003248
995.498233	-0.003137
995.670574	-0.004186
995.842897	-0.004296
996.015202	-0.002751
996.187488	-0.001605
996.359757	-0.002169
996.532007	-0.002881
996.704239	-0.001571
996.876452	-0.001869
997.048648	-0.001088
997.220825	-0.000141
997.392984	-0.001967
997.565124	-0.004864
997.737247	-0.003605
997.909351	-0.003889
998.081437	-0.003463
998.253505	-0.003495
998.425554	-0.003204
998.597586	-0.003175
998.769599	-0.003432
998.941594	-0.002024
999.113571	0.000486
999.285529	0.000469
999.457469	0.001555
999.629391	0.000825
999.801295	0.001289
999.973181	0.000621
1000.145048	0.001837
1000.316897	0.001090
1000.488728	0.002920
1000.660541	0.000556
1000.832335	0.000083
1001.004111	-0.000940
1001.175869	-0.000659
1001.347609	-0.001681
1001.519331	-0.002579
1001.691034	-0.002943
1001.862719	-0.000567
1002.034386	-0.002421
1002.206035	-0.000818
1002.377665	-0.002516
1002.549277	-0.003393
1002.720871	-0.003840
1002.892447	-0.004489
1003.064004	-0.003349
1003.235544	-0.003397
1003.407065	-0.004877
1003.578568	-0.005330
1003.750052	-0.007247
1003.921519	-0.005725
1004.092967	-0.005256
1004.264397	-0.005366
1004.435809	-0.004918
1004.607202	-0.004847
1004.778577	-0.006725
1004.949934	-0.008283
1005.121273	-0.008081
1005.292594	-0.005172
1005.463896	-0.004338
1005.635180	-0.003955
1005.806446	-0.002935
1005.977694	-0.002044
1006.148923	-0.002770
1006.320135	-0.002419
1006.491328	-0.001728
1006.662503	-0.001603
1006.833659	-0.003622
1007.004798	-0.005184
1007.175918	-0.003300
1007.347020	-0.004669
1007.518103	-0.006002
1007.689169	-0.005894
1007.860216	-0.005510
1008.031245	-0.004556
1008.202256	-0.005267
1008.373248	-0.005351
1008.544223	-0.004051
1008.715179	-0.006653
1008.886117	-0.008629
1009.057036	-0.007748
1009.227938	-0.007817
1009.398821	-0.009316
1009.569686	-0.009471
1009.740533	-0.008546
1009.911361	-0.008194
1010.082172	-0.009973
1010.252964	-0.009396
1010.423738	-0.007150
1010.594493	-0.008524
1010.765231	-0.007824
1010.935950	-0.005441
1011.106651	-0.006443
1011.277334	-0.005741
1011.447998	-0.006492
1011.618645	-0.004542
1011.789273	-0.003428
1011.959882	-0.003166
1012.130474	-0.000867
1012.301048	-0.000994
1012.471603	-0.002025
1012.642140	-0.001276
1012.812658	-0.001580
1012.983159	-0.002421
1013.153641	-0.003598
1013.324105	-0.005589
1013.494551	-0.006258
1013.664979	-0.007840
1013.835388	-0.008098
1014.005779	-0.008209
1014.176152	-0.009478
1014.346507	-0.011197
1014.516843	-0.009916
1014.687162	-0.008901
1014.857462	-0.009443
1015.027744	-0.009523
1015.198007	-0.009256
1015.368252	-0.009904
1015.538480	-0.008924
1015.708689	-0.009270
1015.878879	-0.008764
1016.049052	-0.008158
1016.219206	-0.009195
1016.389342	-0.009047
1016.559460	-0.009197
1016.729559	-0.008311
1016.899641	-0.007969
1017.069704	-0.008995
1017.239749	-0.009436
1017.409775	-0.008434
1017.579784	-0.008938
1017.749774	-0.009054
1017.919746	-0.008184
1018.089700	-0.007607
1018.259635	-0.008739
1018.429553	-0.006950
1018.599452	-0.006743
1018.769333	-0.005783
1018.939195	-0.006188
1019.109040	-0.005709
1019.278866	-0.004537
1019.448674	-0.005919
1019.618464	-0.005463
1019.788235	-0.006432
1019.957989	-0.009171
1020.127724	-0.010560
1020.297441	-0.009700
1020.467139	-0.009825
1020.636820	-0.009783
1020.806482	-0.009118
1020.976126	-0.006324
1021.145752	-0.006990
1021.315359	-0.005831
1021.484948	-0.005939
1021.654519	-0.003730
1021.824072	-0.004347
1021.993607	-0.004837
1022.163123	-0.005448
1022.332621	-0.007219
1022.502101	-0.009786
1022.671563	-0.008206
1022.841007	-0.007704
1023.010432	-0.006196
1023.179839	-0.007254
1023.349228	-0.007063
1023.518598	-0.007249
1023.687951	-0.009136
1023.857285	-0.009408
1024.026601	-0.007905
1024.195899	-0.009856
1024.365178	-0.010259
1024.534439	-0.010762
1024.703682	-0.011653
1024.872907	-0.013296
1025.042114	-0.014060
1025.211302	-0.010998
1025.380472	-0.011500
1025.549624	-0.011342
1025.718758	-0.009711
1025.887873	-0.008972
1026.056970	-0.008248
1026.226049	-0.007195
1026.395110	-0.005347
1026.564153	-0.004815
1026.733177	-0.004892
1026.902183	-0.003490
1027.071171	-0.004540
1027.240141	-0.006157
1027.409092	-0.007761
1027.578026	-0.008680
1027.746940	-0.009379
1027.915837	-0.009226
1028.084716	-0.008573
1028.253576	-0.010341
1028.422418	-0.010580
1028.591242	-0.011003
1028.760048	-0.010264
1028.928835	-0.009015
1029.097604	-0.009372
1029.266355	-0.009490
1029.435088	-0.010505
1029.603803	-0.010302
1029.772499	-0.009693
1029.941177	-0.010082
1030.109837	-0.009044
1030.278478	-0.008929
1030.447102	-0.008709
1030.615707	-0.007334
1030.784294	-0.008014
1030.952863	-0.007661
1031.121413	-0.007780
1031.289945	-0.008431
1031.458460	-0.008301
1031.626955	-0.009307
1031.795433	-0.009757
1031.963892	-0.010897
1032.132334	-0.012032
1032.300756	-0.010334
1032.469161	-0.008970
1032.637548	-0.008207
1032.805916	-0.007512
1032.974266	-0.007853
1033.142598	-0.006305
1033.310911	-0.005635
1033.479207	-0.005984
1033.647484	-0.005392
1033.815743	-0.007244
1033.983983	-0.008299
1034.152206	-0.009713
1034.320410	-0.010347
1034.488596	-0.010971
1034.656764	-0.010645
1034.824914	-0.011739
1034.993045	-0.009488
1035.161158	-0.010115
1035.329253	-0.009723
1035.497330	-0.009240
1035.665388	-0.009516
1035.833428	-0.008173
1036.001450	-0.008208
1036.169454	-0.009743
1036.337440	-0.009402
1036.505407	-0.011986
1036.673356	-0.012777
1036.841287	-0.013270
1037.009200	-0.013220
1037.177094	-0.014017
1037.344970	-0.013093
1037.512828	-0.011945
1037.680668	-0.011369
1037.848489	-0.011448
1038.016293	-0.010873
1038.184078	-0.009937
1038.351845	-0.008366
1038.519593	-0.009878
1038.687324	-0.008897
1038.855036	-0.010403
1039.022730	-0.009932
1039.190406	-0.011707
1039.358063	-0.012063
1039.525702	-0.011714
1039.693323	-0.012806
1039.860926	-0.013850
1040.028511	-0.014277
1040.196077	-0.013129
1040.363625	-0.013227
1040.531155	-0.015065
1040.698667	-0.012993
1040.866161	-0.013884
1041.033636	-0.014129
1041.201093	-0.014618
1041.368532	-0.014776
1041.535952	-0.014830
1041.703355	-0.014332
1041.870739	-0.014659
1042.038105	-0.015736
1042.205452	-0.015965
1042.372782	-0.015060
1042.540093	-0.014062
1042.707386	-0.013174
1042.874661	-0.012405
1043.041918	-0.011338
1043.209156	-0.011364
1043.376376	-0.010550
1043.543578	-0.009810
1043.710762	-0.011129
1043.877927	-0.011332
1044.045074	-0.010859
1044.212203	-0.009117
1044.379314	-0.009494
1044.546407	-0.008876
1044.713481	-0.011209
1044.880537	-0.012351
1045.047575	-0.010966
1045.214595	-0.009937
1045.381596	-0.007722
1045.548579	-0.008967
1045.715544	-0.010211
1045.882491	-0.010068
1046.049420	-0.011239
1046.216330	-0.010391
1046.383222	-0.009117
1046.550096	-0.008526
1046.716951	-0.008375
1046.883789	-0.010432
1047.050608	-0.009815
1047.217409	-0.009433
1047.384192	-0.008974
1047.550956	-0.007648
1047.717703	-0.006524
1047.884431	-0.007874
1048.051140	-0.008251
1048.217832	-0.009785
1048.384505	-0.010951
1048.551161	-0.011034
1048.717798	-0.011741
1048.884416	-0.012017
1049.051017	-0.012251
1049.217599	-0.012139
1049.384163	-0.010483
1049.550709	-0.010788
1049.717237	-0.008938
1049.883746	-0.006570
1050.050237	-0.007598
1050.216710	-0.005941
1050.383165	-0.007640
1050.549601	-0.007364
1050.716019	-0.008649
1050.882420	-0.010828
1051.048801	-0.010855
1051.215165	-0.012545
1051.381510	-0.012572
1051.547837	-0.010257
1051.714146	-0.011841
1051.880437	-0.010476
1052.046709	-0.012561
1052.212964	-0.012936
1052.379200	-0.011931
1052.545417	-0.014489
1052.711617	-0.012773
1052.877798	-0.014256
1053.043961	-0.016944
1053.210106	-0.015905
1053.376233	-0.015323
1053.542341	-0.014465
1053.708432	-0.014086
1053.874504	-0.014541
1054.040557	-0.010053
1054.206593	-0.011548
1054.372610	-0.010938
1054.538609	-0.009118
1054.704590	-0.008829
1054.870553	-0.009577
1055.036497	-0.008070
1055.202424	-0.007707
1055.368331	-0.008780
1055.534221	-0.010761
1055.700093	-0.010938
1055.865946	-0.010331
1056.031781	-0.011686
1056.197598	-0.014642
1056.363397	-0.014065
1056.529177	-0.015705
1056.694939	-0.016839
1056.860683	-0.014044
1057.026409	-0.014348
1057.192116	-0.013503
1057.357806	-0.014232
1057.523477	-0.014720
1057.689130	-0.013966
1057.854764	-0.013156
1058.020381	-0.012230
1058.185979	-0.012694
1058.351559	-0.014367
1058.517120	-0.013319
1058.682664	-0.014186
1058.848189	-0.015220
1059.013696	-0.012625
1059.179185	-0.011696
1059.344656	-0.011222
1059.510108	-0.012172
1059.675542	-0.011161
1059.840958	-0.011347
1060.006356	-0.012964
1060.171735	-0.011615
1060.337096	-0.010264
1060.502439	-0.011103
1060.667764	-0.009540
1060.833071	-0.012322
1060.998359	-0.012379
1061.163629	-0.011287
1061.328881	-0.010712
1061.494115	-0.010324
1061.659330	-0.009021
1061.824527	-0.009201
1061.989706	-0.008970
1062.154867	-0.011243
1062.320010	-0.009228
1062.485134	-0.009076
1062.650240	-0.009083
1062.815328	-0.010617
1062.980398	-0.010953
1063.145449	-0.012678
1063.310482	-0.012334
1063.475497	-0.014113
1063.640494	-0.012594
1063.805473	-0.013194
1063.970433	-0.011176
1064.135375	-0.010816
1064.300299	-0.009769
1064.465204	-0.009127
1064.630092	-0.010681
1064.794961	-0.010368
1064.959812	-0.009253
1065.124645	-0.009064
1065.289459	-0.009508
1065.454256	-0.010458
1065.619034	-0.013770
1065.783793	-0.012000
1065.948535	-0.011436
1066.113258	-0.008935
1066.277964	-0.008832
1066.442651	-0.009624
1066.607319	-0.010815
1066.771970	-0.010294
1066.936602	-0.010379
1067.101216	-0.006257
1067.265812	-0.006265
1067.430389	-0.005952
1067.594949	-0.006611
1067.759490	-0.007815
1067.924013	-0.007128
1068.088518	-0.006627
1068.253004	-0.004368
1068.417472	-0.002111
1068.581922	-0.003669
1068.746354	-0.004801
1068.910768	-0.005582
1069.075163	-0.004650
1069.239540	-0.004567
1069.403899	-0.005318
1069.568240	-0.003592
1069.732562	-0.006192
1069.896866	-0.008816
1070.061152	-0.008144
1070.225420	-0.005589
1070.389670	-0.005395
1070.553901	-0.005737
1070.718114	-0.003986
1070.882309	-0.003082
1071.046486	-0.004693
1071.210644	-0.002794
1071.374784	-0.002776
1071.538906	-0.003688
1071.703010	-0.007386
1071.867096	-0.006984
1072.031163	-0.007528
1072.195212	-0.010164
1072.359243	-0.011216
1072.523256	-0.013125
1072.687250	-0.014476
1072.851226	-0.015315
1073.015184	-0.015260
1073.179124	-0.013110
1073.343045	-0.012756
1073.506949	-0.012967
1073.670834	-0.012466
1073.834701	-0.010619
1073.998549	-0.006470
1074.162380	-0.006515
1074.326192	-0.004189
1074.489986	-0.002328
1074.653761	-0.004182
1074.817519	-0.004723
1074.981258	-0.004358
1075.144979	-0.002171
1075.308682	-0.003928
1075.472367	-0.005786
1075.636033	-0.005023
1075.799681	-0.006997
1075.963311	-0.007433
1076.126923	-0.006870
1076.290516	-0.006045
1076.454092	-0.006987
1076.617649	-0.009336
1076.781187	-0.009358
1076.944708	-0.010481
1077.108210	-0.009462
1077.271695	-0.008135
1077.435160	-0.008478
1077.598608	-0.008210
1077.762038	-0.009474
1077.925449	-0.006268
1078.088842	-0.002377
1078.252217	-0.001232
1078.415573	-0.001214
1078.578912	-0.004084
1078.742232	-0.005239
1078.905534	-0.005789
1079.068817	-0.004099
1079.232083	-0.003049
1079.395330	-0.004015
1079.558559	-0.005803
1079.721770	-0.006215
1079.884962	-0.004131
1080.048136	-0.001629
1080.211293	-0.000778
1080.374430	-0.001713
1080.537550	-0.002121
1080.700651	-0.002843
1080.863735	-0.005167
1081.026800	-0.006055
1081.189846	-0.004902
1081.352875	-0.004223
1081.515885	-0.005839
1081.678877	-0.006145
1081.841851	-0.006171
1082.004807	-0.008263
1082.167744	-0.008494
1082.330663	-0.006806
1082.493564	-0.006592
1082.656447	-0.006389
1082.819312	-0.008004
1082.982158	-0.004640
1083.144986	-0.005374
1083.307796	-0.004095
1083.470587	-0.003959
1083.633361	-0.001845
1083.796116	-0.002782
1083.958853	-0.001512
1084.121571	-0.003198
1084.284272	-0.002243
1084.446954	-0.004584
1084.609618	-0.001758
1084.772264	-0.002918
1084.934892	-0.000818
1085.097501	-0.002775
1085.260092	-0.003083
1085.422665	-0.004199
1085.585220	-0.002278
1085.747756	-0.001815
1085.910274	-0.000752
1086.072774	-0.003271
1086.235256	-0.001804
1086.397720	-0.003815
1086.560165	-0.003821
1086.722592	-0.005501
1086.885001	-0.004193
1087.047392	-0.004741
1087.209764	-0.005805
1087.372119	-0.006745
1087.534455	-0.006857
1087.696772	-0.006368
1087.859072	-0.006512
1088.021353	-0.007093
1088.183616	-0.004832
1088.345861	-0.008005
1088.508088	-0.007197
1088.670296	-0.006193
1088.832486	-0.007200
1088.994658	-0.003580
1089.156812	-0.004581
1089.318948	-0.003493
1089.481065	-0.002735
1089.643164	-0.003139
1089.805245	0.000038
1089.967308	0.000257
1090.129352	0.000607
1090.291378	0.002544
1090.453386	-0.001025
1090.615376	-0.003120
1090.777347	-0.004491
1090.939301	-0.001884
1091.101236	-0.001416
1091.263153	-0.003168
1091.425051	-0.003845
1091.586932	-0.004799
1091.748794	-0.007109
1091.910638	-0.005395
1092.072463	-0.002708
1092.234271	-0.000385
1092.396060	-0.001599
1092.557831	-0.000631
1092.719584	-0.001080
1092.881319	-0.003006
1093.043035	-0.004004
1093.204733	-0.003595
1093.366413	-0.003288
1093.528075	-0.004158
1093.689718	-0.005355
1093.851343	-0.006509
1094.012950	-0.006354
1094.174539	-0.005999
1094.336110	-0.005010
1094.497662	-0.004018
1094.659196	-0.003972
1094.820712	-0.006514
1094.982210	-0.005957
1095.143689	-0.005659
1095.305151	-0.005073
1095.466594	-0.005441
1095.628018	-0.004499
1095.789425	-0.003637
1095.950813	-0.006802
1096.112183	-0.006136
1096.273535	-0.007555
1096.434869	-0.008045
1096.596184	-0.005165
1096.757482	-0.005546
1096.918761	-0.004815
1097.080021	-0.004862
1097.241264	-0.003687
1097.402488	-0.005151
1097.563694	-0.005388
1097.724882	-0.004751
1097.886052	-0.005209
1098.047203	-0.009593
1098.208336	-0.011709
1098.369451	-0.013802
1098.530548	-0.013060
1098.691627	-0.015054
1098.852687	-0.008930
1099.013729	-0.008276
1099.174753	-0.008791
1099.335758	-0.007591
1099.496746	-0.002855
1099.657715	0.000159
1099.818666	0.001304
1099.979599	0.002482
1100.140513	0.002357
1100.301409	0.000341
1100.462287	0.000243
1100.623147	0.002260
1100.783989	0.001902
1100.944812	-0.003293
1101.105617	-0.003938
1101.266404	-0.003673
1101.427173	-0.002048
1101.587923	-0.002405
1101.748656	-0.000504
1101.909370	-0.002250
1102.070066	-0.000451
1102.230743	0.001834
1102.391403	0.002381
1102.552044	-0.001811
1102.712667	-0.002224
1102.873271	-0.004779
1103.033858	-0.004592
1103.194426	-0.005846
1103.354976	-0.005236
1103.515508	-0.006949
1103.676021	-0.008147
1103.836517	-0.010835
1103.996994	-0.005214
1104.157453	-0.006575
1104.317893	-0.007087
1104.478316	-0.008484
1104.638720	-0.009189
1104.799106	-0.011200
1104.959474	-0.011729
1105.119823	-0.013892
1105.280155	-0.010967
1105.440468	-0.013953
1105.600763	-0.013062
1105.761039	-0.013124
1105.921298	-0.013482
1106.081538	-0.011760
1106.241760	-0.009320
1106.401964	-0.007024
1106.562149	-0.005148
1106.722316	-0.002125
1106.882465	-0.001246
1107.042596	0.002236
1107.202709	0.001390
1107.362803	0.000111
1107.522879	-0.000452
1107.682937	-0.002046
1107.842977	-0.003234
1108.002999	-0.004535
1108.163002	-0.005590
1108.322987	-0.004437
1108.482954	-0.005470
1108.642902	-0.005396
1108.802833	-0.005251
1108.962745	-0.006578
1109.122639	-0.002680
1109.282515	-0.003203
1109.442372	-0.003558
1109.602211	-0.003691
1109.762032	-0.004026
1109.921835	0.000988
1110.081620	-0.000347
1110.241386	0.002102
1110.401134	0.003171
1110.560864	-0.000527
1110.720576	-0.000443
1110.880269	-0.001260
1111.039945	-0.001964
1111.199602	-0.002324
1111.359240	-0.008032
1111.518861	-0.010387
1111.678463	-0.012090
1111.838047	-0.011514
1111.997613	-0.011136
1112.157161	-0.008415
1112.316690	-0.007512
1112.476202	-0.007778
1112.635695	-0.004282
1112.795169	-0.003488
1112.954626	-0.001210
1113.114064	0.002020
1113.273484	-0.001487
1113.432886	-0.001215
1113.592270	-0.002168
1113.751635	-0.000964
1113.910983	0.000996
1114.070312	-0.004081
1114.229622	-0.004334
1114.388915	-0.001680
1114.548189	-0.002071
1114.707445	-0.000428
1114.866683	-0.000863
1115.025903	-0.001389
1115.185104	-0.005983
1115.344287	-0.008478
1115.503452	-0.006131
1115.662599	-0.005203
1115.821727	-0.004432
1115.980838	-0.003641
1116.139930	-0.005683
1116.299004	-0.005027
1116.458059	-0.004221
1116.617097	0.000228
1116.776116	0.000366
1116.935117	-0.000346
1117.094099	-0.003239
1117.253064	-0.003014
1117.412010	-0.004328
1117.570938	-0.004342
1117.729848	-0.001944
1117.888740	-0.002595
1118.047613	-0.003241
1118.206468	-0.003096
1118.365305	-0.004628
1118.524124	-0.002378
1118.682924	-0.002396
1118.841707	0.003849
1119.000471	0.010268
1119.159216	0.010263
1119.317944	0.007584
1119.476653	0.004482
1119.635344	0.002396
1119.794017	0.004513
1119.952672	0.003160
1120.111308	0.001997
1120.269927	-0.005699
1120.428527	-0.007747
1120.587108	-0.010070
1120.745672	-0.010900
1120.904217	-0.010170
1121.062744	-0.010107
1121.221253	-0.013759
1121.379744	-0.014295
1121.538216	-0.016415
1121.696671	-0.014219
1121.855107	-0.018643
1122.013524	-0.020138
1122.171924	-0.019349
1122.330305	-0.014067
1122.488668	-0.011615
1122.647013	-0.009153
1122.805340	-0.008090
1122.963648	-0.001541
1123.121938	0.001548
1123.280210	0.006620
1123.438464	0.008294
1123.596700	0.014876
1123.754917	0.012810
1123.913116	0.017798
1124.071297	0.015788
1124.229459	0.013448
1124.387604	0.004184
1124.545730	0.002225
1124.703838	-0.002914
1124.861928	-0.002136
1125.019999	-0.005548
1125.178052	-0.004686
1125.336088	-0.008995
1125.494104	-0.004458
1125.652103	-0.004513
1125.810083	-0.000573
1125.968045	-0.000971
1126.125989	0.000086
1126.283915	0.002609
1126.441823	0.003275
1126.599712	0.002211
1126.757583	0.000000
1126.915436	-0.002435
1127.073270	-0.002555
1127.231087	-0.002186
1127.388885	-0.002971
1127.546665	-0.000205
1127.704426	-0.002425
1127.862170	-0.003096
1128.019895	-0.007428
1128.177602	-0.003623
1128.335291	-0.002991
1128.492961	-0.004818
1128.650614	-0.006689
1128.808248	-0.004814
1128.965864	-0.008220
1129.123461	-0.004074
1129.281041	-0.009118
1129.438602	-0.005621
1129.596145	-0.008932
1129.753670	-0.007839
1129.911176	-0.002524
1130.068665	0.002326
1130.226135	-0.001197
1130.383587	0.002451
1130.541020	0.001387
1130.698436	0.007546
1130.855833	0.008618
1131.013212	0.011723
1131.170573	0.008916
1131.327915	0.004697
1131.485239	0.003912
1131.642545	0.008788
1131.799833	0.007376
1131.957103	0.005110
1132.114354	0.009468
1132.271588	0.010158
1132.428803	0.008832
1132.585999	0.007155
1132.743178	0.006444
1132.900338	0.003247
1133.057480	-0.000112
1133.214604	0.003346
1133.371710	0.004420
1133.528797	-0.000588
1133.685866	-0.003420
1133.842917	0.003267
1133.999950	0.009677
1134.156964	0.016092
1134.313960	0.016575
1134.470938	0.017646
1134.627898	0.013044
1134.784840	0.012328
1134.941763	0.012889
1135.098668	0.014688
1135.255555	0.012206
1135.412424	0.008478
1135.569274	0.007469
1135.726107	0.009893
1135.882921	0.012388
1136.039716	0.012758
1136.196494	0.010969
1136.353253	0.009436
1136.509995	0.009420
1136.666717	0.003155
1136.823422	0.005727
1136.980109	-0.001051
1137.136777	-0.005351
1137.293427	-0.006328
1137.450059	-0.006535
1137.606672	-0.011284
1137.763267	-0.011017
1137.919844	-0.010078
1138.076403	-0.008148
1138.232944	-0.007223
1138.389466	-0.003002
1138.545971	-0.000738
1138.702457	-0.002514
1138.858924	0.004358
1139.015374	0.015506
1139.171805	0.017103
1139.328218	0.017899
1139.484613	0.023566
1139.640990	0.023767
1139.797348	0.025859
1139.953688	0.022951
1140.110010	0.019975
1140.266314	0.022880
1140.422600	0.024525
1140.578867	0.027547
1140.735116	0.026306
1140.891347	0.018813
1141.047559	0.016329
1141.203754	0.014735
1141.359930	0.024572
1141.516088	0.032185
1141.672228	0.024443
1141.828349	0.019747
1141.984452	0.019305
1142.140537	0.017624
1142.296604	0.020823
1142.452653	0.016140
1142.608683	0.013475
1142.764695	0.005956
1142.920689	0.001512
1143.076665	-0.001958
1143.232622	0.000956
1143.388562	0.000192
1143.544483	0.002847
1143.700385	0.008407
1143.856270	0.016342
1144.012136	0.018606
1144.167985	0.018776
1144.323814	0.020195
1144.479626	0.017666
1144.635420	0.016203
1144.791195	0.014190
1144.946952	0.014788
1145.102691	0.007480
1145.258411	0.010784
1145.414113	0.007740
1145.569798	0.014083
1145.725463	0.008349
1145.881111	0.013312
1146.036741	0.006637
1146.192352	0.007013
1146.347945	0.001950
1146.503519	0.003232
1146.659076	-0.005436
1146.814614	0.003857
1146.970134	-0.001422
1147.125636	0.000664
1147.281120	-0.000155
1147.436585	-0.003966
1147.592032	0.000591
1147.747461	0.004283
1147.902872	-0.001923
1148.058265	0.000381
1148.213639	-0.000000
1148.368995	-0.002050
1148.524333	-0.001554
1148.679653	-0.004979
1148.834954	0.008705
1148.990237	0.003134
1149.145502	0.004239
1149.300749	0.020719
1149.455977	0.017110
1149.611188	0.017914
1149.766380	0.024432
1149.921553	0.029465
1150.076709	0.034377
1150.231846	0.022768
1150.386966	0.020951
1150.542066	0.025595
1150.697149	0.014967
1150.852214	0.025868
1151.007260	0.016446
1151.162288	0.008928
1151.317298	0.003424
1151.472289	0.005856
1151.627263	0.010997
1151.782218	0.003871
1151.937155	-0.002961
1152.092073	-0.005676
1152.246974	-0.014807
1152.401856	-0.013982
1152.556720	-0.009741
1152.711566	-0.008384
1152.866393	-0.009910
1153.021203	-0.007827
1153.175994	0.001045
1153.330767	0.000889
1153.485521	-0.000712
1153.640258	-0.002028
1153.794976	0.001867
1153.949676	0.003013
1154.104358	0.002381
1154.259021	0.000706
1154.413667	0.002513
1154.568294	-0.000836
1154.722903	-0.002890
1154.877493	0.010991
1155.032066	0.019653
1155.186620	0.014948
1155.341156	0.016738
1155.495674	0.017351
1155.650173	0.014384
1155.804654	0.012402
1155.959118	0.021929
1156.113562	0.024134
1156.267989	0.015417
1156.422397	0.007318
1156.576788	0.006984
1156.731160	0.006802
1156.885513	0.007826
1157.039849	0.009389
1157.194166	0.002146
1157.348465	-0.011088
1157.502746	-0.004587
1157.657009	0.002980
1157.811253	0.011210
1157.965479	0.014649
1158.119687	0.014796
1158.273877	0.018307
1158.428048	0.021013
1158.582201	0.026303
1158.736337	0.032340
1158.890453	0.025845
1159.044552	0.010086
1159.198632	0.004148
1159.352694	0.006754
1159.506738	0.010190
1159.660764	-0.001933
1159.814771	0.003381
1159.968761	-0.005241
1160.122732	-0.008643
1160.276685	-0.004712
1160.430619	0.001762
1160.584535	-0.001580
1160.738434	-0.003034
1160.892313	-0.013274
1161.046175	-0.005906
1161.200019	-0.004742
1161.353844	-0.004128
1161.507651	0.000673
1161.661440	0.004212
1161.815210	0.001392
1161.968962	-0.001872
1162.122697	0.002099
1162.276412	0.003398
1162.430110	0.002195
1162.583789	-0.001560
1162.737451	0.016073
1162.891094	0.018499
1163.044718	0.018323
1163.198325	0.021627
1163.351913	0.030947
1163.505483	0.023634
1163.659035	0.018088
1163.812569	0.026372
1163.966084	0.027111
1164.119581	0.012854
1164.273060	0.016769
1164.426521	0.004630
1164.579964	0.009327
1164.733388	-0.000403
1164.886794	0.001576
1165.040182	0.008439
1165.193551	0.001841
1165.346903	0.008069
1165.500236	0.009691
1165.653551	-0.005105
1165.806848	0.001914
1165.960126	-0.001542
1166.113386	0.001584
1166.266628	-0.000142
1166.419852	0.003948
1166.573058	0.001692
1166.726245	-0.009330
1166.879414	-0.010945
1167.032565	-0.002913
1167.185698	-0.014268
1167.338812	-0.015060
1167.491909	-0.008062
1167.644987	-0.002477
1167.798046	-0.008258
1167.951088	-0.010602
1168.104111	-0.011664
1168.257117	-0.003546
1168.410103	-0.004701
1168.563072	0.009564
1168.716023	-0.006654
1168.868955	-0.011005
1169.021869	-0.011053
1169.174765	-0.014297
1169.327642	-0.011558
1169.480501	0.001747
1169.633343	0.008567
1169.786165	-0.000644
1169.938970	-0.003549
1170.091757	0.013579
1170.244525	0.003305
1170.397275	-0.003845
1170.550007	-0.002896
1170.702720	0.000592
1170.855415	-0.020682
1171.008092	-0.032166
1171.160751	-0.020895
1171.313392	-0.023389
1171.466014	-0.087919
1171.618619	0.001997
1171.771205	0.001997
1171.923772	0.001997
