sample name	sample
index	1066
start time	 04-22-2021  10:21:13 AM


Wavelength (nm)	Absorbance
494.344910	-0.102691
494.563924	-0.102691
494.782919	-0.102691
495.001897	0.022833
495.220856	-0.049138
495.439797	-0.032396
495.658719	-0.036654
495.877624	-0.026854
496.096510	-0.020813
496.315378	-0.032566
496.534227	-0.029886
496.753059	-0.033370
496.971872	-0.025060
497.190667	0.016753
497.409444	0.029109
497.628203	0.036928
497.846943	0.035924
498.065665	0.035674
498.284369	0.036843
498.503055	0.037380
498.721723	0.038668
498.940372	0.038463
499.159003	0.037826
499.377616	0.037844
499.596210	0.038310
499.814787	0.039424
500.033345	0.038989
500.251885	0.038782
500.470406	0.039549
500.688910	0.038533
500.907395	0.038486
501.125862	0.039055
501.344311	0.038170
501.562742	0.037255
501.781154	0.037217
501.999548	0.037704
502.217924	0.039175
502.436282	0.038662
502.654621	0.038678
502.872942	0.038857
503.091245	0.038985
503.309530	0.039242
503.527797	0.039329
503.746045	0.038553
503.964275	0.039233
504.182487	0.038147
504.400681	0.037694
504.618856	0.038687
504.837013	0.038294
505.055152	0.038172
505.273273	0.038760
505.491376	0.037964
505.709460	0.038973
505.927526	0.039386
506.145574	0.040044
506.363604	0.040423
506.581615	0.039823
506.799608	0.039898
507.017583	0.039582
507.235540	0.040079
507.453478	0.040721
507.671399	0.040470
507.889301	0.039608
508.107185	0.039125
508.325050	0.039580
508.542898	0.039506
508.760727	0.039152
508.978538	0.039831
509.196330	0.039046
509.414105	0.038987
509.631861	0.038733
509.849599	0.039145
510.067319	0.039423
510.285021	0.039279
510.502704	0.038641
510.720369	0.038401
510.938016	0.038561
511.155645	0.038613
511.373255	0.039454
511.590848	0.039100
511.808422	0.039168
512.025977	0.038946
512.243515	0.038766
512.461034	0.039550
512.678536	0.040420
512.896018	0.039611
513.113483	0.039856
513.330930	0.039309
513.548358	0.040442
513.765768	0.039932
513.983160	0.040091
514.200533	0.039428
514.417889	0.038769
514.635226	0.038146
514.852545	0.038793
515.069845	0.038678
515.287128	0.038071
515.504392	0.037566
515.721638	0.037601
515.938866	0.037036
516.156075	0.037176
516.373267	0.038058
516.590440	0.038526
516.807594	0.038841
517.024731	0.038633
517.241850	0.038952
517.458950	0.039148
517.676032	0.039280
517.893095	0.039976
518.110141	0.041142
518.327168	0.040812
518.544177	0.040515
518.761168	0.039743
518.978141	0.040222
519.195095	0.040784
519.412031	0.040381
519.628949	0.040229
519.845849	0.040206
520.062731	0.038877
520.279594	0.039294
520.496439	0.039403
520.713266	0.039840
520.930074	0.039109
521.146865	0.038440
521.363637	0.038492
521.580391	0.038176
521.797127	0.038081
522.013844	0.037949
522.230543	0.037747
522.447224	0.037667
522.663887	0.037246
522.880532	0.037694
523.097158	0.038014
523.313766	0.038387
523.530356	0.038517
523.746928	0.038133
523.963481	0.038231
524.180017	0.038608
524.396534	0.038692
524.613032	0.039130
524.829513	0.038647
525.045975	0.038541
525.262420	0.038578
525.478845	0.038741
525.695253	0.039321
525.911643	0.040067
526.128014	0.040192
526.344367	0.040342
526.560702	0.040091
526.777018	0.040404
526.993316	0.040184
527.209597	0.039820
527.425858	0.039654
527.642102	0.039325
527.858328	0.039273
528.074535	0.038778
528.290724	0.039614
528.506894	0.040201
528.723047	0.040896
528.939181	0.041710
529.155297	0.042409
529.371395	0.042441
529.587475	0.043054
529.803536	0.042991
530.019579	0.043292
530.235604	0.042575
530.451611	0.042088
530.667600	0.041635
530.883570	0.040998
531.099522	0.040705
531.315456	0.041564
531.531372	0.041434
531.747269	0.042100
531.963148	0.042175
532.179009	0.042058
532.394852	0.042014
532.610676	0.042188
532.826482	0.042582
533.042271	0.042594
533.258040	0.042377
533.473792	0.042323
533.689525	0.041286
533.905240	0.041047
534.120937	0.040972
534.336616	0.041050
534.552277	0.040701
534.767919	0.040947
534.983543	0.040902
535.199149	0.040571
535.414736	0.040588
535.630306	0.041327
535.845857	0.040747
536.061390	0.040860
536.276904	0.040780
536.492401	0.040978
536.707879	0.041074
536.923339	0.041422
537.138781	0.041536
537.354204	0.041551
537.569610	0.041380
537.784997	0.042225
538.000366	0.042241
538.215716	0.042708
538.431049	0.043166
538.646363	0.043194
538.861659	0.043065
539.076937	0.043020
539.292196	0.042958
539.507438	0.043170
539.722661	0.043316
539.937866	0.043601
540.153052	0.043874
540.368221	0.043393
540.583371	0.043244
540.798503	0.043044
541.013617	0.043022
541.228712	0.042750
541.443789	0.042817
541.658848	0.042816
541.873889	0.042860
542.088912	0.042701
542.303916	0.042891
542.518902	0.043102
542.733870	0.043507
542.948820	0.043929
543.163752	0.044524
543.378665	0.044396
543.593560	0.044268
543.808437	0.044444
544.023295	0.044300
544.238136	0.044632
544.452958	0.044328
544.667762	0.043814
544.882548	0.043377
545.097315	0.043189
545.312064	0.043559
545.526795	0.043710
545.741508	0.043314
545.956203	0.043289
546.170879	0.043068
546.385537	0.043027
546.600177	0.043529
546.814799	0.043724
547.029402	0.043600
547.243988	0.043628
547.458555	0.043630
547.673103	0.043726
547.887634	0.044053
548.102146	0.044293
548.316640	0.044254
548.531116	0.043810
548.745574	0.043797
548.960013	0.043669
549.174435	0.043495
549.388838	0.043482
549.603222	0.043797
549.817589	0.043574
550.031937	0.043515
550.246267	0.043955
550.460579	0.044331
550.674873	0.044731
550.889148	0.044778
551.103405	0.044811
551.317644	0.044501
551.531865	0.044596
551.746068	0.044335
551.960252	0.044410
552.174418	0.044316
552.388566	0.044475
552.602696	0.044379
552.816807	0.044500
553.030900	0.044505
553.244975	0.044473
553.459032	0.043949
553.673070	0.043941
553.887091	0.043891
554.101093	0.043560
554.315077	0.043384
554.529042	0.043108
554.742990	0.043037
554.956919	0.042667
555.170830	0.042975
555.384722	0.043262
555.598597	0.043772
555.812453	0.043781
556.026291	0.043855
556.240111	0.043393
556.453913	0.043426
556.667696	0.043629
556.881461	0.043841
557.095208	0.044097
557.308937	0.044049
557.522647	0.043786
557.736339	0.043569
557.950013	0.043561
558.163669	0.043810
558.377307	0.043648
558.590926	0.043490
558.804527	0.043418
559.018110	0.043200
559.231675	0.043300
559.445221	0.043113
559.658749	0.043246
559.872259	0.043021
560.085751	0.043146
560.299225	0.043255
560.512680	0.042909
560.726117	0.043093
560.939536	0.042921
561.152937	0.042875
561.366319	0.042989
561.579683	0.042832
561.793029	0.043028
562.006357	0.043105
562.219667	0.043265
562.432958	0.043623
562.646231	0.043536
562.859486	0.043301
563.072723	0.043124
563.285941	0.042962
563.499141	0.042901
563.712323	0.043130
563.925487	0.042841
564.138632	0.042924
564.351760	0.042836
564.564869	0.042602
564.777960	0.042658
564.991032	0.042659
565.204087	0.042703
565.417123	0.042934
565.630141	0.042742
565.843140	0.042980
566.056122	0.042922
566.269085	0.042901
566.482030	0.042966
566.694957	0.043212
566.907866	0.042868
567.120756	0.042965
567.333628	0.042399
567.546482	0.042451
567.759318	0.042461
567.972135	0.042521
568.184935	0.042516
568.397716	0.042270
568.610478	0.042244
568.823223	0.042441
569.035949	0.042317
569.248657	0.042627
569.461347	0.042652
569.674019	0.042610
569.886672	0.042537
570.099308	0.042679
570.311925	0.042739
570.524523	0.042294
570.737104	0.042232
570.949666	0.042792
571.162210	0.042801
571.374736	0.042712
571.587244	0.042441
571.799733	0.042043
572.012205	0.041526
572.224658	0.041730
572.437092	0.042097
572.649509	0.042225
572.861907	0.041492
573.074287	0.041409
573.286649	0.041144
573.498993	0.041238
573.711318	0.041163
573.923625	0.041516
574.135914	0.041261
574.348185	0.040998
574.560438	0.040573
574.772672	0.040680
574.984888	0.040792
575.197086	0.040947
575.409266	0.040691
575.621427	0.040711
575.833570	0.040587
576.045695	0.040558
576.257802	0.040335
576.469890	0.040558
576.681961	0.040609
576.894013	0.040502
577.106046	0.040409
577.318062	0.040429
577.530059	0.040564
577.742039	0.040696
577.954000	0.040837
578.165942	0.041112
578.377867	0.041300
578.589773	0.041710
578.801661	0.041846
579.013531	0.042178
579.225382	0.042390
579.437216	0.042156
579.649031	0.042269
579.860828	0.042487
580.072606	0.042609
580.284367	0.042385
580.496109	0.041810
580.707833	0.041554
580.919539	0.041158
581.131227	0.040742
581.342896	0.041318
581.554547	0.041314
581.766180	0.041129
581.977795	0.040700
582.189391	0.040921
582.400969	0.040995
582.612529	0.041058
582.824071	0.041198
583.035595	0.041306
583.247100	0.040954
583.458587	0.040457
583.670056	0.040242
583.881506	0.040554
584.092939	0.040178
584.304353	0.040015
584.515749	0.039837
584.727127	0.039869
584.938486	0.040056
585.149828	0.039774
585.361151	0.040290
585.572456	0.040414
585.783742	0.040372
585.995011	0.040716
586.206261	0.040792
586.417493	0.041036
586.628706	0.041020
586.839902	0.041002
587.051079	0.041195
587.262238	0.040646
587.473379	0.040736
587.684502	0.040889
587.895606	0.040842
588.106692	0.040885
588.317760	0.040586
588.528810	0.040331
588.739841	0.040116
588.950855	0.039925
589.161850	0.040148
589.372827	0.040014
589.583785	0.039896
589.794726	0.039838
590.005648	0.039909
590.216552	0.040054
590.427437	0.040218
590.638305	0.040129
590.849154	0.040043
591.059985	0.040254
591.270798	0.040373
591.481592	0.040469
591.692369	0.040445
591.903127	0.040408
592.113867	0.040557
592.324588	0.040468
592.535292	0.040522
592.745977	0.040509
592.956644	0.039967
593.167293	0.039824
593.377923	0.039674
593.588536	0.040097
593.799130	0.040053
594.009706	0.040011
594.220263	0.040023
594.430803	0.040282
594.641324	0.040806
594.851827	0.041125
595.062312	0.041121
595.272778	0.041165
595.483227	0.040771
595.693657	0.040927
595.904069	0.040559
596.114462	0.040446
596.324838	0.040330
596.535195	0.040084
596.745534	0.040084
596.955855	0.039962
597.166157	0.040016
597.376441	0.039871
597.586707	0.039638
597.796955	0.039933
598.007185	0.039968
598.217396	0.040035
598.427589	0.040016
598.637764	0.040112
598.847921	0.040177
599.058060	0.039979
599.268180	0.040124
599.478282	0.039924
599.688366	0.039723
599.898431	0.039650
600.108479	0.039207
600.318508	0.038994
600.528519	0.038730
600.738511	0.038683
600.948486	0.038750
601.158442	0.038663
601.368380	0.039029
601.578300	0.038955
601.788202	0.038902
601.998085	0.039050
602.207950	0.039126
602.417797	0.039104
602.627626	0.039087
602.837436	0.039027
603.047228	0.039064
603.257002	0.038642
603.466758	0.038719
603.676496	0.038691
603.886215	0.038822
604.095916	0.038702
604.305599	0.038887
604.515264	0.038769
604.724910	0.038736
604.934538	0.038575
605.144148	0.038841
605.353740	0.038676
605.563314	0.038811
605.772869	0.038705
605.982406	0.038636
606.191925	0.038717
606.401425	0.038710
606.610908	0.038642
606.820372	0.038411
607.029818	0.038354
607.239246	0.038508
607.448655	0.038767
607.658047	0.038687
607.867420	0.039024
608.076775	0.038854
608.286111	0.039012
608.495430	0.039082
608.704730	0.039483
608.914012	0.039391
609.123275	0.039402
609.332521	0.039132
609.541748	0.039204
609.750957	0.039003
609.960148	0.039035
610.169321	0.038834
610.378475	0.038738
610.587611	0.038364
610.796729	0.038506
611.005829	0.038443
611.214910	0.038333
611.423974	0.038611
611.633019	0.038607
611.842045	0.038827
612.051054	0.038951
612.260044	0.038889
612.469017	0.039158
612.677970	0.038999
612.886906	0.038847
613.095824	0.038915
613.304723	0.038696
613.513604	0.038461
613.722467	0.038300
613.931311	0.038313
614.140138	0.038484
614.348946	0.038647
614.557736	0.038901
614.766507	0.039141
614.975261	0.039036
615.183996	0.039144
615.392713	0.039466
615.601412	0.039312
615.810092	0.039336
616.018754	0.039426
616.227399	0.039078
616.436024	0.038866
616.644632	0.038892
616.853222	0.038914
617.061793	0.038748
617.270346	0.038682
617.478880	0.038648
617.687397	0.038753
617.895895	0.038450
618.104375	0.038705
618.312837	0.038643
618.521281	0.038674
618.729706	0.038721
618.938113	0.038729
619.146502	0.038605
619.354873	0.038536
619.563226	0.038299
619.771560	0.038478
619.979876	0.038336
620.188174	0.038498
620.396453	0.038475
620.604715	0.038434
620.812958	0.038293
621.021183	0.038513
621.229390	0.038562
621.437578	0.038469
621.645748	0.038240
621.853900	0.038124
622.062034	0.038072
622.270150	0.038050
622.478247	0.038129
622.686326	0.038170
622.894387	0.037994
623.102430	0.038134
623.310454	0.038362
623.518461	0.038410
623.726449	0.038590
623.934418	0.038641
624.142370	0.038494
624.350303	0.038355
624.558218	0.038601
624.766115	0.038569
624.973994	0.038508
625.181855	0.038261
625.389697	0.038562
625.597521	0.038467
625.805327	0.038389
626.013114	0.038355
626.220883	0.038223
626.428634	0.038330
626.636367	0.038359
626.844082	0.038343
627.051778	0.038587
627.259457	0.038659
627.467117	0.038569
627.674758	0.038826
627.882382	0.038898
628.089987	0.039078
628.297574	0.038960
628.505143	0.038886
628.712694	0.038992
628.920226	0.039048
629.127740	0.038719
629.335236	0.038858
629.542714	0.038919
629.750174	0.038924
629.957615	0.038929
630.165038	0.039045
630.372443	0.039215
630.579829	0.039090
630.787198	0.039024
630.994548	0.039032
631.201880	0.038986
631.409194	0.038685
631.616489	0.038506
631.823766	0.038470
632.031025	0.038268
632.238266	0.038057
632.445489	0.038066
632.652693	0.038332
632.859879	0.038504
633.067047	0.038681
633.274197	0.038655
633.481329	0.038878
633.688442	0.039207
633.895537	0.039318
634.102614	0.039512
634.309672	0.039627
634.516713	0.039364
634.723735	0.039279
634.930739	0.039328
635.137724	0.039194
635.344692	0.039170
635.551641	0.038979
635.758572	0.038828
635.965485	0.038684
636.172379	0.038620
636.379256	0.038810
636.586114	0.038705
636.792954	0.038571
636.999775	0.038873
637.206579	0.038949
637.413364	0.038906
637.620131	0.039028
637.826880	0.039279
638.033610	0.039327
638.240323	0.039351
638.447017	0.039542
638.653692	0.039569
638.860350	0.039335
639.066990	0.039428
639.273611	0.039482
639.480214	0.039471
639.686798	0.039429
639.893365	0.039557
640.099913	0.039358
640.306443	0.039462
640.512955	0.039504
640.719449	0.039587
640.925924	0.039547
641.132381	0.039676
641.338820	0.039674
641.545241	0.039734
641.751644	0.039606
641.958028	0.039811
642.164394	0.039829
642.370742	0.039797
642.577071	0.040028
642.783383	0.039989
642.989676	0.039974
643.195951	0.040143
643.402207	0.040038
643.608446	0.040037
643.814666	0.039855
644.020868	0.039698
644.227052	0.039727
644.433218	0.039597
644.639365	0.039694
644.845494	0.039614
645.051605	0.039444
645.257698	0.039505
645.463772	0.039677
645.669828	0.039898
645.875866	0.039911
646.081886	0.040015
646.287888	0.040105
646.493871	0.040155
646.699836	0.040354
646.905783	0.040481
647.111712	0.040678
647.317622	0.040816
647.523514	0.040529
647.729388	0.040635
647.935244	0.040565
648.141082	0.040746
648.346901	0.040741
648.552702	0.040501
648.758485	0.040431
648.964250	0.040267
649.169996	0.040120
649.375724	0.040408
649.581434	0.040549
649.787126	0.040615
649.992800	0.040549
650.198455	0.040491
650.404092	0.040720
650.609711	0.040814
650.815311	0.040801
651.020894	0.040764
651.226458	0.040829
651.432004	0.040856
651.637532	0.040724
651.843041	0.040971
652.048532	0.041187
652.254006	0.041075
652.459460	0.041149
652.664897	0.041454
652.870315	0.041591
653.075716	0.041380
653.281097	0.041586
653.486461	0.041731
653.691807	0.041388
653.897134	0.041406
654.102443	0.041433
654.307734	0.041536
654.513006	0.041483
654.718261	0.041465
654.923497	0.041725
655.128715	0.041525
655.333915	0.041597
655.539096	0.041641
655.744259	0.041524
655.949404	0.041756
656.154531	0.041457
656.359640	0.041302
656.564730	0.041254
656.769802	0.041292
656.974856	0.041099
657.179892	0.041062
657.384909	0.041220
657.589908	0.041089
657.794889	0.040967
657.999852	0.041268
658.204797	0.041432
658.409723	0.041519
658.614631	0.041463
658.819521	0.041901
659.024393	0.042048
659.229246	0.041915
659.434081	0.042171
659.638898	0.042106
659.843697	0.042084
660.048478	0.042230
660.253240	0.042118
660.457984	0.042167
660.662710	0.042050
660.867417	0.042197
661.072107	0.042422
661.276778	0.042468
661.481431	0.042692
661.686066	0.042907
661.890682	0.042794
662.095281	0.043001
662.299861	0.043071
662.504422	0.043108
662.708966	0.042903
662.913491	0.042848
663.117999	0.042725
663.322488	0.042852
663.526958	0.042655
663.731411	0.042732
663.935845	0.042714
664.140261	0.042616
664.344659	0.042650
664.549038	0.042819
664.753400	0.042777
664.957743	0.042807
665.162068	0.042635
665.366375	0.042802
665.570663	0.042656
665.774933	0.042672
665.979185	0.042586
666.183419	0.042383
666.387635	0.042279
666.591832	0.042250
666.796011	0.042178
667.000172	0.042176
667.204315	0.042037
667.408439	0.041986
667.612545	0.041977
667.816634	0.042175
668.020703	0.042264
668.224755	0.042255
668.428788	0.042448
668.632803	0.042628
668.836800	0.042693
669.040779	0.042866
669.244739	0.043099
669.448681	0.043126
669.652605	0.043107
669.856511	0.043302
670.060399	0.043444
670.264268	0.043501
670.468119	0.043717
670.671952	0.043927
670.875767	0.043948
671.079563	0.043935
671.283341	0.043944
671.487101	0.044191
671.690843	0.044241
671.894567	0.044295
672.098272	0.044063
672.301959	0.043755
672.505628	0.043687
672.709278	0.043728
672.912911	0.043874
673.116525	0.044000
673.320121	0.043917
673.523699	0.044010
673.727258	0.044060
673.930799	0.044267
674.134322	0.044608
674.337827	0.044657
674.541314	0.044879
674.744782	0.044802
674.948232	0.044840
675.151664	0.044734
675.355078	0.044534
675.558474	0.044556
675.761851	0.044659
675.965210	0.044516
676.168551	0.044305
676.371873	0.043978
676.575178	0.044064
676.778464	0.044062
676.981732	0.044043
677.184981	0.044156
677.388213	0.044154
677.591426	0.044124
677.794621	0.044274
677.997798	0.044560
678.200956	0.044769
678.404097	0.044826
678.607219	0.044815
678.810323	0.044985
679.013408	0.045023
679.216476	0.044925
679.419525	0.044921
679.622556	0.044821
679.825569	0.044718
680.028563	0.044720
680.231540	0.044539
680.434498	0.044713
680.637438	0.044745
680.840359	0.044526
681.043263	0.044622
681.246148	0.044718
681.449015	0.044829
681.651864	0.044808
681.854694	0.044613
682.057506	0.044700
682.260301	0.044648
682.463076	0.044439
682.665834	0.044529
682.868573	0.044570
683.071295	0.044372
683.273998	0.044434
683.476682	0.044471
683.679349	0.044664
683.881997	0.044866
684.084627	0.044905
684.287239	0.045204
684.489833	0.045461
684.692408	0.045469
684.894965	0.045604
685.097504	0.045443
685.300025	0.045454
685.502527	0.045459
685.705012	0.045285
685.907478	0.045305
686.109925	0.045132
686.312355	0.045039
686.514766	0.045015
686.717159	0.044814
686.919534	0.044864
687.121891	0.044937
687.324230	0.044838
687.526550	0.044918
687.728852	0.044879
687.931136	0.045041
688.133401	0.044884
688.335649	0.044911
688.537878	0.045070
688.740089	0.045104
688.942281	0.045181
689.144456	0.045231
689.346612	0.045200
689.548750	0.045176
689.750870	0.045081
689.952971	0.045241
690.155055	0.045144
690.357120	0.045122
690.559167	0.045151
690.761195	0.044981
690.963206	0.044883
691.165198	0.044887
691.367172	0.044771
691.569128	0.044715
691.771065	0.044650
691.972984	0.044608
692.174885	0.044644
692.376768	0.044634
692.578633	0.044647
692.780479	0.044645
692.982308	0.044637
693.184118	0.044760
693.385909	0.044808
693.587683	0.044931
693.789438	0.044995
693.991175	0.045241
694.192894	0.045143
694.394595	0.045090
694.596277	0.045268
694.797941	0.045174
694.999587	0.045241
695.201215	0.045242
695.402824	0.045137
695.604416	0.045237
695.805989	0.044992
696.007543	0.045013
696.209080	0.045140
696.410598	0.045087
696.612099	0.045126
696.813580	0.044926
697.015044	0.044815
697.216490	0.044849
697.417917	0.044761
697.619326	0.044823
697.820717	0.044993
698.022089	0.045012
698.223444	0.044942
698.424780	0.044983
698.626098	0.045133
698.827397	0.045359
699.028679	0.045291
699.229942	0.045223
699.431187	0.045208
699.632414	0.044976
699.833622	0.044821
700.034813	0.044795
700.235985	0.044689
700.437139	0.044604
700.638274	0.044471
700.839392	0.044410
701.040491	0.044506
701.241572	0.044543
701.442635	0.044839
701.643679	0.044903
701.844706	0.045023
702.045714	0.045101
702.246704	0.045160
702.447675	0.045144
702.648629	0.045203
702.849564	0.045183
703.050481	0.045070
703.251380	0.044941
703.452260	0.045072
703.653122	0.045052
703.853966	0.045116
704.054792	0.045057
704.255600	0.044926
704.456389	0.045039
704.657160	0.045153
704.857913	0.045250
705.058648	0.045122
705.259365	0.044999
705.460063	0.044882
705.660743	0.044840
705.861405	0.044757
706.062048	0.044971
706.262674	0.044964
706.463281	0.044806
706.663870	0.044759
706.864441	0.044802
707.064993	0.044611
707.265527	0.044690
707.466043	0.044600
707.666541	0.044678
707.867021	0.044693
708.067482	0.044452
708.267925	0.044628
708.468350	0.044658
708.668757	0.044638
708.869145	0.044753
709.069516	0.044782
709.269868	0.044847
709.470201	0.045043
709.670517	0.044931
709.870814	0.045061
710.071093	0.045044
710.271354	0.045031
710.471597	0.045105
710.671821	0.045244
710.872028	0.045123
711.072216	0.045197
711.272385	0.045005
711.472537	0.044961
711.672670	0.044799
711.872785	0.044642
712.072882	0.044381
712.272961	0.044125
712.473021	0.044045
712.673063	0.044065
712.873087	0.044020
713.073093	0.043986
713.273081	0.043937
713.473050	0.044095
713.673001	0.043928
713.872934	0.044244
714.072849	0.044334
714.272745	0.044280
714.472623	0.044178
714.672483	0.044070
714.872325	0.044161
715.072148	0.044152
715.271954	0.044060
715.471741	0.044125
715.671509	0.043885
715.871260	0.043963
716.070992	0.043829
716.270707	0.043860
716.470403	0.043890
716.670080	0.043751
716.869740	0.043790
717.069381	0.043753
717.269004	0.043768
717.468609	0.043914
717.668195	0.043946
717.867764	0.044064
718.067314	0.044028
718.266846	0.044034
718.466360	0.044087
718.665855	0.043863
718.865332	0.043868
719.064791	0.043934
719.264232	0.043640
719.463655	0.043444
719.663059	0.043394
719.862445	0.043410
720.061813	0.043290
720.261163	0.042969
720.460494	0.043212
720.659807	0.043117
720.859102	0.043003
721.058379	0.043083
721.257638	0.043071
721.456878	0.043015
721.656100	0.042948
721.855304	0.042892
722.054490	0.043200
722.253657	0.042910
722.452806	0.042972
722.651937	0.042901
722.851050	0.042889
723.050145	0.042773
723.249221	0.042692
723.448279	0.042762
723.647319	0.042798
723.846340	0.042746
724.045344	0.042846
724.244329	0.042579
724.443296	0.042709
724.642245	0.042629
724.841175	0.042686
725.040088	0.042720
725.238982	0.042602
725.437857	0.042592
725.636715	0.042488
725.835554	0.042438
726.034376	0.042665
726.233179	0.042544
726.431963	0.042467
726.630730	0.042532
726.829478	0.042537
727.028208	0.042596
727.226920	0.042548
727.425614	0.042383
727.624289	0.042479
727.822946	0.042452
728.021585	0.042370
728.220206	0.042313
728.418808	0.042126
728.617392	0.041946
728.815958	0.041794
729.014506	0.041644
729.213036	0.041690
729.411547	0.041372
729.610040	0.041251
729.808515	0.041206
730.006972	0.041103
730.205410	0.041127
730.403831	0.041041
730.602233	0.040761
730.800616	0.040783
730.998982	0.040697
731.197329	0.040708
731.395658	0.040776
731.593969	0.040764
731.792262	0.040912
731.990536	0.040902
732.188793	0.040955
732.387031	0.041381
732.585250	0.041430
732.783452	0.041506
732.981635	0.041529
733.179800	0.041453
733.377947	0.041412
733.576076	0.041246
733.774186	0.041329
733.972278	0.041434
734.170352	0.041366
734.368408	0.041437
734.566446	0.041386
734.764465	0.041403
734.962466	0.041408
735.160449	0.041584
735.358413	0.041750
735.556360	0.041774
735.754288	0.042032
735.952198	0.042015
736.150090	0.041908
736.347963	0.041882
736.545818	0.042128
736.743655	0.042111
736.941474	0.042045
737.139275	0.042028
737.337057	0.041973
737.534821	0.041699
737.732567	0.041773
737.930295	0.041678
738.128005	0.041682
738.325696	0.041516
738.523369	0.041611
738.721024	0.041617
738.918660	0.041614
739.116279	0.041466
739.313879	0.041451
739.511461	0.041180
739.709024	0.041352
739.906570	0.041360
740.104097	0.041385
740.301606	0.041257
740.499097	0.041389
740.696569	0.041384
740.894024	0.041416
741.091460	0.041546
741.288878	0.041541
741.486277	0.041667
741.683659	0.041843
741.881022	0.041986
742.078367	0.042007
742.275694	0.041644
742.473002	0.041793
742.670293	0.041770
742.867565	0.041611
743.064819	0.041839
743.262054	0.041661
743.459272	0.041417
743.656471	0.041207
743.853652	0.041404
744.050815	0.041375
744.247959	0.041156
744.445085	0.041248
744.642194	0.041329
744.839283	0.041263
745.036355	0.041366
745.233408	0.041442
745.430444	0.041593
745.627461	0.041478
745.824459	0.041684
746.021440	0.041864
746.218402	0.041897
746.415346	0.041995
746.612272	0.042019
746.809180	0.041892
747.006069	0.041739
747.202940	0.041589
747.399793	0.041537
747.596628	0.041497
747.793444	0.041500
747.990243	0.041458
748.187023	0.041387
748.383784	0.041222
748.580528	0.041273
748.777253	0.041303
748.973960	0.041365
749.170649	0.041244
749.367320	0.041232
749.563973	0.041160
749.760607	0.041267
749.957223	0.041148
750.153821	0.041277
750.350400	0.041212
750.546962	0.041219
750.743505	0.041178
750.940030	0.041386
751.136536	0.041269
751.333025	0.041161
751.529495	0.040993
751.725947	0.041098
751.922381	0.040972
752.118796	0.040972
752.315194	0.041099
752.511573	0.041166
752.707934	0.041041
752.904276	0.041131
753.100601	0.041323
753.296907	0.041515
753.493195	0.041538
753.689465	0.041613
753.885716	0.041695
754.081949	0.041742
754.278164	0.041818
754.474361	0.041882
754.670540	0.041782
754.866700	0.041676
755.062843	0.041409
755.258967	0.041225
755.455072	0.041298
755.651160	0.041144
755.847229	0.041111
756.043280	0.040725
756.239313	0.040647
756.435328	0.040673
756.631324	0.040415
756.827302	0.040504
757.023262	0.040562
757.219204	0.040360
757.415127	0.040283
757.611033	0.040195
757.806920	0.040425
758.002788	0.040374
758.198639	0.040283
758.394471	0.040427
758.590286	0.040435
758.786081	0.040277
758.981859	0.040143
759.177619	0.040039
759.373360	0.039990
759.569083	0.039916
759.764788	0.039667
759.960474	0.039729
760.156143	0.039678
760.351793	0.039351
760.547425	0.039444
760.743038	0.039632
760.938634	0.039680
761.134211	0.039681
761.329770	0.039737
761.525311	0.039848
761.720833	0.039788
761.916338	0.039964
762.111824	0.040104
762.307292	0.040118
762.502741	0.039953
762.698173	0.040061
762.893586	0.039940
763.088981	0.039895
763.284358	0.040009
763.479716	0.040129
763.675057	0.040019
763.870379	0.040007
764.065683	0.039903
764.260968	0.040034
764.456236	0.039865
764.651485	0.039910
764.846716	0.040003
765.041929	0.039924
765.237123	0.040176
765.432299	0.040083
765.627457	0.040252
765.822597	0.040421
766.017719	0.040548
766.212822	0.040802
766.407907	0.040860
766.602974	0.040580
766.798023	0.040909
766.993054	0.040540
767.188066	0.040733
767.383060	0.040682
767.578036	0.040610
767.772993	0.040561
767.967933	0.040505
768.162854	0.040453
768.357757	0.040699
768.552642	0.040325
768.747508	0.040499
768.942356	0.040317
769.137186	0.040342
769.331998	0.040251
769.526792	0.040075
769.721567	0.039909
769.916324	0.039909
770.111063	0.039618
770.305784	0.039523
770.500486	0.039442
770.695171	0.039334
770.889837	0.039055
771.084484	0.038962
771.279114	0.038753
771.473725	0.038464
771.668318	0.038052
771.862893	0.037974
772.057450	0.038127
772.251988	0.037945
772.446509	0.037992
772.641011	0.038082
772.835494	0.038074
773.029960	0.038100
773.224407	0.038175
773.418836	0.038423
773.613247	0.038374
773.807640	0.038078
774.002014	0.037939
774.196370	0.037826
774.390708	0.037605
774.585028	0.037571
774.779330	0.037601
774.973613	0.037672
775.167878	0.037759
775.362125	0.037908
775.556354	0.038185
775.750564	0.038455
775.944756	0.038395
776.138930	0.038589
776.333086	0.038619
776.527223	0.038760
776.721343	0.038685
776.915444	0.038514
777.109526	0.038340
777.303591	0.038141
777.497637	0.038060
777.691666	0.038165
777.885676	0.038088
778.079667	0.038090
778.273641	0.038022
778.467596	0.038019
778.661533	0.038162
778.855452	0.038435
779.049352	0.038548
779.243235	0.038417
779.437099	0.038430
779.630945	0.038399
779.824773	0.038328
780.018582	0.038203
780.212373	0.038400
780.406146	0.038345
780.599901	0.038196
780.793638	0.038283
780.987356	0.038453
781.181056	0.038620
781.374738	0.038767
781.568402	0.038894
781.762047	0.038853
781.955674	0.038896
782.149283	0.038865
782.342874	0.039097
782.536447	0.038925
782.730001	0.038812
782.923537	0.038678
783.117055	0.038690
783.310555	0.038774
783.504036	0.038805
783.697499	0.038762
783.890944	0.038713
784.084371	0.038612
784.277780	0.038820
784.471170	0.038833
784.664542	0.038961
784.857896	0.038979
785.051231	0.038849
785.244549	0.039179
785.437848	0.039259
785.631129	0.039333
785.824392	0.039249
786.017636	0.039272
786.210863	0.039404
786.404071	0.039407
786.597260	0.039466
786.790432	0.039439
786.983585	0.039198
787.176721	0.039183
787.369838	0.039317
787.562936	0.039504
787.756017	0.039336
787.949079	0.039152
788.142123	0.038784
788.335149	0.038572
788.528156	0.038556
788.721146	0.038576
788.914117	0.038357
789.107070	0.038453
789.300005	0.038235
789.492921	0.038189
789.685819	0.038265
789.878699	0.038389
790.071561	0.038241
790.264405	0.038183
790.457230	0.038260
790.650037	0.038396
790.842826	0.038180
791.035597	0.038228
791.228349	0.038162
791.421084	0.037927
791.613800	0.037888
791.806497	0.038191
791.999177	0.038150
792.191838	0.037993
792.384481	0.037902
792.577106	0.037829
792.769713	0.037854
792.962301	0.038000
793.154871	0.038202
793.347423	0.038208
793.539957	0.038043
793.732473	0.038058
793.924970	0.038151
794.117449	0.038391
794.309910	0.038445
794.502353	0.038451
794.694777	0.038610
794.887183	0.038856
795.079571	0.039147
795.271941	0.039267
795.464293	0.039590
795.656626	0.039692
795.848941	0.039664
796.041238	0.039791
796.233516	0.039902
796.425777	0.039676
796.618019	0.039609
796.810243	0.039352
797.002449	0.039423
797.194636	0.039135
797.386805	0.039035
797.578956	0.038871
797.771089	0.038801
797.963204	0.038738
798.155300	0.038901
798.347378	0.038712
798.539438	0.038930
798.731480	0.038800
798.923503	0.039052
799.115509	0.039160
799.307496	0.039324
799.499465	0.039271
799.691415	0.039217
799.883348	0.039215
800.075262	0.039377
800.267158	0.039546
800.459035	0.039708
800.650895	0.039641
800.842736	0.039745
801.034559	0.039819
801.226364	0.039912
801.418150	0.039919
801.609919	0.039934
801.801669	0.039735
801.993401	0.039620
802.185114	0.039465
802.376810	0.039631
802.568487	0.039570
802.760146	0.039345
802.951787	0.039307
803.143409	0.039445
803.335014	0.039572
803.526600	0.039957
803.718168	0.039974
803.909717	0.040426
804.101249	0.040237
804.292762	0.040245
804.484257	0.040360
804.675734	0.040546
804.867192	0.040570
805.058632	0.040436
805.250054	0.040430
805.441458	0.040331
805.632844	0.040094
805.824211	0.040392
806.015561	0.040407
806.206891	0.040510
806.398204	0.040547
806.589499	0.040636
806.780775	0.040788
806.972033	0.040545
807.163273	0.040541
807.354495	0.040454
807.545698	0.040230
807.736883	0.040160
807.928050	0.040058
808.119199	0.040070
808.310329	0.039798
808.501441	0.039598
808.692535	0.039557
808.883611	0.039660
809.074669	0.039784
809.265708	0.039941
809.456729	0.039980
809.647732	0.040023
809.838717	0.039945
810.029683	0.040129
810.220632	0.040313
810.411562	0.040321
810.602474	0.040405
810.793367	0.040369
810.984242	0.040257
811.175100	0.040323
811.365938	0.040498
811.556759	0.040645
811.747562	0.040786
811.938346	0.040916
812.129112	0.041270
812.319860	0.041334
812.510589	0.041550
812.701300	0.041732
812.891994	0.041832
813.082668	0.041875
813.273325	0.042033
813.463964	0.042110
813.654584	0.042083
813.845186	0.042121
814.035769	0.042144
814.226335	0.041929
814.416882	0.041791
814.607411	0.041868
814.797922	0.041749
814.988415	0.041743
815.178889	0.041561
815.369345	0.041605
815.559783	0.041727
815.750203	0.041633
815.940605	0.042020
816.130988	0.042076
816.321353	0.042126
816.511700	0.042519
816.702028	0.042559
816.892339	0.042867
817.082631	0.043030
817.272905	0.043017
817.463161	0.043375
817.653398	0.043284
817.843617	0.043591
818.033819	0.043775
818.224001	0.043598
818.414166	0.043359
818.604312	0.043364
818.794440	0.043405
818.984550	0.043327
819.174642	0.043341
819.364716	0.043369
819.554771	0.043319
819.744808	0.043393
819.934827	0.043605
820.124827	0.043889
820.314810	0.043860
820.504774	0.043897
820.694720	0.044183
820.884647	0.044165
821.074557	0.044075
821.264448	0.044124
821.454321	0.043892
821.644176	0.043689
821.834012	0.043506
822.023831	0.043367
822.213631	0.043350
822.403413	0.043205
822.593176	0.043126
822.782922	0.043087
822.972649	0.043118
823.162358	0.043255
823.352049	0.043353
823.541721	0.043519
823.731376	0.043641
823.921012	0.043356
824.110629	0.043402
824.300229	0.043600
824.489811	0.044005
824.679374	0.043973
824.868919	0.044032
825.058445	0.044170
825.247954	0.044333
825.437444	0.044601
825.626916	0.044935
825.816370	0.044799
826.005806	0.044905
826.195223	0.044651
826.384622	0.044744
826.574003	0.044707
826.763366	0.044687
826.952711	0.044408
827.142037	0.044240
827.331345	0.044234
827.520635	0.044412
827.709906	0.044155
827.899160	0.044297
828.088395	0.044267
828.277612	0.044303
828.466810	0.044280
828.655991	0.044563
828.845153	0.044448
829.034297	0.044344
829.223423	0.044495
829.412531	0.044499
829.601620	0.044512
829.790691	0.044491
829.979744	0.044424
830.168779	0.044513
830.357795	0.044560
830.546793	0.044847
830.735773	0.045022
830.924735	0.045053
831.113679	0.045206
831.302604	0.045067
831.491511	0.044890
831.680400	0.045030
831.869271	0.045104
832.058123	0.045079
832.246957	0.045336
832.435773	0.045450
832.624571	0.045327
832.813351	0.045303
833.002112	0.045668
833.190855	0.045982
833.379580	0.046050
833.568287	0.046175
833.756975	0.046326
833.945645	0.046079
834.134297	0.046173
834.322931	0.046378
834.511547	0.046391
834.700144	0.046534
834.888723	0.046772
835.077284	0.046885
835.265826	0.046692
835.454351	0.046747
835.642857	0.046825
835.831345	0.047030
836.019815	0.047006
836.208266	0.047492
836.396699	0.047299
836.585114	0.047282
836.773511	0.047410
836.961890	0.047665
837.150250	0.047565
837.338592	0.047555
837.526916	0.047307
837.715222	0.047542
837.903510	0.047347
838.091779	0.047509
838.280030	0.047496
838.468263	0.047711
838.656477	0.047858
838.844674	0.048308
839.032852	0.048629
839.221012	0.049079
839.409153	0.048973
839.597277	0.049143
839.785382	0.049259
839.973469	0.049598
840.161538	0.049525
840.349589	0.049650
840.537621	0.049572
840.725635	0.049585
840.913631	0.049429
841.101609	0.049729
841.289568	0.050054
841.477509	0.050164
841.665432	0.050021
841.853337	0.049996
842.041224	0.049970
842.229092	0.050382
842.416942	0.050517
842.604774	0.050589
842.792588	0.050652
842.980383	0.050509
843.168160	0.050651
843.355919	0.050956
843.543660	0.050982
843.731382	0.051282
843.919087	0.050967
844.106773	0.050993
844.294441	0.050930
844.482090	0.051028
844.669722	0.051130
844.857335	0.051175
845.044930	0.051100
845.232507	0.051373
845.420065	0.051315
845.607605	0.051454
845.795127	0.051462
845.982631	0.051410
846.170117	0.051315
846.357584	0.051539
846.545033	0.051665
846.732464	0.051688
846.919877	0.051905
847.107272	0.051724
847.294648	0.051880
847.482006	0.051999
847.669346	0.052369
847.856667	0.052574
848.043971	0.052524
848.231256	0.052523
848.418523	0.052750
848.605771	0.052629
848.793002	0.053188
848.980214	0.053432
849.167408	0.053664
849.354584	0.053785
849.541742	0.053884
849.728881	0.053963
849.916002	0.054298
850.103105	0.054402
850.290190	0.054680
850.477256	0.054622
850.664304	0.054622
850.851334	0.054955
851.038346	0.055004
851.225340	0.055374
851.412315	0.055482
851.599272	0.055506
851.786211	0.055841
851.973132	0.055871
852.160034	0.056125
852.346918	0.056400
852.533784	0.056518
852.720632	0.056990
852.907462	0.056892
853.094273	0.056929
853.281066	0.056917
853.467841	0.056523
853.654598	0.056604
853.841336	0.056626
854.028056	0.056465
854.214758	0.056373
854.401442	0.056183
854.588107	0.056039
854.774755	0.056066
854.961384	0.056113
855.147995	0.056371
855.334587	0.056655
855.521162	0.056673
855.707718	0.056769
855.894256	0.056831
856.080775	0.057004
856.267277	0.057252
856.453760	0.057269
856.640225	0.057423
856.826672	0.057755
857.013101	0.057817
857.199511	0.057932
857.385903	0.058030
857.572277	0.058105
857.758633	0.058241
857.944970	0.058482
858.131290	0.058947
858.317591	0.059182
858.503873	0.059094
858.690138	0.059090
858.876384	0.059154
859.062612	0.059206
859.248822	0.059527
859.435014	0.059504
859.621188	0.059471
859.807343	0.059336
859.993480	0.059255
860.179599	0.059356
860.365699	0.059095
860.551781	0.058889
860.737846	0.059028
860.923891	0.058895
861.109919	0.058637
861.295929	0.058472
861.481920	0.058517
861.667893	0.058786
861.853848	0.058726
862.039784	0.059036
862.225702	0.059497
862.411603	0.059335
862.597484	0.059509
862.783348	0.059955
862.969193	0.060316
863.155021	0.060632
863.340830	0.060583
863.526620	0.060962
863.712393	0.061192
863.898147	0.061079
864.083883	0.061478
864.269601	0.061477
864.455301	0.061488
864.640982	0.061343
864.826645	0.061146
865.012290	0.061372
865.197917	0.060937
865.383526	0.060900
865.569116	0.060984
865.754688	0.060800
865.940242	0.060755
866.125777	0.060671
866.311295	0.060629
866.496794	0.060580
866.682275	0.060332
866.867737	0.060412
867.053182	0.060512
867.238608	0.060439
867.424016	0.060493
867.609406	0.060431
867.794778	0.060518
867.980131	0.060424
868.165466	0.060328
868.350783	0.060217
868.536082	0.060314
868.721362	0.060166
868.906625	0.060088
869.091869	0.059965
869.277094	0.060095
869.462302	0.060002
869.647491	0.060257
869.832662	0.060280
870.017815	0.060584
870.202950	0.060842
870.388066	0.061063
870.573165	0.061051
870.758245	0.061226
870.943306	0.060991
871.128350	0.061177
871.313375	0.060860
871.498382	0.061028
871.683371	0.060783
871.868342	0.060627
872.053294	0.060653
872.238229	0.060654
872.423144	0.060953
872.608042	0.061241
872.792922	0.061139
872.977783	0.061382
873.162626	0.061453
873.347451	0.061551
873.532258	0.061582
873.717046	0.061441
873.901816	0.061507
874.086568	0.061491
874.271302	0.061387
874.456017	0.061550
874.640715	0.061880
874.825394	0.062104
875.010055	0.062107
875.194697	0.061805
875.379322	0.061666
875.563928	0.061642
875.748516	0.061676
875.933085	0.061741
876.117637	0.061712
876.302170	0.061657
876.486685	0.061667
876.671182	0.061957
876.855661	0.062475
877.040121	0.062748
877.224563	0.063173
877.408987	0.062858
877.593393	0.062894
877.777780	0.063025
877.962150	0.063286
878.146501	0.063397
878.330833	0.063472
878.515148	0.063684
878.699444	0.063876
878.883722	0.063848
879.067982	0.064212
879.252224	0.064558
879.436447	0.065037
879.620653	0.065408
879.804840	0.065402
879.989008	0.065292
880.173159	0.065306
880.357291	0.065269
880.541405	0.065446
880.725501	0.065303
880.909579	0.065315
881.093638	0.065155
881.277680	0.064682
881.461703	0.064533
881.645707	0.064609
881.829694	0.064363
882.013662	0.064315
882.197612	0.064212
882.381544	0.064550
882.565458	0.064459
882.749353	0.064190
882.933230	0.064238
883.117089	0.064434
883.300930	0.064545
883.484753	0.064708
883.668557	0.064723
883.852343	0.064689
884.036111	0.064309
884.219861	0.063957
884.403592	0.063877
884.587305	0.063553
884.771000	0.063457
884.954677	0.063468
885.138335	0.063433
885.321976	0.063140
885.505598	0.063157
885.689201	0.063131
885.872787	0.063308
886.056354	0.063146
886.239904	0.063206
886.423434	0.063064
886.606947	0.062655
886.790442	0.062512
886.973918	0.062532
887.157376	0.062662
887.340816	0.062686
887.524237	0.062527
887.707641	0.062852
887.891026	0.062881
888.074393	0.063018
888.257741	0.063243
888.441072	0.063191
888.624384	0.063323
888.807678	0.063049
888.990954	0.063124
889.174211	0.063333
889.357451	0.063080
889.540672	0.063163
889.723875	0.062850
889.907059	0.062751
890.090226	0.062855
890.273374	0.062658
890.456504	0.062496
890.639616	0.062352
890.822709	0.062608
891.005785	0.062599
891.188842	0.062349
891.371881	0.062738
891.554901	0.062734
891.737904	0.062455
891.920888	0.062704
892.103854	0.062584
892.286802	0.062874
892.469731	0.062527
892.652643	0.062699
892.835536	0.063137
893.018410	0.063033
893.201267	0.063154
893.384106	0.063229
893.566926	0.063063
893.749728	0.063277
893.932511	0.062827
894.115277	0.062621
894.298024	0.062768
894.480753	0.062398
894.663464	0.061745
894.846157	0.061470
895.028831	0.061457
895.211487	0.061350
895.394125	0.061284
895.576745	0.061638
895.759346	0.061818
895.941930	0.061595
896.124495	0.061500
896.307041	0.062153
896.489570	0.062446
896.672080	0.062398
896.854573	0.062843
897.037046	0.062799
897.219502	0.062797
897.401940	0.062772
897.584359	0.062729
897.766760	0.062763
897.949143	0.062862
898.131507	0.063099
898.313854	0.063063
898.496182	0.062831
898.678492	0.062822
898.860783	0.062851
899.043057	0.062978
899.225312	0.062765
899.407549	0.062780
899.589768	0.062504
899.771968	0.061810
899.954151	0.062045
900.136315	0.061808
900.318461	0.061558
900.500588	0.061154
900.682698	0.060877
900.864789	0.060812
901.046862	0.060588
901.228917	0.060221
901.410953	0.060329
901.592971	0.059863
901.774972	0.059917
901.956953	0.060188
902.138917	0.060070
902.320862	0.059762
902.502790	0.059713
902.684699	0.059470
902.866589	0.059460
903.048462	0.059402
903.230316	0.059558
903.412152	0.059562
903.593970	0.059221
903.775770	0.059405
903.957551	0.059793
904.139314	0.059474
904.321059	0.059916
904.502786	0.059897
904.684494	0.059649
904.866185	0.059361
905.047857	0.058938
905.229510	0.058997
905.411146	0.058799
905.592763	0.058547
905.774363	0.058564
905.955943	0.058316
906.137506	0.058195
906.319051	0.058179
906.500577	0.057792
906.682085	0.057745
906.863575	0.057702
907.045046	0.057461
907.226500	0.057306
907.407935	0.056984
907.589352	0.056734
907.770750	0.056885
907.952131	0.057129
908.133493	0.057508
908.314837	0.057500
908.496163	0.057419
908.677470	0.057311
908.858760	0.057247
909.040031	0.058001
909.221284	0.057979
909.402518	0.057796
909.583735	0.057433
909.764933	0.057654
909.946113	0.057630
910.127275	0.057286
910.308418	0.056851
910.489544	0.056555
910.670651	0.055962
910.851740	0.055785
911.032810	0.055328
911.213863	0.054981
911.394897	0.054746
911.575913	0.054707
911.756911	0.054620
911.937890	0.054833
912.118851	0.054525
912.299794	0.054162
912.480719	0.054156
912.661626	0.054236
912.842514	0.054221
913.023384	0.053675
913.204236	0.053617
913.385070	0.053464
913.565886	0.052977
913.746683	0.052662
913.927462	0.052594
914.108223	0.052568
914.288965	0.052038
914.469690	0.051934
914.650396	0.051646
914.831084	0.050943
915.011754	0.050800
915.192405	0.050678
915.373038	0.050746
915.553653	0.050579
915.734250	0.050256
915.914829	0.050164
916.095389	0.049913
916.275931	0.049760
916.456455	0.049464
916.636961	0.049106
916.817448	0.049140
916.997917	0.049111
917.178368	0.048610
917.358801	0.048521
917.539216	0.048790
917.719612	0.048390
917.899990	0.048353
918.080350	0.048266
918.260692	0.048289
918.441015	0.048233
918.621320	0.047875
918.801607	0.047999
918.981876	0.047767
919.162127	0.047123
919.342359	0.046921
919.522573	0.046692
919.702769	0.046535
919.882947	0.046154
920.063106	0.045817
920.243247	0.045851
920.423370	0.045669
920.603475	0.045296
920.783562	0.045579
920.963630	0.045654
921.143680	0.045738
921.323712	0.045980
921.503725	0.046059
921.683721	0.045836
921.863698	0.045618
922.043657	0.045602
922.223598	0.044826
922.403520	0.044574
922.583424	0.044180
922.763311	0.043992
922.943178	0.043773
923.123028	0.043568
923.302859	0.043206
923.482673	0.043120
923.662467	0.042790
923.842244	0.042819
924.022003	0.042209
924.201743	0.041781
924.381465	0.041199
924.561169	0.040622
924.740854	0.039986
924.920522	0.039751
925.100171	0.039174
925.279802	0.038783
925.459414	0.039019
925.639009	0.039016
925.818585	0.038646
925.998143	0.038253
926.177683	0.038061
926.357205	0.037935
926.536708	0.037594
926.716193	0.037224
926.895660	0.037156
927.075109	0.036736
927.254539	0.036155
927.433951	0.036216
927.613345	0.035906
927.792721	0.035474
927.972079	0.035348
928.151418	0.035534
928.330739	0.035400
928.510042	0.034866
928.689327	0.034717
928.868593	0.034279
929.047841	0.034547
929.227071	0.034542
929.406283	0.034057
929.585476	0.034236
929.764652	0.033724
929.943809	0.033503
930.122948	0.033642
930.302068	0.033185
930.481171	0.033505
930.660255	0.032801
930.839321	0.032105
931.018369	0.031877
931.197398	0.030730
931.376409	0.030641
931.555402	0.030180
931.734377	0.030352
931.913334	0.030478
932.092272	0.029709
932.271192	0.029249
932.450094	0.029496
932.628978	0.029491
932.807844	0.029275
932.986691	0.028936
933.165520	0.028505
933.344331	0.027055
933.523123	0.026026
933.701898	0.025953
933.880654	0.025474
934.059392	0.024932
934.238111	0.024456
934.416813	0.024825
934.595496	0.024575
934.774161	0.024477
934.952808	0.024561
935.131437	0.024783
935.310047	0.024513
935.488639	0.024305
935.667213	0.023579
935.845769	0.023577
936.024306	0.022522
936.202825	0.021995
936.381326	0.021961
936.559809	0.021162
936.738274	0.020717
936.916720	0.019658
937.095148	0.019523
937.273558	0.020113
937.451950	0.019860
937.630323	0.019711
937.808678	0.019140
937.987015	0.018730
938.165334	0.019094
938.343635	0.019098
938.521917	0.019126
938.700181	0.018856
938.878427	0.018014
939.056655	0.018479
939.234864	0.018672
939.413055	0.018890
939.591228	0.018854
939.769383	0.018052
939.947519	0.016518
940.125638	0.016411
940.303738	0.016183
940.481820	0.015607
940.659883	0.014095
940.837929	0.013010
941.015956	0.012688
941.193965	0.011369
941.371955	0.011072
941.549928	0.011849
941.727882	0.012367
941.905818	0.012000
942.083736	0.012341
942.261636	0.012368
942.439517	0.012947
942.617380	0.013060
942.795225	0.013310
942.973052	0.014053
943.150860	0.013062
943.328651	0.012678
943.506423	0.011827
943.684176	0.011366
943.861912	0.010446
944.039629	0.009050
944.217328	0.008058
944.395009	0.008349
944.572672	0.007873
944.750317	0.008588
944.927943	0.007976
945.105551	0.008723
945.283141	0.008949
945.460712	0.009053
945.638265	0.010382
945.815801	0.010010
945.993317	0.009487
946.170816	0.008750
946.348297	0.008935
946.525759	0.008437
946.703203	0.007916
946.880629	0.007320
947.058036	0.008047
947.235425	0.007705
947.412797	0.007512
947.590149	0.006571
947.767484	0.007533
947.944800	0.006598
948.122099	0.006375
948.299379	0.006637
948.476640	0.006344
948.653884	0.005731
948.831109	0.004278
949.008316	0.004790
949.185505	0.005806
949.362676	0.005321
949.539828	0.004313
949.716962	0.005638
949.894078	0.004744
950.071176	0.004698
950.248256	0.004723
950.425317	0.006289
950.602360	0.007059
950.779385	0.006197
950.956391	0.006016
951.133380	0.006856
951.310350	0.005851
951.487302	0.006243
951.664235	0.007175
951.841151	0.007910
952.018048	0.007597
952.194927	0.006959
952.371788	0.007864
952.548631	0.007202
952.725455	0.007429
952.902261	0.008009
953.079049	0.008020
953.255819	0.007886
953.432570	0.008736
953.609303	0.008572
953.786018	0.008446
953.962715	0.008502
954.139394	0.009975
954.316054	0.011137
954.492696	0.011293
954.669320	0.011624
954.845926	0.011877
955.022513	0.010657
955.199083	0.010696
955.375634	0.011011
955.552166	0.010545
955.728681	0.009651
955.905177	0.010054
956.081655	0.011012
956.258115	0.012195
956.434557	0.012380
956.610980	0.012743
956.787385	0.013202
956.963772	0.014202
957.140141	0.016116
957.316492	0.016059
957.492824	0.014349
957.669138	0.014245
957.845434	0.015334
958.021712	0.015939
958.197971	0.015325
958.374212	0.015487
958.550435	0.015381
958.726640	0.015269
958.902826	0.017273
959.078995	0.019457
959.255145	0.019042
959.431277	0.020133
959.607390	0.019745
959.783486	0.021159
959.959563	0.022665
960.135622	0.022844
960.311662	0.024119
960.487685	0.022740
960.663689	0.021267
960.839675	0.021598
961.015643	0.020471
961.191593	0.024006
961.367524	0.024261
961.543437	0.025307
961.719332	0.026100
961.895209	0.024705
962.071067	0.026910
962.246907	0.029009
962.422730	0.030091
962.598533	0.030789
962.774319	0.029133
962.950086	0.028676
963.125835	0.026118
963.301566	0.024447
963.477279	0.026111
963.652973	0.025640
963.828650	0.025156
964.004308	0.025211
964.179947	0.024202
964.355569	0.025311
964.531172	0.026325
964.706757	0.029288
964.882324	0.030420
965.057873	0.027845
965.233403	0.026479
965.408916	0.026077
965.584410	0.027207
965.759885	0.028641
965.935343	0.027255
966.110782	0.026574
966.286203	0.025350
966.461606	0.027079
966.636991	0.030306
966.812357	0.031499
966.987705	0.032271
967.163035	0.032185
967.338347	0.031086
967.513641	0.032920
967.688916	0.033675
967.864173	0.033982
968.039412	0.033926
968.214632	0.033125
968.389835	0.035097
968.565019	0.036393
968.740185	0.037144
968.915333	0.036450
969.090462	0.035325
969.265573	0.036172
969.440667	0.036952
969.615741	0.037618
969.790798	0.039038
969.965836	0.036773
970.140856	0.036603
970.315858	0.035666
970.490842	0.037631
970.665808	0.038310
970.840755	0.036727
971.015684	0.036080
971.190595	0.036953
971.365487	0.035994
971.540362	0.037092
971.715218	0.035922
971.890056	0.037496
972.064875	0.036521
972.239677	0.035718
972.414460	0.037590
972.589225	0.039186
972.763972	0.037391
972.938700	0.036364
973.113411	0.038671
973.288103	0.038217
973.462777	0.037585
973.637432	0.036382
973.812070	0.036237
973.986689	0.036900
974.161290	0.035921
974.335873	0.033522
974.510437	0.036941
974.684984	0.035439
974.859512	0.038252
975.034022	0.037733
975.208513	0.040048
975.382987	0.039689
975.557442	0.038789
975.731879	0.038527
975.906298	0.041146
976.080698	0.039742
976.255080	0.040469
976.429445	0.039266
976.603790	0.038932
976.778118	0.038299
976.952427	0.040335
977.126719	0.041951
977.300992	0.042387
977.475246	0.040775
977.649483	0.039857
977.823701	0.040245
977.997901	0.039786
978.172083	0.041526
978.346247	0.042261
978.520392	0.040617
978.694519	0.037803
978.868628	0.038263
979.042719	0.039209
979.216791	0.037599
979.390845	0.036401
979.564882	0.037673
979.738899	0.036003
979.912899	0.035614
980.086880	0.035547
980.260843	0.035541
980.434788	0.036267
980.608715	0.037069
980.782623	0.039870
980.956514	0.040917
981.130386	0.040474
981.304240	0.041714
981.478075	0.042645
981.651892	0.042645
981.825692	0.044443
981.999472	0.042504
982.173235	0.042581
982.346980	0.042231
982.520706	0.041713
982.694414	0.040747
982.868104	0.040074
983.041775	0.040503
983.215428	0.039744
983.389064	0.039586
983.562680	0.039241
983.736279	0.039405
983.909860	0.037440
984.083422	0.035891
984.256966	0.037470
984.430491	0.037270
984.603999	0.035668
984.777488	0.036472
984.950959	0.036283
985.124412	0.037642
985.297847	0.035875
985.471263	0.037108
985.644661	0.038292
985.818041	0.037553
985.991403	0.037274
986.164747	0.037178
986.338072	0.037418
986.511379	0.037805
986.684668	0.035804
986.857938	0.036653
987.031191	0.036925
987.204425	0.036412
987.377641	0.037037
987.550839	0.036394
987.724018	0.037762
987.897179	0.037518
988.070322	0.036661
988.243447	0.036547
988.416554	0.037766
988.589642	0.037549
988.762712	0.037338
988.935764	0.036541
989.108798	0.038523
989.281813	0.036867
989.454811	0.037550
989.627790	0.037634
989.800751	0.040026
989.973693	0.039293
990.146617	0.038790
990.319524	0.038995
990.492412	0.037126
990.665281	0.036291
990.838133	0.037717
991.010966	0.038310
991.183781	0.038383
991.356578	0.037578
991.529356	0.037786
991.702117	0.037631
991.874859	0.037796
992.047583	0.040924
992.220288	0.039509
992.392976	0.038868
992.565645	0.038658
992.738296	0.037827
992.910929	0.035765
993.083543	0.034859
993.256139	0.035027
993.428718	0.034910
993.601277	0.033535
993.773819	0.033208
993.946342	0.032978
994.118848	0.032621
994.291335	0.032181
994.463803	0.033634
994.636254	0.033456
994.808686	0.033820
994.981100	0.034890
995.153496	0.033903
995.325874	0.036096
995.498233	0.035672
995.670574	0.035821
995.842897	0.035999
996.015202	0.036521
996.187488	0.036962
996.359757	0.037631
996.532007	0.036777
996.704239	0.036187
996.876452	0.035825
997.048648	0.037353
997.220825	0.035853
997.392984	0.035645
997.565124	0.037384
997.737247	0.038338
997.909351	0.037281
998.081437	0.037077
998.253505	0.038657
998.425554	0.038589
998.597586	0.036298
998.769599	0.037680
998.941594	0.039002
999.113571	0.037040
999.285529	0.036747
999.457469	0.036091
999.629391	0.036657
999.801295	0.036997
999.973181	0.036057
1000.145048	0.036638
1000.316897	0.035241
1000.488728	0.035289
1000.660541	0.035151
1000.832335	0.035305
1001.004111	0.035998
1001.175869	0.035614
1001.347609	0.033940
1001.519331	0.034601
1001.691034	0.035904
1001.862719	0.037818
1002.034386	0.038208
1002.206035	0.037886
1002.377665	0.037543
1002.549277	0.038960
1002.720871	0.037459
1002.892447	0.036684
1003.064004	0.033981
1003.235544	0.032167
1003.407065	0.030149
1003.578568	0.030677
1003.750052	0.031045
1003.921519	0.031558
1004.092967	0.028738
1004.264397	0.030303
1004.435809	0.031331
1004.607202	0.033862
1004.778577	0.034414
1004.949934	0.035285
1005.121273	0.034048
1005.292594	0.033728
1005.463896	0.033374
1005.635180	0.034437
1005.806446	0.034643
1005.977694	0.034710
1006.148923	0.035241
1006.320135	0.036429
1006.491328	0.036175
1006.662503	0.036083
1006.833659	0.035312
1007.004798	0.034734
1007.175918	0.035338
1007.347020	0.035160
1007.518103	0.034881
1007.689169	0.033481
1007.860216	0.032934
1008.031245	0.034284
1008.202256	0.034392
1008.373248	0.034098
1008.544223	0.035443
1008.715179	0.035407
1008.886117	0.034202
1009.057036	0.035087
1009.227938	0.035150
1009.398821	0.034247
1009.569686	0.032301
1009.740533	0.033063
1009.911361	0.033984
1010.082172	0.032953
1010.252964	0.032780
1010.423738	0.033754
1010.594493	0.032642
1010.765231	0.032768
1010.935950	0.032337
1011.106651	0.033987
1011.277334	0.032175
1011.447998	0.031767
1011.618645	0.032051
1011.789273	0.033256
1011.959882	0.033474
1012.130474	0.034074
1012.301048	0.035511
1012.471603	0.036434
1012.642140	0.036723
1012.812658	0.038019
1012.983159	0.038863
1013.153641	0.036945
1013.324105	0.034478
1013.494551	0.033641
1013.664979	0.034220
1013.835388	0.033235
1014.005779	0.032415
1014.176152	0.030738
1014.346507	0.030761
1014.516843	0.031130
1014.687162	0.032395
1014.857462	0.034160
1015.027744	0.033777
1015.198007	0.034244
1015.368252	0.035775
1015.538480	0.037442
1015.708689	0.038402
1015.878879	0.037144
1016.049052	0.037385
1016.219206	0.036611
1016.389342	0.036750
1016.559460	0.038709
1016.729559	0.039121
1016.899641	0.038719
1017.069704	0.036927
1017.239749	0.035620
1017.409775	0.035861
1017.579784	0.035324
1017.749774	0.036613
1017.919746	0.036625
1018.089700	0.035006
1018.259635	0.033669
1018.429553	0.031808
1018.599452	0.033168
1018.769333	0.033162
1018.939195	0.033803
1019.109040	0.034226
1019.278866	0.032160
1019.448674	0.031543
1019.618464	0.032187
1019.788235	0.030935
1019.957989	0.029911
1020.127724	0.027969
1020.297441	0.028378
1020.467139	0.028305
1020.636820	0.027674
1020.806482	0.029211
1020.976126	0.028766
1021.145752	0.027515
1021.315359	0.029395
1021.484948	0.030506
1021.654519	0.032104
1021.824072	0.031490
1021.993607	0.031692
1022.163123	0.031484
1022.332621	0.031773
1022.502101	0.031734
1022.671563	0.031760
1022.841007	0.031102
1023.010432	0.031270
1023.179839	0.030360
1023.349228	0.032908
1023.518598	0.034160
1023.687951	0.034796
1023.857285	0.034130
1024.026601	0.035096
1024.195899	0.035426
1024.365178	0.035910
1024.534439	0.035524
1024.703682	0.036465
1024.872907	0.033434
1025.042114	0.031362
1025.211302	0.030405
1025.380472	0.030710
1025.549624	0.028959
1025.718758	0.029169
1025.887873	0.028967
1026.056970	0.030090
1026.226049	0.028219
1026.395110	0.030616
1026.564153	0.031368
1026.733177	0.032855
1026.902183	0.031906
1027.071171	0.032601
1027.240141	0.032963
1027.409092	0.032135
1027.578026	0.030454
1027.746940	0.031450
1027.915837	0.032386
1028.084716	0.032164
1028.253576	0.029293
1028.422418	0.031084
1028.591242	0.030745
1028.760048	0.030386
1028.928835	0.030827
1029.097604	0.031685
1029.266355	0.033543
1029.435088	0.032285
1029.603803	0.031224
1029.772499	0.033081
1029.941177	0.031643
1030.109837	0.032579
1030.278478	0.032496
1030.447102	0.030839
1030.615707	0.031751
1030.784294	0.029568
1030.952863	0.029849
1031.121413	0.029264
1031.289945	0.029115
1031.458460	0.030238
1031.626955	0.028916
1031.795433	0.028914
1031.963892	0.029887
1032.132334	0.028150
1032.300756	0.028066
1032.469161	0.026247
1032.637548	0.028181
1032.805916	0.028235
1032.974266	0.027471
1033.142598	0.027957
1033.310911	0.026923
1033.479207	0.028216
1033.647484	0.028572
1033.815743	0.029206
1033.983983	0.029781
1034.152206	0.029335
1034.320410	0.028170
1034.488596	0.028443
1034.656764	0.027639
1034.824914	0.028252
1034.993045	0.026501
1035.161158	0.026301
1035.329253	0.026910
1035.497330	0.028230
1035.665388	0.027506
1035.833428	0.029177
1036.001450	0.028845
1036.169454	0.029058
1036.337440	0.029251
1036.505407	0.030953
1036.673356	0.032063
1036.841287	0.032228
1037.009200	0.030609
1037.177094	0.031557
1037.344970	0.030892
1037.512828	0.029492
1037.680668	0.031495
1037.848489	0.032302
1038.016293	0.030347
1038.184078	0.029395
1038.351845	0.027735
1038.519593	0.027774
1038.687324	0.026792
1038.855036	0.026834
1039.022730	0.026987
1039.190406	0.026344
1039.358063	0.025687
1039.525702	0.026301
1039.693323	0.026222
1039.860926	0.027494
1040.028511	0.027615
1040.196077	0.027887
1040.363625	0.028223
1040.531155	0.028610
1040.698667	0.028952
1040.866161	0.029225
1041.033636	0.029687
1041.201093	0.028410
1041.368532	0.028411
1041.535952	0.029068
1041.703355	0.030942
1041.870739	0.029548
1042.038105	0.030143
1042.205452	0.028681
1042.372782	0.027936
1042.540093	0.026285
1042.707386	0.028513
1042.874661	0.028687
1043.041918	0.028043
1043.209156	0.026202
1043.376376	0.027474
1043.543578	0.025850
1043.710762	0.025580
1043.877927	0.025704
1044.045074	0.027332
1044.212203	0.026355
1044.379314	0.026822
1044.546407	0.026221
1044.713481	0.027669
1044.880537	0.028005
1045.047575	0.030517
1045.214595	0.030139
1045.381596	0.030180
1045.548579	0.029870
1045.715544	0.030256
1045.882491	0.028968
1046.049420	0.029770
1046.216330	0.029177
1046.383222	0.027690
1046.550096	0.026916
1046.716951	0.028541
1046.883789	0.029063
1047.050608	0.027976
1047.217409	0.027287
1047.384192	0.027487
1047.550956	0.027384
1047.717703	0.025933
1047.884431	0.025506
1048.051140	0.024609
1048.217832	0.025223
1048.384505	0.024153
1048.551161	0.026138
1048.717798	0.025098
1048.884416	0.025545
1049.051017	0.025780
1049.217599	0.026384
1049.384163	0.027830
1049.550709	0.028920
1049.717237	0.026876
1049.883746	0.026766
1050.050237	0.026781
1050.216710	0.027714
1050.383165	0.028253
1050.549601	0.027301
1050.716019	0.026895
1050.882420	0.027513
1051.048801	0.027213
1051.215165	0.026285
1051.381510	0.027041
1051.547837	0.026829
1051.714146	0.028362
1051.880437	0.026184
1052.046709	0.025136
1052.212964	0.026263
1052.379200	0.024855
1052.545417	0.025114
1052.711617	0.025660
1052.877798	0.026980
1053.043961	0.027066
1053.210106	0.026365
1053.376233	0.025896
1053.542341	0.027684
1053.708432	0.027114
1053.874504	0.027624
1054.040557	0.026772
1054.206593	0.027101
1054.372610	0.024249
1054.538609	0.024391
1054.704590	0.024695
1054.870553	0.024962
1055.036497	0.025081
1055.202424	0.024834
1055.368331	0.024047
1055.534221	0.023810
1055.700093	0.022788
1055.865946	0.023768
1056.031781	0.023206
1056.197598	0.021167
1056.363397	0.020511
1056.529177	0.019683
1056.694939	0.020640
1056.860683	0.022441
1057.026409	0.023614
1057.192116	0.026269
1057.357806	0.026444
1057.523477	0.024787
1057.689130	0.026536
1057.854764	0.028193
1058.020381	0.029392
1058.185979	0.028152
1058.351559	0.025917
1058.517120	0.024428
1058.682664	0.022945
1058.848189	0.022718
1059.013696	0.024232
1059.179185	0.024781
1059.344656	0.025248
1059.510108	0.023580
1059.675542	0.022718
1059.840958	0.024073
1060.006356	0.023834
1060.171735	0.023370
1060.337096	0.023199
1060.502439	0.022579
1060.667764	0.021928
1060.833071	0.020571
1060.998359	0.021541
1061.163629	0.022395
1061.328881	0.021464
1061.494115	0.021516
1061.659330	0.022952
1061.824527	0.023503
1061.989706	0.023325
1062.154867	0.022388
1062.320010	0.022252
1062.485134	0.022670
1062.650240	0.021984
1062.815328	0.022956
1062.980398	0.023680
1063.145449	0.025200
1063.310482	0.025171
1063.475497	0.024919
1063.640494	0.023900
1063.805473	0.025141
1063.970433	0.024201
1064.135375	0.026557
1064.300299	0.025818
1064.465204	0.026939
1064.630092	0.026407
1064.794961	0.025689
1064.959812	0.025016
1065.124645	0.027345
1065.289459	0.026601
1065.454256	0.028449
1065.619034	0.026115
1065.783793	0.027028
1065.948535	0.026561
1066.113258	0.023221
1066.277964	0.024969
1066.442651	0.024888
1066.607319	0.023419
1066.771970	0.024340
1066.936602	0.023262
1067.101216	0.024432
1067.265812	0.022660
1067.430389	0.022189
1067.594949	0.024341
1067.759490	0.022334
1067.924013	0.021484
1068.088518	0.022678
1068.253004	0.020944
1068.417472	0.021141
1068.581922	0.020498
1068.746354	0.020231
1068.910768	0.019142
1069.075163	0.018633
1069.239540	0.019064
1069.403899	0.021788
1069.568240	0.022477
1069.732562	0.025049
1069.896866	0.024379
1070.061152	0.025684
1070.225420	0.026498
1070.389670	0.027287
1070.553901	0.027990
1070.718114	0.027972
1070.882309	0.026703
1071.046486	0.025226
1071.210644	0.023102
1071.374784	0.022948
1071.538906	0.020892
1071.703010	0.021896
1071.867096	0.022517
1072.031163	0.022537
1072.195212	0.024180
1072.359243	0.024507
1072.523256	0.025157
1072.687250	0.025799
1072.851226	0.024984
1073.015184	0.024933
1073.179124	0.024154
1073.343045	0.022941
1073.506949	0.023661
1073.670834	0.021163
1073.834701	0.022228
1073.998549	0.020542
1074.162380	0.019755
1074.326192	0.020311
1074.489986	0.021053
1074.653761	0.021362
1074.817519	0.019735
1074.981258	0.018369
1075.144979	0.019572
1075.308682	0.020536
1075.472367	0.021718
1075.636033	0.021622
1075.799681	0.023073
1075.963311	0.022473
1076.126923	0.022920
1076.290516	0.025900
1076.454092	0.025802
1076.617649	0.025208
1076.781187	0.021514
1076.944708	0.024863
1077.108210	0.027247
1077.271695	0.024486
1077.435160	0.024824
1077.598608	0.025448
1077.762038	0.025031
1077.925449	0.024223
1078.088842	0.023692
1078.252217	0.025655
1078.415573	0.020973
1078.578912	0.016433
1078.742232	0.017549
1078.905534	0.018246
1079.068817	0.017025
1079.232083	0.016366
1079.395330	0.017232
1079.558559	0.016128
1079.721770	0.016148
1079.884962	0.017742
1080.048136	0.019824
1080.211293	0.019662
1080.374430	0.018826
1080.537550	0.019086
1080.700651	0.018420
1080.863735	0.016727
1081.026800	0.019483
1081.189846	0.018865
1081.352875	0.018807
1081.515885	0.018377
1081.678877	0.018666
1081.841851	0.020100
1082.004807	0.019332
1082.167744	0.022593
1082.330663	0.023512
1082.493564	0.023474
1082.656447	0.021622
1082.819312	0.020660
1082.982158	0.020970
1083.144986	0.019985
1083.307796	0.016502
1083.470587	0.015238
1083.633361	0.011915
1083.796116	0.011282
1083.958853	0.008905
1084.121571	0.009079
1084.284272	0.006359
1084.446954	0.009533
1084.609618	0.009605
1084.772264	0.012099
1084.934892	0.014219
1085.097501	0.013084
1085.260092	0.014148
1085.422665	0.017647
1085.585220	0.019676
1085.747756	0.023031
1085.910274	0.020634
1086.072774	0.022668
1086.235256	0.023495
1086.397720	0.024297
1086.560165	0.026357
1086.722592	0.026858
1086.885001	0.027203
1087.047392	0.026723
1087.209764	0.027494
1087.372119	0.027272
1087.534455	0.024938
1087.696772	0.023171
1087.859072	0.020527
1088.021353	0.020849
1088.183616	0.017396
1088.345861	0.014196
1088.508088	0.014022
1088.670296	0.011937
1088.832486	0.013092
1088.994658	0.014565
1089.156812	0.014792
1089.318948	0.014977
1089.481065	0.015551
1089.643164	0.018050
1089.805245	0.019892
1089.967308	0.020345
1090.129352	0.019159
1090.291378	0.018763
1090.453386	0.017398
1090.615376	0.018075
1090.777347	0.018933
1090.939301	0.018168
1091.101236	0.018498
1091.263153	0.016838
1091.425051	0.017387
1091.586932	0.020655
1091.748794	0.019409
1091.910638	0.018330
1092.072463	0.018476
1092.234271	0.019355
1092.396060	0.019499
1092.557831	0.019342
1092.719584	0.017977
1092.881319	0.018685
1093.043035	0.016708
1093.204733	0.017352
1093.366413	0.020174
1093.528075	0.020789
1093.689718	0.018618
1093.851343	0.018777
1094.012950	0.019132
1094.174539	0.019436
1094.336110	0.017379
1094.497662	0.019910
1094.659196	0.020928
1094.820712	0.020335
1094.982210	0.019903
1095.143689	0.020132
1095.305151	0.018049
1095.466594	0.019190
1095.628018	0.022071
1095.789425	0.022140
1095.950813	0.024827
1096.112183	0.021743
1096.273535	0.018806
1096.434869	0.017428
1096.596184	0.017827
1096.757482	0.018922
1096.918761	0.016720
1097.080021	0.014505
1097.241264	0.013691
1097.402488	0.008741
1097.563694	0.012106
1097.724882	0.012921
1097.886052	0.010336
1098.047203	0.011945
1098.208336	0.009479
1098.369451	0.009003
1098.530548	0.009748
1098.691627	0.009397
1098.852687	0.009579
1099.013729	0.008145
1099.174753	0.007399
1099.335758	0.012689
1099.496746	0.010670
1099.657715	0.014997
1099.818666	0.015360
1099.979599	0.013798
1100.140513	0.015040
1100.301409	0.014111
1100.462287	0.015050
1100.623147	0.017437
1100.783989	0.013954
1100.944812	0.014404
1101.105617	0.011323
1101.266404	0.011176
1101.427173	0.012690
1101.587923	0.014930
1101.748656	0.014776
1101.909370	0.013780
1102.070066	0.011331
1102.230743	0.009532
1102.391403	0.007489
1102.552044	0.009558
1102.712667	0.012127
1102.873271	0.011545
1103.033858	0.009185
1103.194426	0.008671
1103.354976	0.006664
1103.515508	0.009156
1103.676021	0.014216
1103.836517	0.015549
1103.996994	0.015029
1104.157453	0.013330
1104.317893	0.014001
1104.478316	0.011832
1104.638720	0.014201
1104.799106	0.017155
1104.959474	0.018187
1105.119823	0.015925
1105.280155	0.015162
1105.440468	0.011150
1105.600763	0.009091
1105.761039	0.009561
1105.921298	0.010901
1106.081538	0.010373
1106.241760	0.008714
1106.401964	0.007687
1106.562149	0.004528
1106.722316	0.002993
1106.882465	0.005379
1107.042596	0.007910
1107.202709	0.011517
1107.362803	0.013066
1107.522879	0.013905
1107.682937	0.011457
1107.842977	0.011526
1108.002999	0.013754
1108.163002	0.018790
1108.322987	0.021894
1108.482954	0.023924
1108.642902	0.016137
1108.802833	0.019892
1108.962745	0.018323
1109.122639	0.021125
1109.282515	0.020441
1109.442372	0.023568
1109.602211	0.022919
1109.762032	0.021750
1109.921835	0.018790
1110.081620	0.020823
1110.241386	0.017414
1110.401134	0.016716
1110.560864	0.018412
1110.720576	0.018326
1110.880269	0.012696
1111.039945	0.009348
1111.199602	0.008060
1111.359240	0.008511
1111.518861	0.007417
1111.678463	0.005335
1111.838047	0.008112
1111.997613	0.004724
1112.157161	0.006506
1112.316690	0.012954
1112.476202	0.015114
1112.635695	0.016922
1112.795169	0.014025
1112.954626	0.016763
1113.114064	0.017036
1113.273484	0.014326
1113.432886	0.014079
1113.592270	0.010951
1113.751635	0.005042
1113.910983	0.006300
1114.070312	0.005739
1114.229622	0.010166
1114.388915	0.006797
1114.548189	0.006408
1114.707445	0.007232
1114.866683	0.009593
1115.025903	0.010375
1115.185104	0.013365
1115.344287	0.009027
1115.503452	0.012054
1115.662599	0.009860
1115.821727	0.012469
1115.980838	0.013999
1116.139930	0.014988
1116.299004	0.013219
1116.458059	0.011522
1116.617097	0.012663
1116.776116	0.015888
1116.935117	0.013173
1117.094099	0.015343
1117.253064	0.017768
1117.412010	0.021029
1117.570938	0.018412
1117.729848	0.016507
1117.888740	0.020310
1118.047613	0.015435
1118.206468	0.015226
1118.365305	0.011274
1118.524124	0.009572
1118.682924	0.008147
1118.841707	0.005393
1119.000471	0.008221
1119.159216	0.012671
1119.317944	0.015258
1119.476653	0.019849
1119.635344	0.019918
1119.794017	0.021273
1119.952672	0.021314
1120.111308	0.021888
1120.269927	0.021630
1120.428527	0.019612
1120.587108	0.022617
1120.745672	0.017525
1120.904217	0.016083
1121.062744	0.013722
1121.221253	0.016863
1121.379744	0.019459
1121.538216	0.018075
1121.696671	0.019317
1121.855107	0.019133
1122.013524	0.013879
1122.171924	0.013484
1122.330305	0.018890
1122.488668	0.020511
1122.647013	0.016050
1122.805340	0.014608
1122.963648	0.017254
1123.121938	0.015743
1123.280210	0.020810
1123.438464	0.022999
1123.596700	0.019453
1123.754917	0.007441
1123.913116	0.008886
1124.071297	0.010955
1124.229459	0.009487
1124.387604	0.007051
1124.545730	0.007966
1124.703838	0.003102
1124.861928	0.002767
1125.019999	0.003345
1125.178052	0.009045
1125.336088	0.006153
1125.494104	0.004456
1125.652103	0.003405
1125.810083	0.006803
1125.968045	0.005736
1126.125989	0.006537
1126.283915	0.006006
1126.441823	0.009251
1126.599712	0.011609
1126.757583	0.012911
1126.915436	0.013458
1127.073270	0.011664
1127.231087	0.008153
1127.388885	0.005653
1127.546665	0.008129
1127.704426	0.006671
1127.862170	0.006152
1128.019895	-0.001593
1128.177602	-0.002050
1128.335291	0.001463
1128.492961	0.003513
1128.650614	0.006511
1128.808248	0.010265
1128.965864	0.007937
1129.123461	0.007362
1129.281041	0.008528
1129.438602	0.015141
1129.596145	0.012822
1129.753670	0.014252
1129.911176	0.015205
1130.068665	0.009384
1130.226135	0.009498
1130.383587	0.009342
1130.541020	0.010308
1130.698436	0.010291
1130.855833	0.007262
1131.013212	0.009133
1131.170573	0.004240
1131.327915	0.004457
1131.485239	0.004636
1131.642545	-0.000737
1131.799833	-0.000603
1131.957103	0.000799
1132.114354	0.002083
1132.271588	0.007725
1132.428803	0.004670
1132.585999	0.008529
1132.743178	0.009417
1132.900338	0.013531
1133.057480	0.018110
1133.214604	0.015590
1133.371710	0.014605
1133.528797	0.017245
1133.685866	0.015518
1133.842917	0.015523
1133.999950	0.014737
1134.156964	0.011345
1134.313960	0.011654
1134.470938	0.012183
1134.627898	0.015648
1134.784840	0.017155
1134.941763	0.014425
1135.098668	0.011659
1135.255555	0.015176
1135.412424	0.014286
1135.569274	0.018594
1135.726107	0.016748
1135.882921	0.014801
1136.039716	0.011587
1136.196494	0.007895
1136.353253	0.006009
1136.509995	0.004374
1136.666717	0.004433
1136.823422	0.004913
1136.980109	-0.000837
1137.136777	-0.002605
1137.293427	0.000512
1137.450059	0.003841
1137.606672	0.003177
1137.763267	0.001795
1137.919844	0.005396
1138.076403	0.002884
1138.232944	0.003171
1138.389466	0.003268
1138.545971	0.001439
1138.702457	-0.004000
1138.858924	-0.004288
1139.015374	-0.000699
1139.171805	-0.000413
1139.328218	-0.006024
1139.484613	-0.007318
1139.640990	-0.010071
1139.797348	-0.005323
1139.953688	-0.005165
1140.110010	-0.001974
1140.266314	-0.000858
1140.422600	-0.008171
1140.578867	-0.003914
1140.735116	0.000233
1140.891347	0.006175
1141.047559	0.008063
1141.203754	0.007246
1141.359930	0.006449
1141.516088	0.006058
1141.672228	-0.000619
1141.828349	0.005001
1141.984452	0.004738
1142.140537	0.009758
1142.296604	0.008761
1142.452653	0.006471
1142.608683	0.004117
1142.764695	0.011613
1142.920689	0.012321
1143.076665	0.019033
1143.232622	0.012418
1143.388562	0.008590
1143.544483	0.004077
1143.700385	-0.000059
1143.856270	0.004360
1144.012136	0.005866
1144.167985	-0.005316
1144.323814	-0.003727
1144.479626	-0.003252
1144.635420	0.009362
1144.791195	0.005995
1144.946952	0.008675
1145.102691	0.013928
1145.258411	0.012042
1145.414113	0.010036
1145.569798	0.015318
1145.725463	0.008503
1145.881111	0.004357
1146.036741	0.002378
1146.192352	0.009522
1146.347945	0.008243
1146.503519	0.009403
1146.659076	0.008286
1146.814614	0.013626
1146.970134	0.017827
1147.125636	0.025635
1147.281120	0.023593
1147.436585	0.023644
1147.592032	0.025561
1147.747461	0.025471
1147.902872	0.023729
1148.058265	0.028017
1148.213639	0.023779
1148.368995	0.020225
1148.524333	0.013748
1148.679653	0.015037
1148.834954	0.013999
1148.990237	0.009784
1149.145502	0.004157
1149.300749	0.003792
1149.455977	-0.003188
1149.611188	-0.004452
1149.766380	-0.005362
1149.921553	-0.005035
1150.076709	-0.000868
1150.231846	-0.002397
1150.386966	-0.001989
1150.542066	-0.000754
1150.697149	-0.004366
1150.852214	-0.003971
1151.007260	-0.003672
1151.162288	0.001782
1151.317298	0.005042
1151.472289	-0.002482
1151.627263	-0.004640
1151.782218	-0.003255
1151.937155	-0.000671
1152.092073	-0.002825
1152.246974	0.000408
1152.401856	0.003123
1152.556720	-0.001855
1152.711566	-0.002158
1152.866393	-0.000294
1153.021203	0.001979
1153.175994	0.003738
1153.330767	0.001939
1153.485521	0.009832
1153.640258	0.009736
1153.794976	0.010574
1153.949676	0.007317
1154.104358	0.006718
1154.259021	0.010651
1154.413667	0.001827
1154.568294	-0.005887
1154.722903	-0.001331
1154.877493	-0.004946
1155.032066	-0.003316
1155.186620	-0.007174
1155.341156	-0.002512
1155.495674	-0.001843
1155.650173	-0.002530
1155.804654	0.005359
1155.959118	0.006768
1156.113562	0.004986
1156.267989	0.004204
1156.422397	-0.000262
1156.576788	0.001457
1156.731160	0.001510
1156.885513	-0.002398
1157.039849	-0.001441
1157.194166	-0.003920
1157.348465	-0.001074
1157.502746	0.000556
1157.657009	0.003477
1157.811253	0.001863
1157.965479	-0.003129
1158.119687	-0.001871
1158.273877	0.004836
1158.428048	-0.004788
1158.582201	0.007326
1158.736337	0.005330
1158.890453	0.004877
1159.044552	0.001636
1159.198632	0.006117
1159.352694	0.010143
1159.506738	0.011545
1159.660764	0.011788
1159.814771	0.016730
1159.968761	-0.000865
1160.122732	0.002994
1160.276685	-0.001723
1160.430619	-0.004432
1160.584535	-0.003967
1160.738434	-0.001568
1160.892313	0.000513
1161.046175	-0.000893
1161.200019	0.005101
1161.353844	0.014702
1161.507651	0.016388
1161.661440	0.016925
1161.815210	0.023393
1161.968962	0.021873
1162.122697	0.020211
1162.276412	0.016580
1162.430110	0.015105
1162.583789	0.010689
1162.737451	0.002212
1162.891094	0.003565
1163.044718	0.006241
1163.198325	0.001767
1163.351913	-0.001786
1163.505483	-0.009423
1163.659035	-0.014112
1163.812569	-0.012820
1163.966084	-0.008648
1164.119581	-0.002478
1164.273060	-0.008240
1164.426521	-0.007031
1164.579964	0.001833
1164.733388	0.006319
1164.886794	0.013924
1165.040182	0.017984
1165.193551	0.010565
1165.346903	0.009402
1165.500236	0.007617
1165.653551	0.015927
1165.806848	0.013890
1165.960126	0.004866
1166.113386	-0.000394
1166.266628	0.001147
1166.419852	0.003598
1166.573058	0.009467
1166.726245	0.007846
1166.879414	0.014716
1167.032565	0.007229
1167.185698	0.010468
1167.338812	0.010801
1167.491909	0.013694
1167.644987	0.009968
1167.798046	0.004364
1167.951088	0.004395
1168.104111	0.001908
1168.257117	-0.004871
1168.410103	-0.006188
1168.563072	-0.014158
1168.716023	-0.013626
1168.868955	-0.012653
1169.021869	-0.009537
1169.174765	-0.001807
1169.327642	-0.005149
1169.480501	0.000329
1169.633343	0.000230
1169.786165	-0.003230
1169.938970	0.003273
1170.091757	-0.003192
1170.244525	-0.010672
1170.397275	-0.016021
1170.550007	-0.019047
1170.702720	-0.021845
1170.855415	-0.019871
1171.008092	-0.012619
1171.160751	-0.002908
1171.313392	0.001506
1171.466014	0.048354
1171.618619	0.054222
1171.771205	0.054222
1171.923772	0.054222
