sample name	sample
index	1081
start time	 04-22-2021  11:15:24 AM
880	0.090238
Peak Time (s)	101.537
Peak Height 	0.09024
calc peak height	100,103
Baseline Time (s)	9.036
Baseline Value 	-0.002458
subtract baseline	10,4
Abs	0.035644
Peak Time (s)	102.034
Peak Height 	0.03564
calc peak height	100,103
Baseline Time (s)	9.036
Baseline Value 	0.00154
subtract baseline	10,3
PK_550	0.028127
Peak Time (s)	102.034
Peak Height 	0.02813
calc peak height	100,103
Baseline Time (s)	11.034
Baseline Value 	-2.8939E-5
subtract baseline	10,2
PK_880	0.027035
Peak Time (s)	102.535
Peak Height 	0.02703
calc peak height	100,103
Baseline Time (s)	9.036
Baseline Value 	2.1045E-4
subtract baseline	10,1


Time (s)	A880-A510	A880-A775	A880-A975	A880	I510	I775	I975	I880	
0.036000	-0.003307	0.000306	-0.005684	0.006333	6195.419379	42902.254747	3862.701180	22516.029057
0.536500	-0.000934	0.000111	-0.001576	0.005514	6219.737774	42959.782211	3874.034640	22553.075636
1.037000	-0.001296	0.000529	-0.004529	0.004435	6225.218901	43097.810541	3869.707150	22601.934936
1.538000	0.002716	-0.001010	0.000698	0.000134	6289.486006	43354.021830	3891.895596	22798.041440
2.037500	-0.002831	0.000089	-0.004433	0.004795	6210.747511	43024.032771	3869.101432	22585.644080
2.534500	0.000296	0.000236	-0.002617	0.000722	6266.093723	43415.308091	3882.748887	22771.121957
3.035000	0.002948	0.000899	0.009216	-0.001071	6300.713089	43644.606565	3915.040112	22853.286136
3.534500	-0.000051	0.000187	0.000553	0.000386	6265.997870	43441.893439	3890.958839	22786.461508
4.035500	-0.002612	0.000949	-0.007312	0.005204	6209.294508	43065.592225	3861.561869	22567.110594
4.536000	-0.000388	0.001183	-0.000293	0.001130	6257.635095	43465.471788	3887.226636	22752.428318
5.036500	-0.000017	0.000246	0.006006	0.000581	6264.752185	43429.257057	3903.401176	22777.539294
5.536500	0.000192	0.000631	0.000895	0.000492	6267.065636	43473.461396	3891.514293	22781.617836
6.037000	0.000930	-0.000133	0.000077	-0.000321	6279.108650	43478.093998	3891.503552	22818.875403
6.537500	0.000133	0.000379	0.002454	0.000427	6267.105064	43455.986216	3895.342446	22784.588691
7.037500	-0.001662	-0.000564	-0.000084	-0.000382	6259.474769	43443.575366	3891.268550	22821.693147
7.535000	-0.000965	0.000252	0.006764	-0.000087	6262.586711	43492.201680	3906.802651	22808.165014
8.035500	-0.000489	0.000567	0.002657	0.000721	6260.015446	43446.188849	3895.128187	22771.143702
8.538500	0.001408	0.000328	-0.002003	0.000292	6278.058276	43463.906792	3885.185514	22790.791799
9.035500	0.000000	0.000326	0.000000	0.000000	6269.391440	43490.983892	3890.567175	22804.163720
9.536000	-0.001853	-0.000359	0.002279	-0.000420	6258.295340	43466.252390	3896.932259	22823.442248
10.036000	0.001728	0.000866	0.004648	0.001034	6274.778642	43444.862882	3899.097579	22756.823126
10.536500	-0.000618	-0.000260	-0.001435	-0.000245	6266.499119	43459.111867	3887.773896	22815.386648
11.034000	0.000226	0.000000	0.001036	-0.000052	6271.546983	43465.375199	3893.128601	22806.545714
11.534500	-0.002691	-0.000320	-0.005431	0.004220	6216.195633	43039.234772	3868.127253	22611.683349
12.037500	-0.001176	-0.000038	0.003195	-0.000390	6263.295722	43493.415568	3899.031839	22822.049664
12.535000	0.000976	-0.000208	-0.002905	-0.000426	6280.282645	43480.853307	3884.755755	22823.692695
13.036000	0.001796	0.000210	-0.000033	-0.001168	6292.465385	43589.227694	3893.239492	22857.754372
13.536000	-0.004137	-0.000929	-0.003873	0.004493	6203.097601	42958.028067	3871.088830	22599.340119
14.036000	-0.000297	0.001288	0.001802	0.002572	6247.201265	43340.932075	3888.757457	22686.628720
14.535500	-0.001923	0.000309	0.001968	0.001869	6240.100233	43315.251422	3890.799113	22718.682304
15.042000	-0.002414	-0.000381	-0.000910	-0.001321	6260.920164	43548.245613	3891.533607	22864.774830
15.536500	-0.001623	-0.000482	-0.004948	0.004684	6220.811469	42981.520118	3868.171131	22590.639993
16.037000	-0.000921	-0.000024	-0.001937	-0.001348	6272.704080	43584.226334	3889.183842	22866.033557
16.535000	-0.000869	0.000988	-0.002561	-0.000858	6269.309521	43633.132728	3886.571256	22843.538363
17.035000	0.000386	0.000881	-0.002041	-0.002912	6295.077412	43815.847022	3892.618230	22938.079516
17.535500	-0.000858	0.000772	-0.001898	0.003009	6239.523241	43252.485382	3879.095557	22666.754991
18.038000	0.000785	0.000002	0.001446	0.002241	6258.121027	43252.314910	3888.701564	22701.749590
18.536000	-0.001642	0.000309	-0.003004	0.000810	6250.424821	43413.886615	3881.640527	22767.089196
19.036000	-0.000681	-0.000063	-0.002751	0.000528	6260.019497	43405.462348	3882.886305	22779.969749
19.536000	-0.003583	0.000098	-0.001777	0.002519	6222.376037	43235.329906	3880.517070	22689.053340
20.036500	-0.001230	0.001082	-0.000627	0.001593	6247.562935	43412.932556	3885.362144	22731.304950
20.537000	0.000821	0.000519	-0.002477	0.001281	6265.822124	43389.557455	3881.769079	22745.542985
21.040000	-0.001364	0.000556	0.002942	0.001356	6248.358312	43385.999342	3894.304801	22742.139962
21.540000	-0.000416	0.000440	0.002065	0.003303	6240.664625	43194.397941	3887.661576	22653.383850
22.035000	-0.001967	0.000536	-0.000185	0.001294	6244.188782	43389.865532	3887.096810	22744.949945
22.535500	-0.001072	0.000706	-0.001164	0.001080	6252.734567	43425.661773	3885.303617	22754.708610
23.035500	-0.000037	0.000439	-0.002360	0.001226	6259.608172	43387.177799	3882.171417	22748.058233
23.536000	-0.000624	0.000432	-0.000499	0.000658	6259.459848	43439.479029	3887.851737	22774.052348
24.036500	-0.002715	-0.000337	-0.007554	0.000766	6242.490613	43357.740509	3871.193043	22769.073223
24.536500	-0.000486	0.000300	-0.006089	0.001164	6256.612438	43380.045717	3873.655817	22750.883439
25.036000	0.000214	0.000607	-0.001976	0.001100	6262.522480	43414.510533	3883.360837	22753.797860
25.537000	-0.002422	-0.000667	-0.002312	0.001585	6238.443567	43251.007509	3881.446011	22731.648322
26.037000	-0.001017	0.000865	0.001248	0.001733	6248.125845	43379.691606	3889.426814	22724.903041
26.534500	-0.000069	0.000674	-0.001041	0.001019	6260.958949	43428.402222	3885.735252	22757.517089
27.035000	0.002583	0.000485	0.002275	-0.001020	6297.462260	43601.138571	3898.343254	22850.961118
27.538000	0.000355	0.000658	0.002746	-0.001127	6280.907711	43627.332857	3899.713746	22855.866364
28.035500	-0.004037	0.000444	-0.002867	0.005013	6199.907643	43036.631854	3872.208379	22575.756760
28.536000	-0.000182	0.001177	0.001941	-0.000070	6268.523828	43577.020569	3895.307141	22807.379247
29.036500	0.000438	0.000733	0.000978	-0.000532	6276.931368	43578.740601	3894.124934	22828.576976
29.536500	0.000585	0.000962	-0.003289	-0.000331	6276.505368	43581.297852	3883.637100	22819.354826
30.036500	-0.002518	0.000757	-0.004675	0.004691	6213.927340	43095.265485	3868.784819	22590.354437
30.539500	-0.002975	-0.000298	-0.005025	0.001413	6235.516413	43301.197061	3875.542618	22739.496928
31.037500	-0.001547	-0.000283	0.003101	0.001168	6248.394331	43325.454882	3895.121714	22750.724194
31.535000	-0.001777	0.000506	-0.003292	0.005457	6213.734894	43001.461326	3870.204748	22555.662540
32.038000	-0.002150	-0.000216	-0.000131	0.002650	6232.357039	43194.134524	3884.051384	22683.094727
32.535500	0.002098	0.000794	0.001930	-0.000547	6289.970258	43585.775619	3896.406636	22829.234178
33.036000	-0.001789	-0.000118	-0.000024	-0.001052	6263.679132	43547.755766	3892.986450	22852.436181
33.536500	-0.003223	0.000876	-0.003160	0.003977	6213.990682	43172.363255	3873.926968	22622.758824
34.036500	0.001098	0.000173	0.005046	0.002040	6262.089069	43286.746969	3897.658335	22710.902521
34.536500	-0.000839	0.000601	0.001695	0.001860	6248.520470	43343.325299	3890.179194	22719.118023
35.037000	-0.000214	0.000136	0.000235	0.001826	6253.595855	43303.174504	3886.831890	22720.644106
35.534500	-0.000753	0.001098	-0.005070	0.004005	6232.675476	43190.320190	3869.454021	22621.464330
36.035000	-0.001710	-0.000910	-0.003710	0.001540	6244.273172	43232.651402	3878.300057	22733.728515
36.535000	-0.001324	0.000291	-0.000485	0.001700	6246.011213	43329.282180	3885.442687	22726.389836
37.035500	-0.000415	0.000569	0.003451	0.002044	6250.366271	43323.151399	3893.879844	22710.709318
37.536000	-0.003482	0.000010	-0.006235	0.002866	6220.500838	43194.986373	3869.392345	22673.246780
38.036500	-0.000045	-0.000171	-0.001323	0.001182	6259.884563	43334.524345	3884.694663	22750.068465
38.536500	-0.000675	0.000451	0.004222	0.001531	6252.321364	43359.943173	3896.912721	22734.125099
39.036500	-0.004043	0.000911	0.000033	0.001629	6225.668864	43393.575110	3886.822199	22729.638602
39.536500	-0.002760	0.001010	0.000384	0.003087	6224.330290	43267.251553	3884.230872	22663.187369
40.037000	-0.001922	0.001203	-0.002219	0.002417	6235.898538	43347.462743	3879.725547	22693.720620
40.536500	0.000189	0.000295	0.004779	0.002025	6255.176135	43299.478622	3897.062464	22711.558761
41.035000	-0.000766	0.000879	0.004192	0.002367	6245.173097	43322.027233	3894.866038	22695.983766
41.538000	-0.002031	0.000297	0.002910	0.002943	6231.018861	43214.516103	3890.489265	22669.738418
42.035500	-0.001035	0.000092	-0.003678	0.001629	6248.784213	43317.428745	3878.164895	22729.638005
42.538500	0.000083	0.000145	-0.002147	0.001745	6256.520193	43311.566929	3881.457355	22724.334189
43.036000	0.001207	0.000254	0.006007	0.002130	6262.232798	43285.908999	3899.723282	22706.778260
43.536500	-0.002629	0.001091	0.000505	0.004379	6215.454012	43155.011507	3881.500097	22604.478855
44.039500	0.000646	0.000580	0.001515	0.000022	6274.235099	43512.639949	3894.083535	22803.154545
44.536500	0.000787	0.000906	-0.001113	-0.000296	6277.804761	43572.774158	3888.646566	22817.722832
45.037000	0.000822	0.000433	0.003752	-0.000369	6278.644507	43535.411548	3900.302181	22821.087140
45.535000	-0.004667	-0.000616	0.000453	0.004341	6200.219311	43000.872766	3881.468699	22606.219952
46.035500	0.000097	0.000192	0.002110	0.001717	6256.844955	43318.463573	3891.489729	22725.610568
46.535500	0.001050	0.000519	-0.001780	-0.000042	6277.874229	43512.949070	3886.489956	22806.109934
47.036000	-0.000164	0.000661	0.001500	0.002808	6246.409692	43260.741027	3887.495756	22675.896434
47.536000	-0.002504	-0.000297	0.000837	0.003660	6221.902803	43093.142343	3883.951906	22637.141455
48.038500	-0.001243	0.000070	0.001218	0.001496	6248.204948	43327.757743	3889.915031	22735.729086
48.536500	0.001512	0.001121	0.004654	-0.000131	6282.158881	43577.464511	3901.878687	22810.164081
49.036500	-0.000124	0.000584	-0.001302	-0.000400	6271.536410	43552.467762	3888.450398	22822.513986
49.537000	-0.001567	-0.000172	0.000514	0.003938	6226.953286	43078.955212	3882.548501	22624.505093
50.037500	-0.001617	0.000365	0.001430	0.018683	6115.514548	41787.496617	3850.798909	21966.091561
50.534500	0.017292	-0.003274	0.006237	0.096679	5706.470966	35133.066250	3698.616739	18832.020518
51.038000	0.017230	-0.008656	0.000477	0.369450	4397.305490	19914.058028	3306.117021	11402.121233
51.535500	-0.017213	-0.020169	-0.027128	-0.077410	6770.352530	49167.184154	4015.896432	26687.566513
52.036000	-0.025972	-0.055879	-0.028958	-0.228070	8266.062088	63170.267765	4484.457806	36551.424994
52.536000	-0.014041	-0.050324	-0.005410	-0.226817	8399.636998	63769.811379	4569.524728	36454.504161
53.038500	-0.005891	-0.022581	-0.000508	-0.170718	7824.741100	59925.710033	4380.481250	32388.540258
53.536500	-0.002791	-0.015883	0.002175	-0.136657	7485.877778	56447.094680	4275.167080	30164.304191
54.039500	-0.003444	-0.011792	-0.001591	-0.116438	7270.685540	54497.053278	4199.641562	28924.116840
54.534500	-0.008333	-0.015007	-0.010461	-0.146349	7529.893841	57764.664906	4265.668143	30779.525462
55.037500	-0.005686	-0.012263	-0.003702	-0.138973	7479.757652	57183.247600	4263.687802	30310.053070
55.535500	-0.003383	-0.011953	-0.001430	-0.143482	7552.160451	57788.292017	4285.626666	30596.124028
56.038000	0.003307	-0.009537	-0.000948	-0.142132	7609.719322	57923.169390	4282.802059	30510.178137
56.535500	0.000479	-0.005340	0.000527	-0.114391	7289.597514	55022.459281	4199.858250	28801.726979
57.036000	0.002474	-0.004989	-0.003089	-0.110008	7265.532436	54541.242237	4175.580586	28541.650350
57.536000	0.007106	-0.001729	-0.000594	-0.096114	7173.409043	53293.505789	4141.747111	27734.338493
58.036500	0.005429	-0.000354	0.001196	-0.073123	6937.433041	50849.221659	4081.132625	26453.890182
58.536500	0.003533	0.001035	0.000739	-0.056088	6765.222204	49154.586590	4033.303598	25547.962864
59.037500	0.004804	0.001405	-0.000484	-0.041016	6644.320463	47616.760950	3990.447457	24775.489180
59.537500	0.005057	0.001457	0.008576	-0.029122	6545.281814	46415.358410	3983.154929	24184.533468
60.034500	0.003209	0.002721	-0.001805	-0.010263	6375.550095	44689.803380	3910.646211	23280.093907
60.537500	0.005061	0.004530	0.003631	0.036555	6033.687234	40581.049339	3816.022515	21197.457880
61.035000	0.002092	0.002462	0.005671	0.052208	5902.160107	39076.725428	3786.816600	20549.786289
61.535500	0.010482	0.006219	0.005203	0.125270	5486.775839	33748.692938	3643.948630	17817.041113
62.035500	0.004834	0.006662	0.015263	0.144294	5343.908484	32458.994897	3628.126834	17177.750196
62.539000	0.007984	0.009832	0.009799	0.151653	5320.339022	32175.794181	3606.057542	16937.890546
63.045500	0.009013	0.010784	0.014313	0.149786	5336.533630	32366.056412	3616.956871	16998.344969
63.542500	0.006282	0.011583	0.014535	0.144628	5350.191263	32772.274271	3626.275338	17166.784152
64.039500	0.008299	0.013220	0.012378	0.136645	5407.265585	33440.154033	3636.494344	17431.438748
64.535000	0.003871	0.015496	0.010257	0.123698	5456.931751	34527.659026	3655.853982	17871.120550
65.038000	0.005847	0.015945	0.011812	0.111237	5543.362401	35480.308069	3681.644823	18306.862686
65.535500	0.007698	0.016180	0.011616	0.101287	5616.180627	36252.050375	3700.089343	18663.891554
66.035500	0.005636	0.015826	0.004037	0.091408	5665.510766	36990.414877	3704.499545	19026.559606
66.536000	0.002764	0.016947	0.003583	0.080199	5719.116565	37970.589338	3725.436068	19448.174559
67.036000	0.005665	0.018642	0.000442	0.071878	5792.915055	38787.543346	3735.705561	19768.276836
67.536500	0.004598	0.019081	0.007770	0.069115	5804.233197	39052.756585	3756.067316	19875.921988
68.036500	0.007456	0.020247	0.006395	0.058142	5898.219289	40075.916114	3775.876028	20310.257074
68.534000	0.009155	0.020496	0.009300	0.052604	5948.601581	40573.877505	3793.668473	20533.679317
69.037500	0.009734	0.020993	0.011176	0.048188	5983.868149	41001.890766	3807.156804	20713.906558
69.535000	0.008758	0.021283	0.008641	0.051664	5952.417495	40723.778624	3794.268183	20571.895278
70.035500	0.013219	0.020541	0.012522	0.043307	6043.857915	41391.871741	3820.696742	20915.227596
70.535500	0.011702	0.020045	0.013034	0.040254	6054.993937	41618.853932	3828.538027	21042.320802
71.035500	0.013041	0.020478	0.013764	0.038583	6076.935045	41806.657699	3833.853054	21112.245148
71.536000	0.010834	0.019373	0.007618	0.042304	6033.865451	41377.240649	3812.191883	20956.868959
72.036500	0.012517	0.020806	0.017556	0.035455	6096.043665	42117.104338	3849.343588	21243.894942
72.537000	0.014587	0.019813	0.013785	0.032321	6134.567880	42310.549368	3847.904052	21376.706688
73.037000	0.012613	0.019800	0.013381	0.030835	6130.936457	42444.288054	3850.346152	21440.034442
73.537000	0.009082	0.020335	0.013802	0.035434	6071.018828	42076.484075	3840.956987	21244.765655
74.035000	0.011394	0.020707	0.016446	0.030686	6122.987922	42540.430908	3857.632517	21446.412797
74.537500	0.014326	0.021196	0.013737	0.030759	6144.270810	42578.267709	3851.321381	21443.271958
75.034500	0.012529	0.021531	0.014742	0.031870	6122.623584	42507.624398	3851.083056	21395.901798
75.535500	0.011253	0.021705	0.009595	0.038356	6065.532316	41936.866892	3825.138497	21121.746897
76.035500	0.015554	0.022805	0.019313	0.034724	6123.895457	42363.989925	3854.971165	21274.774959
76.535500	0.012025	0.021891	0.017295	0.035097	6095.054459	42247.325213	3849.561101	21259.004172
77.036500	0.013490	0.022360	0.016844	0.035871	6100.142195	42219.803660	3846.799978	21226.304513
77.537000	0.012686	0.023460	0.009073	0.043227	6040.579022	41658.253605	3813.348924	20918.558421
78.034500	0.014733	0.023409	0.010546	0.038786	6087.853572	42051.442135	3826.287499	21103.742348
78.537500	0.016403	0.023002	0.015100	0.038774	6100.221743	42015.908909	3836.400192	21104.229683
79.034500	0.015690	0.023517	0.022292	0.040531	6082.073080	41904.357747	3848.575578	21030.753509
79.535500	0.016114	0.023658	0.021960	0.041600	6077.345827	41821.205953	3845.421292	20986.155245
80.035000	0.015459	0.024108	0.017763	0.043239	6060.603081	41714.957180	3832.395186	20918.039291
80.535000	0.016562	0.023056	0.022596	0.042885	6071.225306	41652.645319	3843.962666	20932.719331
81.036000	0.016095	0.022961	0.021869	0.043703	6061.861070	41571.396993	3840.503714	20898.805313
81.536500	0.015550	0.023553	0.020697	0.044820	6049.785842	41524.758927	3835.400331	20852.586641
82.036500	0.014347	0.023513	0.020122	0.045841	6033.693163	41430.623747	3831.856704	20810.423108
82.537000	0.016109	0.024342	0.021567	0.046143	6044.243399	41477.361094	3834.393033	20797.950833
83.034000	0.015908	0.023114	0.016229	0.046159	6042.672359	41367.223279	3822.571373	20797.306056
83.537500	0.017738	0.023000	0.021683	0.046819	6051.157173	41298.829050	3833.150783	20770.152724
84.038000	0.015928	0.024006	0.014568	0.048889	6023.125190	41204.968513	3812.985128	20685.173298
84.535000	0.017787	0.023007	0.016874	0.048606	6038.566023	41142.026361	3818.624806	20696.772661
85.035500	0.017113	0.023205	0.020195	0.050077	6023.104290	41030.191988	3822.676859	20636.588481
85.536000	0.017506	0.023503	0.013042	0.052361	6009.528576	40856.458312	3802.187154	20543.538271
86.036500	0.017781	0.023900	0.016227	0.054036	5999.527466	40745.163940	3805.438818	20475.663078
86.536000	0.018187	0.023911	0.024632	0.055195	5994.155878	40645.342636	3821.183823	20428.822970
87.036500	0.017585	0.023533	0.018956	0.056269	5982.234754	40519.496675	3806.506140	20385.505659
87.537000	0.019536	0.024687	0.026990	0.059592	5972.516754	40332.441615	3816.726438	20252.261326
88.037500	0.019187	0.024565	0.024200	0.060183	5965.871663	40271.052685	3809.379893	20228.645416
88.538000	0.016920	0.024826	0.024360	0.061823	5938.407432	40152.732011	3806.182625	20163.329090
89.035500	0.019236	0.024538	0.022245	0.062486	5949.995740	40071.362304	3800.209584	20136.991487
89.535500	0.018861	0.025101	0.021098	0.065732	5924.677564	39842.848077	3790.845208	20008.661390
90.036000	0.019424	0.023912	0.025592	0.065971	5926.937507	39721.721401	3799.915143	19999.264085
90.535500	0.019774	0.024535	0.025314	0.067992	5915.307400	39603.570393	3795.004778	19919.885038
91.036000	0.020718	0.025251	0.020334	0.070340	5905.579419	39466.128976	3779.518307	19828.119929
91.536500	0.016007	0.024535	0.024835	0.077345	5825.575178	38822.685090	3774.287644	19557.273626
92.036000	0.021540	0.025021	0.025192	0.073051	5892.532277	39219.697695	3784.029416	19722.785786
92.536500	0.022728	0.025948	0.033535	0.075235	5885.673840	39114.888928	3797.090381	19638.406587
93.034000	0.020848	0.025902	0.023991	0.075860	5868.500451	39059.010469	3775.623880	19614.317717
93.537500	0.018037	0.025699	0.030911	0.083580	5797.382123	38406.304034	3773.955332	19319.839620
94.035000	0.023864	0.026475	0.028033	0.078858	5868.622144	38857.950229	3777.802507	19499.339331
94.535500	0.020665	0.026602	0.029901	0.079997	5839.113983	38774.423873	3779.328886	19455.855076
95.035500	0.022325	0.026201	0.026057	0.080397	5847.659571	38708.405784	3770.482179	19440.636683
95.535500	0.019413	0.025942	0.021705	0.087660	5779.398484	38094.477905	3746.707002	19166.329845
96.036500	0.022744	0.026300	0.029065	0.082174	5838.449193	38570.499422	3773.038940	19373.075686
96.537000	0.023628	0.027258	0.029754	0.083871	5832.960309	38510.021686	3770.944851	19308.859981
97.033500	0.025907	0.027753	0.027749	0.084731	5842.557110	38480.113958	3765.017720	19276.385747
97.536500	0.019989	0.026551	0.028117	0.090080	5767.198005	37948.247051	3754.805169	19075.944749
98.034500	0.026767	0.027646	0.029661	0.085868	5840.684283	38378.494893	3766.617137	19233.580952
98.538000	0.024862	0.027589	0.033597	0.086174	5825.752505	38348.921426	3774.148506	19222.087324
99.035500	0.025536	0.027055	0.026489	0.085906	5832.104703	38327.265643	3760.011783	19232.154861
99.535000	0.023376	0.027043	0.029005	0.088968	5797.053013	38077.769320	3758.893353	19117.413570
100.036000	0.026440	0.027343	0.029097	0.087225	5829.298747	38243.301643	3762.657953	19182.612788
100.536000	0.026907	0.028096	0.032349	0.087271	5832.140227	38300.908154	3769.276079	19180.910918
101.036000	0.024187	0.027183	0.026954	0.086605	5818.310653	38280.790926	3759.533034	19205.899287
101.536500	0.024684	0.027599	0.033332	0.090238	5797.310678	38020.005501	3765.173694	19070.057639
102.034000	0.026617	0.028127	0.035644	0.087292	5830.040368	38301.631481	3776.084434	19180.103673
102.534500	0.027035	0.027920	0.034507	0.086987	5834.925530	38309.709310	3774.350681	19191.571372
103.035000	0.025129	0.027362	0.036478	0.085798	5830.087504	38361.065947	3780.957240	19236.221915
103.535000	0.023479	0.028036	0.030495	0.089896	5791.552123	38082.963967	3760.042733	19082.786257
104.035000	0.028039	0.028929	0.038816	0.086967	5841.852546	38393.543671	3783.414299	19192.302483
104.535500	0.025314	0.028543	0.029926	0.086109	5829.229575	38432.042220	3766.666041	19224.512669
105.036000	0.028087	0.029555	0.038761	0.086379	5846.167484	38492.750340	3784.535724	19214.389515
105.536000	0.025991	0.028581	0.034187	0.090603	5803.603289	38069.932331	3766.186104	19056.499185
106.036500	0.027846	0.028795	0.034337	0.084982	5854.022835	38544.942109	3778.180642	19266.941907
