sample name	sample
index	1090
start time	 04-22-2021  11:40:50 AM
880	0.061235
Peak Time (s)	102.535
Peak Height 	0.06124
calc peak height	100,103
Baseline Time (s)	9.537
Baseline Value 	-0.006154
subtract baseline	10,4
Abs	0.025819
Peak Time (s)	100.04
Peak Height 	0.02582
calc peak height	100,103
Baseline Time (s)	9.537
Baseline Value 	0.00317
subtract baseline	10,3
PK_550	0.023113
Peak Time (s)	100.04
Peak Height 	0.02311
calc peak height	100,103
Baseline Time (s)	9.537
Baseline Value 	8.9212E-4
subtract baseline	10,2
PK_880	0.026039
Peak Time (s)	101.535
Peak Height 	0.02604
calc peak height	100,103
Baseline Time (s)	11.535
Baseline Value 	0.003707
subtract baseline	10,1


Time (s)	A880-A510	A880-A775	A880-A975	A880	I510	I775	I975	I880	
0.034000	-0.000301	-0.000706	0.000928	0.002349	6260.045832	43216.432920	3895.101953	22688.751539
0.537500	-0.000711	-0.000097	-0.002830	0.005284	6234.268652	43001.441532	3879.417506	22555.475587
1.035000	-0.004625	-0.001127	-0.004824	0.007405	6188.254215	42711.927074	3869.894367	22459.733614
1.535500	-0.001166	-0.000468	-0.000761	0.001659	6258.694313	43302.562140	3892.744372	22720.216208
2.036000	-0.001781	-0.000577	0.001223	0.001370	6256.182536	43319.394707	3898.115292	22733.429486
2.535500	-0.001797	-0.000260	-0.003795	0.001253	6256.958248	43359.764901	3886.572685	22738.777097
3.036000	-0.003255	-0.000746	-0.003152	0.006057	6208.896671	42870.467410	3876.873742	22520.520543
3.536500	-0.001237	-0.000252	-0.000963	0.000778	6264.972793	43404.730983	3894.348300	22760.493146
4.036500	-0.000327	-0.000004	0.002636	0.000725	6272.442758	43432.724128	3903.000715	22762.906905
4.536500	0.000131	0.000306	-0.005075	0.000520	6277.597295	43480.767924	3885.293100	22772.291522
5.037000	-0.003939	-0.000550	-0.004961	0.002057	6234.260944	43258.017826	3881.969913	22702.062641
5.534500	0.000364	-0.000462	0.002303	0.000656	6278.345734	43396.492679	3902.374340	22766.063897
6.035000	0.002532	-0.000598	0.002113	0.000739	6294.602103	43376.037601	3901.724366	22762.255659
6.535500	-0.000564	0.000199	-0.001813	0.000792	6270.074216	43445.302045	3892.308830	22759.817383
7.035500	0.000389	-0.000221	0.000333	0.000219	6281.938124	43459.650567	3898.734093	22786.045286
7.536000	-0.000412	-0.001057	-0.003298	-0.000400	6280.522028	43439.402088	3891.618661	22814.398956
8.036500	0.001142	-0.000340	0.004737	-0.000092	6290.233408	43477.552057	3909.968281	22800.285934
8.536000	-0.000616	-0.000447	-0.000930	-0.000361	6278.634626	43492.658568	3897.117083	22812.630364
9.039500	-0.000816	-0.000280	-0.000097	-0.000262	6276.310748	43499.037221	3898.855278	22808.093182
9.537000	0.000784	0.000000	0.000000	0.000000	6286.729657	43500.705452	3898.463389	22796.082648
10.034500	0.000404	0.000640	0.001207	0.000527	6279.663211	43511.315666	3900.077834	22771.974768
10.535000	0.001652	0.000605	0.000780	0.000493	6289.652859	43511.224149	3899.143712	22773.519379
11.035500	-0.000177	0.000199	0.000606	0.000032	6278.987995	43516.259915	3899.823363	22794.618383
11.535000	0.000000	-0.000769	-0.002844	-0.000462	6284.217879	43472.073117	3892.837086	22817.269759
12.035500	-0.000344	0.000378	0.004175	0.000344	6275.263734	43503.799261	3907.578769	22780.313633
12.536000	-0.001995	-0.000584	0.000074	0.000258	6263.124621	43422.179247	3898.026418	22784.262434
13.036500	-0.000882	-0.000268	-0.002734	-0.000260	6275.776643	43499.956527	3892.618901	22808.004082
13.536500	-0.001791	-0.000652	-0.001603	-0.000241	6268.574472	43462.337000	3895.240731	22807.131773
14.037000	-0.005336	-0.000713	0.001563	0.002084	6223.342763	43240.409783	3897.228060	22700.823618
14.537500	-0.001779	-0.000366	0.000528	0.002142	6250.231436	43267.207278	3894.646649	22698.187772
15.034500	-0.002843	-0.000499	0.000422	-0.000204	6260.135014	43473.207152	3899.946734	22805.431047
15.535000	-0.001997	-0.000410	0.000863	-0.000148	6266.258105	43476.285745	3900.862145	22802.871906
16.035500	0.000366	-0.000434	-0.000366	-0.000223	6285.213015	43481.014771	3898.125070	22806.321916
16.535000	-0.001335	0.000342	0.004568	0.001229	6260.712154	43417.900169	3906.402948	22739.843364
17.036000	0.002029	-0.000620	0.004028	-0.003399	6323.137559	43761.028440	3916.211130	22952.413778
17.536500	0.000441	0.000100	0.001562	0.001058	6275.813946	43411.372687	3899.657698	22747.659122
18.036000	-0.001997	0.000108	0.001864	0.001563	6253.018369	43365.050333	3899.177072	22724.597993
18.539500	-0.000568	-0.000279	-0.000847	0.001735	6262.738691	43313.150143	3892.364567	22716.784009
19.037500	-0.000436	-0.001042	-0.004730	0.000924	6270.051389	43317.620091	3885.156577	22753.820092
19.534000	-0.003310	-0.000667	-0.001916	0.001603	6242.583946	43289.283584	3890.158382	22722.766023
20.035000	0.001412	0.000556	-0.004695	0.002012	6275.951845	43364.974362	3882.695250	22704.116094
20.535000	-0.000581	-0.000253	-0.003020	0.001205	6266.745470	43364.861971	3888.503588	22740.980233
21.035000	-0.000119	0.000015	0.000313	0.001418	6268.671905	43369.926393	3895.849375	22731.236998
21.536000	-0.002336	-0.000132	0.000602	0.001509	6250.816926	43347.782503	3896.317297	22727.067583
22.036000	-0.001909	-0.000422	0.002499	0.001060	6257.588107	43362.624168	3901.878240	22747.597821
22.536500	-0.000522	0.000367	0.010570	0.001992	6261.103568	43349.339460	3918.987952	22705.049826
23.036500	-0.000955	-0.000795	-0.001826	0.001059	6264.978426	43328.053717	3891.651040	22747.643784
23.537000	-0.002829	-0.001289	0.004290	0.000652	6253.631725	43319.906820	3907.120314	22766.253226
24.037000	-0.000520	-0.000548	-0.003686	0.001635	6263.886005	43297.388659	3885.933452	22721.322000
24.535000	-0.000563	0.000301	-0.003779	0.001422	6265.204124	43396.178212	3886.216102	22731.055490
25.035000	-0.001723	0.000215	-0.000098	0.001645	6254.499585	43367.373262	3894.341242	22720.854309
25.535500	-0.004440	-0.000622	0.004123	0.000897	6239.326249	43359.091086	3906.133604	22755.019133
26.035500	-0.002598	-0.000208	0.001446	0.000856	6253.838203	43401.506601	3899.861836	22756.911234
26.535500	-0.003461	-0.000475	-0.001092	0.001220	6244.374360	43342.755068	3893.000875	22740.279565
27.036500	0.001721	0.000275	0.003591	-0.000896	6301.043780	43610.170386	3909.148975	22837.150889
27.536500	0.000979	-0.000129	-0.000004	-0.000718	6293.858160	43555.764454	3900.156277	22829.010350
28.039000	0.001102	-0.000025	0.000181	0.000084	6288.548679	43490.541103	3898.692694	22792.240330
28.537000	0.002004	0.000430	0.005144	0.000487	6292.449723	43495.385962	3909.557009	22773.782136
29.037500	-0.001478	-0.000998	-0.002849	-0.000213	6270.781103	43427.485626	3892.235723	22805.834849
29.537500	-0.000583	0.000546	0.000155	0.000223	6274.351456	43530.860594	3898.302234	22785.867780
30.035000	-0.000624	0.000459	0.002389	-0.000105	6276.585262	43553.444820	3904.390675	22800.913358
30.535500	-0.000110	0.000363	0.005559	0.003135	6255.449759	43242.770286	3904.221997	22652.996263
31.036000	-0.001821	-0.000107	-0.002740	0.002057	6250.559112	43299.118231	3887.160294	22702.069286
31.536000	0.000149	0.000067	-0.001954	0.000329	6279.215817	43476.243795	3893.067595	22781.015355
32.036000	0.001222	-0.000262	-0.001508	-0.000292	6292.429712	43503.527054	3895.587915	22809.485408
32.538500	0.000209	0.000423	0.001776	0.000235	6280.414664	43518.331531	3902.121746	22785.339928
33.036500	-0.002840	-0.000058	-0.000579	0.000484	6254.847272	43450.151866	3895.948698	22773.940388
33.536500	0.000159	0.000366	0.004395	-0.001341	6292.314492	43660.375044	3912.142931	22857.613717
34.034500	-0.001483	-0.000422	-0.004090	0.002072	6253.056710	43268.585266	3883.969567	22701.410280
34.538000	-0.002629	-0.000518	0.000540	0.001692	6247.152202	43294.981775	3895.737726	22718.741808
35.035500	-0.001767	0.000346	0.003215	0.002798	6245.265738	43272.449076	3899.450926	22668.316475
35.535500	-0.000353	0.000066	0.003562	0.002427	6259.049510	43280.903665	3901.155692	22685.226543
36.036000	0.000583	-0.000182	0.001709	0.002467	6265.985666	43254.156561	3896.669662	22683.396528
36.536000	-0.002140	-0.000199	-0.000531	0.002376	6245.640353	43260.976630	3891.598899	22687.522476
37.036500	-0.000457	-0.000344	0.001065	0.002137	6260.489915	43269.821841	3895.927061	22698.450286
37.536500	-0.002372	-0.000674	-0.001306	0.001845	6247.949506	43266.202076	3891.024889	22711.755942
38.039500	-0.001302	0.000252	0.002008	0.002731	6249.371284	43269.939615	3896.752168	22671.373628
38.534500	-0.005303	-0.001122	-0.004073	0.001083	6231.267385	43295.356192	3886.320693	22746.532967
39.034000	-0.001273	-0.000352	-0.001046	0.001927	6255.798829	43288.535831	3891.444802	22708.019536
39.535000	-0.000876	-0.000487	0.002135	0.001835	6259.575315	43284.476921	3899.172786	22712.181580
40.035000	-0.002843	-0.000300	0.001474	0.001666	6245.698902	43317.568748	3898.008016	22719.898199
40.535500	-0.003272	0.000390	-0.000328	0.002002	6239.811193	43350.501016	3892.958873	22704.582616
41.036000	-0.001653	-0.000576	-0.001331	0.001246	6258.128043	43330.991171	3892.376445	22739.084642
41.536000	-0.002466	-0.000091	-0.000148	0.001541	6249.571882	43348.660390	3894.470913	22725.636979
42.039500	0.002110	0.000347	0.001510	0.002316	6279.012353	43317.313863	3896.554572	22690.257917
42.537000	-0.002238	-0.000234	0.002350	0.001880	6248.711138	43303.777402	3899.576776	22710.128370
43.037000	-0.002870	-0.000551	-0.002412	0.001637	6245.718122	43296.963247	3888.915014	22721.249205
43.535000	-0.001839	0.000715	0.002245	0.002886	6244.033442	43298.475709	3896.944360	22664.305946
44.035000	-0.001159	0.000309	0.003268	-0.000171	6272.935558	43545.585694	3906.643149	22803.925029
44.537500	-0.000246	0.000369	-0.002397	0.000778	6272.655807	43462.577511	3890.970649	22760.493535
45.036000	0.000314	-0.000365	0.007607	-0.000257	6285.061924	43490.544710	3917.263666	22807.840354
45.538000	0.002515	-0.000412	0.004773	0.000139	6299.162800	43449.223460	3909.500961	22789.696533
46.036000	-0.000760	-0.000764	0.004239	-0.000151	6275.883760	43443.566174	3908.917931	22803.004113
46.536500	-0.000699	-0.000253	-0.000998	0.001884	6260.567536	43301.622985	3891.656979	22709.953598
47.036000	0.000840	-0.000106	0.004936	0.000689	6281.787280	43426.507726	3908.574052	22764.523951
47.534000	-0.001636	-0.000148	0.003161	0.003050	6244.334982	43203.212665	3898.725520	22656.853199
48.034500	0.001640	0.000514	0.000450	0.002217	6276.130556	43342.062375	3894.287070	22694.791249
48.535000	-0.000844	0.000072	0.000675	0.000639	6269.090592	43447.805206	3898.547685	22766.819793
49.035500	-0.001135	0.000289	-0.001177	0.000425	6268.500557	43488.044204	3894.674759	22776.636786
49.535500	-0.000070	-0.000044	0.004993	-0.001704	6293.362593	43655.982386	3914.453329	22874.303501
50.036000	-0.000874	-0.000592	0.002157	-0.002441	6292.843212	43673.699395	3909.416666	22908.232887
50.536000	0.002022	0.001289	0.003210	0.028327	6081.931920	41053.430437	3840.644437	21539.863983
51.035500	0.019694	-0.025828	0.014421	0.592115	3804.755804	12727.095252	3141.611841	7990.098813
51.539500	0.005119	-0.020691	-0.020989	0.001122	6311.876830	41514.511611	3847.390513	22744.757577
52.037000	-0.002506	-0.088385	-0.025787	-0.274713	9227.181285	65224.371243	4694.737069	40351.460412
52.534000	-0.005410	-0.082521	-0.021367	-0.266043	9060.797483	64823.359420	4676.966709	39611.265439
53.037500	0.001110	-0.101788	-0.012025	-0.290277	9512.873110	65535.000000	4822.242611	41717.900096
53.535000	0.001252	-0.084509	-0.008858	-0.271474	9234.753477	65315.853589	4753.191123	40073.220318
54.038000	-0.002537	-0.056391	-0.008197	-0.232537	8641.192647	63781.409399	4594.280384	36885.499967
54.535500	-0.012791	-0.043248	-0.016349	-0.213081	8261.566264	62903.570830	4488.050734	35396.641276
55.036000	-0.010435	-0.064642	-0.015948	-0.246739	8725.150601	64620.767053	4620.095341	38015.276847
55.535500	-0.007488	-0.060716	-0.007848	-0.240512	8681.323971	64294.910678	4627.659759	37515.383858
56.037000	-0.003646	-0.036267	-0.005323	-0.199825	8211.061291	62043.705034	4479.760978	34419.788165
56.537000	-0.009664	-0.022511	-0.008990	-0.153764	7610.855716	57807.716186	4305.548747	31248.077536
57.037000	-0.006470	-0.015696	-0.010900	-0.134279	7437.417770	56230.707048	4236.521668	30004.399092
57.537500	-0.004625	-0.013588	-0.007911	-0.118648	7295.647974	54597.355366	4197.304191	29046.286003
58.037500	-0.001610	-0.010751	-0.008309	-0.100657	7146.649821	52826.470861	4142.257482	27985.317444
58.534500	-0.001426	-0.007554	-0.006341	-0.081721	6967.184637	51051.399582	4093.490132	26915.085467
59.035000	0.001726	-0.005758	-0.001066	-0.072325	6909.130743	50217.077970	4081.930535	26401.152104
59.535500	0.000119	-0.004029	-0.002049	-0.054196	6731.006950	48465.631220	4029.733824	25440.357748
60.036000	-0.006065	-0.004234	-0.007738	-0.027568	6452.214522	45738.747695	3946.533133	24099.903396
60.535500	-0.004555	-0.003215	-0.004987	-0.017441	6382.429184	44850.871798	3928.396430	23611.305624
61.039500	-0.003417	-0.002959	-0.001952	0.005368	6212.917926	42730.698449	3881.264940	22551.678690
61.537000	0.000205	-0.001651	-0.009192	-0.015422	6404.479929	44806.978959	3913.329648	23515.256527
62.037000	-0.004631	-0.000670	0.001387	0.023426	6069.113243	41312.288516	3847.549189	21751.351159
62.534000	-0.007499	-0.000096	-0.003634	0.022591	6054.316696	41437.019575	3838.171748	21787.663745
63.035000	-0.004808	0.000489	-0.001335	0.014805	6131.339680	42185.984807	3860.927077	22129.311331
63.534500	-0.003208	0.001940	-0.002358	0.008391	6191.516704	42902.850376	3873.309527	22415.368054
64.035000	-0.000369	0.002982	-0.001027	0.005425	6235.809948	43273.255588	3883.290363	22549.090373
64.536000	-0.002228	0.003385	-0.000843	0.005510	6220.916215	43302.823140	3883.520649	22545.259757
65.035500	0.000243	0.004317	0.000633	0.000935	6275.234188	43817.738204	3897.747899	22753.303995
65.539500	-0.003500	0.004626	-0.001380	0.000379	6250.553332	43899.067848	3894.303819	22778.707508
66.036500	-0.004822	0.005610	-0.001815	-0.003678	6271.723124	44377.168267	3902.886295	22965.279384
66.536500	-0.005120	0.005714	-0.003343	-0.004951	6279.306136	44508.753544	3902.281851	23024.199721
67.037500	-0.002975	0.005313	-0.001239	-0.010897	6342.855089	45042.657295	3921.600692	23301.589793
67.537000	0.002137	0.006451	0.001123	-0.014522	6412.819829	45506.844381	3936.204442	23472.573736
68.038500	0.000743	0.006609	0.000102	-0.019594	6442.701814	46022.400759	3946.201648	23714.255129
68.536000	0.003294	0.009210	-0.002529	-0.020491	6470.928664	46370.564210	3941.909773	23757.246122
69.035500	0.005171	0.008059	0.001777	-0.022053	6499.322072	46411.746317	3956.499855	23832.420439
69.536000	0.003409	0.007927	0.001215	-0.023025	6492.780541	46495.829996	3957.524436	23879.302600
70.035500	0.003785	0.007831	0.006235	-0.024953	6511.888024	46679.932295	3975.069691	23972.627750
70.536500	0.003004	0.007741	0.006495	-0.025762	6512.128545	46752.409073	3977.796248	24011.926406
71.037000	0.004513	0.008059	0.004190	-0.027494	6539.188862	46959.599636	3976.335367	24096.315290
71.537000	0.002331	0.007600	0.004369	-0.029380	6536.704358	47104.384752	3981.608702	24188.532929
72.037000	0.003900	0.008042	0.004181	-0.030601	6560.151040	47273.851290	3984.259606	24248.495772
72.534500	-0.000685	0.007928	0.002469	-0.026452	6487.270312	46840.936589	3969.317313	24045.513954
73.035500	0.002429	0.008625	0.006651	-0.032119	6560.537217	47488.710658	3994.542543	24323.220385
73.535500	0.002214	0.009431	0.007128	-0.031979	6557.554329	47557.119609	3995.415368	24316.319495
74.035500	0.002684	0.009025	0.000469	-0.032827	6568.664858	47602.519325	3980.451507	24358.179637
74.536000	-0.000074	0.009179	-0.001064	-0.027701	6502.667617	47094.270941	3963.547206	24106.388838
75.039000	0.002353	0.010301	0.006272	-0.031842	6557.561939	47632.385012	3992.844337	24309.555746
75.536500	0.003771	0.009756	0.007943	-0.031572	6567.252961	47548.731176	3996.473085	24296.263119
76.036500	0.002962	0.010983	0.005349	-0.030262	6549.396697	47540.118089	3986.388863	24231.812243
76.537500	-0.002515	0.010867	-0.000487	-0.024711	6457.895604	46962.178623	3957.486720	23960.930113
77.035000	-0.000412	0.011704	0.005064	-0.028107	6503.229292	47393.187511	3980.131073	24126.249094
77.540000	0.000682	0.012164	0.002416	-0.026695	6500.599478	47295.917030	3969.798318	24057.357630
78.035000	0.000974	0.013360	0.003501	-0.024213	6482.480756	47164.838098	3966.264451	23936.789391
78.535500	-0.000904	0.014120	0.005058	-0.016692	6405.783769	46481.852302	3951.305926	23575.630030
79.036000	-0.001375	0.012701	0.008363	-0.018934	6420.108564	46564.461861	3965.211847	23682.646315
79.536000	0.000907	0.013496	0.002954	-0.015737	6412.696555	46323.945259	3943.713260	23530.231656
80.036500	0.004154	0.014149	0.004403	-0.012924	6416.209150	46108.801215	3940.345592	23397.046515
80.537000	-0.000948	0.013541	0.003500	-0.006914	6327.378880	45456.091924	3923.433477	23115.333588
81.037000	0.003562	0.014960	0.007267	-0.010092	6388.597533	45908.325617	3940.424483	23263.810903
81.537500	0.004120	0.014391	0.006184	-0.009023	6384.487343	45746.655474	3935.129063	23213.739534
82.034500	0.006255	0.014770	0.008536	-0.007787	6391.710661	45662.314951	3937.873195	23156.029037
82.537500	-0.001712	0.013766	0.005865	-0.001578	6279.573090	44958.819253	3916.247056	22868.481724
83.035500	0.007154	0.014441	0.011618	-0.004751	6374.570325	45332.609964	3937.983949	23014.897680
83.542000	0.006444	0.015083	0.010441	-0.002519	6351.116133	45177.811763	3929.630262	22911.804389
84.036000	0.008760	0.015281	0.011773	-0.001267	6359.576095	45075.387577	3929.825001	22854.193188
84.539000	0.008022	0.014847	0.010069	0.006637	6291.417086	44274.496375	3906.626847	22494.356566
85.036500	0.012070	0.015888	0.019082	0.003173	6350.593144	44705.326789	3936.854554	22651.262024
85.537000	0.013250	0.016031	0.015036	0.005001	6345.444438	44543.642052	3922.513625	22568.281482
86.037500	0.013199	0.015976	0.018289	0.006165	6335.819078	44427.102018	3927.591308	22515.656838
86.535000	0.013650	0.016157	0.006360	0.008637	6319.862866	44208.865630	3893.083071	22404.317875
87.034500	0.013893	0.016855	0.013918	0.009844	6312.281633	44160.555724	3908.160749	22350.205443
87.535000	0.014832	0.016954	0.016373	0.012246	6300.802518	43942.642813	3908.287494	22242.911423
88.035500	0.014343	0.017357	0.019473	0.013738	6285.332188	43840.011240	3912.141950	22176.613929
88.535500	0.011237	0.016050	0.010946	0.021266	6203.439902	43016.579702	3874.300903	21845.346625
89.036000	0.015142	0.017680	0.017952	0.017565	6261.810603	43511.434960	3899.380831	22007.502504
89.539000	0.014812	0.018000	0.015351	0.019099	6247.407347	43398.173618	3889.621261	21940.114531
90.036500	0.017110	0.017639	0.021075	0.020970	6250.700371	43190.940574	3898.713126	21858.278648
90.534000	0.009326	0.017529	0.013293	0.028553	6134.206852	42484.396021	3862.937026	21530.132868
91.037500	0.017492	0.018061	0.019812	0.024028	6230.116761	42947.446930	3888.522902	21725.261542
91.537500	0.017547	0.017894	0.014425	0.025634	6218.241637	42784.480391	3872.244821	21655.759167
92.035000	0.018215	0.018594	0.020553	0.027630	6208.115227	42665.804618	3881.832271	21569.767977
92.535000	0.013601	0.017766	0.014668	0.035059	6117.640297	41917.928377	3851.270514	21253.159772
93.036000	0.019442	0.019877	0.020566	0.031809	6185.699353	42401.875451	3872.166619	21390.988128
93.535500	0.017123	0.019276	0.019764	0.032579	6162.410432	42277.540177	3868.544997	21358.229843
94.039000	0.019561	0.020072	0.019709	0.034970	6162.773881	42133.447277	3862.936045	21256.922559
94.536500	0.014228	0.018960	0.012979	0.041774	6072.847237	41425.700720	3832.454986	20971.574264
95.039500	0.021859	0.020062	0.020485	0.037733	6159.283915	41884.101687	3858.401422	21140.521419
95.537000	0.018675	0.020390	0.023959	0.039120	6125.151271	41789.282604	3863.164902	21082.359110
96.037500	0.018441	0.020607	0.017499	0.040765	6111.227327	41661.773100	3844.792129	21013.625539
96.537000	0.015414	0.020065	0.013535	0.047385	6040.681198	41028.650778	3821.310723	20739.607595
97.035000	0.019320	0.020605	0.015652	0.043602	6096.784594	41409.591479	3834.331804	20895.691159
97.535500	0.021767	0.020823	0.020166	0.044081	6111.303268	41386.452971	3843.335982	20875.837945
98.035500	0.022487	0.021786	0.022621	0.046274	6100.429703	41277.708982	3843.922696	20785.304518
98.538500	0.019925	0.022646	0.020215	0.053599	6028.394453	40711.478444	3822.335303	20486.206096
99.037000	0.023116	0.021760	0.022060	0.048505	6088.641439	41079.076446	3837.678057	20693.659586
99.536500	0.022975	0.022328	0.025671	0.050221	6075.035093	40978.462253	3841.912524	20623.498473
100.039500	0.023327	0.023113	0.025819	0.051813	6065.983662	40907.911923	3838.685200	20558.669068
100.537000	0.018571	0.022569	0.021785	0.057601	5990.046478	40358.515782	3817.014183	20324.909442
101.034500	0.022285	0.022248	0.021588	0.053046	6049.438995	40724.983302	3826.568720	20508.592254
101.535000	0.026039	0.022464	0.024897	0.054406	6066.847618	40625.548773	3830.872318	20453.532703
102.038000	0.024383	0.022930	0.024551	0.055267	6048.552805	40591.398846	3828.205492	20418.790481
102.535000	0.021122	0.022151	0.021010	0.061235	5982.348394	40011.122717	3807.441709	20179.707152
103.038500	0.026169	0.024004	0.028117	0.058645	6037.030852	40392.208145	3828.619310	20283.050865
103.560500	0.029687	0.024956	0.027396	0.060124	6051.797408	40346.795941	3823.773721	20223.963663
104.036000	0.027461	0.022999	0.027123	0.059867	6037.535165	40200.736786	3823.738484	20234.231267
104.539500	0.028067	0.023744	0.028241	0.061283	6031.689008	40143.261801	3823.084602	20177.797270
105.033500	0.029448	0.023434	0.030288	0.062213	6034.944383	40037.238065	3825.540008	20140.843191
105.536500	0.027404	0.023784	0.026370	0.063080	6014.001277	39993.067198	3815.063829	20106.450445
106.034500	0.029982	0.024586	0.032223	0.064573	6021.792989	39934.259432	3824.606041	20047.428941
