sample name	sample
index	68
start time	 02-11-2021  03:35:15 PM
880	-0.034820
Peak Time (s)	91.035
Peak Height 	-0.03482
calc peak height	90,93
Baseline Time (s)	9.537
Baseline Value 	-0.001563
subtract baseline	10,4
Abs	0.000826
Peak Time (s)	90.038
Peak Height 	8.2633E-4
calc peak height	90,93
Baseline Time (s)	9.537
Baseline Value 	0.005463
subtract baseline	10,3
PK_550	0.002661
Peak Time (s)	92.036
Peak Height 	0.002661
calc peak height	90,93
Baseline Time (s)	10.035
Baseline Value 	7.0385E-4
subtract baseline	10,2
PK_880	0.006427
Peak Time (s)	90.537
Peak Height 	0.006427
calc peak height	90,93
Baseline Time (s)	9.537
Baseline Value 	7.2216E-4
subtract baseline	10,1


Time (s)	A880-A510	A880-A775	A880-A975	A880	I510	I775	I975	I880	
0.040500	0.000546	-0.000437	-0.002278	-0.001282	4586.855087	20273.230554	3312.982940	11045.867966
0.535000	0.000898	-0.000367	0.002441	0.003299	4570.844920	20094.119160	3313.107585	10960.702701
1.035500	-0.000127	-0.000775	-0.006389	0.001665	4573.144933	20142.626491	3306.668723	10990.985080
1.536000	-0.002557	-0.000126	0.006458	-0.000632	4572.640127	20259.728754	3320.344271	11033.732448
2.036000	-0.001323	-0.001061	-0.001599	-0.001886	4582.048781	20272.443360	3314.142081	11057.169171
2.536000	0.000268	-0.001616	-0.002233	0.001905	4573.727459	20099.838665	3310.159830	10986.530049
3.036500	-0.002228	-0.000495	-0.010209	0.003102	4559.847587	20096.820498	3302.031540	10964.340590
3.536500	0.002240	-0.000487	-0.000057	-0.000825	4591.568752	20252.994655	3314.577176	11037.332919
4.036500	0.001357	0.000897	0.003784	0.000162	4584.448253	20268.834874	3317.170379	11018.924386
4.537000	-0.005212	-0.001042	-0.000372	0.003000	4549.104263	20079.265611	3310.846023	10966.242108
5.037000	0.000180	-0.001076	-0.009261	0.001746	4573.996389	20127.485996	3304.057566	10989.478221
5.535000	0.000534	-0.001851	0.000288	-0.002298	4590.679400	20257.344539	3316.227013	11064.880277
6.035500	-0.004126	-0.000842	-0.007228	-0.001195	4568.851240	20253.590576	3308.465892	11044.247313
6.536000	-0.001428	-0.001163	-0.009482	-0.001503	4580.197743	20253.058632	3306.734686	11049.998489
7.036000	0.001616	-0.000586	0.001740	-0.000697	4588.703111	20243.977433	3316.091695	11034.945029
7.536500	-0.000741	0.000630	0.000784	-0.000720	4579.838691	20293.428533	3315.244279	11035.380626
8.036500	0.002055	-0.000094	-0.007165	0.000441	4586.040490	20218.223665	3307.066171	11013.730276
8.537000	0.001685	-0.000526	-0.000102	-0.000745	4589.148183	20248.292948	3314.464478	11035.845223
9.036500	-0.000487	-0.001160	0.002012	-0.001409	4583.410577	20249.444928	3316.986673	11048.240336
9.537500	0.000000	0.000355	0.000000	0.000000	4579.917103	20253.709247	3313.882497	11021.949866
10.035000	0.002942	0.000000	-0.000751	-0.000957	4594.750805	20277.709090	3314.068458	11039.800524
10.535000	-0.002198	0.000487	0.003265	0.000152	4571.040874	20252.904987	3316.707036	11019.120963
11.035500	-0.003874	-0.001056	-0.002365	0.002588	4555.620546	20094.973628	3309.430896	10973.874195
11.535000	0.004612	0.001557	0.005509	0.000853	4594.219960	20267.627725	3318.114193	11006.073490
12.036500	0.005794	0.000569	0.008446	0.000276	4600.955222	20251.221448	3321.338659	11016.816186
12.536000	0.000146	0.000075	0.010058	-0.001162	4584.880182	20288.910245	3324.158154	11043.638121
13.037000	0.000060	0.000827	0.009699	0.004178	4564.390595	20106.538506	3318.905114	10944.458077
13.536500	0.002300	-0.000452	0.005131	-0.000885	4592.024792	20256.812596	3319.358387	11038.455017
14.034500	0.002070	0.000591	-0.002714	0.002504	4578.275359	20163.500573	3309.193931	10975.426025
14.537500	0.002395	-0.001238	0.008160	0.000732	4586.227995	20161.231147	3320.654808	11008.316906
15.035000	0.000478	-0.000705	-0.003621	0.004657	4564.162131	20027.205093	3306.470145	10935.621596
15.535500	0.003814	-0.000487	-0.004844	-0.000405	4595.977270	20236.286252	3309.889884	11029.497458
16.035500	0.001474	0.000051	0.002948	-0.001263	4590.317730	20291.978382	3317.707948	11045.518429
16.536000	0.003501	0.001296	-0.002545	0.000098	4592.855793	20287.324009	3311.500129	11020.115940
17.036500	-0.000253	0.000396	0.000929	0.001421	4573.587929	20198.742824	3313.438244	10995.513868
17.537000	-0.001756	0.000365	0.002807	-0.000357	4574.627434	20268.348799	3316.753771	11028.609537
18.037000	-0.003256	-0.000311	-0.011477	-0.000747	4570.440759	20256.939800	3304.301072	11035.880746
18.536500	0.001859	-0.001538	0.000893	-0.000109	4587.390922	20182.735300	3314.789353	11023.987471
19.040000	0.002398	0.000921	-0.008453	0.001921	4581.724167	20199.741892	3304.615275	10986.233694
19.535000	-0.001308	-0.000676	0.003926	-0.000330	4576.215323	20225.739375	3317.748073	11028.093203
20.035500	0.002543	-0.000682	-0.013899	0.000320	4588.358981	20199.697250	3301.237090	11015.994085
20.535500	-0.001236	-0.000458	-0.005863	0.000158	4574.643936	20215.013107	3308.476788	11018.998715
21.036000	0.003142	0.000136	-0.004730	0.001330	4586.796093	20192.042819	3308.442602	10997.210445
21.536000	0.003881	-0.000157	0.006700	0.000235	4593.785561	20223.940405	3319.770416	11017.569164
22.036500	0.001632	-0.000595	0.007973	0.000450	4584.401216	20197.968173	3320.742253	11013.569764
22.537000	0.002094	-0.000260	-0.008865	0.000455	4586.136392	20211.086749	3305.547142	11013.472063
23.037000	-0.004151	-0.001520	-0.003742	-0.000567	4566.394602	20201.615074	3311.022653	11032.517163
23.537000	0.000428	0.001155	0.009867	0.000983	4577.816947	20246.382577	3321.996139	11003.649656
24.037500	0.002630	0.000630	-0.003855	0.000279	4588.845605	20253.542583	3310.162688	11016.749799
24.538000	0.004863	0.001276	0.006687	0.001008	4594.585928	20250.252356	3319.049744	11003.190535
25.035000	-0.000264	0.000733	-0.005025	0.001462	4573.391679	20210.493281	3308.061833	10994.744254
25.535500	-0.000860	-0.000244	-0.004494	0.000370	4575.264852	20215.126029	3309.510010	11015.062035
26.036000	0.002222	0.000368	0.001828	0.000766	4585.442203	20223.669535	3314.843233	11007.681181
26.536000	0.001408	0.000183	0.004418	0.001163	4580.843857	20200.558786	3316.835812	11000.305351
27.036500	-0.000115	-0.000711	-0.002971	-0.002327	4588.320640	20304.059859	3313.301274	11065.437671
27.537000	0.000709	0.000833	-0.002389	-0.001427	4588.029625	20329.834885	3313.013890	11048.588941
28.037000	-0.001117	-0.000075	-0.008253	-0.001012	4579.516499	20276.889449	3307.390221	11040.822034
28.540000	0.001462	0.000083	-0.007259	0.003911	4570.668433	20087.700004	3303.913986	10949.399755
29.035000	0.006949	0.000772	0.007820	0.000100	4606.064747	20266.329077	3320.923704	11020.077950
29.538000	0.002694	0.000013	-0.005179	-0.000774	4593.106442	20270.937508	3309.920989	11036.392597
30.035500	0.000925	-0.000101	0.011108	-0.000929	4586.955485	20272.589296	3324.916764	11039.287229
30.536000	-0.002315	-0.001643	0.003118	0.002539	4561.632665	20073.754317	3314.406622	10974.780767
31.036000	-0.000197	0.000958	0.003275	0.001966	4571.744945	20199.423231	3315.067717	10985.396640
31.536500	0.000018	-0.001578	0.013291	-0.001633	4586.182687	20241.713391	3327.608396	11052.435229
32.037000	0.003702	0.000177	0.003315	-0.001131	4598.328915	20291.743859	3317.922603	11043.060662
32.537000	-0.002098	-0.001184	-0.006763	0.003323	4559.507311	20060.888025	3304.869746	10960.255281
33.037500	-0.003448	-0.000760	-0.005971	0.002987	4555.721586	20090.918417	3305.867353	10966.480135
33.534500	-0.001620	-0.000052	0.002348	0.000433	4572.161705	20220.232932	3315.617766	11013.891598
34.034500	0.000743	-0.000879	0.003444	0.000525	4580.742520	20183.693351	3316.529424	11012.164401
34.535500	0.000471	-0.000550	0.000202	0.002741	4571.340191	20108.928690	3311.593514	10971.024327
35.036000	0.001160	0.000723	-0.006055	0.001545	4578.459850	20206.817284	3307.071663	10993.204369
35.539000	-0.003255	-0.000999	0.000045	0.000314	4566.452805	20187.303137	3313.639215	11016.092146
36.036500	-0.000132	-0.000625	0.007116	0.000624	4577.054673	20189.818987	3319.794756	11010.320578
36.536000	0.001303	0.000695	0.005330	0.002791	4574.291259	20156.264705	3316.184495	10970.109667
37.037000	0.000164	-0.000044	-0.000393	0.000829	4577.400384	20204.800583	3312.779181	11006.519558
37.533500	0.001400	-0.000818	0.002741	0.000878	4581.898530	20172.120947	3315.570962	11005.613291
38.040000	0.005747	0.001099	0.006338	0.002324	4592.934056	20190.789361	3317.527186	10978.748761
38.537500	-0.001483	-0.000665	0.002026	0.000958	4570.697732	20175.009457	3314.848861	11004.119936
39.035500	0.003350	-0.001034	0.000108	0.001642	4586.398652	20133.259755	3312.498407	10991.407319
39.536000	0.003579	0.000271	0.006155	0.001846	4586.494504	20176.911936	3317.797511	10987.629647
40.036000	-0.000205	-0.000598	-0.000989	0.001062	4575.126311	20173.549473	3312.033188	11002.186775
40.538500	0.003776	-0.000231	-0.013652	0.001488	4588.608296	20171.201257	3300.431365	10994.267146
41.036500	-0.000596	-0.000757	-0.005117	0.001446	4572.200688	20152.007802	3307.994063	10995.044130
41.539500	0.004006	-0.000864	0.000821	0.001019	4591.271363	20164.677931	3313.703612	11002.981837
42.037000	0.001273	-0.000982	-0.002833	0.000332	4583.484986	20187.251885	3311.031673	11015.758343
42.540000	0.003028	0.001104	-0.000805	0.002766	4580.912732	20173.460630	3310.667654	10970.575043
43.034500	-0.000018	-0.000124	0.008997	0.002555	4570.198411	20133.132935	3319.749225	10974.477102
43.540500	0.002954	0.000858	0.006732	-0.002530	4600.820435	20375.063818	3322.344907	11069.234026
44.035500	0.002342	0.000317	0.003147	-0.000502	4590.727178	20272.203325	3317.194943	11031.312403
44.535000	0.002338	0.000442	-0.004976	0.000340	4587.499274	20243.578278	3309.105573	11015.607125
45.035500	0.002775	0.000045	-0.006525	0.004142	4574.748040	20077.085102	3304.357189	10945.126079
45.536000	0.002420	0.000202	0.007122	-0.000631	4591.514057	20272.770572	3320.953828	11033.716447
46.036500	0.000609	-0.000902	0.011121	-0.000850	4585.454950	20237.486938	3324.855088	11037.809546
46.539500	0.002293	-0.000171	-0.001941	-0.000782	4591.608180	20263.884839	3312.836434	11036.535123
47.036500	-0.001001	-0.000921	-0.013670	0.002350	4567.272146	20109.695230	3299.664647	10978.274029
47.537500	-0.000325	0.000254	0.003175	0.002244	4570.214814	20160.448897	3314.725421	10980.243889
48.035000	0.002591	-0.000751	-0.003093	-0.001439	4595.252300	20266.974747	3312.390218	11048.805070
48.540500	0.000426	-0.001711	-0.011128	0.002025	4573.871583	20091.326068	3302.170162	10984.300685
49.035500	0.000842	-0.000311	0.003169	0.004063	4567.762920	20066.177523	3313.075275	10946.588571
49.536000	0.004170	-0.000136	0.001491	-0.004930	4614.753965	20431.629935	3319.730290	11114.352924
50.036000	-0.001700	-0.000197	-0.005961	-0.006411	4597.857905	20488.867962	3314.288966	11142.302219
50.536000	-0.012257	-0.022538	0.022218	0.270772	3792.172509	11743.409773	3142.793756	7267.345824
51.037000	-0.035335	-0.019162	-0.013111	0.034968	4334.047552	18211.948137	3272.738696	10395.854508
51.536500	0.006678	-0.008562	-0.000421	-0.165273	5379.059732	27758.117553	3495.138861	14769.883712
52.040000	0.008545	-0.008637	0.002669	-0.153345	5323.080549	27081.459030	3483.577388	14449.069875
52.535000	-0.012052	-0.010549	-0.003959	-0.152566	5208.381051	26932.399194	3474.069586	14428.444671
53.034500	-0.024626	-0.008931	-0.005267	-0.148843	5124.644743	26816.342837	3467.702178	14330.269777
53.535000	-0.023867	-0.010780	-0.008021	-0.124287	5007.881503	25407.733657	3434.399886	13703.487133
54.035500	-0.020185	-0.009337	-0.001799	-0.114884	4980.751569	24999.624360	3430.655357	13472.716830
54.536000	-0.026945	-0.007648	0.004448	-0.090732	4840.191885	23887.498060	3410.081873	12902.364485
55.036000	-0.018691	-0.003476	-0.010902	-0.081516	4835.974972	23645.591128	3383.200041	12692.939241
55.539000	-0.016856	-0.005372	0.002690	-0.087477	4870.409007	23840.339860	3404.471802	12827.882863
56.036500	-0.011701	-0.004716	-0.014911	-0.086982	4891.290155	23848.068028	3384.752809	12816.608282
56.537000	-0.014391	-0.002911	-0.007904	-0.089140	4888.894389	24039.743312	3394.636198	12865.852465
57.037000	-0.011607	-0.006361	-0.002681	-0.074102	4834.528688	23160.252424	3384.058956	12527.666406
57.535000	-0.012557	-0.006151	0.001804	-0.058423	4763.163021	22452.590974	3372.282827	12187.295740
58.035500	-0.013377	-0.006127	0.000275	-0.047971	4716.319905	21989.585127	3360.012181	11967.147146
58.535500	-0.016639	-0.007273	0.004028	-0.048308	4704.361182	21954.121371	3364.163178	11974.159722
59.035500	-0.016103	-0.007155	0.007291	-0.044297	4690.258775	21784.431279	3363.400729	11890.997854
59.536000	-0.020206	-0.005361	-0.000491	-0.052324	4706.191618	22215.488379	3363.650621	12058.194257
60.036500	-0.014364	-0.008640	-0.009482	-0.045939	4703.977822	21791.243419	3348.261890	11924.944356
60.536500	-0.017762	-0.010138	0.002429	-0.037709	4657.235648	21373.591731	3351.896353	11756.071890
61.036500	-0.025668	-0.012031	-0.010478	-0.028140	4589.309550	20893.385638	3330.178756	11563.713736
61.539500	-0.013112	-0.004441	0.002673	-0.040435	4686.740103	21734.644251	3354.851613	11811.649731
62.035000	-0.009491	-0.004020	-0.004644	-0.040864	4703.156259	21771.491946	3348.029814	11820.439500
62.535000	-0.011587	-0.003018	-0.010421	-0.036964	4678.907727	21646.230774	3338.625156	11740.940672
63.042500	-0.011396	-0.003268	-0.003498	-0.039977	4691.824924	21765.651994	3348.284130	11802.291348
63.535500	-0.005783	-0.003039	-0.012645	-0.046151	4740.164424	22045.289342	3345.371388	11929.345481
64.036000	-0.006119	-0.002332	0.001143	-0.047524	4744.477535	22137.016173	3360.437206	11957.837552
64.539000	-0.004720	-0.001475	-0.003172	-0.047787	4751.421745	22186.652760	3356.359075	11963.321761
65.038500	-0.007300	-0.002666	-0.009101	-0.050429	4751.675803	22251.055737	3353.078492	12018.439489
65.536500	-0.000929	-0.000368	-0.005374	-0.050225	4777.659659	22344.388176	3356.594697	12014.166746
66.037500	-0.002310	-0.000498	-0.005703	-0.050945	4774.858644	22370.744713	3356.987480	12029.242675
66.537000	-0.005648	-0.000892	0.002165	-0.049443	4754.468369	22286.119478	3363.421316	11997.836877
67.040000	-0.004331	-0.000266	-0.003979	-0.047662	4752.519304	22234.690275	3355.425778	11960.705559
67.535000	-0.004898	-0.000517	0.006845	-0.051491	4766.223924	22394.345841	3370.323367	12040.686368
68.035500	-0.002836	-0.000702	-0.004237	-0.051456	4774.794364	22384.507294	3358.975120	12039.953996
68.535500	0.000528	0.000710	-0.003374	-0.050755	4786.110628	22416.369119	3359.138014	12025.259940
69.036000	-0.005477	-0.000201	-0.011101	-0.051355	4763.213220	22402.445442	3352.011531	12037.843328
69.536000	-0.000722	-0.000474	-0.006339	-0.051007	4781.862095	22374.616964	3356.411749	12030.553346
70.036500	-0.002424	0.000519	-0.004888	-0.050192	4771.191944	22382.630577	3357.050449	12013.492610
70.536500	-0.002661	-0.000338	-0.000677	-0.049389	4766.795037	22308.378762	3360.482358	11996.696006
71.040000	-0.000531	-0.000740	-0.001301	-0.049983	4778.322127	22316.989157	3360.452234	12009.114643
71.537500	-0.001614	0.001390	-0.005181	-0.049211	4770.468209	22377.691052	3355.773876	11992.994856
72.038000	0.000166	0.000832	-0.003101	-0.047892	4772.417916	22293.829903	3356.535344	11965.508110
72.535000	-0.004403	0.001011	-0.004336	-0.046187	4746.058013	22225.912026	3353.598778	11930.091601
73.036000	-0.004260	0.000098	0.000964	-0.043628	4736.010656	22072.329252	3356.335182	11877.202366
73.535500	-0.002179	0.000407	-0.002976	-0.047860	4762.385678	22273.492708	3356.628952	11964.838488
74.039000	-0.003074	0.001766	0.000631	-0.046313	4752.135895	22265.077871	3358.697875	11932.697034
74.535500	-0.004953	0.000651	-0.001336	-0.046834	4746.465336	22238.685445	3357.244517	11943.516465
75.036500	-0.004361	-0.000582	-0.004250	-0.045184	4742.055286	22110.972730	3352.687119	11909.326254
75.542000	-0.000183	0.002088	-0.011216	-0.045575	4761.169934	22246.604081	3346.204758	11917.411261
76.037500	-0.001777	-0.000103	-0.003051	-0.046821	4759.707938	22204.612093	3355.512708	11943.242373
76.543000	-0.003431	0.001823	-0.000581	-0.045193	4745.970510	22217.843719	3356.356372	11909.516782
77.035500	-0.006516	0.001004	-0.005935	-0.041308	4717.132427	22010.108230	3347.197717	11829.528695
77.535500	-0.001435	0.000927	-0.000297	-0.045254	4754.566642	22180.822786	3356.701233	11910.772860
78.036000	-0.002246	0.002508	0.005458	-0.043859	4745.344901	22189.031591	3361.095134	11881.963590
78.536000	0.001602	0.002440	-0.011818	-0.044134	4762.613501	22198.209966	3344.209992	11887.632797
79.035500	-0.001856	0.001739	-0.005959	-0.039773	4730.006343	21975.060200	3345.671923	11798.134957
79.544500	-0.001427	0.001021	-0.002826	-0.044687	4752.227251	22159.865702	3353.608693	11899.057511
80.037000	-0.000325	0.001209	-0.004836	-0.043957	4753.782234	22135.876297	3350.889950	11883.987623
80.537000	-0.000069	0.002405	-0.003087	-0.043056	4751.084285	22148.934428	3351.729104	11865.433952
81.037500	0.002049	0.002012	-0.004541	-0.043156	4760.380831	22135.964774	3350.389563	11867.483258
81.537500	0.001852	0.002006	-0.010995	-0.042555	4757.031185	22109.184308	3343.475119	11855.127127
82.035000	0.000155	0.001863	-0.009652	-0.043133	4752.343015	22128.380674	3345.346600	11867.019715
82.534500	0.001412	0.001692	0.002938	-0.042800	4756.214266	22106.096248	3357.484941	11860.161663
83.036000	0.002704	0.000770	-0.000734	-0.043679	4765.341588	22104.188935	3354.688582	11878.251853
83.536500	0.003987	0.002384	-0.001705	-0.041790	4762.789691	22092.103228	3351.844660	11839.417610
84.036500	0.000690	0.002560	-0.001478	-0.041308	4746.954776	22078.593042	3351.592065	11829.540816
84.536500	0.003631	0.002127	0.006172	-0.042219	4763.094689	22099.657921	3360.158464	11848.221669
85.039500	0.001896	0.002359	0.009110	-0.040942	4750.457094	22053.591092	3361.839853	11822.025141
85.537000	0.002183	0.002239	0.002825	-0.040951	4751.698630	22048.733141	3355.519250	11822.215311
86.037500	0.003181	0.002035	-0.000722	-0.040635	4754.553549	22025.842852	3351.673590	11815.741600
86.537500	0.002560	0.000987	-0.006901	-0.040622	4751.900957	21979.309650	3345.581533	11815.489704
87.038000	0.002243	0.002279	0.000327	-0.040464	4749.915232	22029.080125	3352.545123	11812.259046
87.535500	-0.000324	0.001363	-0.005646	-0.041027	4741.557743	22013.559463	3347.205154	11823.771051
88.036000	0.001954	0.002968	-0.001607	-0.039673	4745.405179	22024.580184	3349.847261	11796.089775
88.536000	0.002090	0.002050	-0.014351	-0.039754	4746.310391	21987.850941	3337.531463	11797.746224
89.036500	-0.000640	0.001512	0.000727	-0.036329	4720.817310	21814.808346	3348.852356	11728.079037
89.536500	-0.001914	0.001645	0.009109	-0.040571	4733.067394	22005.946982	3361.462527	11814.446479
90.037500	-0.000815	-0.000466	0.000826	-0.041290	4740.608162	21944.915495	3353.863027	11829.167817
90.537000	0.006427	0.001645	-0.001767	-0.039243	4762.339728	21947.696246	3349.265211	11787.311859
91.035000	0.002004	0.001544	-0.006529	-0.034820	4725.492189	21750.730786	3340.309851	11697.560618
91.535000	0.001731	0.000813	-0.009771	-0.040294	4747.063821	21957.266578	3342.468045	11808.767045
92.036000	0.005101	0.002661	-0.003137	-0.039399	4757.419635	21999.074599	3348.070077	11790.489993
92.535500	0.004442	0.001892	-0.005380	-0.039265	4754.099436	21959.501946	3345.741570	11787.762885
93.045000	-0.000869	0.001419	0.003706	-0.036230	4719.469447	21806.462632	3351.697104	11726.075488
93.536000	-0.001530	0.001266	-0.000997	-0.039496	4730.204125	21942.150729	3350.273870	11792.463343
94.036500	0.000813	0.001466	0.004481	-0.039427	4739.628886	21947.899915	3355.650349	11791.057767
94.542000	0.004202	0.001585	-0.000270	-0.038711	4750.773407	21921.777902	3350.216995	11776.461503
95.037500	0.001086	0.001531	0.000507	-0.036445	4728.407337	21820.672451	3348.749728	11730.424577
95.534500	0.004075	0.001629	0.001225	-0.038749	4750.404474	21925.410502	3351.734217	11777.246789
96.035000	0.004554	0.002256	-0.011229	-0.038399	4750.944064	21937.528509	3339.228775	11770.121139
