sample name	sample
index	633
start time	 03-19-2021  03:15:15 PM


Wavelength (nm)	Absorbance
494.344910	-1.071786
494.563924	-1.071786
494.782919	-1.071786
495.001897	-0.383341
495.220856	-0.447701
495.439797	-0.286751
495.658719	-0.028635
495.877624	0.634666
496.096510	0.601547
496.315378	0.229455
496.534227	0.331377
496.753059	0.584474
496.971872	0.266713
497.190667	0.030289
497.409444	0.017924
497.628203	0.014068
497.846943	0.010904
498.065665	0.011334
498.284369	0.011422
498.503055	0.011564
498.721723	0.010949
498.940372	0.010910
499.159003	0.011089
499.377616	0.010919
499.596210	0.010794
499.814787	0.010441
500.033345	0.010004
500.251885	0.009281
500.470406	0.008115
500.688910	0.008735
500.907395	0.009072
501.125862	0.007942
501.344311	0.007562
501.562742	0.007423
501.781154	0.007307
501.999548	0.007215
502.217924	0.007761
502.436282	0.008075
502.654621	0.006937
502.872942	0.007080
503.091245	0.007724
503.309530	0.008218
503.527797	0.008899
503.746045	0.009128
503.964275	0.008546
504.182487	0.008444
504.400681	0.008511
504.618856	0.009821
504.837013	0.009206
505.055152	0.009185
505.273273	0.008624
505.491376	0.008209
505.709460	0.008427
505.927526	0.008186
506.145574	0.007678
506.363604	0.007762
506.581615	0.007263
506.799608	0.006673
507.017583	0.006376
507.235540	0.006482
507.453478	0.006119
507.671399	0.006377
507.889301	0.006744
508.107185	0.007347
508.325050	0.006779
508.542898	0.005825
508.760727	0.005614
508.978538	0.006166
509.196330	0.006209
509.414105	0.006108
509.631861	0.005281
509.849599	0.005269
510.067319	0.005168
510.285021	0.005317
510.502704	0.005683
510.720369	0.006726
510.938016	0.006057
511.155645	0.005910
511.373255	0.006411
511.590848	0.006669
511.808422	0.006667
512.025977	0.006852
512.243515	0.006180
512.461034	0.005890
512.678536	0.005588
512.896018	0.005899
513.113483	0.006244
513.330930	0.005847
513.548358	0.006404
513.765768	0.005609
513.983160	0.005198
514.200533	0.005847
514.417889	0.005609
514.635226	0.005807
514.852545	0.005791
515.069845	0.005902
515.287128	0.006241
515.504392	0.006170
515.721638	0.006982
515.938866	0.007489
516.156075	0.007867
516.373267	0.008374
516.590440	0.007731
516.807594	0.006908
517.024731	0.006045
517.241850	0.005489
517.458950	0.004989
517.676032	0.005010
517.893095	0.004068
518.110141	0.004087
518.327168	0.003610
518.544177	0.003943
518.761168	0.004544
518.978141	0.004726
519.195095	0.004649
519.412031	0.004091
519.628949	0.003923
519.845849	0.004011
520.062731	0.003429
520.279594	0.003447
520.496439	0.003076
520.713266	0.003032
520.930074	0.002817
521.146865	0.003415
521.363637	0.003742
521.580391	0.003219
521.797127	0.003671
522.013844	0.003981
522.230543	0.004162
522.447224	0.004116
522.663887	0.003606
522.880532	0.003854
523.097158	0.003100
523.313766	0.002656
523.530356	0.002997
523.746928	0.002605
523.963481	0.002447
524.180017	0.001713
524.396534	0.002016
524.613032	0.002202
524.829513	0.001775
525.045975	0.002252
525.262420	0.002652
525.478845	0.002651
525.695253	0.002573
525.911643	0.002619
526.128014	0.003257
526.344367	0.003001
526.560702	0.003368
526.777018	0.003713
526.993316	0.003773
527.209597	0.004259
527.425858	0.003937
527.642102	0.004619
527.858328	0.004403
528.074535	0.004077
528.290724	0.004333
528.506894	0.003901
528.723047	0.003661
528.939181	0.003673
529.155297	0.003273
529.371395	0.003130
529.587475	0.002180
529.803536	0.002037
530.019579	0.002091
530.235604	0.002002
530.451611	0.002326
530.667600	0.002545
530.883570	0.002424
531.099522	0.002129
531.315456	0.002167
531.531372	0.002297
531.747269	0.002578
531.963148	0.002728
532.179009	0.002846
532.394852	0.002407
532.610676	0.002297
532.826482	0.002020
533.042271	0.002512
533.258040	0.002842
533.473792	0.003140
533.689525	0.002822
533.905240	0.002659
534.120937	0.002636
534.336616	0.002770
534.552277	0.002664
534.767919	0.002411
534.983543	0.002576
535.199149	0.002339
535.414736	0.002151
535.630306	0.002343
535.845857	0.002657
536.061390	0.002841
536.276904	0.002964
536.492401	0.003278
536.707879	0.003503
536.923339	0.003257
537.138781	0.003386
537.354204	0.003622
537.569610	0.003603
537.784997	0.003733
538.000366	0.003622
538.215716	0.003538
538.431049	0.003050
538.646363	0.003093
538.861659	0.003077
539.076937	0.002918
539.292196	0.003041
539.507438	0.003066
539.722661	0.002572
539.937866	0.002353
540.153052	0.002309
540.368221	0.002913
540.583371	0.002812
540.798503	0.002423
541.013617	0.002070
541.228712	0.001820
541.443789	0.001455
541.658848	0.001652
541.873889	0.001626
542.088912	0.001954
542.303916	0.001720
542.518902	0.001860
542.733870	0.001872
542.948820	0.002499
543.163752	0.002312
543.378665	0.002651
543.593560	0.002401
543.808437	0.002830
544.023295	0.002711
544.238136	0.002689
544.452958	0.002717
544.667762	0.002913
544.882548	0.002579
545.097315	0.003009
545.312064	0.003022
545.526795	0.003413
545.741508	0.003311
545.956203	0.003003
546.170879	0.002910
546.385537	0.002877
546.600177	0.003028
546.814799	0.003209
547.029402	0.002967
547.243988	0.002838
547.458555	0.002527
547.673103	0.002163
547.887634	0.002085
548.102146	0.002119
548.316640	0.002256
548.531116	0.002322
548.745574	0.002189
548.960013	0.002101
549.174435	0.002050
549.388838	0.002453
549.603222	0.002695
549.817589	0.002696
550.031937	0.002871
550.246267	0.002711
550.460579	0.002849
550.674873	0.002574
550.889148	0.002496
551.103405	0.002747
551.317644	0.002623
551.531865	0.002496
551.746068	0.002728
551.960252	0.002484
552.174418	0.002460
552.388566	0.002276
552.602696	0.002860
552.816807	0.003180
553.030900	0.003051
553.244975	0.002988
553.459032	0.002987
553.673070	0.002938
553.887091	0.002798
554.101093	0.002717
554.315077	0.002326
554.529042	0.002233
554.742990	0.002049
554.956919	0.001887
555.170830	0.001594
555.384722	0.001834
555.598597	0.001805
555.812453	0.002149
556.026291	0.002056
556.240111	0.002228
556.453913	0.002037
556.667696	0.002039
556.881461	0.002238
557.095208	0.002583
557.308937	0.002366
557.522647	0.002333
557.736339	0.002187
557.950013	0.002133
558.163669	0.002114
558.377307	0.002055
558.590926	0.001986
558.804527	0.001958
559.018110	0.001985
559.231675	0.001625
559.445221	0.001793
559.658749	0.001702
559.872259	0.002314
560.085751	0.002536
560.299225	0.002551
560.512680	0.002463
560.726117	0.002442
560.939536	0.002381
561.152937	0.003088
561.366319	0.003053
561.579683	0.002986
561.793029	0.002646
562.006357	0.002667
562.219667	0.002920
562.432958	0.003220
562.646231	0.003307
562.859486	0.003059
563.072723	0.003006
563.285941	0.002830
563.499141	0.002812
563.712323	0.002636
563.925487	0.002640
564.138632	0.002913
564.351760	0.002457
564.564869	0.002341
564.777960	0.002356
564.991032	0.002006
565.204087	0.002001
565.417123	0.002384
565.630141	0.002694
565.843140	0.002288
566.056122	0.002056
566.269085	0.002335
566.482030	0.002051
566.694957	0.002097
566.907866	0.002278
567.120756	0.002635
567.333628	0.002601
567.546482	0.002477
567.759318	0.002916
567.972135	0.002976
568.184935	0.003020
568.397716	0.003379
568.610478	0.003567
568.823223	0.003107
569.035949	0.002928
569.248657	0.002819
569.461347	0.002730
569.674019	0.002581
569.886672	0.002590
570.099308	0.002566
570.311925	0.002988
570.524523	0.003096
570.737104	0.003264
570.949666	0.003512
571.162210	0.003346
571.374736	0.003269
571.587244	0.003139
571.799733	0.002882
572.012205	0.003125
572.224658	0.002802
572.437092	0.002477
572.649509	0.002808
572.861907	0.002544
573.074287	0.002743
573.286649	0.002876
573.498993	0.003200
573.711318	0.003411
573.923625	0.003484
574.135914	0.003659
574.348185	0.003920
574.560438	0.003876
574.772672	0.003853
574.984888	0.003916
575.197086	0.003931
575.409266	0.003800
575.621427	0.003703
575.833570	0.003370
576.045695	0.003279
576.257802	0.003177
576.469890	0.003586
576.681961	0.003857
576.894013	0.003649
577.106046	0.003550
577.318062	0.003463
577.530059	0.003364
577.742039	0.003542
577.954000	0.003498
578.165942	0.003341
578.377867	0.002893
578.589773	0.002810
578.801661	0.002787
579.013531	0.002978
579.225382	0.002901
579.437216	0.003000
579.649031	0.003092
579.860828	0.003304
580.072606	0.003494
580.284367	0.003788
580.496109	0.003343
580.707833	0.003415
580.919539	0.003411
581.131227	0.003691
581.342896	0.003741
581.554547	0.003558
581.766180	0.003296
581.977795	0.003404
582.189391	0.003167
582.400969	0.003762
582.612529	0.003517
582.824071	0.003283
583.035595	0.003247
583.247100	0.002996
583.458587	0.002862
583.670056	0.003081
583.881506	0.003083
584.092939	0.003152
584.304353	0.002723
584.515749	0.003070
584.727127	0.003382
584.938486	0.003282
585.149828	0.003499
585.361151	0.003624
585.572456	0.003362
585.783742	0.003416
585.995011	0.003292
586.206261	0.003531
586.417493	0.003379
586.628706	0.003452
586.839902	0.003568
587.051079	0.003434
587.262238	0.003401
587.473379	0.003402
587.684502	0.003199
587.895606	0.003376
588.106692	0.003444
588.317760	0.003531
588.528810	0.003566
588.739841	0.003322
588.950855	0.003701
589.161850	0.003777
589.372827	0.004016
589.583785	0.004055
589.794726	0.004119
590.005648	0.003725
590.216552	0.003865
590.427437	0.003693
590.638305	0.003866
590.849154	0.003586
591.059985	0.003751
591.270798	0.003603
591.481592	0.003923
591.692369	0.003896
591.903127	0.004268
592.113867	0.004274
592.324588	0.004327
592.535292	0.004287
592.745977	0.004336
592.956644	0.004237
593.167293	0.004321
593.377923	0.004229
593.588536	0.004127
593.799130	0.004085
594.009706	0.003872
594.220263	0.003956
594.430803	0.004024
594.641324	0.004002
594.851827	0.004000
595.062312	0.003992
595.272778	0.004028
595.483227	0.004152
595.693657	0.004135
595.904069	0.004447
596.114462	0.004519
596.324838	0.004754
596.535195	0.004898
596.745534	0.004922
596.955855	0.004866
597.166157	0.004961
597.376441	0.004949
597.586707	0.005273
597.796955	0.005167
598.007185	0.005254
598.217396	0.005184
598.427589	0.005093
598.637764	0.005061
598.847921	0.005176
599.058060	0.005173
599.268180	0.005154
599.478282	0.004720
599.688366	0.004929
599.898431	0.004779
600.108479	0.004797
600.318508	0.004940
600.528519	0.005254
600.738511	0.005165
600.948486	0.004979
601.158442	0.005121
601.368380	0.005259
601.578300	0.005279
601.788202	0.005369
601.998085	0.005242
602.207950	0.005149
602.417797	0.004833
602.627626	0.005087
602.837436	0.005498
603.047228	0.005301
603.257002	0.005336
603.466758	0.005258
603.676496	0.005051
603.886215	0.005141
604.095916	0.005294
604.305599	0.005428
604.515264	0.005391
604.724910	0.004866
604.934538	0.004911
605.144148	0.004875
605.353740	0.004728
605.563314	0.004713
605.772869	0.004389
605.982406	0.004175
606.191925	0.004154
606.401425	0.003928
606.610908	0.004156
606.820372	0.004048
607.029818	0.004165
607.239246	0.004115
607.448655	0.004220
607.658047	0.004398
607.867420	0.004563
608.076775	0.004575
608.286111	0.004443
608.495430	0.004310
608.704730	0.004426
608.914012	0.004317
609.123275	0.004647
609.332521	0.004683
609.541748	0.004791
609.750957	0.004938
609.960148	0.004910
610.169321	0.005034
610.378475	0.005097
610.587611	0.005117
610.796729	0.004947
611.005829	0.004489
611.214910	0.004673
611.423974	0.004884
611.633019	0.004666
611.842045	0.004755
612.051054	0.004901
612.260044	0.004980
612.469017	0.004760
612.677970	0.005243
612.886906	0.005446
613.095824	0.005376
613.304723	0.005367
613.513604	0.005490
613.722467	0.005558
613.931311	0.005534
614.140138	0.005558
614.348946	0.005673
614.557736	0.005541
614.766507	0.005546
614.975261	0.005550
615.183996	0.005345
615.392713	0.005347
615.601412	0.005444
615.810092	0.005572
616.018754	0.005453
616.227399	0.005668
616.436024	0.005693
616.644632	0.005940
616.853222	0.005744
617.061793	0.006019
617.270346	0.006149
617.478880	0.005905
617.687397	0.005802
617.895895	0.005978
618.104375	0.005812
618.312837	0.005653
618.521281	0.005594
618.729706	0.005682
618.938113	0.005474
619.146502	0.005388
619.354873	0.005417
619.563226	0.005268
619.771560	0.005204
619.979876	0.005427
620.188174	0.005690
620.396453	0.005484
620.604715	0.005463
620.812958	0.005515
621.021183	0.005585
621.229390	0.005677
621.437578	0.005723
621.645748	0.005696
621.853900	0.005898
622.062034	0.005604
622.270150	0.005774
622.478247	0.005887
622.686326	0.005806
622.894387	0.005537
623.102430	0.005466
623.310454	0.005360
623.518461	0.005275
623.726449	0.004948
623.934418	0.005066
624.142370	0.005007
624.350303	0.004954
624.558218	0.005104
624.766115	0.005369
624.973994	0.005268
625.181855	0.005367
625.389697	0.005539
625.597521	0.005620
625.805327	0.005592
626.013114	0.005710
626.220883	0.005885
626.428634	0.005979
626.636367	0.005893
626.844082	0.006092
627.051778	0.006060
627.259457	0.006085
627.467117	0.006207
627.674758	0.006230
627.882382	0.006232
628.089987	0.006180
628.297574	0.005888
628.505143	0.005876
628.712694	0.005883
628.920226	0.005930
629.127740	0.005799
629.335236	0.005580
629.542714	0.005742
629.750174	0.005818
629.957615	0.005796
630.165038	0.006051
630.372443	0.006262
630.579829	0.006231
630.787198	0.006341
630.994548	0.006575
631.201880	0.006713
631.409194	0.006619
631.616489	0.006512
631.823766	0.006548
632.031025	0.006338
632.238266	0.006080
632.445489	0.006002
632.652693	0.006086
632.859879	0.006057
633.067047	0.005845
633.274197	0.006021
633.481329	0.005883
633.688442	0.005825
633.895537	0.005936
634.102614	0.006164
634.309672	0.006078
634.516713	0.006144
634.723735	0.005985
634.930739	0.006240
635.137724	0.006255
635.344692	0.006383
635.551641	0.006484
635.758572	0.006723
635.965485	0.006767
636.172379	0.007008
636.379256	0.007081
636.586114	0.007194
636.792954	0.007091
636.999775	0.006908
637.206579	0.006818
637.413364	0.006866
637.620131	0.006772
637.826880	0.006661
638.033610	0.006773
638.240323	0.006698
638.447017	0.006792
638.653692	0.006782
638.860350	0.006778
639.066990	0.006865
639.273611	0.006830
639.480214	0.006726
639.686798	0.006846
639.893365	0.006858
640.099913	0.006800
640.306443	0.006820
640.512955	0.006918
640.719449	0.007019
640.925924	0.007027
641.132381	0.007060
641.338820	0.007091
641.545241	0.006956
641.751644	0.006925
641.958028	0.006980
642.164394	0.006891
642.370742	0.006849
642.577071	0.006909
642.783383	0.006943
642.989676	0.007126
643.195951	0.007325
643.402207	0.007283
643.608446	0.007143
643.814666	0.007281
644.020868	0.007487
644.227052	0.007611
644.433218	0.007656
644.639365	0.007641
644.845494	0.007588
645.051605	0.007314
645.257698	0.007286
645.463772	0.007360
645.669828	0.007373
645.875866	0.007286
646.081886	0.007250
646.287888	0.007256
646.493871	0.007377
646.699836	0.007125
646.905783	0.007342
647.111712	0.007370
647.317622	0.007309
647.523514	0.007140
647.729388	0.007168
647.935244	0.007169
648.141082	0.007125
648.346901	0.007212
648.552702	0.007384
648.758485	0.007395
648.964250	0.007760
649.169996	0.007974
649.375724	0.008078
649.581434	0.008152
649.787126	0.008364
649.992800	0.008373
650.198455	0.008256
650.404092	0.008116
650.609711	0.008137
650.815311	0.007929
651.020894	0.007763
651.226458	0.007624
651.432004	0.007429
651.637532	0.007131
651.843041	0.007037
652.048532	0.007159
652.254006	0.007241
652.459460	0.007126
652.664897	0.007160
652.870315	0.007179
653.075716	0.007189
653.281097	0.007160
653.486461	0.007292
653.691807	0.007419
653.897134	0.007356
654.102443	0.007455
654.307734	0.007574
654.513006	0.007598
654.718261	0.007739
654.923497	0.007947
655.128715	0.008056
655.333915	0.008033
655.539096	0.008001
655.744259	0.007905
655.949404	0.008015
656.154531	0.008014
656.359640	0.008095
656.564730	0.008062
656.769802	0.008038
656.974856	0.008156
657.179892	0.008355
657.384909	0.008337
657.589908	0.008400
657.794889	0.008386
657.999852	0.008418
658.204797	0.008433
658.409723	0.008423
658.614631	0.008412
658.819521	0.008453
659.024393	0.008482
659.229246	0.008521
659.434081	0.008610
659.638898	0.008553
659.843697	0.008492
660.048478	0.008427
660.253240	0.008563
660.457984	0.008624
660.662710	0.008571
660.867417	0.008635
661.072107	0.008719
661.276778	0.008731
661.481431	0.008853
661.686066	0.008913
661.890682	0.008961
662.095281	0.008877
662.299861	0.008822
662.504422	0.008809
662.708966	0.008748
662.913491	0.008721
663.117999	0.008575
663.322488	0.008526
663.526958	0.008439
663.731411	0.008480
663.935845	0.008588
664.140261	0.008689
664.344659	0.008735
664.549038	0.008604
664.753400	0.008713
664.957743	0.008841
665.162068	0.008876
665.366375	0.009050
665.570663	0.009214
665.774933	0.009184
665.979185	0.009109
666.183419	0.009041
666.387635	0.008978
666.591832	0.008903
666.796011	0.008959
667.000172	0.008938
667.204315	0.008721
667.408439	0.008624
667.612545	0.008646
667.816634	0.008780
668.020703	0.008809
668.224755	0.009049
668.428788	0.009114
668.632803	0.009169
668.836800	0.009222
669.040779	0.009405
669.244739	0.009361
669.448681	0.009172
669.652605	0.009062
669.856511	0.009122
670.060399	0.009123
670.264268	0.009081
670.468119	0.009099
670.671952	0.008867
670.875767	0.008931
671.079563	0.008913
671.283341	0.009079
671.487101	0.009185
671.690843	0.009140
671.894567	0.009219
672.098272	0.009296
672.301959	0.009494
672.505628	0.009639
672.709278	0.009716
672.912911	0.009654
673.116525	0.009572
673.320121	0.009616
673.523699	0.009593
673.727258	0.009474
673.930799	0.009365
674.134322	0.009149
674.337827	0.009251
674.541314	0.009218
674.744782	0.009232
674.948232	0.009309
675.151664	0.009180
675.355078	0.009279
675.558474	0.009210
675.761851	0.009246
675.965210	0.009316
676.168551	0.009244
676.371873	0.009162
676.575178	0.009279
676.778464	0.009344
676.981732	0.009351
677.184981	0.009358
677.388213	0.009316
677.591426	0.009544
677.794621	0.009544
677.997798	0.009451
678.200956	0.009611
678.404097	0.009670
678.607219	0.009662
678.810323	0.009789
679.013408	0.010007
679.216476	0.010105
679.419525	0.009938
679.622556	0.009933
679.825569	0.010045
680.028563	0.009935
680.231540	0.009924
680.434498	0.009982
680.637438	0.010074
680.840359	0.009949
681.043263	0.009951
681.246148	0.009911
681.449015	0.009874
681.651864	0.009994
681.854694	0.010117
682.057506	0.009982
682.260301	0.010017
682.463076	0.009887
682.665834	0.009822
682.868573	0.009734
683.071295	0.009857
683.273998	0.009965
683.476682	0.009808
683.679349	0.009621
683.881997	0.009634
684.084627	0.009571
684.287239	0.009580
684.489833	0.009513
684.692408	0.009619
684.894965	0.009695
685.097504	0.009732
685.300025	0.009762
685.502527	0.009854
685.705012	0.010088
685.907478	0.010016
686.109925	0.009996
686.312355	0.010187
686.514766	0.010140
686.717159	0.010063
686.919534	0.010006
687.121891	0.010053
687.324230	0.009854
687.526550	0.009872
687.728852	0.010065
687.931136	0.010045
688.133401	0.010092
688.335649	0.010212
688.537878	0.010173
688.740089	0.010127
688.942281	0.010199
689.144456	0.010352
689.346612	0.010221
689.548750	0.010406
689.750870	0.010651
689.952971	0.010609
690.155055	0.010536
690.357120	0.010631
690.559167	0.010719
690.761195	0.010804
690.963206	0.010861
691.165198	0.010710
691.367172	0.010483
691.569128	0.010393
691.771065	0.010385
691.972984	0.010585
692.174885	0.010655
692.376768	0.010619
692.578633	0.010647
692.780479	0.010608
692.982308	0.010862
693.184118	0.010838
693.385909	0.010880
693.587683	0.010853
693.789438	0.010684
693.991175	0.010636
694.192894	0.010680
694.394595	0.010741
694.596277	0.010942
694.797941	0.010924
694.999587	0.011083
695.201215	0.011039
695.402824	0.010997
695.604416	0.011212
695.805989	0.011181
696.007543	0.011275
696.209080	0.011224
696.410598	0.011193
696.612099	0.011316
696.813580	0.011196
697.015044	0.011299
697.216490	0.011299
697.417917	0.011271
697.619326	0.011308
697.820717	0.011374
698.022089	0.011402
698.223444	0.011547
698.424780	0.011431
698.626098	0.011556
698.827397	0.011465
699.028679	0.011507
699.229942	0.011347
699.431187	0.011414
699.632414	0.011257
699.833622	0.011130
700.034813	0.010940
700.235985	0.010998
700.437139	0.010713
700.638274	0.010767
700.839392	0.010889
701.040491	0.011100
701.241572	0.011138
701.442635	0.011238
701.643679	0.011405
701.844706	0.011451
702.045714	0.011326
702.246704	0.011402
702.447675	0.011547
702.648629	0.011462
702.849564	0.011400
703.050481	0.011444
703.251380	0.011423
703.452260	0.011356
703.653122	0.011399
703.853966	0.011520
704.054792	0.011711
704.255600	0.011468
704.456389	0.011438
704.657160	0.011379
704.857913	0.011419
705.058648	0.011282
705.259365	0.011164
705.460063	0.011096
705.660743	0.011061
705.861405	0.010964
706.062048	0.011052
706.262674	0.011170
706.463281	0.011190
706.663870	0.010916
706.864441	0.010927
707.064993	0.011184
707.265527	0.011214
707.466043	0.011219
707.666541	0.011258
707.867021	0.011315
708.067482	0.011137
708.267925	0.011129
708.468350	0.011254
708.668757	0.011445
708.869145	0.011280
709.069516	0.011385
709.269868	0.011538
709.470201	0.011582
709.670517	0.011452
709.870814	0.011629
710.071093	0.011594
710.271354	0.011792
710.471597	0.011769
710.671821	0.011801
710.872028	0.011702
711.072216	0.011708
711.272385	0.011689
711.472537	0.011821
711.672670	0.011872
711.872785	0.011924
712.072882	0.011799
712.272961	0.011881
712.473021	0.011875
712.673063	0.011998
712.873087	0.011876
713.073093	0.012020
713.273081	0.012053
713.473050	0.011933
713.673001	0.011891
713.872934	0.011755
714.072849	0.011544
714.272745	0.011531
714.472623	0.011330
714.672483	0.011273
714.872325	0.011026
715.072148	0.011054
715.271954	0.011144
715.471741	0.011256
715.671509	0.011359
715.871260	0.011444
716.070992	0.011598
716.270707	0.011640
716.470403	0.011693
716.670080	0.011804
716.869740	0.011731
717.069381	0.011717
717.269004	0.011815
717.468609	0.011841
717.668195	0.011822
717.867764	0.011706
718.067314	0.011761
718.266846	0.011847
718.466360	0.011955
718.665855	0.011939
718.865332	0.011941
719.064791	0.011807
719.264232	0.011848
719.463655	0.011988
719.663059	0.011993
719.862445	0.012170
720.061813	0.012057
720.261163	0.011948
720.460494	0.011891
720.659807	0.011866
720.859102	0.011743
721.058379	0.011643
721.257638	0.011511
721.456878	0.011425
721.656100	0.011185
721.855304	0.011332
722.054490	0.011353
722.253657	0.011344
722.452806	0.011273
722.651937	0.011225
722.851050	0.011219
723.050145	0.011227
723.249221	0.011064
723.448279	0.011103
723.647319	0.010942
723.846340	0.010933
724.045344	0.010938
724.244329	0.010764
724.443296	0.010884
724.642245	0.010874
724.841175	0.010837
725.040088	0.011008
725.238982	0.011091
725.437857	0.011160
725.636715	0.011115
725.835554	0.011151
726.034376	0.011375
726.233179	0.011487
726.431963	0.011474
726.630730	0.011546
726.829478	0.011554
727.028208	0.011484
727.226920	0.011407
727.425614	0.011430
727.624289	0.011489
727.822946	0.011561
728.021585	0.011437
728.220206	0.011495
728.418808	0.011429
728.617392	0.011411
728.815958	0.011430
729.014506	0.011491
729.213036	0.011502
729.411547	0.011469
729.610040	0.011247
729.808515	0.011353
730.006972	0.011336
730.205410	0.011312
730.403831	0.011287
730.602233	0.011332
730.800616	0.011354
730.998982	0.011225
731.197329	0.011121
731.395658	0.011069
731.593969	0.010862
731.792262	0.010796
731.990536	0.010784
732.188793	0.010881
732.387031	0.010583
732.585250	0.010404
732.783452	0.010557
732.981635	0.010412
733.179800	0.010442
733.377947	0.010569
733.576076	0.010585
733.774186	0.010702
733.972278	0.010607
734.170352	0.010905
734.368408	0.011058
734.566446	0.011071
734.764465	0.011276
734.962466	0.011443
735.160449	0.011455
735.358413	0.011218
735.556360	0.011103
735.754288	0.011104
735.952198	0.011041
736.150090	0.011041
736.347963	0.010790
736.545818	0.010621
736.743655	0.010405
736.941474	0.010286
737.139275	0.010491
737.337057	0.010424
737.534821	0.010296
737.732567	0.010227
737.930295	0.010048
738.128005	0.010103
738.325696	0.010143
738.523369	0.010240
738.721024	0.010105
738.918660	0.010095
739.116279	0.010172
739.313879	0.010264
739.511461	0.010114
739.709024	0.010026
739.906570	0.010145
740.104097	0.010151
740.301606	0.010279
740.499097	0.010485
740.696569	0.010573
740.894024	0.010647
741.091460	0.010563
741.288878	0.010878
741.486277	0.010992
741.683659	0.011000
741.881022	0.011188
742.078367	0.011182
742.275694	0.011099
742.473002	0.011162
742.670293	0.011060
742.867565	0.011117
743.064819	0.011084
743.262054	0.011165
743.459272	0.011145
743.656471	0.011028
743.853652	0.011028
744.050815	0.011032
744.247959	0.010957
744.445085	0.010974
744.642194	0.010932
744.839283	0.010790
745.036355	0.010740
745.233408	0.010607
745.430444	0.010519
745.627461	0.010217
745.824459	0.010317
746.021440	0.010270
746.218402	0.010052
746.415346	0.009962
746.612272	0.009924
746.809180	0.009889
747.006069	0.009921
747.202940	0.009900
747.399793	0.010171
747.596628	0.010028
747.793444	0.009918
747.990243	0.010016
748.187023	0.010088
748.383784	0.010025
748.580528	0.010151
748.777253	0.010233
748.973960	0.010215
749.170649	0.010123
749.367320	0.010137
749.563973	0.010162
749.760607	0.010284
749.957223	0.010323
750.153821	0.010379
750.350400	0.010330
750.546962	0.010253
750.743505	0.010289
750.940030	0.010271
751.136536	0.010279
751.333025	0.010299
751.529495	0.010179
751.725947	0.009975
751.922381	0.010001
752.118796	0.009940
752.315194	0.010107
752.511573	0.010179
752.707934	0.010325
752.904276	0.010396
753.100601	0.010409
753.296907	0.010502
753.493195	0.010683
753.689465	0.010704
753.885716	0.010876
754.081949	0.010873
754.278164	0.010950
754.474361	0.010900
754.670540	0.010844
754.866700	0.010889
755.062843	0.010957
755.258967	0.011078
755.455072	0.011042
755.651160	0.010712
755.847229	0.010546
756.043280	0.010519
756.239313	0.010486
756.435328	0.010610
756.631324	0.010511
756.827302	0.010345
757.023262	0.010409
757.219204	0.010461
757.415127	0.010719
757.611033	0.010843
757.806920	0.010820
758.002788	0.010969
758.198639	0.010844
758.394471	0.010867
758.590286	0.010830
758.786081	0.010700
758.981859	0.010626
759.177619	0.010530
759.373360	0.010486
759.569083	0.010457
759.764788	0.010336
759.960474	0.010332
760.156143	0.010235
760.351793	0.010130
760.547425	0.010063
760.743038	0.010178
760.938634	0.010335
761.134211	0.010319
761.329770	0.010276
761.525311	0.010193
761.720833	0.010205
761.916338	0.010410
762.111824	0.010573
762.307292	0.010549
762.502741	0.010287
762.698173	0.010064
762.893586	0.009963
763.088981	0.009925
763.284358	0.009811
763.479716	0.009804
763.675057	0.009673
763.870379	0.009668
764.065683	0.009851
764.260968	0.010075
764.456236	0.010200
764.651485	0.010386
764.846716	0.010361
765.041929	0.010472
765.237123	0.010570
765.432299	0.010709
765.627457	0.010796
765.822597	0.010703
766.017719	0.010557
766.212822	0.010389
766.407907	0.010385
766.602974	0.010423
766.798023	0.010370
766.993054	0.010098
767.188066	0.010185
767.383060	0.010134
767.578036	0.010076
767.772993	0.010211
767.967933	0.010368
768.162854	0.010216
768.357757	0.010194
768.552642	0.010022
768.747508	0.010415
768.942356	0.010322
769.137186	0.010274
769.331998	0.010303
769.526792	0.010382
769.721567	0.010317
769.916324	0.010463
770.111063	0.010583
770.305784	0.010628
770.500486	0.010388
770.695171	0.010190
770.889837	0.010025
771.084484	0.010072
771.279114	0.009940
771.473725	0.009889
771.668318	0.009884
771.862893	0.009817
772.057450	0.009997
772.251988	0.009997
772.446509	0.010073
772.641011	0.010240
772.835494	0.010113
773.029960	0.010095
773.224407	0.010136
773.418836	0.010051
773.613247	0.009988
773.807640	0.010015
774.002014	0.009887
774.196370	0.010005
774.390708	0.010120
774.585028	0.010172
774.779330	0.010168
774.973613	0.010231
775.167878	0.010161
775.362125	0.010346
775.556354	0.010379
775.750564	0.010458
775.944756	0.010292
776.138930	0.010386
776.333086	0.010540
776.527223	0.010589
776.721343	0.010566
776.915444	0.010631
777.109526	0.010507
777.303591	0.010534
777.497637	0.010531
777.691666	0.010537
777.885676	0.010385
778.079667	0.010242
778.273641	0.010298
778.467596	0.010220
778.661533	0.010204
778.855452	0.010167
779.049352	0.010077
779.243235	0.010184
779.437099	0.010237
779.630945	0.010301
779.824773	0.010415
780.018582	0.010279
780.212373	0.010377
780.406146	0.010395
780.599901	0.010530
780.793638	0.010606
780.987356	0.010623
781.181056	0.010536
781.374738	0.010469
781.568402	0.010364
781.762047	0.010492
781.955674	0.010416
782.149283	0.010422
782.342874	0.010317
782.536447	0.010174
782.730001	0.010219
782.923537	0.010258
783.117055	0.010298
783.310555	0.010333
783.504036	0.010374
783.697499	0.010620
783.890944	0.010686
784.084371	0.010766
784.277780	0.010894
784.471170	0.010884
784.664542	0.010991
784.857896	0.010803
785.051231	0.010792
785.244549	0.010631
785.437848	0.010405
785.631129	0.010275
785.824392	0.010264
786.017636	0.010356
786.210863	0.010356
786.404071	0.010354
786.597260	0.010646
786.790432	0.010767
786.983585	0.010784
787.176721	0.010852
787.369838	0.010975
787.562936	0.010730
787.756017	0.010631
787.949079	0.010599
788.142123	0.010398
788.335149	0.010151
788.528156	0.010035
788.721146	0.010104
788.914117	0.010062
789.107070	0.010041
789.300005	0.010427
789.492921	0.010519
789.685819	0.010449
789.878699	0.010710
790.071561	0.010825
790.264405	0.010829
790.457230	0.010913
790.650037	0.010827
790.842826	0.010716
791.035597	0.010544
791.228349	0.010400
791.421084	0.010340
791.613800	0.010281
791.806497	0.010249
791.999177	0.010256
792.191838	0.010182
792.384481	0.010337
792.577106	0.010475
792.769713	0.010511
792.962301	0.010632
793.154871	0.010748
793.347423	0.010753
793.539957	0.010843
793.732473	0.010780
793.924970	0.010768
794.117449	0.010727
794.309910	0.010735
794.502353	0.010776
794.694777	0.010621
794.887183	0.010718
795.079571	0.010815
795.271941	0.010722
795.464293	0.010766
795.656626	0.010760
795.848941	0.010741
796.041238	0.010681
796.233516	0.010640
796.425777	0.010682
796.618019	0.010540
796.810243	0.010279
797.002449	0.010545
797.194636	0.010708
797.386805	0.010822
797.578956	0.010704
797.771089	0.010836
797.963204	0.010854
798.155300	0.010837
798.347378	0.010732
798.539438	0.010941
798.731480	0.010573
798.923503	0.010439
799.115509	0.010243
799.307496	0.010392
799.499465	0.010307
799.691415	0.010386
799.883348	0.010603
800.075262	0.010864
800.267158	0.010873
800.459035	0.011213
800.650895	0.011136
800.842736	0.011404
801.034559	0.011565
801.226364	0.011697
801.418150	0.011491
801.609919	0.011443
801.801669	0.011637
801.993401	0.011639
802.185114	0.011550
802.376810	0.011726
802.568487	0.011534
802.760146	0.011386
802.951787	0.011268
803.143409	0.011366
803.335014	0.011250
803.526600	0.010971
803.718168	0.011020
803.909717	0.011157
804.101249	0.011066
804.292762	0.011026
804.484257	0.010873
804.675734	0.010769
804.867192	0.010845
805.058632	0.010692
805.250054	0.010778
805.441458	0.010736
805.632844	0.010468
805.824211	0.010429
806.015561	0.010513
806.206891	0.010806
806.398204	0.010888
806.589499	0.010800
806.780775	0.010915
806.972033	0.010795
807.163273	0.010832
807.354495	0.010953
807.545698	0.011032
807.736883	0.011002
807.928050	0.010818
808.119199	0.010724
808.310329	0.010829
808.501441	0.010891
808.692535	0.010877
808.883611	0.010804
809.074669	0.010853
809.265708	0.010828
809.456729	0.010852
809.647732	0.010894
809.838717	0.011004
810.029683	0.010888
810.220632	0.010913
810.411562	0.011000
810.602474	0.010902
810.793367	0.010935
810.984242	0.010817
811.175100	0.010731
811.365938	0.010766
811.556759	0.010903
811.747562	0.010978
811.938346	0.010967
812.129112	0.011170
812.319860	0.011338
812.510589	0.011288
812.701300	0.011535
812.891994	0.011846
813.082668	0.011802
813.273325	0.011817
813.463964	0.011724
813.654584	0.011797
813.845186	0.011644
814.035769	0.011624
814.226335	0.011716
814.416882	0.011786
814.607411	0.011604
814.797922	0.011674
814.988415	0.011581
815.178889	0.011790
815.369345	0.011744
815.559783	0.011672
815.750203	0.011659
815.940605	0.011494
816.130988	0.011219
816.321353	0.011374
816.511700	0.011511
816.702028	0.011643
816.892339	0.011624
817.082631	0.011662
817.272905	0.011681
817.463161	0.011703
817.653398	0.011681
817.843617	0.011948
818.033819	0.011766
818.224001	0.011736
818.414166	0.011598
818.604312	0.011627
818.794440	0.011781
818.984550	0.011761
819.174642	0.011662
819.364716	0.011812
819.554771	0.011864
819.744808	0.011837
819.934827	0.011641
820.124827	0.011457
820.314810	0.011438
820.504774	0.011277
820.694720	0.011339
820.884647	0.011545
821.074557	0.011463
821.264448	0.011175
821.454321	0.011402
821.644176	0.011562
821.834012	0.011612
822.023831	0.011439
822.213631	0.011397
822.403413	0.011360
822.593176	0.011328
822.782922	0.011407
822.972649	0.011423
823.162358	0.011390
823.352049	0.011365
823.541721	0.011383
823.731376	0.011450
823.921012	0.011691
824.110629	0.011709
824.300229	0.011734
824.489811	0.011613
824.679374	0.011777
824.868919	0.011508
825.058445	0.011585
825.247954	0.011592
825.437444	0.011623
825.626916	0.011440
825.816370	0.011483
826.005806	0.011385
826.195223	0.011507
826.384622	0.011450
826.574003	0.011549
826.763366	0.011245
826.952711	0.011303
827.142037	0.011245
827.331345	0.011325
827.520635	0.011431
827.709906	0.011464
827.899160	0.011456
828.088395	0.011483
828.277612	0.011684
828.466810	0.011893
828.655991	0.011997
828.845153	0.012120
829.034297	0.012095
829.223423	0.012028
829.412531	0.011873
829.601620	0.011942
829.790691	0.011993
829.979744	0.011807
830.168779	0.011697
830.357795	0.011607
830.546793	0.011539
830.735773	0.011401
830.924735	0.011423
831.113679	0.011712
831.302604	0.011416
831.491511	0.011278
831.680400	0.011230
831.869271	0.011401
832.058123	0.011485
832.246957	0.011444
832.435773	0.011625
832.624571	0.011491
832.813351	0.011196
833.002112	0.011339
833.190855	0.011338
833.379580	0.011174
833.568287	0.011156
833.756975	0.011052
833.945645	0.011011
834.134297	0.010758
834.322931	0.010791
834.511547	0.010852
834.700144	0.011103
834.888723	0.011275
835.077284	0.011366
835.265826	0.011455
835.454351	0.011507
835.642857	0.011403
835.831345	0.011650
836.019815	0.011904
836.208266	0.011873
836.396699	0.011632
836.585114	0.011396
836.773511	0.011625
836.961890	0.011541
837.150250	0.011615
837.338592	0.011848
837.526916	0.011873
837.715222	0.011545
837.903510	0.011552
838.091779	0.011672
838.280030	0.011844
838.468263	0.011955
838.656477	0.011906
838.844674	0.012044
839.032852	0.012001
839.221012	0.011604
839.409153	0.011777
839.597277	0.011684
839.785382	0.011870
839.973469	0.011895
840.161538	0.011748
840.349589	0.011862
840.537621	0.011758
840.725635	0.011860
840.913631	0.012215
841.101609	0.012333
841.289568	0.012453
841.477509	0.012462
841.665432	0.012547
841.853337	0.012571
842.041224	0.012386
842.229092	0.012327
842.416942	0.012327
842.604774	0.012369
842.792588	0.012222
842.980383	0.012508
843.168160	0.012319
843.355919	0.012091
843.543660	0.011966
843.731382	0.011875
843.919087	0.011693
844.106773	0.011600
844.294441	0.011489
844.482090	0.011294
844.669722	0.011228
844.857335	0.011207
845.044930	0.011443
845.232507	0.011563
845.420065	0.011703
845.607605	0.011747
845.795127	0.011945
845.982631	0.012061
846.170117	0.012143
846.357584	0.012088
846.545033	0.012035
846.732464	0.012082
846.919877	0.012000
847.107272	0.012177
847.294648	0.012230
847.482006	0.012071
847.669346	0.012139
847.856667	0.012278
848.043971	0.012397
848.231256	0.012596
848.418523	0.012546
848.605771	0.012841
848.793002	0.013002
848.980214	0.013142
849.167408	0.013145
849.354584	0.013165
849.541742	0.013085
849.728881	0.012851
849.916002	0.012621
850.103105	0.012628
850.290190	0.012411
850.477256	0.012067
850.664304	0.012179
850.851334	0.012257
851.038346	0.012252
851.225340	0.012453
851.412315	0.012543
851.599272	0.012686
851.786211	0.012740
851.973132	0.012818
852.160034	0.012937
852.346918	0.012986
852.533784	0.013228
852.720632	0.013213
852.907462	0.013046
853.094273	0.013047
853.281066	0.013089
853.467841	0.013157
853.654598	0.013364
853.841336	0.013402
854.028056	0.013323
854.214758	0.013193
854.401442	0.013049
854.588107	0.013103
854.774755	0.013301
854.961384	0.013144
855.147995	0.012903
855.334587	0.012800
855.521162	0.012865
855.707718	0.012857
855.894256	0.012783
856.080775	0.012902
856.267277	0.012880
856.453760	0.012948
856.640225	0.013050
856.826672	0.013213
857.013101	0.013371
857.199511	0.013538
857.385903	0.013795
857.572277	0.013924
857.758633	0.013841
857.944970	0.014205
858.131290	0.014192
858.317591	0.014445
858.503873	0.014587
858.690138	0.014654
858.876384	0.014580
859.062612	0.014496
859.248822	0.014388
859.435014	0.014602
859.621188	0.014445
859.807343	0.014421
859.993480	0.014323
860.179599	0.014338
860.365699	0.014439
860.551781	0.014397
860.737846	0.014420
860.923891	0.014638
861.109919	0.014697
861.295929	0.014753
861.481920	0.014831
861.667893	0.014893
861.853848	0.015027
862.039784	0.014654
862.225702	0.014850
862.411603	0.014787
862.597484	0.014826
862.783348	0.015082
862.969193	0.015253
863.155021	0.015452
863.340830	0.015366
863.526620	0.015331
863.712393	0.015519
863.898147	0.015519
864.083883	0.015798
864.269601	0.016093
864.455301	0.015909
864.640982	0.015689
864.826645	0.015532
865.012290	0.015675
865.197917	0.015739
865.383526	0.015844
865.569116	0.015762
865.754688	0.015589
865.940242	0.015306
866.125777	0.015491
866.311295	0.015851
866.496794	0.015844
866.682275	0.015859
866.867737	0.015759
867.053182	0.015979
867.238608	0.015913
867.424016	0.015920
867.609406	0.015764
867.794778	0.015702
867.980131	0.015536
868.165466	0.015511
868.350783	0.015535
868.536082	0.015718
868.721362	0.015679
868.906625	0.015928
869.091869	0.016104
869.277094	0.016161
869.462302	0.016313
869.647491	0.016285
869.832662	0.016252
870.017815	0.016236
870.202950	0.015950
870.388066	0.015710
870.573165	0.015593
870.758245	0.015685
870.943306	0.015887
871.128350	0.016050
871.313375	0.016171
871.498382	0.016421
871.683371	0.016473
871.868342	0.016698
872.053294	0.017010
872.238229	0.016982
872.423144	0.017075
872.608042	0.017108
872.792922	0.016883
872.977783	0.016817
873.162626	0.016551
873.347451	0.016397
873.532258	0.016374
873.717046	0.016330
873.901816	0.016738
874.086568	0.016825
874.271302	0.016964
874.456017	0.016999
874.640715	0.017180
874.825394	0.017631
875.010055	0.017927
875.194697	0.018117
875.379322	0.018222
875.563928	0.017973
875.748516	0.017445
875.933085	0.017339
876.117637	0.017015
876.302170	0.016763
876.486685	0.016709
876.671182	0.016860
876.855661	0.016795
877.040121	0.016646
877.224563	0.016479
877.408987	0.016660
877.593393	0.016422
877.777780	0.016630
877.962150	0.016887
878.146501	0.016787
878.330833	0.016523
878.515148	0.016436
878.699444	0.016284
878.883722	0.016450
879.067982	0.016476
879.252224	0.016855
879.436447	0.016731
879.620653	0.016512
879.804840	0.016282
879.989008	0.016518
880.173159	0.016595
880.357291	0.016898
880.541405	0.016948
880.725501	0.017042
880.909579	0.016893
881.093638	0.016811
881.277680	0.017092
881.461703	0.017164
881.645707	0.016833
881.829694	0.016750
882.013662	0.016547
882.197612	0.016604
882.381544	0.016652
882.565458	0.016858
882.749353	0.017052
882.933230	0.017029
883.117089	0.017238
883.300930	0.017631
883.484753	0.017699
883.668557	0.018219
883.852343	0.017983
884.036111	0.017847
884.219861	0.017589
884.403592	0.017838
884.587305	0.017591
884.771000	0.017448
884.954677	0.017335
885.138335	0.017341
885.321976	0.016778
885.505598	0.017101
885.689201	0.017040
885.872787	0.017091
886.056354	0.016750
886.239904	0.016859
886.423434	0.016886
886.606947	0.016560
886.790442	0.016619
886.973918	0.016621
887.157376	0.016837
887.340816	0.016871
887.524237	0.016959
887.707641	0.017250
887.891026	0.017273
888.074393	0.017265
888.257741	0.017424
888.441072	0.017419
888.624384	0.017303
888.807678	0.016764
888.990954	0.016865
889.174211	0.016714
889.357451	0.016633
889.540672	0.016627
889.723875	0.016631
889.907059	0.016680
890.090226	0.016451
890.273374	0.016781
890.456504	0.016764
890.639616	0.016672
890.822709	0.016647
891.005785	0.016541
891.188842	0.016131
891.371881	0.016432
891.554901	0.016453
891.737904	0.016449
891.920888	0.016146
892.103854	0.016085
892.286802	0.016127
892.469731	0.015799
892.652643	0.015680
892.835536	0.016211
893.018410	0.015784
893.201267	0.015620
893.384106	0.015783
893.566926	0.015808
893.749728	0.016033
893.932511	0.016016
894.115277	0.016450
894.298024	0.016625
894.480753	0.016683
894.663464	0.016866
894.846157	0.017334
895.028831	0.017356
895.211487	0.017539
895.394125	0.017091
895.576745	0.017023
895.759346	0.016813
895.941930	0.016809
896.124495	0.016643
896.307041	0.016409
896.489570	0.016038
896.672080	0.015983
896.854573	0.015406
897.037046	0.015917
897.219502	0.015958
897.401940	0.016224
897.584359	0.015895
897.766760	0.016048
897.949143	0.016279
898.131507	0.016117
898.313854	0.016106
898.496182	0.016829
898.678492	0.016692
898.860783	0.016770
899.043057	0.016466
899.225312	0.016754
899.407549	0.016644
899.589768	0.016916
899.771968	0.016923
899.954151	0.016990
900.136315	0.016669
900.318461	0.016541
900.500588	0.016669
900.682698	0.016720
900.864789	0.016595
901.046862	0.016614
901.228917	0.016364
901.410953	0.016391
901.592971	0.016151
901.774972	0.016194
901.956953	0.016430
902.138917	0.016202
902.320862	0.016221
902.502790	0.016551
902.684699	0.016665
902.866589	0.016739
903.048462	0.016941
903.230316	0.017339
903.412152	0.017270
903.593970	0.017186
903.775770	0.017430
903.957551	0.017493
904.139314	0.017358
904.321059	0.017135
904.502786	0.017082
904.684494	0.017004
904.866185	0.016845
905.047857	0.016857
905.229510	0.016844
905.411146	0.016717
905.592763	0.016674
905.774363	0.016414
905.955943	0.016244
906.137506	0.016082
906.319051	0.016005
906.500577	0.015929
906.682085	0.015994
906.863575	0.015906
907.045046	0.015826
907.226500	0.015714
907.407935	0.015996
907.589352	0.016168
907.770750	0.016127
907.952131	0.016187
908.133493	0.015900
908.314837	0.015798
908.496163	0.015773
908.677470	0.015609
908.858760	0.015700
909.040031	0.015179
909.221284	0.014969
909.402518	0.014787
909.583735	0.014726
909.764933	0.014899
909.946113	0.014985
910.127275	0.014933
910.308418	0.014738
910.489544	0.014735
910.670651	0.014892
910.851740	0.015065
911.032810	0.015190
911.213863	0.014751
911.394897	0.014720
911.575913	0.014749
911.756911	0.014840
911.937890	0.014911
912.118851	0.014525
912.299794	0.014446
912.480719	0.014234
912.661626	0.013930
912.842514	0.013945
913.023384	0.013818
913.204236	0.013294
913.385070	0.012989
913.565886	0.012933
913.746683	0.012782
913.927462	0.012928
914.108223	0.012626
914.288965	0.012556
914.469690	0.012591
914.650396	0.012158
914.831084	0.012481
915.011754	0.012451
915.192405	0.012231
915.373038	0.012478
915.553653	0.012386
915.734250	0.012338
915.914829	0.012563
916.095389	0.012518
916.275931	0.012872
916.456455	0.012467
916.636961	0.012679
916.817448	0.013094
916.997917	0.012972
917.178368	0.012530
917.358801	0.012798
917.539216	0.012406
917.719612	0.012067
917.899990	0.012027
918.080350	0.012341
918.260692	0.012129
918.441015	0.011835
918.621320	0.011915
918.801607	0.012199
918.981876	0.012172
919.162127	0.012527
919.342359	0.012819
919.522573	0.012637
919.702769	0.012278
919.882947	0.011702
920.063106	0.011634
920.243247	0.011361
920.423370	0.010949
920.603475	0.010622
920.783562	0.010547
920.963630	0.010629
921.143680	0.010367
921.323712	0.010254
921.503725	0.010785
921.683721	0.010660
921.863698	0.010960
922.043657	0.011034
922.223598	0.011055
922.403520	0.010967
922.583424	0.010659
922.763311	0.010977
922.943178	0.011043
923.123028	0.010548
923.302859	0.010459
923.482673	0.009957
923.662467	0.010016
923.842244	0.009891
924.022003	0.009394
924.201743	0.009473
924.381465	0.009306
924.561169	0.009186
924.740854	0.009239
924.920522	0.009001
925.100171	0.009222
925.279802	0.009133
925.459414	0.008993
925.639009	0.009127
925.818585	0.009004
925.998143	0.008975
926.177683	0.008588
926.357205	0.008794
926.536708	0.008649
926.716193	0.008261
926.895660	0.008328
927.075109	0.008398
927.254539	0.008414
927.433951	0.008453
927.613345	0.008360
927.792721	0.008465
927.972079	0.008263
928.151418	0.008478
928.330739	0.008483
928.510042	0.008199
928.689327	0.007843
928.868593	0.007761
929.047841	0.007426
929.227071	0.007131
929.406283	0.007190
929.585476	0.006737
929.764652	0.006348
929.943809	0.006404
930.122948	0.005910
930.302068	0.005626
930.481171	0.005268
930.660255	0.005751
930.839321	0.005597
931.018369	0.005781
931.197398	0.005909
931.376409	0.005687
931.555402	0.005358
931.734377	0.006083
931.913334	0.006473
932.092272	0.007022
932.271192	0.005930
932.450094	0.005750
932.628978	0.005243
932.807844	0.005664
932.986691	0.005629
933.165520	0.005361
933.344331	0.004899
933.523123	0.004305
933.701898	0.003567
933.880654	0.004299
934.059392	0.004457
934.238111	0.004118
934.416813	0.003510
934.595496	0.003682
934.774161	0.003834
934.952808	0.003995
935.131437	0.003135
935.310047	0.003013
935.488639	0.002283
935.667213	0.001817
935.845769	0.002184
936.024306	0.002005
936.202825	0.002127
936.381326	0.001451
936.559809	0.001024
936.738274	0.001843
936.916720	0.002006
937.095148	0.001681
937.273558	0.001867
937.451950	0.001136
937.630323	0.000314
937.808678	0.000043
937.987015	0.000348
938.165334	0.000186
938.343635	0.000431
938.521917	-0.000206
938.700181	0.000259
938.878427	0.000285
939.056655	0.001105
939.234864	0.001591
939.413055	0.001168
939.591228	0.001160
939.769383	0.001448
939.947519	0.001258
940.125638	0.001125
940.303738	0.000505
940.481820	0.000079
940.659883	-0.000718
940.837929	-0.000091
941.015956	-0.000077
941.193965	0.000018
941.371955	-0.000278
941.549928	0.000004
941.727882	0.000309
941.905818	0.000341
942.083736	0.001193
942.261636	0.001043
942.439517	0.000127
942.617380	0.000028
942.795225	-0.000359
942.973052	-0.000130
943.150860	-0.000452
943.328651	-0.000496
943.506423	0.000286
943.684176	-0.001308
943.861912	-0.000059
944.039629	-0.000251
944.217328	-0.000389
944.395009	-0.000269
944.572672	-0.001088
944.750317	-0.000617
944.927943	-0.001172
945.105551	-0.000867
945.283141	-0.000683
945.460712	-0.002314
945.638265	-0.001536
945.815801	-0.001414
945.993317	-0.001662
946.170816	-0.002239
946.348297	-0.003210
946.525759	-0.002315
946.703203	-0.003155
946.880629	-0.001556
947.058036	-0.000871
947.235425	-0.001331
947.412797	-0.000603
947.590149	0.000362
947.767484	0.001590
947.944800	0.001921
948.122099	0.002060
948.299379	0.002121
948.476640	0.000947
948.653884	0.000987
948.831109	0.002220
949.008316	0.000880
949.185505	0.000996
949.362676	0.000437
949.539828	0.000252
949.716962	-0.000671
949.894078	-0.000002
950.071176	-0.000379
950.248256	-0.000234
950.425317	-0.001212
950.602360	-0.000012
950.779385	-0.000713
950.956391	-0.001369
951.133380	-0.000663
951.310350	-0.000786
951.487302	-0.000809
951.664235	-0.000046
951.841151	-0.001162
952.018048	-0.000915
952.194927	-0.001799
952.371788	-0.003036
952.548631	-0.001989
952.725455	-0.003749
952.902261	-0.002487
953.079049	-0.002363
953.255819	-0.002651
953.432570	-0.001394
953.609303	-0.002936
953.786018	-0.001780
953.962715	-0.000265
954.139394	-0.001767
954.316054	-0.000080
954.492696	-0.000069
954.669320	-0.000874
954.845926	-0.000921
955.022513	-0.000413
955.199083	0.001265
955.375634	0.000929
955.552166	0.000992
955.728681	0.003286
955.905177	0.002068
956.081655	0.001552
956.258115	0.001540
956.434557	0.002198
956.610980	0.000270
956.787385	0.000011
956.963772	-0.000398
957.140141	-0.000475
957.316492	-0.002128
957.492824	0.000538
957.669138	0.001492
957.845434	0.001775
958.021712	0.001693
958.197971	0.003776
958.374212	0.003479
958.550435	0.005282
958.726640	0.006027
958.902826	0.006730
959.078995	0.005130
959.255145	0.004584
959.431277	0.005715
959.607390	0.005562
959.783486	0.004067
959.959563	0.005174
960.135622	0.005470
960.311662	0.004138
960.487685	0.004379
960.663689	0.004632
960.839675	0.004372
961.015643	0.005475
961.191593	0.005313
961.367524	0.006468
961.543437	0.006167
961.719332	0.005349
961.895209	0.007492
962.071067	0.008453
962.246907	0.009769
962.422730	0.011011
962.598533	0.008298
962.774319	0.011143
962.950086	0.012659
963.125835	0.013406
963.301566	0.012932
963.477279	0.013393
963.652973	0.015305
963.828650	0.015497
964.004308	0.015189
964.179947	0.016189
964.355569	0.014196
964.531172	0.012846
964.706757	0.014254
964.882324	0.015668
965.057873	0.015844
965.233403	0.013678
965.408916	0.013349
965.584410	0.012423
965.759885	0.013524
965.935343	0.014359
966.110782	0.016392
966.286203	0.015142
966.461606	0.013491
966.636991	0.011509
966.812357	0.011636
966.987705	0.011871
967.163035	0.015153
967.338347	0.013684
967.513641	0.014079
967.688916	0.012005
967.864173	0.012123
968.039412	0.013048
968.214632	0.016340
968.389835	0.018155
968.565019	0.017018
968.740185	0.015546
968.915333	0.016009
969.090462	0.015017
969.265573	0.015029
969.440667	0.015439
969.615741	0.015349
969.790798	0.014242
969.965836	0.014071
970.140856	0.015456
970.315858	0.015132
970.490842	0.015400
970.665808	0.014139
970.840755	0.015188
971.015684	0.014696
971.190595	0.013335
971.365487	0.012423
971.540362	0.011739
971.715218	0.009664
971.890056	0.008372
972.064875	0.008691
972.239677	0.009858
972.414460	0.009602
972.589225	0.009468
972.763972	0.010283
972.938700	0.009995
973.113411	0.011393
973.288103	0.012726
973.462777	0.015224
973.637432	0.015838
973.812070	0.016258
973.986689	0.016604
974.161290	0.017360
974.335873	0.017368
974.510437	0.018285
974.684984	0.017232
974.859512	0.017746
975.034022	0.015797
975.208513	0.016613
975.382987	0.015501
975.557442	0.014778
975.731879	0.013413
975.906298	0.015334
976.080698	0.013649
976.255080	0.013938
976.429445	0.011961
976.603790	0.012532
976.778118	0.010199
976.952427	0.010477
977.126719	0.010871
977.300992	0.010799
977.475246	0.009849
977.649483	0.010651
977.823701	0.009141
977.997901	0.011471
978.172083	0.010965
978.346247	0.011823
978.520392	0.011407
978.694519	0.010544
978.868628	0.011025
979.042719	0.009750
979.216791	0.010438
979.390845	0.011607
979.564882	0.009133
979.738899	0.009839
979.912899	0.009338
980.086880	0.009141
980.260843	0.009053
980.434788	0.010001
980.608715	0.010774
980.782623	0.012164
980.956514	0.011863
981.130386	0.014271
981.304240	0.012059
981.478075	0.011652
981.651892	0.010661
981.825692	0.010957
981.999472	0.009454
982.173235	0.008292
982.346980	0.006670
982.520706	0.008135
982.694414	0.006477
982.868104	0.008075
983.041775	0.008528
983.215428	0.010133
983.389064	0.012855
983.562680	0.013746
983.736279	0.014536
983.909860	0.013884
984.083422	0.012704
984.256966	0.013417
984.430491	0.013758
984.603999	0.013276
984.777488	0.014305
984.950959	0.011883
985.124412	0.012396
985.297847	0.013557
985.471263	0.013789
985.644661	0.013100
985.818041	0.012800
985.991403	0.011102
986.164747	0.011555
986.338072	0.011444
986.511379	0.010469
986.684668	0.009903
986.857938	0.008469
987.031191	0.008965
987.204425	0.009833
987.377641	0.010462
987.550839	0.013159
987.724018	0.013945
987.897179	0.014297
988.070322	0.016426
988.243447	0.016764
988.416554	0.017565
988.589642	0.017173
988.762712	0.016942
988.935764	0.017746
989.108798	0.015888
989.281813	0.013162
989.454811	0.011801
989.627790	0.011388
989.800751	0.009940
989.973693	0.009085
990.146617	0.008462
990.319524	0.007652
990.492412	0.006429
990.665281	0.007780
990.838133	0.008601
991.010966	0.009505
991.183781	0.008922
991.356578	0.009634
991.529356	0.011393
991.702117	0.012182
991.874859	0.013182
992.047583	0.013443
992.220288	0.012155
992.392976	0.011739
992.565645	0.010547
992.738296	0.009917
992.910929	0.010617
993.083543	0.010388
993.256139	0.009513
993.428718	0.008682
993.601277	0.008864
993.773819	0.009582
993.946342	0.012170
994.118848	0.012370
994.291335	0.012627
994.463803	0.011135
994.636254	0.010029
994.808686	0.010920
994.981100	0.011970
995.153496	0.010551
995.325874	0.011814
995.498233	0.011564
995.670574	0.012288
995.842897	0.012161
996.015202	0.012682
996.187488	0.012727
996.359757	0.011103
996.532007	0.009105
996.704239	0.009929
996.876452	0.010407
997.048648	0.010024
997.220825	0.010347
997.392984	0.010180
997.565124	0.010347
997.737247	0.010748
997.909351	0.011398
998.081437	0.012109
998.253505	0.012572
998.425554	0.010899
998.597586	0.009479
998.769599	0.008154
998.941594	0.008053
999.113571	0.008426
999.285529	0.009184
999.457469	0.010190
999.629391	0.009836
999.801295	0.009001
999.973181	0.008896
1000.145048	0.008072
1000.316897	0.007930
1000.488728	0.008166
1000.660541	0.008862
1000.832335	0.006546
1001.004111	0.004969
1001.175869	0.005026
1001.347609	0.006052
1001.519331	0.004020
1001.691034	0.005370
1001.862719	0.006876
1002.034386	0.008541
1002.206035	0.007424
1002.377665	0.008890
1002.549277	0.011318
1002.720871	0.012216
1002.892447	0.011014
1003.064004	0.013445
1003.235544	0.014617
1003.407065	0.013429
1003.578568	0.011786
1003.750052	0.012533
1003.921519	0.014038
1004.092967	0.012817
1004.264397	0.013975
1004.435809	0.014700
1004.607202	0.014514
1004.778577	0.014306
1004.949934	0.014186
1005.121273	0.015102
1005.292594	0.015452
1005.463896	0.014029
1005.635180	0.014543
1005.806446	0.011853
1005.977694	0.011368
1006.148923	0.010910
1006.320135	0.010046
1006.491328	0.010578
1006.662503	0.010436
1006.833659	0.008396
1007.004798	0.007888
1007.175918	0.008062
1007.347020	0.008285
1007.518103	0.008923
1007.689169	0.008456
1007.860216	0.010140
1008.031245	0.010548
1008.202256	0.010317
1008.373248	0.010614
1008.544223	0.010404
1008.715179	0.010126
1008.886117	0.009863
1009.057036	0.009491
1009.227938	0.009230
1009.398821	0.008106
1009.569686	0.008892
1009.740533	0.008549
1009.911361	0.008607
1010.082172	0.008843
1010.252964	0.008497
1010.423738	0.010635
1010.594493	0.009801
1010.765231	0.010777
1010.935950	0.010718
1011.106651	0.009153
1011.277334	0.010104
1011.447998	0.010273
1011.618645	0.009950
1011.789273	0.008422
1011.959882	0.006380
1012.130474	0.007035
1012.301048	0.007426
1012.471603	0.006308
1012.642140	0.006273
1012.812658	0.004536
1012.983159	0.005038
1013.153641	0.005174
1013.324105	0.007365
1013.494551	0.007690
1013.664979	0.006767
1013.835388	0.006708
1014.005779	0.007090
1014.176152	0.007361
1014.346507	0.007608
1014.516843	0.007402
1014.687162	0.007129
1014.857462	0.007826
1015.027744	0.009098
1015.198007	0.009971
1015.368252	0.007775
1015.538480	0.006038
1015.708689	0.004443
1015.878879	0.006243
1016.049052	0.007170
1016.219206	0.008107
1016.389342	0.007758
1016.559460	0.006320
1016.729559	0.006456
1016.899641	0.008522
1017.069704	0.010941
1017.239749	0.011715
1017.409775	0.011642
1017.579784	0.010661
1017.749774	0.010517
1017.919746	0.008741
1018.089700	0.008808
1018.259635	0.009665
1018.429553	0.007571
1018.599452	0.006788
1018.769333	0.007437
1018.939195	0.005426
1019.109040	0.005871
1019.278866	0.003596
1019.448674	0.003327
1019.618464	0.003855
1019.788235	0.002645
1019.957989	0.003242
1020.127724	0.002178
1020.297441	0.001027
1020.467139	0.001414
1020.636820	0.000544
1020.806482	0.001734
1020.976126	0.001571
1021.145752	0.000997
1021.315359	0.000624
1021.484948	-0.000142
1021.654519	0.001874
1021.824072	0.002450
1021.993607	0.003228
1022.163123	0.003469
1022.332621	0.003651
1022.502101	0.005389
1022.671563	0.004130
1022.841007	0.004013
1023.010432	0.004538
1023.179839	0.003318
1023.349228	0.004065
1023.518598	0.003541
1023.687951	0.003856
1023.857285	0.004418
1024.026601	0.003092
1024.195899	0.004385
1024.365178	0.004122
1024.534439	0.005521
1024.703682	0.007117
1024.872907	0.007050
1025.042114	0.008088
1025.211302	0.008860
1025.380472	0.007375
1025.549624	0.008165
1025.718758	0.008502
1025.887873	0.008125
1026.056970	0.007617
1026.226049	0.005678
1026.395110	0.005404
1026.564153	0.004551
1026.733177	0.002583
1026.902183	0.002943
1027.071171	0.001576
1027.240141	0.001276
1027.409092	0.002987
1027.578026	0.003593
1027.746940	0.004538
1027.915837	0.004565
1028.084716	0.005261
1028.253576	0.005014
1028.422418	0.006386
1028.591242	0.008336
1028.760048	0.010919
1028.928835	0.010985
1029.097604	0.010562
1029.266355	0.009209
1029.435088	0.009422
1029.603803	0.008851
1029.772499	0.009862
1029.941177	0.010281
1030.109837	0.009536
1030.278478	0.007106
1030.447102	0.007360
1030.615707	0.006207
1030.784294	0.007143
1030.952863	0.007505
1031.121413	0.007434
1031.289945	0.009008
1031.458460	0.008776
1031.626955	0.007320
1031.795433	0.006804
1031.963892	0.006272
1032.132334	0.006621
1032.300756	0.006163
1032.469161	0.005104
1032.637548	0.005208
1032.805916	0.004076
1032.974266	0.003865
1033.142598	0.005224
1033.310911	0.006017
1033.479207	0.005682
1033.647484	0.005531
1033.815743	0.007035
1033.983983	0.007479
1034.152206	0.006086
1034.320410	0.005930
1034.488596	0.005631
1034.656764	0.004923
1034.824914	0.005545
1034.993045	0.006049
1035.161158	0.005163
1035.329253	0.004890
1035.497330	0.005098
1035.665388	0.006527
1035.833428	0.006571
1036.001450	0.005911
1036.169454	0.005730
1036.337440	0.004514
1036.505407	0.003014
1036.673356	0.006191
1036.841287	0.003502
1037.009200	0.002546
1037.177094	0.001463
1037.344970	0.000047
1037.512828	0.001379
1037.680668	0.003328
1037.848489	0.003836
1038.016293	0.005377
1038.184078	0.004256
1038.351845	0.005260
1038.519593	0.006219
1038.687324	0.006174
1038.855036	0.008824
1039.022730	0.007438
1039.190406	0.005697
1039.358063	0.005856
1039.525702	0.005278
1039.693323	0.004222
1039.860926	0.004789
1040.028511	0.005066
1040.196077	0.005669
1040.363625	0.004292
1040.531155	0.004750
1040.698667	0.005412
1040.866161	0.005430
1041.033636	0.004429
1041.201093	0.005332
1041.368532	0.006140
1041.535952	0.005008
1041.703355	0.005340
1041.870739	0.006206
1042.038105	0.005025
1042.205452	0.005500
1042.372782	0.007503
1042.540093	0.008385
1042.707386	0.008407
1042.874661	0.007897
1043.041918	0.009029
1043.209156	0.008665
1043.376376	0.006119
1043.543578	0.006225
1043.710762	0.005141
1043.877927	0.002728
1044.045074	0.002120
1044.212203	0.001066
1044.379314	0.001483
1044.546407	0.002030
1044.713481	0.002792
1044.880537	0.004326
1045.047575	0.003480
1045.214595	0.003081
1045.381596	0.004802
1045.548579	0.004408
1045.715544	0.004375
1045.882491	0.004020
1046.049420	0.002751
1046.216330	0.001938
1046.383222	0.001796
1046.550096	0.002167
1046.716951	0.003482
1046.883789	0.002395
1047.050608	0.003824
1047.217409	0.004450
1047.384192	0.004691
1047.550956	0.004607
1047.717703	0.002938
1047.884431	0.003022
1048.051140	0.004085
1048.217832	0.002813
1048.384505	0.002093
1048.551161	0.001244
1048.717798	0.002366
1048.884416	0.002369
1049.051017	0.001672
1049.217599	0.003507
1049.384163	0.002245
1049.550709	0.002438
1049.717237	0.002202
1049.883746	0.002998
1050.050237	0.002520
1050.216710	0.002556
1050.383165	0.002293
1050.549601	0.002890
1050.716019	0.002378
1050.882420	0.004513
1051.048801	0.003717
1051.215165	0.005303
1051.381510	0.004519
1051.547837	0.005003
1051.714146	0.003714
1051.880437	0.004279
1052.046709	0.004284
1052.212964	0.004080
1052.379200	0.003299
1052.545417	0.003015
1052.711617	0.001525
1052.877798	0.002816
1053.043961	0.002059
1053.210106	0.002689
1053.376233	0.002492
1053.542341	0.002399
1053.708432	0.002884
1053.874504	0.002705
1054.040557	0.003516
1054.206593	0.002786
1054.372610	0.001843
1054.538609	0.001624
1054.704590	0.000565
1054.870553	0.001130
1055.036497	0.001687
1055.202424	0.000131
1055.368331	0.000713
1055.534221	0.002821
1055.700093	0.005021
1055.865946	0.004131
1056.031781	0.005237
1056.197598	0.003968
1056.363397	0.003738
1056.529177	0.002667
1056.694939	0.004354
1056.860683	0.004796
1057.026409	0.003567
1057.192116	0.000890
1057.357806	0.001269
1057.523477	0.000922
1057.689130	0.002248
1057.854764	0.001450
1058.020381	0.002723
1058.185979	0.001272
1058.351559	-0.000438
1058.517120	-0.000054
1058.682664	0.001169
1058.848189	0.001159
1059.013696	0.002648
1059.179185	0.002660
1059.344656	0.003325
1059.510108	0.003743
1059.675542	0.005855
1059.840958	0.005900
1060.006356	0.004924
1060.171735	0.004680
1060.337096	0.006318
1060.502439	0.005987
1060.667764	0.005593
1060.833071	0.004268
1060.998359	0.002049
1061.163629	-0.001196
1061.328881	-0.000427
1061.494115	-0.000582
1061.659330	-0.000028
1061.824527	-0.002923
1061.989706	-0.003639
1062.154867	-0.003528
1062.320010	-0.003603
1062.485134	-0.001845
1062.650240	0.001597
1062.815328	0.003835
1062.980398	0.003999
1063.145449	0.003855
1063.310482	0.003960
1063.475497	0.006136
1063.640494	0.006339
1063.805473	0.007036
1063.970433	0.006150
1064.135375	0.005056
1064.300299	0.002887
1064.465204	0.005221
1064.630092	0.004731
1064.794961	0.005421
1064.959812	0.003787
1065.124645	0.002569
1065.289459	0.001922
1065.454256	0.003401
1065.619034	0.004188
1065.783793	0.004319
1065.948535	0.001093
1066.113258	0.001327
1066.277964	0.004410
1066.442651	0.004090
1066.607319	0.005965
1066.771970	0.005923
1066.936602	0.005292
1067.101216	0.003755
1067.265812	0.003254
1067.430389	0.003492
1067.594949	0.003361
1067.759490	-0.000239
1067.924013	0.000262
1068.088518	-0.001851
1068.253004	-0.001690
1068.417472	-0.001790
1068.581922	-0.001670
1068.746354	-0.001777
1068.910768	-0.002978
1069.075163	-0.003100
1069.239540	-0.001330
1069.403899	-0.003728
1069.568240	-0.000863
1069.732562	-0.001030
1069.896866	-0.001306
1070.061152	-0.000717
1070.225420	-0.000793
1070.389670	0.000706
1070.553901	0.002995
1070.718114	0.002616
1070.882309	0.004832
1071.046486	0.002295
1071.210644	0.002331
1071.374784	0.001696
1071.538906	0.001984
1071.703010	0.002691
1071.867096	0.001149
1072.031163	-0.000848
1072.195212	-0.001942
1072.359243	-0.002236
1072.523256	-0.000386
1072.687250	0.001162
1072.851226	0.000231
1073.015184	0.000155
1073.179124	-0.000142
1073.343045	0.003140
1073.506949	0.004275
1073.670834	0.004095
1073.834701	0.002626
1073.998549	0.000561
1074.162380	0.000147
1074.326192	0.000179
1074.489986	-0.000154
1074.653761	0.000145
1074.817519	-0.001622
1074.981258	-0.002227
1075.144979	-0.000888
1075.308682	-0.000986
1075.472367	-0.001334
1075.636033	-0.003268
1075.799681	-0.001683
1075.963311	-0.002351
1076.126923	-0.003302
1076.290516	-0.004566
1076.454092	-0.004708
1076.617649	-0.004218
1076.781187	-0.003778
1076.944708	-0.002169
1077.108210	-0.000195
1077.271695	-0.000129
1077.435160	0.000899
1077.598608	0.001231
1077.762038	0.002844
1077.925449	0.004385
1078.088842	0.002805
1078.252217	0.004986
1078.415573	0.007219
1078.578912	0.006265
1078.742232	0.006999
1078.905534	0.005809
1079.068817	0.003829
1079.232083	0.002695
1079.395330	-0.000414
1079.558559	0.000275
1079.721770	-0.001266
1079.884962	-0.004743
1080.048136	-0.003138
1080.211293	-0.003329
1080.374430	-0.002914
1080.537550	0.000530
1080.700651	-0.002623
1080.863735	0.000058
1081.026800	-0.002161
1081.189846	-0.003184
1081.352875	-0.000212
1081.515885	0.000197
1081.678877	-0.001586
1081.841851	-0.000181
1082.004807	-0.001234
1082.167744	0.002536
1082.330663	0.001106
1082.493564	0.001670
1082.656447	0.004225
1082.819312	0.001241
1082.982158	-0.001866
1083.144986	-0.001105
1083.307796	-0.002510
1083.470587	-0.004354
1083.633361	-0.005856
1083.796116	-0.005989
1083.958853	-0.002070
1084.121571	-0.002285
1084.284272	0.000228
1084.446954	0.000999
1084.609618	0.000227
1084.772264	0.001174
1084.934892	0.002862
1085.097501	0.004294
1085.260092	0.003901
1085.422665	0.001327
1085.585220	0.000435
1085.747756	-0.001059
1085.910274	-0.001382
1086.072774	-0.000705
1086.235256	-0.001329
1086.397720	-0.002438
1086.560165	-0.002975
1086.722592	-0.001029
1086.885001	-0.002020
1087.047392	-0.002416
1087.209764	-0.001343
1087.372119	-0.001082
1087.534455	0.000009
1087.696772	-0.000295
1087.859072	0.000994
1088.021353	0.001978
1088.183616	0.002003
1088.345861	0.003374
1088.508088	0.003748
1088.670296	0.004575
1088.832486	0.004555
1088.994658	0.004070
1089.156812	0.005977
1089.318948	0.005224
1089.481065	0.006471
1089.643164	0.005892
1089.805245	0.004979
1089.967308	0.004472
1090.129352	0.002526
1090.291378	0.003885
1090.453386	0.000653
1090.615376	-0.000838
1090.777347	0.000479
1090.939301	-0.003324
1091.101236	-0.003649
1091.263153	-0.005053
1091.425051	-0.003879
1091.586932	-0.000890
1091.748794	-0.004155
1091.910638	-0.001076
1092.072463	-0.000240
1092.234271	-0.000917
1092.396060	0.004088
1092.557831	0.003342
1092.719584	0.005748
1092.881319	0.004146
1093.043035	0.001952
1093.204733	0.003082
1093.366413	0.002711
1093.528075	0.001633
1093.689718	0.001965
1093.851343	-0.000386
1094.012950	-0.000671
1094.174539	0.000136
1094.336110	0.001354
1094.497662	0.001885
1094.659196	0.003662
1094.820712	0.002543
1094.982210	0.005737
1095.143689	0.006204
1095.305151	0.007105
1095.466594	0.005079
1095.628018	0.006002
1095.789425	0.006857
1095.950813	0.003736
1096.112183	0.002595
1096.273535	0.006540
1096.434869	0.002383
1096.596184	0.002246
1096.757482	0.001243
1096.918761	0.005200
1097.080021	0.002523
1097.241264	0.003781
1097.402488	0.004600
1097.563694	0.001409
1097.724882	0.000072
1097.886052	0.000356
1098.047203	-0.001455
1098.208336	-0.000503
1098.369451	-0.003292
1098.530548	-0.004830
1098.691627	-0.007999
1098.852687	-0.005785
1099.013729	-0.001799
1099.174753	-0.004453
1099.335758	-0.004298
1099.496746	-0.003109
1099.657715	-0.006126
1099.818666	-0.005019
1099.979599	-0.004123
1100.140513	-0.003156
1100.301409	-0.001785
1100.462287	-0.002836
1100.623147	-0.000061
1100.783989	-0.000030
1100.944812	0.000401
1101.105617	0.002014
1101.266404	0.004698
1101.427173	0.005269
1101.587923	0.004334
1101.748656	0.000324
1101.909370	-0.000430
1102.070066	-0.002952
1102.230743	-0.004192
1102.391403	-0.005439
1102.552044	-0.006449
1102.712667	-0.010056
1102.873271	-0.009384
1103.033858	-0.008852
1103.194426	-0.006461
1103.354976	-0.004681
1103.515508	-0.000779
1103.676021	-0.000016
1103.836517	0.001517
1103.996994	0.001435
1104.157453	0.002154
1104.317893	0.001486
1104.478316	0.000427
1104.638720	0.000236
1104.799106	-0.000248
1104.959474	-0.001880
1105.119823	-0.000007
1105.280155	-0.002406
1105.440468	-0.001485
1105.600763	0.000367
1105.761039	-0.000306
1105.921298	-0.000570
1106.081538	-0.003654
1106.241760	-0.005456
1106.401964	-0.007887
1106.562149	-0.011326
1106.722316	-0.008480
1106.882465	-0.007151
1107.042596	-0.007912
1107.202709	-0.006284
1107.362803	-0.006474
1107.522879	-0.004252
1107.682937	-0.003857
1107.842977	-0.004855
1108.002999	-0.001436
1108.163002	-0.004281
1108.322987	-0.007446
1108.482954	-0.005718
1108.642902	-0.004836
1108.802833	-0.003135
1108.962745	-0.004383
1109.122639	0.000742
1109.282515	0.006400
1109.442372	0.006014
1109.602211	0.007834
1109.762032	0.012069
1109.921835	0.009936
1110.081620	0.008088
1110.241386	0.009434
1110.401134	0.012180
1110.560864	0.006328
1110.720576	0.004523
1110.880269	0.005588
1111.039945	0.004677
1111.199602	0.001644
1111.359240	0.002134
1111.518861	0.001776
1111.678463	0.001222
1111.838047	0.001206
1111.997613	0.003691
1112.157161	0.004892
1112.316690	0.003549
1112.476202	0.004837
1112.635695	0.003588
1112.795169	0.003082
1112.954626	0.004695
1113.114064	0.006563
1113.273484	0.008576
1113.432886	0.009324
1113.592270	0.009127
1113.751635	0.011010
1113.910983	0.008816
1114.070312	0.010685
1114.229622	0.011372
1114.388915	0.011621
1114.548189	0.007011
1114.707445	0.002677
1114.866683	0.001708
1115.025903	-0.001662
1115.185104	-0.003459
1115.344287	-0.002062
1115.503452	-0.000879
1115.662599	-0.003214
1115.821727	-0.003374
1115.980838	0.001614
1116.139930	-0.000315
1116.299004	0.000891
1116.458059	0.002052
1116.617097	0.002609
1116.776116	0.003560
1116.935117	-0.000390
1117.094099	0.000757
1117.253064	0.001641
1117.412010	0.001242
1117.570938	0.000855
1117.729848	0.001942
1117.888740	-0.000445
1118.047613	-0.005218
1118.206468	-0.005246
1118.365305	-0.004105
1118.524124	-0.003175
1118.682924	-0.007568
1118.841707	-0.008966
1119.000471	-0.005826
1119.159216	-0.006565
1119.317944	-0.008649
1119.476653	-0.006244
1119.635344	-0.004364
1119.794017	-0.000118
1119.952672	-0.002815
1120.111308	0.004226
1120.269927	0.004817
1120.428527	0.005392
1120.587108	0.004076
1120.745672	0.007663
1120.904217	0.012831
1121.062744	0.009428
1121.221253	0.010821
1121.379744	0.012892
1121.538216	0.009633
1121.696671	0.008510
1121.855107	0.008504
1122.013524	0.007564
1122.171924	0.008855
1122.330305	0.005240
1122.488668	0.008135
1122.647013	0.004134
1122.805340	0.004342
1122.963648	0.006121
1123.121938	0.003870
1123.280210	0.002677
1123.438464	0.004507
1123.596700	0.004195
1123.754917	0.003877
1123.913116	0.000723
1124.071297	-0.000940
1124.229459	-0.002117
1124.387604	-0.005927
1124.545730	-0.005110
1124.703838	-0.005217
1124.861928	-0.004559
1125.019999	-0.008165
1125.178052	-0.008127
1125.336088	-0.007672
1125.494104	-0.004376
1125.652103	-0.003181
1125.810083	-0.003372
1125.968045	-0.004227
1126.125989	-0.005320
1126.283915	-0.007995
1126.441823	-0.006900
1126.599712	-0.007489
1126.757583	-0.005353
1126.915436	-0.001648
1127.073270	0.002230
1127.231087	0.005441
1127.388885	0.008647
1127.546665	0.014794
1127.704426	0.021297
1127.862170	0.031881
1128.019895	0.036219
1128.177602	0.038302
1128.335291	0.035628
1128.492961	0.033680
1128.650614	0.030610
1128.808248	0.028642
1128.965864	0.023390
1129.123461	0.019616
1129.281041	0.014177
1129.438602	0.013833
1129.596145	0.008359
1129.753670	0.008023
1129.911176	0.006670
1130.068665	0.006943
1130.226135	0.002970
1130.383587	-0.000605
1130.541020	-0.000307
1130.698436	-0.003783
1130.855833	-0.008681
1131.013212	-0.009194
1131.170573	-0.009851
1131.327915	-0.010595
1131.485239	-0.007235
1131.642545	-0.001132
1131.799833	0.003916
1131.957103	0.003284
1132.114354	0.008425
1132.271588	0.007805
1132.428803	0.015035
1132.585999	0.014145
1132.743178	0.015976
1132.900338	0.014128
1133.057480	0.012330
1133.214604	0.016736
1133.371710	0.016950
1133.528797	0.012568
1133.685866	0.016960
1133.842917	0.008994
1133.999950	0.014493
1134.156964	0.011727
1134.313960	0.012295
1134.470938	0.011205
1134.627898	0.003874
1134.784840	0.001571
1134.941763	0.000166
1135.098668	-0.000170
1135.255555	0.004634
1135.412424	-0.001910
1135.569274	-0.000525
1135.726107	-0.007637
1135.882921	-0.005860
1136.039716	-0.004737
1136.196494	-0.007715
1136.353253	-0.002893
1136.509995	-0.003347
1136.666717	-0.005654
1136.823422	-0.010043
1136.980109	-0.011978
1137.136777	-0.007598
1137.293427	-0.007862
1137.450059	-0.009551
1137.606672	-0.007844
1137.763267	-0.011504
1137.919844	-0.010901
1138.076403	-0.014708
1138.232944	-0.010939
1138.389466	-0.010318
1138.545971	-0.011095
1138.702457	-0.009034
1138.858924	-0.002460
1139.015374	0.001406
1139.171805	0.003081
1139.328218	-0.000888
1139.484613	0.002198
1139.640990	0.003067
1139.797348	0.003001
1139.953688	0.007091
1140.110010	-0.001431
1140.266314	-0.002510
1140.422600	-0.002554
1140.578867	-0.004440
1140.735116	0.001904
1140.891347	0.001571
1141.047559	-0.000703
1141.203754	-0.002669
1141.359930	-0.006673
1141.516088	-0.005508
1141.672228	-0.003922
1141.828349	-0.007219
1141.984452	-0.004404
1142.140537	-0.007889
1142.296604	-0.004817
1142.452653	-0.004627
1142.608683	-0.003527
1142.764695	-0.002920
1142.920689	0.001128
1143.076665	0.000583
1143.232622	-0.002624
1143.388562	-0.007616
1143.544483	-0.002533
1143.700385	-0.002920
1143.856270	0.005946
1144.012136	0.008573
1144.167985	0.011441
1144.323814	0.011152
1144.479626	0.011693
1144.635420	0.017120
1144.791195	0.021608
1144.946952	0.011440
1145.102691	0.010131
1145.258411	0.008560
1145.414113	0.011587
1145.569798	0.010535
1145.725463	0.014810
1145.881111	0.002664
1146.036741	0.005628
1146.192352	-0.000122
1146.347945	0.009163
1146.503519	0.009060
1146.659076	0.004120
1146.814614	-0.000655
1146.970134	-0.002132
1147.125636	-0.003276
1147.281120	-0.000202
1147.436585	-0.007335
1147.592032	0.002375
1147.747461	-0.005749
1147.902872	-0.001402
1148.058265	-0.002922
1148.213639	0.002709
1148.368995	0.006770
1148.524333	0.007528
1148.679653	0.013894
1148.834954	0.016998
1148.990237	0.017190
1149.145502	0.019337
1149.300749	0.015635
1149.455977	0.016442
1149.611188	0.011081
1149.766380	0.012321
1149.921553	0.009986
1150.076709	0.009124
1150.231846	0.010841
1150.386966	0.003721
1150.542066	0.002367
1150.697149	0.015123
1150.852214	0.014350
1151.007260	0.017343
1151.162288	0.008466
1151.317298	0.006246
1151.472289	0.002360
1151.627263	0.000322
1151.782218	-0.003354
1151.937155	-0.002493
1152.092073	-0.023228
1152.246974	-0.015311
1152.401856	-0.020370
1152.556720	-0.020350
1152.711566	-0.020009
1152.866393	-0.020994
1153.021203	-0.012658
1153.175994	-0.005743
1153.330767	-0.005750
1153.485521	0.005663
1153.640258	-0.004026
1153.794976	-0.005773
1153.949676	-0.005273
1154.104358	-0.006706
1154.259021	-0.001010
1154.413667	-0.015441
1154.568294	-0.025326
1154.722903	-0.021520
1154.877493	-0.031744
1155.032066	-0.027105
1155.186620	-0.033574
1155.341156	-0.028722
1155.495674	-0.026711
1155.650173	-0.025320
1155.804654	-0.026543
1155.959118	-0.016575
1156.113562	-0.021655
1156.267989	-0.013684
1156.422397	-0.014411
1156.576788	-0.004633
1156.731160	-0.002430
1156.885513	-0.008487
1157.039849	-0.014437
1157.194166	-0.004859
1157.348465	-0.014306
1157.502746	-0.010711
1157.657009	-0.016599
1157.811253	-0.013783
1157.965479	-0.013041
1158.119687	-0.019921
1158.273877	-0.011164
1158.428048	-0.008985
1158.582201	-0.010724
1158.736337	-0.002014
1158.890453	-0.004526
1159.044552	-0.003590
1159.198632	-0.010310
1159.352694	-0.012062
1159.506738	-0.010287
1159.660764	-0.018608
1159.814771	-0.015235
1159.968761	-0.011841
1160.122732	-0.007220
1160.276685	-0.001847
1160.430619	0.001728
1160.584535	0.011251
1160.738434	0.011178
1160.892313	0.015838
1161.046175	0.023999
1161.200019	0.022451
1161.353844	0.017648
1161.507651	0.016617
1161.661440	0.005429
1161.815210	0.016438
1161.968962	0.006510
1162.122697	0.009472
1162.276412	0.008490
1162.430110	-0.001613
1162.583789	-0.007516
1162.737451	-0.014198
1162.891094	-0.017791
1163.044718	-0.014460
1163.198325	-0.019973
1163.351913	-0.006302
1163.505483	-0.002814
1163.659035	-0.001706
1163.812569	0.002074
1163.966084	0.009990
1164.119581	0.022836
1164.273060	0.024357
1164.426521	0.020640
1164.579964	0.010240
1164.733388	-0.001024
1164.886794	-0.008780
1165.040182	-0.015765
1165.193551	-0.016357
1165.346903	-0.021561
1165.500236	-0.029162
1165.653551	-0.025845
1165.806848	-0.016855
1165.960126	-0.012502
1166.113386	-0.018352
1166.266628	-0.007886
1166.419852	0.007764
1166.573058	0.016735
1166.726245	0.014850
1166.879414	0.017178
1167.032565	0.002165
1167.185698	-0.000104
1167.338812	-0.002421
1167.491909	0.000509
1167.644987	-0.013332
1167.798046	-0.030683
1167.951088	-0.029366
1168.104111	-0.029216
1168.257117	-0.034312
1168.410103	-0.031420
1168.563072	-0.025641
1168.716023	-0.026496
1168.868955	-0.032003
1169.021869	-0.030929
1169.174765	-0.016427
1169.327642	-0.024284
1169.480501	-0.010766
1169.633343	-0.008661
1169.786165	-0.008062
1169.938970	-0.013610
1170.091757	-0.009637
1170.244525	-0.009932
1170.397275	-0.005809
1170.550007	-0.005563
1170.702720	0.003297
1170.855415	-0.006756
1171.008092	-0.001081
1171.160751	0.000711
1171.313392	0.000757
1171.466014	-0.013208
1171.618619	-0.006688
1171.771205	-0.006688
1171.923772	-0.006688
