sample name	sample
index	6
start time	 02-11-2021  11:20:31 AM


Wavelength (nm)	Absorbance
494.344910	0.027183
494.563924	0.027183
494.782919	0.027183
495.001897	0.199990
495.220856	0.109694
495.439797	0.096677
495.658719	0.066173
495.877624	0.041752
496.096510	0.019809
496.315378	-0.017586
496.534227	-0.053458
496.753059	-0.027156
496.971872	-0.042440
497.190667	-0.044527
497.409444	-0.021160
497.628203	-0.005975
497.846943	0.000933
498.065665	0.003316
498.284369	0.005673
498.503055	0.008055
498.721723	0.007372
498.940372	0.008322
499.159003	0.008957
499.377616	0.010375
499.596210	0.009080
499.814787	0.009466
500.033345	0.009331
500.251885	0.009508
500.470406	0.008132
500.688910	0.008792
500.907395	0.009415
501.125862	0.010940
501.344311	0.010449
501.562742	0.012508
501.781154	0.011499
501.999548	0.012273
502.217924	0.011799
502.436282	0.012581
502.654621	0.011800
502.872942	0.011557
503.091245	0.011345
503.309530	0.011745
503.527797	0.011323
503.746045	0.011506
503.964275	0.010758
504.182487	0.009749
504.400681	0.008897
504.618856	0.008912
504.837013	0.009168
505.055152	0.008785
505.273273	0.009218
505.491376	0.006063
505.709460	0.006596
505.927526	0.006723
506.145574	0.008638
506.363604	0.010061
506.581615	0.010833
506.799608	0.010965
507.017583	0.010917
507.235540	0.010747
507.453478	0.014064
507.671399	0.014213
507.889301	0.014295
508.107185	0.013101
508.325050	0.013706
508.542898	0.013551
508.760727	0.013385
508.978538	0.012597
509.196330	0.012377
509.414105	0.011724
509.631861	0.011314
509.849599	0.010972
510.067319	0.011352
510.285021	0.009566
510.502704	0.009002
510.720369	0.007936
510.938016	0.008471
511.155645	0.008409
511.373255	0.007459
511.590848	0.007764
511.808422	0.006226
512.025977	0.007225
512.243515	0.007132
512.461034	0.007654
512.678536	0.008759
512.896018	0.009585
513.113483	0.009488
513.330930	0.011148
513.548358	0.010575
513.765768	0.011576
513.983160	0.009954
514.200533	0.011151
514.417889	0.010654
514.635226	0.010433
514.852545	0.009522
515.069845	0.010770
515.287128	0.010485
515.504392	0.011177
515.721638	0.009484
515.938866	0.010552
516.156075	0.010751
516.373267	0.011540
516.590440	0.010267
516.807594	0.010935
517.024731	0.009229
517.241850	0.009221
517.458950	0.009378
517.676032	0.012463
517.893095	0.011885
518.110141	0.010461
518.327168	0.010219
518.544177	0.011210
518.761168	0.012380
518.978141	0.012814
519.195095	0.012058
519.412031	0.011750
519.628949	0.010789
519.845849	0.010555
520.062731	0.010613
520.279594	0.010012
520.496439	0.010549
520.713266	0.009936
520.930074	0.010111
521.146865	0.010056
521.363637	0.009095
521.580391	0.009888
521.797127	0.010532
522.013844	0.010461
522.230543	0.010508
522.447224	0.009821
522.663887	0.009502
522.880532	0.009922
523.097158	0.010813
523.313766	0.011555
523.530356	0.010889
523.746928	0.010272
523.963481	0.010682
524.180017	0.011827
524.396534	0.011954
524.613032	0.011030
524.829513	0.010325
525.045975	0.009323
525.262420	0.008868
525.478845	0.008356
525.695253	0.008357
525.911643	0.008628
526.128014	0.007332
526.344367	0.007135
526.560702	0.008298
526.777018	0.008556
526.993316	0.008762
527.209597	0.008906
527.425858	0.008519
527.642102	0.008839
527.858328	0.008800
528.074535	0.008679
528.290724	0.008749
528.506894	0.008050
528.723047	0.007493
528.939181	0.007165
529.155297	0.006281
529.371395	0.007036
529.587475	0.007716
529.803536	0.007763
530.019579	0.008236
530.235604	0.008406
530.451611	0.008619
530.667600	0.008877
530.883570	0.008662
531.099522	0.009855
531.315456	0.010252
531.531372	0.009348
531.747269	0.009911
531.963148	0.008947
532.179009	0.008827
532.394852	0.008573
532.610676	0.009653
532.826482	0.010366
533.042271	0.009847
533.258040	0.009450
533.473792	0.009242
533.689525	0.008394
533.905240	0.009523
534.120937	0.010505
534.336616	0.010436
534.552277	0.009461
534.767919	0.009766
534.983543	0.010152
535.199149	0.009951
535.414736	0.010186
535.630306	0.010040
535.845857	0.009744
536.061390	0.009238
536.276904	0.009522
536.492401	0.010419
536.707879	0.009930
536.923339	0.010078
537.138781	0.010511
537.354204	0.010362
537.569610	0.010744
537.784997	0.011063
538.000366	0.010959
538.215716	0.011262
538.431049	0.010372
538.646363	0.010587
538.861659	0.010315
539.076937	0.010010
539.292196	0.010719
539.507438	0.010668
539.722661	0.010585
539.937866	0.010450
540.153052	0.010406
540.368221	0.010377
540.583371	0.010560
540.798503	0.010859
541.013617	0.011404
541.228712	0.011458
541.443789	0.011676
541.658848	0.011982
541.873889	0.011698
542.088912	0.010809
542.303916	0.010602
542.518902	0.010214
542.733870	0.008882
542.948820	0.009170
543.163752	0.009020
543.378665	0.008914
543.593560	0.008691
543.808437	0.009018
544.023295	0.009850
544.238136	0.010112
544.452958	0.009965
544.667762	0.011654
544.882548	0.011113
545.097315	0.010587
545.312064	0.010559
545.526795	0.010555
545.741508	0.010542
545.956203	0.010073
546.170879	0.010020
546.385537	0.009924
546.600177	0.009577
546.814799	0.009439
547.029402	0.010005
547.243988	0.010207
547.458555	0.009647
547.673103	0.009541
547.887634	0.009370
548.102146	0.009910
548.316640	0.010121
548.531116	0.009849
548.745574	0.010202
548.960013	0.009957
549.174435	0.009538
549.388838	0.009927
549.603222	0.009770
549.817589	0.009823
550.031937	0.008930
550.246267	0.008879
550.460579	0.009000
550.674873	0.008214
550.889148	0.007920
551.103405	0.008190
551.317644	0.008346
551.531865	0.008831
551.746068	0.009377
551.960252	0.009676
552.174418	0.009938
552.388566	0.009994
552.602696	0.010325
552.816807	0.010471
553.030900	0.010774
553.244975	0.011113
553.459032	0.010565
553.673070	0.010256
553.887091	0.010298
554.101093	0.010094
554.315077	0.009817
554.529042	0.009812
554.742990	0.009916
554.956919	0.009453
555.170830	0.009189
555.384722	0.009460
555.598597	0.008792
555.812453	0.008654
556.026291	0.008970
556.240111	0.009024
556.453913	0.008724
556.667696	0.009155
556.881461	0.008704
557.095208	0.009022
557.308937	0.008998
557.522647	0.009810
557.736339	0.009952
557.950013	0.009878
558.163669	0.010159
558.377307	0.010365
558.590926	0.010357
558.804527	0.010953
559.018110	0.010227
559.231675	0.009954
559.445221	0.010278
559.658749	0.009947
559.872259	0.009619
560.085751	0.009703
560.299225	0.009814
560.512680	0.009328
560.726117	0.009344
560.939536	0.009332
561.152937	0.009829
561.366319	0.009228
561.579683	0.009345
561.793029	0.009725
562.006357	0.009345
562.219667	0.009037
562.432958	0.009349
562.646231	0.008739
562.859486	0.009359
563.072723	0.008970
563.285941	0.008958
563.499141	0.009253
563.712323	0.009280
563.925487	0.009751
564.138632	0.009930
564.351760	0.009313
564.564869	0.009621
564.777960	0.009003
564.991032	0.009740
565.204087	0.010199
565.417123	0.009785
565.630141	0.009896
565.843140	0.009548
566.056122	0.010331
566.269085	0.010592
566.482030	0.010460
566.694957	0.010323
566.907866	0.009433
567.120756	0.009206
567.333628	0.009385
567.546482	0.008638
567.759318	0.008333
567.972135	0.007766
568.184935	0.007775
568.397716	0.008190
568.610478	0.008074
568.823223	0.007939
569.035949	0.007872
569.248657	0.007886
569.461347	0.008262
569.674019	0.008789
569.886672	0.008621
570.099308	0.008724
570.311925	0.008653
570.524523	0.008873
570.737104	0.009369
570.949666	0.009048
571.162210	0.009007
571.374736	0.008917
571.587244	0.008884
571.799733	0.009309
572.012205	0.009392
572.224658	0.009437
572.437092	0.010044
572.649509	0.009766
572.861907	0.009938
573.074287	0.010102
573.286649	0.010176
573.498993	0.009604
573.711318	0.008582
573.923625	0.008998
574.135914	0.008771
574.348185	0.008126
574.560438	0.007978
574.772672	0.007493
574.984888	0.007021
575.197086	0.006984
575.409266	0.007565
575.621427	0.008018
575.833570	0.007328
576.045695	0.007506
576.257802	0.007274
576.469890	0.007295
576.681961	0.007724
576.894013	0.008087
577.106046	0.007846
577.318062	0.006975
577.530059	0.007280
577.742039	0.006690
577.954000	0.006501
578.165942	0.006933
578.377867	0.006855
578.589773	0.006566
578.801661	0.007080
579.013531	0.007473
579.225382	0.008143
579.437216	0.007837
579.649031	0.008422
579.860828	0.008323
580.072606	0.008560
580.284367	0.008633
580.496109	0.008536
580.707833	0.008151
580.919539	0.007722
581.131227	0.007930
581.342896	0.008003
581.554547	0.007601
581.766180	0.007404
581.977795	0.007301
582.189391	0.007128
582.400969	0.007419
582.612529	0.007257
582.824071	0.007445
583.035595	0.006703
583.247100	0.007165
583.458587	0.006972
583.670056	0.006942
583.881506	0.006563
584.092939	0.006899
584.304353	0.006454
584.515749	0.006399
584.727127	0.006738
584.938486	0.007256
585.149828	0.006594
585.361151	0.007328
585.572456	0.007556
585.783742	0.007795
585.995011	0.007733
586.206261	0.008144
586.417493	0.007921
586.628706	0.007022
586.839902	0.006644
587.051079	0.007003
587.262238	0.006985
587.473379	0.007276
587.684502	0.007619
587.895606	0.007745
588.106692	0.008338
588.317760	0.008705
588.528810	0.009404
588.739841	0.009675
588.950855	0.009914
589.161850	0.009834
589.372827	0.009361
589.583785	0.009046
589.794726	0.009176
590.005648	0.009107
590.216552	0.009138
590.427437	0.009195
590.638305	0.009389
590.849154	0.009112
591.059985	0.008830
591.270798	0.009568
591.481592	0.009557
591.692369	0.009146
591.903127	0.008523
592.113867	0.008305
592.324588	0.008428
592.535292	0.008238
592.745977	0.007852
592.956644	0.007952
593.167293	0.007095
593.377923	0.006848
593.588536	0.007133
593.799130	0.007039
594.009706	0.006467
594.220263	0.005739
594.430803	0.005737
594.641324	0.005999
594.851827	0.005655
595.062312	0.005935
595.272778	0.005933
595.483227	0.006052
595.693657	0.006732
595.904069	0.007418
596.114462	0.008364
596.324838	0.008190
596.535195	0.007884
596.745534	0.008231
596.955855	0.008327
597.166157	0.008813
597.376441	0.008484
597.586707	0.008625
597.796955	0.008595
598.007185	0.007938
598.217396	0.008118
598.427589	0.008641
598.637764	0.008379
598.847921	0.008052
599.058060	0.007727
599.268180	0.007672
599.478282	0.007111
599.688366	0.007039
599.898431	0.007273
600.108479	0.007228
600.318508	0.006811
600.528519	0.006521
600.738511	0.006731
600.948486	0.006312
601.158442	0.006176
601.368380	0.006026
601.578300	0.006303
601.788202	0.006409
601.998085	0.006536
602.207950	0.006467
602.417797	0.006984
602.627626	0.006963
602.837436	0.007531
603.047228	0.007757
603.257002	0.008431
603.466758	0.008486
603.676496	0.008068
603.886215	0.007893
604.095916	0.008120
604.305599	0.008043
604.515264	0.007963
604.724910	0.007961
604.934538	0.007641
605.144148	0.007000
605.353740	0.006516
605.563314	0.006946
605.772869	0.006993
605.982406	0.006907
606.191925	0.006837
606.401425	0.006899
606.610908	0.006560
606.820372	0.006775
607.029818	0.006642
607.239246	0.006664
607.448655	0.006418
607.658047	0.006415
607.867420	0.006365
608.076775	0.006694
608.286111	0.006625
608.495430	0.006669
608.704730	0.007040
608.914012	0.007350
609.123275	0.007591
609.332521	0.007742
609.541748	0.007802
609.750957	0.007925
609.960148	0.008064
610.169321	0.008237
610.378475	0.008662
610.587611	0.008181
610.796729	0.007945
611.005829	0.008100
611.214910	0.007707
611.423974	0.007416
611.633019	0.007310
611.842045	0.007011
612.051054	0.006716
612.260044	0.006339
612.469017	0.006505
612.677970	0.006699
612.886906	0.006481
613.095824	0.007027
613.304723	0.007363
613.513604	0.007789
613.722467	0.007966
613.931311	0.008367
614.140138	0.008488
614.348946	0.008776
614.557736	0.008836
614.766507	0.009235
614.975261	0.008870
615.183996	0.009099
615.392713	0.008775
615.601412	0.008671
615.810092	0.008230
616.018754	0.007665
616.227399	0.007129
616.436024	0.007113
616.644632	0.006641
616.853222	0.007027
617.061793	0.006606
617.270346	0.006847
617.478880	0.007117
617.687397	0.007418
617.895895	0.008041
618.104375	0.008188
618.312837	0.007955
618.521281	0.007984
618.729706	0.007459
618.938113	0.007090
619.146502	0.006406
619.354873	0.005953
619.563226	0.005807
619.771560	0.005465
619.979876	0.005020
620.188174	0.004963
620.396453	0.004897
620.604715	0.004894
620.812958	0.005370
621.021183	0.005920
621.229390	0.006179
621.437578	0.005934
621.645748	0.006054
621.853900	0.006591
622.062034	0.007193
622.270150	0.007501
622.478247	0.007485
622.686326	0.007253
622.894387	0.006932
623.102430	0.006669
623.310454	0.007137
623.518461	0.007241
623.726449	0.007342
623.934418	0.006623
624.142370	0.006169
624.350303	0.006643
624.558218	0.006746
624.766115	0.007065
624.973994	0.007041
625.181855	0.007094
625.389697	0.007035
625.597521	0.006913
625.805327	0.007154
626.013114	0.007476
626.220883	0.007280
626.428634	0.007274
626.636367	0.007230
626.844082	0.007612
627.051778	0.007240
627.259457	0.006999
627.467117	0.006852
627.674758	0.006747
627.882382	0.006477
628.089987	0.006561
628.297574	0.006499
628.505143	0.006248
628.712694	0.006070
628.920226	0.006269
629.127740	0.006600
629.335236	0.006716
629.542714	0.006948
629.750174	0.007269
629.957615	0.006924
630.165038	0.007234
630.372443	0.007475
630.579829	0.007352
630.787198	0.007729
630.994548	0.007544
631.201880	0.007488
631.409194	0.007634
631.616489	0.007266
631.823766	0.007520
632.031025	0.007219
632.238266	0.007086
632.445489	0.007221
632.652693	0.006775
632.859879	0.006240
633.067047	0.006185
633.274197	0.005667
633.481329	0.005815
633.688442	0.005800
633.895537	0.005914
634.102614	0.005734
634.309672	0.005365
634.516713	0.005468
634.723735	0.006283
634.930739	0.006169
635.137724	0.006194
635.344692	0.006111
635.551641	0.006373
635.758572	0.006217
635.965485	0.006504
636.172379	0.006855
636.379256	0.006798
636.586114	0.006759
636.792954	0.007053
636.999775	0.007123
637.206579	0.007187
637.413364	0.006741
637.620131	0.006818
637.826880	0.006941
638.033610	0.006941
638.240323	0.007217
638.447017	0.007092
638.653692	0.006947
638.860350	0.007336
639.066990	0.007389
639.273611	0.007320
639.480214	0.007459
639.686798	0.006985
639.893365	0.006995
640.099913	0.006683
640.306443	0.006753
640.512955	0.006727
640.719449	0.006753
640.925924	0.006960
641.132381	0.007251
641.338820	0.007345
641.545241	0.007718
641.751644	0.007516
641.958028	0.007678
642.164394	0.007584
642.370742	0.007863
642.577071	0.007722
642.783383	0.007458
642.989676	0.007182
643.195951	0.006922
643.402207	0.006752
643.608446	0.006974
643.814666	0.006804
644.020868	0.006922
644.227052	0.006894
644.433218	0.006888
644.639365	0.006726
644.845494	0.006730
645.051605	0.006923
645.257698	0.007176
645.463772	0.006845
645.669828	0.006894
645.875866	0.006725
646.081886	0.006526
646.287888	0.006281
646.493871	0.006352
646.699836	0.006253
646.905783	0.006207
647.111712	0.006072
647.317622	0.006134
647.523514	0.006075
647.729388	0.006013
647.935244	0.006073
648.141082	0.006260
648.346901	0.006239
648.552702	0.006525
648.758485	0.006596
648.964250	0.006158
649.169996	0.006123
649.375724	0.006124
649.581434	0.006124
649.787126	0.005905
649.992800	0.005812
650.198455	0.006047
650.404092	0.006345
650.609711	0.006108
650.815311	0.006629
651.020894	0.006795
651.226458	0.006697
651.432004	0.006594
651.637532	0.006758
651.843041	0.006659
652.048532	0.006650
652.254006	0.006471
652.459460	0.006513
652.664897	0.006192
652.870315	0.006276
653.075716	0.006655
653.281097	0.007284
653.486461	0.007312
653.691807	0.007648
653.897134	0.007587
654.102443	0.007317
654.307734	0.007201
654.513006	0.007534
654.718261	0.007688
654.923497	0.007341
655.128715	0.006595
655.333915	0.006341
655.539096	0.006198
655.744259	0.005870
655.949404	0.005843
656.154531	0.006132
656.359640	0.005849
656.564730	0.005722
656.769802	0.005871
656.974856	0.006099
657.179892	0.006207
657.384909	0.006129
657.589908	0.006305
657.794889	0.006374
657.999852	0.006136
658.204797	0.006427
658.409723	0.006420
658.614631	0.006621
658.819521	0.006673
659.024393	0.006705
659.229246	0.006668
659.434081	0.006790
659.638898	0.007161
659.843697	0.007212
660.048478	0.007268
660.253240	0.007470
660.457984	0.007313
660.662710	0.007524
660.867417	0.007747
661.072107	0.007975
661.276778	0.007961
661.481431	0.007608
661.686066	0.007488
661.890682	0.007449
662.095281	0.007367
662.299861	0.007336
662.504422	0.007091
662.708966	0.006938
662.913491	0.006682
663.117999	0.006835
663.322488	0.006584
663.526958	0.006644
663.731411	0.006528
663.935845	0.006245
664.140261	0.006106
664.344659	0.006116
664.549038	0.006221
664.753400	0.006399
664.957743	0.006346
665.162068	0.006532
665.366375	0.006410
665.570663	0.006111
665.774933	0.006068
665.979185	0.006384
666.183419	0.006232
666.387635	0.006209
666.591832	0.006172
666.796011	0.006244
667.000172	0.006506
667.204315	0.006786
667.408439	0.007073
667.612545	0.007295
667.816634	0.007064
668.020703	0.007244
668.224755	0.007421
668.428788	0.007411
668.632803	0.007485
668.836800	0.007250
669.040779	0.007165
669.244739	0.006944
669.448681	0.006772
669.652605	0.006794
669.856511	0.006608
670.060399	0.006561
670.264268	0.006455
670.468119	0.006121
670.671952	0.006101
670.875767	0.005891
671.079563	0.006216
671.283341	0.006293
671.487101	0.006310
671.690843	0.006740
671.894567	0.006739
672.098272	0.006999
672.301959	0.007132
672.505628	0.007344
672.709278	0.007608
672.912911	0.007622
673.116525	0.007587
673.320121	0.007422
673.523699	0.007379
673.727258	0.007488
673.930799	0.007354
674.134322	0.007814
674.337827	0.007716
674.541314	0.007860
674.744782	0.007756
674.948232	0.008088
675.151664	0.008528
675.355078	0.008421
675.558474	0.008394
675.761851	0.008492
675.965210	0.008171
676.168551	0.007982
676.371873	0.007991
676.575178	0.008052
676.778464	0.007970
676.981732	0.007906
677.184981	0.007646
677.388213	0.007542
677.591426	0.007448
677.794621	0.007184
677.997798	0.007376
678.200956	0.007230
678.404097	0.007404
678.607219	0.007457
678.810323	0.007178
679.013408	0.007364
679.216476	0.007215
679.419525	0.007129
679.622556	0.007269
679.825569	0.007291
680.028563	0.007246
680.231540	0.007276
680.434498	0.007211
680.637438	0.007463
680.840359	0.007455
681.043263	0.007692
681.246148	0.007939
681.449015	0.007974
681.651864	0.008014
681.854694	0.007923
682.057506	0.007646
682.260301	0.007449
682.463076	0.007463
682.665834	0.007852
682.868573	0.008034
683.071295	0.008035
683.273998	0.008270
683.476682	0.008352
683.679349	0.008653
683.881997	0.008698
684.084627	0.008813
684.287239	0.008553
684.489833	0.008073
684.692408	0.007638
684.894965	0.007522
685.097504	0.007441
685.300025	0.007537
685.502527	0.007650
685.705012	0.007584
685.907478	0.007582
686.109925	0.007788
686.312355	0.008001
686.514766	0.007909
686.717159	0.007771
686.919534	0.007816
687.121891	0.007575
687.324230	0.007444
687.526550	0.007555
687.728852	0.007602
687.931136	0.007565
688.133401	0.007524
688.335649	0.007825
688.537878	0.008053
688.740089	0.008072
688.942281	0.008366
689.144456	0.008197
689.346612	0.008347
689.548750	0.008544
689.750870	0.008669
689.952971	0.008886
690.155055	0.008885
690.357120	0.008927
690.559167	0.008616
690.761195	0.008218
690.963206	0.007988
691.165198	0.007682
691.367172	0.007366
691.569128	0.007265
691.771065	0.006890
691.972984	0.006695
692.174885	0.006660
692.376768	0.006615
692.578633	0.006776
692.780479	0.007153
692.982308	0.007321
693.184118	0.007502
693.385909	0.007545
693.587683	0.007572
693.789438	0.007743
693.991175	0.007703
694.192894	0.007917
694.394595	0.007825
694.596277	0.007772
694.797941	0.007651
694.999587	0.007670
695.201215	0.007770
695.402824	0.008030
695.604416	0.008285
695.805989	0.008477
696.007543	0.008590
696.209080	0.008967
696.410598	0.009187
696.612099	0.009141
696.813580	0.008920
697.015044	0.008966
697.216490	0.008878
697.417917	0.008730
697.619326	0.008451
697.820717	0.008307
698.022089	0.008349
698.223444	0.008091
698.424780	0.008221
698.626098	0.008027
698.827397	0.007803
699.028679	0.007630
699.229942	0.007535
699.431187	0.007658
699.632414	0.007626
699.833622	0.007464
700.034813	0.007220
700.235985	0.007397
700.437139	0.007747
700.638274	0.007632
700.839392	0.007932
701.040491	0.007729
701.241572	0.007817
701.442635	0.007829
701.643679	0.007657
701.844706	0.007946
702.045714	0.007799
702.246704	0.007583
702.447675	0.007659
702.648629	0.007356
702.849564	0.007551
703.050481	0.007393
703.251380	0.007621
703.452260	0.007649
703.653122	0.007687
703.853966	0.007762
704.054792	0.008112
704.255600	0.008131
704.456389	0.008031
704.657160	0.007875
704.857913	0.007789
705.058648	0.007710
705.259365	0.007717
705.460063	0.008012
705.660743	0.008220
705.861405	0.007990
706.062048	0.008166
706.262674	0.008518
706.463281	0.008643
706.663870	0.008643
706.864441	0.008676
707.064993	0.008774
707.265527	0.008324
707.466043	0.008138
707.666541	0.008106
707.867021	0.007891
708.067482	0.008068
708.267925	0.008093
708.468350	0.007982
708.668757	0.007948
708.869145	0.007707
709.069516	0.007896
709.269868	0.007611
709.470201	0.007567
709.670517	0.007547
709.870814	0.007361
710.071093	0.007563
710.271354	0.007737
710.471597	0.007787
710.671821	0.007637
710.872028	0.007766
711.072216	0.007956
711.272385	0.008082
711.472537	0.008096
711.672670	0.007977
711.872785	0.007633
712.072882	0.007687
712.272961	0.007486
712.473021	0.007845
712.673063	0.007758
712.873087	0.007755
713.073093	0.007757
713.273081	0.007564
713.473050	0.007514
713.673001	0.007539
713.872934	0.007537
714.072849	0.007516
714.272745	0.007316
714.472623	0.007061
714.672483	0.006811
714.872325	0.006585
715.072148	0.006545
715.271954	0.006267
715.471741	0.006162
715.671509	0.006007
715.871260	0.005945
716.070992	0.006151
716.270707	0.006133
716.470403	0.006330
716.670080	0.006416
716.869740	0.006510
717.069381	0.006525
717.269004	0.006761
717.468609	0.006755
717.668195	0.006877
717.867764	0.006871
718.067314	0.007019
718.266846	0.006875
718.466360	0.006950
718.665855	0.006735
718.865332	0.007075
719.064791	0.006773
719.264232	0.006809
719.463655	0.006948
719.663059	0.006818
719.862445	0.006950
720.061813	0.007108
720.261163	0.007050
720.460494	0.007231
720.659807	0.007071
720.859102	0.007099
721.058379	0.006782
721.257638	0.006362
721.456878	0.006449
721.656100	0.005943
721.855304	0.005659
722.054490	0.005621
722.253657	0.005566
722.452806	0.005406
722.651937	0.005367
722.851050	0.005562
723.050145	0.005563
723.249221	0.005318
723.448279	0.005341
723.647319	0.005056
723.846340	0.004689
724.045344	0.004622
724.244329	0.004559
724.443296	0.004360
724.642245	0.004185
724.841175	0.004119
725.040088	0.003967
725.238982	0.003753
725.437857	0.003764
725.636715	0.003855
725.835554	0.003951
726.034376	0.003676
726.233179	0.003893
726.431963	0.003895
726.630730	0.003792
726.829478	0.003476
727.028208	0.003609
727.226920	0.003773
727.425614	0.003651
727.624289	0.003665
727.822946	0.004075
728.021585	0.003622
728.220206	0.003510
728.418808	0.003771
728.617392	0.004051
728.815958	0.004167
729.014506	0.004307
729.213036	0.004366
729.411547	0.004205
729.610040	0.004231
729.808515	0.004583
730.006972	0.004762
730.205410	0.004655
730.403831	0.004710
730.602233	0.004933
730.800616	0.004850
730.998982	0.004840
731.197329	0.004711
731.395658	0.004450
731.593969	0.004267
731.792262	0.004138
731.990536	0.003935
732.188793	0.003868
732.387031	0.003387
732.585250	0.003126
732.783452	0.003204
732.981635	0.002966
733.179800	0.002921
733.377947	0.003121
733.576076	0.003326
733.774186	0.003049
733.972278	0.002903
734.170352	0.002920
734.368408	0.003047
734.566446	0.003134
734.764465	0.003612
734.962466	0.003680
735.160449	0.003591
735.358413	0.003496
735.556360	0.003763
735.754288	0.003498
735.952198	0.003500
736.150090	0.003410
736.347963	0.003375
736.545818	0.003054
736.743655	0.002984
736.941474	0.003118
737.139275	0.002983
737.337057	0.003062
737.534821	0.003645
737.732567	0.003372
737.930295	0.003339
738.128005	0.003438
738.325696	0.003255
738.523369	0.003105
738.721024	0.003129
738.918660	0.003308
739.116279	0.003031
739.313879	0.002770
739.511461	0.003105
739.709024	0.002894
739.906570	0.002414
740.104097	0.002883
740.301606	0.003306
740.499097	0.003145
740.696569	0.003078
740.894024	0.003207
741.091460	0.003149
741.288878	0.003200
741.486277	0.003860
741.683659	0.004181
741.881022	0.003798
742.078367	0.003429
742.275694	0.003383
742.473002	0.003254
742.670293	0.003232
742.867565	0.003198
743.064819	0.003061
743.262054	0.002493
743.459272	0.002396
743.656471	0.002639
743.853652	0.002788
744.050815	0.002750
744.247959	0.002612
744.445085	0.002747
744.642194	0.002651
744.839283	0.002676
745.036355	0.002644
745.233408	0.002733
745.430444	0.002546
745.627461	0.002462
745.824459	0.002203
746.021440	0.002166
746.218402	0.001833
746.415346	0.001742
746.612272	0.001754
746.809180	0.001861
747.006069	0.001914
747.202940	0.002063
747.399793	0.001816
747.596628	0.002089
747.793444	0.002147
747.990243	0.002578
748.187023	0.002487
748.383784	0.002168
748.580528	0.001997
748.777253	0.001682
748.973960	0.001330
749.170649	0.001427
749.367320	0.001282
749.563973	0.001391
749.760607	0.001224
749.957223	0.001574
750.153821	0.001850
750.350400	0.001885
750.546962	0.001656
750.743505	0.001731
750.940030	0.001546
751.136536	0.001593
751.333025	0.001255
751.529495	0.001208
751.725947	0.000942
751.922381	0.000786
752.118796	0.001003
752.315194	0.001157
752.511573	0.001177
752.707934	0.001467
752.904276	0.001543
753.100601	0.001936
753.296907	0.001891
753.493195	0.002106
753.689465	0.002219
753.885716	0.002410
754.081949	0.002665
754.278164	0.002738
754.474361	0.002560
754.670540	0.002681
754.866700	0.002744
755.062843	0.002857
755.258967	0.002749
755.455072	0.002914
755.651160	0.002700
755.847229	0.002672
756.043280	0.002689
756.239313	0.002810
756.435328	0.002353
756.631324	0.001996
756.827302	0.001957
757.023262	0.002210
757.219204	0.002101
757.415127	0.002161
757.611033	0.002111
757.806920	0.002175
758.002788	0.002418
758.198639	0.002557
758.394471	0.002876
758.590286	0.002927
758.786081	0.002600
758.981859	0.002514
759.177619	0.002570
759.373360	0.002715
759.569083	0.002734
759.764788	0.002544
759.960474	0.002629
760.156143	0.002515
760.351793	0.002666
760.547425	0.002640
760.743038	0.002925
760.938634	0.002855
761.134211	0.002887
761.329770	0.002923
761.525311	0.002965
761.720833	0.003099
761.916338	0.002978
762.111824	0.002814
762.307292	0.003277
762.502741	0.002900
762.698173	0.003052
762.893586	0.002640
763.088981	0.002474
763.284358	0.002447
763.479716	0.002216
763.675057	0.002452
763.870379	0.002505
764.065683	0.002379
764.260968	0.002784
764.456236	0.002480
764.651485	0.002668
764.846716	0.002737
765.041929	0.002898
765.237123	0.003002
765.432299	0.002996
765.627457	0.002652
765.822597	0.002299
766.017719	0.001946
766.212822	0.002164
766.407907	0.002153
766.602974	0.002165
766.798023	0.001921
766.993054	0.001730
767.188066	0.001724
767.383060	0.002207
767.578036	0.002405
767.772993	0.002720
767.967933	0.002744
768.162854	0.002661
768.357757	0.002605
768.552642	0.002500
768.747508	0.002742
768.942356	0.002715
769.137186	0.002229
769.331998	0.002306
769.526792	0.001891
769.721567	0.001893
769.916324	0.002094
770.111063	0.001982
770.305784	0.002115
770.500486	0.001974
770.695171	0.002029
770.889837	0.002178
771.084484	0.002099
771.279114	0.002239
771.473725	0.001925
771.668318	0.001608
771.862893	0.001526
772.057450	0.001526
772.251988	0.001795
772.446509	0.001319
772.641011	0.001479
772.835494	0.001394
773.029960	0.001492
773.224407	0.001615
773.418836	0.001877
773.613247	0.002196
773.807640	0.002267
774.002014	0.002189
774.196370	0.002364
774.390708	0.002395
774.585028	0.002365
774.779330	0.002405
774.973613	0.002362
775.167878	0.002236
775.362125	0.002156
775.556354	0.002099
775.750564	0.002040
775.944756	0.002221
776.138930	0.002141
776.333086	0.002179
776.527223	0.002072
776.721343	0.002128
776.915444	0.002310
777.109526	0.002468
777.303591	0.002496
777.497637	0.002382
777.691666	0.002468
777.885676	0.002408
778.079667	0.002418
778.273641	0.002436
778.467596	0.002378
778.661533	0.002175
778.855452	0.002354
779.049352	0.002219
779.243235	0.002026
779.437099	0.001785
779.630945	0.001715
779.824773	0.001748
780.018582	0.001631
780.212373	0.001719
780.406146	0.001911
780.599901	0.001369
780.793638	0.001627
780.987356	0.002077
781.181056	0.002145
781.374738	0.002359
781.568402	0.002397
781.762047	0.002945
781.955674	0.003113
782.149283	0.003199
782.342874	0.003375
782.536447	0.003299
782.730001	0.003081
782.923537	0.003276
783.117055	0.003091
783.310555	0.003080
783.504036	0.002780
783.697499	0.002484
783.890944	0.002486
784.084371	0.002331
784.277780	0.002490
784.471170	0.002438
784.664542	0.002215
784.857896	0.002272
785.051231	0.002267
785.244549	0.002471
785.437848	0.002542
785.631129	0.002539
785.824392	0.002639
786.017636	0.002458
786.210863	0.002382
786.404071	0.002281
786.597260	0.002278
786.790432	0.002258
786.983585	0.001773
787.176721	0.001960
787.369838	0.001668
787.562936	0.001785
787.756017	0.002053
787.949079	0.002083
788.142123	0.002117
788.335149	0.001983
788.528156	0.002048
788.721146	0.002131
788.914117	0.002029
789.107070	0.002353
789.300005	0.002456
789.492921	0.002082
789.685819	0.002319
789.878699	0.002498
790.071561	0.002463
790.264405	0.002538
790.457230	0.002396
790.650037	0.002583
790.842826	0.002403
791.035597	0.002322
791.228349	0.002226
791.421084	0.002141
791.613800	0.001880
791.806497	0.002063
791.999177	0.002105
792.191838	0.002312
792.384481	0.002204
792.577106	0.002024
792.769713	0.001947
792.962301	0.002070
793.154871	0.002108
793.347423	0.002389
793.539957	0.002221
793.732473	0.001968
793.924970	0.002181
794.117449	0.001676
794.309910	0.001449
794.502353	0.001383
794.694777	0.001668
794.887183	0.001629
795.079571	0.001550
795.271941	0.001708
795.464293	0.001733
795.656626	0.001664
795.848941	0.002103
796.041238	0.002535
796.233516	0.002558
796.425777	0.002146
796.618019	0.001911
796.810243	0.001837
797.002449	0.001780
797.194636	0.001751
797.386805	0.001374
797.578956	0.001072
797.771089	0.000914
797.963204	0.000567
798.155300	0.000557
798.347378	0.000611
798.539438	0.000826
798.731480	0.001111
798.923503	0.001063
799.115509	0.001388
799.307496	0.001673
799.499465	0.001888
799.691415	0.002242
799.883348	0.002517
800.075262	0.002902
800.267158	0.002874
800.459035	0.002581
800.650895	0.002956
800.842736	0.003010
801.034559	0.002926
801.226364	0.002944
801.418150	0.003016
801.609919	0.003074
801.801669	0.002867
801.993401	0.002978
802.185114	0.002833
802.376810	0.002481
802.568487	0.002203
802.760146	0.002406
802.951787	0.002381
803.143409	0.002362
803.335014	0.002253
803.526600	0.002486
803.718168	0.002639
803.909717	0.002700
804.101249	0.002622
804.292762	0.003020
804.484257	0.002639
804.675734	0.002398
804.867192	0.002436
805.058632	0.002491
805.250054	0.002347
805.441458	0.001951
805.632844	0.002381
805.824211	0.002628
806.015561	0.002463
806.206891	0.002603
806.398204	0.002964
806.589499	0.003078
806.780775	0.003080
806.972033	0.003087
807.163273	0.002832
807.354495	0.002721
807.545698	0.002719
807.736883	0.002763
807.928050	0.003260
808.119199	0.003313
808.310329	0.003409
808.501441	0.003391
808.692535	0.003449
808.883611	0.003967
809.074669	0.003983
809.265708	0.004063
809.456729	0.004080
809.647732	0.004126
809.838717	0.004084
810.029683	0.003701
810.220632	0.003699
810.411562	0.003466
810.602474	0.003364
810.793367	0.003396
810.984242	0.003522
811.175100	0.003683
811.365938	0.003213
811.556759	0.003180
811.747562	0.003638
811.938346	0.003641
812.129112	0.003974
812.319860	0.003872
812.510589	0.003857
812.701300	0.003873
812.891994	0.004241
813.082668	0.004584
813.273325	0.004389
813.463964	0.004201
813.654584	0.004385
813.845186	0.004401
814.035769	0.004722
814.226335	0.004627
814.416882	0.004864
814.607411	0.004407
814.797922	0.004567
814.988415	0.004682
815.178889	0.004767
815.369345	0.004635
815.559783	0.004784
815.750203	0.004427
815.940605	0.004745
816.130988	0.004395
816.321353	0.004360
816.511700	0.004069
816.702028	0.003995
816.892339	0.003850
817.082631	0.004289
817.272905	0.004110
817.463161	0.004235
817.653398	0.004049
817.843617	0.004199
818.033819	0.004160
818.224001	0.004076
818.414166	0.004365
818.604312	0.004658
818.794440	0.004420
818.984550	0.004241
819.174642	0.004257
819.364716	0.003837
819.554771	0.003748
819.744808	0.003743
819.934827	0.003758
820.124827	0.003168
820.314810	0.002834
820.504774	0.002659
820.694720	0.002699
820.884647	0.002623
821.074557	0.002852
821.264448	0.003069
821.454321	0.003107
821.644176	0.003047
821.834012	0.003510
822.023831	0.003518
822.213631	0.003591
822.403413	0.003537
822.593176	0.003669
822.782922	0.003615
822.972649	0.003511
823.162358	0.003332
823.352049	0.003581
823.541721	0.003534
823.731376	0.003599
823.921012	0.003607
824.110629	0.003552
824.300229	0.003599
824.489811	0.003802
824.679374	0.003759
824.868919	0.003963
825.058445	0.003710
825.247954	0.003535
825.437444	0.003677
825.626916	0.003756
825.816370	0.004262
826.005806	0.004202
826.195223	0.004020
826.384622	0.003985
826.574003	0.004077
826.763366	0.004039
826.952711	0.004089
827.142037	0.003863
827.331345	0.003614
827.520635	0.003219
827.709906	0.002742
827.899160	0.002705
828.088395	0.002647
828.277612	0.002693
828.466810	0.003083
828.655991	0.003269
828.845153	0.003129
829.034297	0.002772
829.223423	0.002956
829.412531	0.003605
829.601620	0.003896
829.790691	0.004072
829.979744	0.003471
830.168779	0.003144
830.357795	0.002970
830.546793	0.002857
830.735773	0.003063
830.924735	0.002607
831.113679	0.002358
831.302604	0.002322
831.491511	0.001709
831.680400	0.002040
831.869271	0.002039
832.058123	0.001749
832.246957	0.002044
832.435773	0.002345
832.624571	0.002569
832.813351	0.002281
833.002112	0.002012
833.190855	0.002516
833.379580	0.002349
833.568287	0.001967
833.756975	0.001957
833.945645	0.001880
834.134297	0.001553
834.322931	0.001496
834.511547	0.001730
834.700144	0.001949
834.888723	0.001803
835.077284	0.001918
835.265826	0.002271
835.454351	0.002227
835.642857	0.002395
835.831345	0.002853
836.019815	0.002969
836.208266	0.002702
836.396699	0.002236
836.585114	0.002613
836.773511	0.003065
836.961890	0.003562
837.150250	0.003959
837.338592	0.003948
837.526916	0.003531
837.715222	0.003351
837.903510	0.003724
838.091779	0.004176
838.280030	0.003818
838.468263	0.003212
838.656477	0.002907
838.844674	0.002840
839.032852	0.003069
839.221012	0.003227
839.409153	0.003539
839.597277	0.003597
839.785382	0.003394
839.973469	0.003288
840.161538	0.003598
840.349589	0.003424
840.537621	0.003826
840.725635	0.003768
840.913631	0.003843
841.101609	0.003561
841.289568	0.003367
841.477509	0.003562
841.665432	0.003773
841.853337	0.003561
842.041224	0.003435
842.229092	0.003173
842.416942	0.003268
842.604774	0.003481
842.792588	0.003702
842.980383	0.003629
843.168160	0.003859
843.355919	0.003899
843.543660	0.004380
843.731382	0.004850
843.919087	0.004652
844.106773	0.004481
844.294441	0.004122
844.482090	0.003875
844.669722	0.003999
844.857335	0.004108
845.044930	0.004454
845.232507	0.004336
845.420065	0.004223
845.607605	0.004532
845.795127	0.004698
845.982631	0.004718
846.170117	0.005197
846.357584	0.005330
846.545033	0.005246
846.732464	0.005220
846.919877	0.005126
847.107272	0.005317
847.294648	0.005175
847.482006	0.005410
847.669346	0.005832
847.856667	0.005915
848.043971	0.006271
848.231256	0.006371
848.418523	0.006312
848.605771	0.007086
848.793002	0.007275
848.980214	0.007932
849.167408	0.007949
849.354584	0.007678
849.541742	0.007778
849.728881	0.007525
849.916002	0.007303
850.103105	0.007331
850.290190	0.006672
850.477256	0.006596
850.664304	0.006227
850.851334	0.006167
851.038346	0.006381
851.225340	0.006201
851.412315	0.006315
851.599272	0.006513
851.786211	0.006390
851.973132	0.006206
852.160034	0.006213
852.346918	0.006444
852.533784	0.006269
852.720632	0.006053
852.907462	0.005954
853.094273	0.005975
853.281066	0.006144
853.467841	0.005998
853.654598	0.006114
853.841336	0.005790
854.028056	0.005704
854.214758	0.005720
854.401442	0.006015
854.588107	0.006265
854.774755	0.006239
854.961384	0.005840
855.147995	0.005986
855.334587	0.005749
855.521162	0.006119
855.707718	0.005774
855.894256	0.006324
856.080775	0.006154
856.267277	0.006065
856.453760	0.006033
856.640225	0.006120
856.826672	0.006072
857.013101	0.006412
857.199511	0.006216
857.385903	0.006605
857.572277	0.006096
857.758633	0.006214
857.944970	0.006141
858.131290	0.006268
858.317591	0.006598
858.503873	0.006630
858.690138	0.006716
858.876384	0.006649
859.062612	0.006861
859.248822	0.007007
859.435014	0.007001
859.621188	0.006996
859.807343	0.006906
859.993480	0.006746
860.179599	0.006653
860.365699	0.006809
860.551781	0.007221
860.737846	0.007110
860.923891	0.006998
861.109919	0.007311
861.295929	0.007467
861.481920	0.007440
861.667893	0.007156
861.853848	0.006809
862.039784	0.006873
862.225702	0.006376
862.411603	0.005825
862.597484	0.005870
862.783348	0.005624
862.969193	0.005711
863.155021	0.005932
863.340830	0.006135
863.526620	0.007023
863.712393	0.006653
863.898147	0.007077
864.083883	0.007695
864.269601	0.007935
864.455301	0.008473
864.640982	0.008452
864.826645	0.008063
865.012290	0.008399
865.197917	0.008197
865.383526	0.008691
865.569116	0.008481
865.754688	0.008777
865.940242	0.008270
866.125777	0.008029
866.311295	0.008016
866.496794	0.007763
866.682275	0.007414
866.867737	0.007200
867.053182	0.007032
867.238608	0.007290
867.424016	0.006651
867.609406	0.007058
867.794778	0.006529
867.980131	0.006281
868.165466	0.006660
868.350783	0.006448
868.536082	0.006768
868.721362	0.007073
868.906625	0.007133
869.091869	0.006987
869.277094	0.006957
869.462302	0.007070
869.647491	0.007236
869.832662	0.007442
870.017815	0.007631
870.202950	0.007609
870.388066	0.007262
870.573165	0.006979
870.758245	0.007593
870.943306	0.007198
871.128350	0.007514
871.313375	0.007726
871.498382	0.007847
871.683371	0.008151
871.868342	0.008191
872.053294	0.008317
872.238229	0.008329
872.423144	0.008112
872.608042	0.008588
872.792922	0.008631
872.977783	0.008194
873.162626	0.008133
873.347451	0.007936
873.532258	0.007759
873.717046	0.008048
873.901816	0.007665
874.086568	0.007927
874.271302	0.008130
874.456017	0.007913
874.640715	0.008236
874.825394	0.008224
875.010055	0.008646
875.194697	0.008531
875.379322	0.007899
875.563928	0.008799
875.748516	0.008152
875.933085	0.008010
876.117637	0.008212
876.302170	0.008057
876.486685	0.008046
876.671182	0.007710
876.855661	0.007871
877.040121	0.008003
877.224563	0.007785
877.408987	0.008759
877.593393	0.008508
877.777780	0.008404
877.962150	0.008704
878.146501	0.009111
878.330833	0.009339
878.515148	0.009086
878.699444	0.009872
878.883722	0.009493
879.067982	0.009058
879.252224	0.009705
879.436447	0.009770
879.620653	0.009907
879.804840	0.009832
879.989008	0.009572
880.173159	0.009664
880.357291	0.009571
880.541405	0.010084
880.725501	0.010077
880.909579	0.009815
881.093638	0.009690
881.277680	0.009837
881.461703	0.009619
881.645707	0.009599
881.829694	0.009302
882.013662	0.008833
882.197612	0.008916
882.381544	0.009180
882.565458	0.009124
882.749353	0.009501
882.933230	0.009095
883.117089	0.009286
883.300930	0.009786
883.484753	0.010193
883.668557	0.010012
883.852343	0.009605
884.036111	0.009649
884.219861	0.009393
884.403592	0.009670
884.587305	0.009865
884.771000	0.009663
884.954677	0.009852
885.138335	0.010332
885.321976	0.010159
885.505598	0.010240
885.689201	0.009777
885.872787	0.010147
886.056354	0.009609
886.239904	0.009511
886.423434	0.009144
886.606947	0.008744
886.790442	0.009019
886.973918	0.009421
887.157376	0.008903
887.340816	0.009106
887.524237	0.009091
887.707641	0.009200
887.891026	0.009622
888.074393	0.010194
888.257741	0.010200
888.441072	0.009338
888.624384	0.009468
888.807678	0.010143
888.990954	0.010086
889.174211	0.009893
889.357451	0.009995
889.540672	0.009513
889.723875	0.009296
889.907059	0.009146
890.090226	0.009217
890.273374	0.009040
890.456504	0.008940
890.639616	0.008968
890.822709	0.008996
891.005785	0.009060
891.188842	0.008907
891.371881	0.009462
891.554901	0.009332
891.737904	0.009273
891.920888	0.009484
892.103854	0.009735
892.286802	0.010048
892.469731	0.010285
892.652643	0.010194
892.835536	0.010817
893.018410	0.010798
893.201267	0.011112
893.384106	0.011452
893.566926	0.011275
893.749728	0.010349
893.932511	0.009732
894.115277	0.009408
894.298024	0.009261
894.480753	0.008926
894.663464	0.008807
894.846157	0.008626
895.028831	0.008137
895.211487	0.007979
895.394125	0.008655
895.576745	0.009111
895.759346	0.009195
895.941930	0.009175
896.124495	0.009471
896.307041	0.008815
896.489570	0.008917
896.672080	0.009563
896.854573	0.010028
897.037046	0.010436
897.219502	0.009666
897.401940	0.009611
897.584359	0.010210
897.766760	0.009816
897.949143	0.010117
898.131507	0.009886
898.313854	0.009520
898.496182	0.009392
898.678492	0.009010
898.860783	0.009688
899.043057	0.009911
899.225312	0.009912
899.407549	0.009953
899.589768	0.010286
899.771968	0.010338
899.954151	0.010118
900.136315	0.010377
900.318461	0.009596
900.500588	0.009705
900.682698	0.009108
900.864789	0.007975
901.046862	0.008654
901.228917	0.008168
901.410953	0.007966
901.592971	0.008354
901.774972	0.008196
901.956953	0.008945
902.138917	0.008592
902.320862	0.008798
902.502790	0.009232
902.684699	0.008830
902.866589	0.008731
903.048462	0.009168
903.230316	0.009105
903.412152	0.008793
903.593970	0.008565
903.775770	0.008314
903.957551	0.008734
904.139314	0.009052
904.321059	0.008444
904.502786	0.008870
904.684494	0.008887
904.866185	0.009313
905.047857	0.009379
905.229510	0.009554
905.411146	0.010068
905.592763	0.009602
905.774363	0.009166
905.955943	0.010005
906.137506	0.009058
906.319051	0.008804
906.500577	0.008433
906.682085	0.008105
906.863575	0.008159
907.045046	0.007556
907.226500	0.007433
907.407935	0.007511
907.589352	0.006765
907.770750	0.007182
907.952131	0.007092
908.133493	0.006352
908.314837	0.005970
908.496163	0.005596
908.677470	0.006110
908.858760	0.006414
909.040031	0.006751
909.221284	0.006603
909.402518	0.006755
909.583735	0.007173
909.764933	0.007091
909.946113	0.006947
910.127275	0.006669
910.308418	0.005725
910.489544	0.005907
910.670651	0.005244
910.851740	0.005042
911.032810	0.005032
911.213863	0.004585
911.394897	0.004391
911.575913	0.004815
911.756911	0.004900
911.937890	0.004719
912.118851	0.004910
912.299794	0.005489
912.480719	0.005333
912.661626	0.005493
912.842514	0.005711
913.023384	0.005997
913.204236	0.006427
913.385070	0.006088
913.565886	0.006521
913.746683	0.005935
913.927462	0.005120
914.108223	0.005453
914.288965	0.004809
914.469690	0.004356
914.650396	0.004492
914.831084	0.003995
915.011754	0.004293
915.192405	0.004027
915.373038	0.003706
915.553653	0.004174
915.734250	0.004214
915.914829	0.004511
916.095389	0.004168
916.275931	0.003999
916.456455	0.003068
916.636961	0.002690
916.817448	0.002764
916.997917	0.003415
917.178368	0.003096
917.358801	0.003152
917.539216	0.003209
917.719612	0.003302
917.899990	0.003571
918.080350	0.004761
918.260692	0.005232
918.441015	0.005734
918.621320	0.005088
918.801607	0.004439
918.981876	0.003645
919.162127	0.003247
919.342359	0.003243
919.522573	0.003343
919.702769	0.002506
919.882947	0.002511
920.063106	0.002043
920.243247	0.002318
920.423370	0.003428
920.603475	0.003413
920.783562	0.003435
920.963630	0.003684
921.143680	0.003292
921.323712	0.003081
921.503725	0.002691
921.683721	0.003074
921.863698	0.002674
922.043657	0.001381
922.223598	0.002273
922.403520	0.001949
922.583424	0.001243
922.763311	0.001207
922.943178	0.000544
923.123028	0.000694
923.302859	0.000611
923.482673	-0.000082
923.662467	0.000027
923.842244	-0.000947
924.022003	-0.001172
924.201743	-0.001170
924.381465	-0.000985
924.561169	-0.000455
924.740854	-0.001645
924.920522	-0.002817
925.100171	-0.003023
925.279802	-0.003214
925.459414	-0.003236
925.639009	-0.002726
925.818585	-0.003309
925.998143	-0.003498
926.177683	-0.003467
926.357205	-0.003076
926.536708	-0.002136
926.716193	-0.002098
926.895660	-0.002364
927.075109	-0.002902
927.254539	-0.003938
927.433951	-0.002222
927.613345	-0.002545
927.792721	-0.002571
927.972079	-0.003123
928.151418	-0.004064
928.330739	-0.004242
928.510042	-0.004653
928.689327	-0.003711
928.868593	-0.003649
929.047841	-0.006457
929.227071	-0.007075
929.406283	-0.006717
929.585476	-0.006580
929.764652	-0.006561
929.943809	-0.006544
930.122948	-0.005555
930.302068	-0.006458
930.481171	-0.006541
930.660255	-0.006550
930.839321	-0.006839
931.018369	-0.006765
931.197398	-0.006338
931.376409	-0.007356
931.555402	-0.007685
931.734377	-0.007764
931.913334	-0.008357
932.092272	-0.007587
932.271192	-0.006553
932.450094	-0.006253
932.628978	-0.007077
932.807844	-0.008469
932.986691	-0.006917
933.165520	-0.007353
933.344331	-0.009226
933.523123	-0.008278
933.701898	-0.008607
933.880654	-0.008957
934.059392	-0.009869
934.238111	-0.011039
934.416813	-0.010684
934.595496	-0.011923
934.774161	-0.010550
934.952808	-0.008187
935.131437	-0.009778
935.310047	-0.011615
935.488639	-0.010958
935.667213	-0.010256
935.845769	-0.010895
936.024306	-0.009885
936.202825	-0.010584
936.381326	-0.012181
936.559809	-0.013129
936.738274	-0.012191
936.916720	-0.011906
937.095148	-0.011830
937.273558	-0.012048
937.451950	-0.010591
937.630323	-0.012233
937.808678	-0.011501
937.987015	-0.011585
938.165334	-0.011648
938.343635	-0.011161
938.521917	-0.011285
938.700181	-0.013603
938.878427	-0.014198
939.056655	-0.014916
939.234864	-0.014023
939.413055	-0.015532
939.591228	-0.015008
939.769383	-0.017063
939.947519	-0.019256
940.125638	-0.018636
940.303738	-0.017933
940.481820	-0.017556
940.659883	-0.017784
940.837929	-0.017927
941.015956	-0.017028
941.193965	-0.018408
941.371955	-0.016689
941.549928	-0.014504
941.727882	-0.013837
941.905818	-0.013154
942.083736	-0.015245
942.261636	-0.015599
942.439517	-0.015171
942.617380	-0.015800
942.795225	-0.015948
942.973052	-0.016372
943.150860	-0.018021
943.328651	-0.019254
943.506423	-0.019654
943.684176	-0.018759
943.861912	-0.018215
944.039629	-0.019268
944.217328	-0.018493
944.395009	-0.017623
944.572672	-0.019195
944.750317	-0.019415
944.927943	-0.019526
945.105551	-0.021368
945.283141	-0.021827
945.460712	-0.021696
945.638265	-0.021371
945.815801	-0.020526
945.993317	-0.019057
946.170816	-0.019184
946.348297	-0.018936
946.525759	-0.020095
946.703203	-0.017963
946.880629	-0.018375
947.058036	-0.019132
947.235425	-0.019601
947.412797	-0.019676
947.590149	-0.019584
947.767484	-0.018695
947.944800	-0.018994
948.122099	-0.016288
948.299379	-0.014086
948.476640	-0.012618
948.653884	-0.011465
948.831109	-0.011951
949.008316	-0.013015
949.185505	-0.015150
949.362676	-0.013656
949.539828	-0.013781
949.716962	-0.013204
949.894078	-0.015992
950.071176	-0.014895
950.248256	-0.014131
950.425317	-0.014330
950.602360	-0.013045
950.779385	-0.010871
950.956391	-0.013122
951.133380	-0.012582
951.310350	-0.015257
951.487302	-0.012544
951.664235	-0.015254
951.841151	-0.012279
952.018048	-0.009642
952.194927	-0.009559
952.371788	-0.011307
952.548631	-0.008099
952.725455	-0.008373
952.902261	-0.008168
953.079049	-0.011951
953.255819	-0.010138
953.432570	-0.015572
953.609303	-0.016054
953.786018	-0.015328
953.962715	-0.014384
954.139394	-0.016283
954.316054	-0.016610
954.492696	-0.016651
954.669320	-0.016938
954.845926	-0.017277
955.022513	-0.016863
955.199083	-0.017084
955.375634	-0.016392
955.552166	-0.014257
955.728681	-0.011749
955.905177	-0.011448
956.081655	-0.010097
956.258115	-0.007318
956.434557	-0.007716
956.610980	-0.006549
956.787385	-0.006304
956.963772	-0.004952
957.140141	-0.006932
957.316492	-0.008138
957.492824	-0.005715
957.669138	-0.003881
957.845434	-0.004658
958.021712	-0.006465
958.197971	-0.006651
958.374212	-0.008744
958.550435	-0.010505
958.726640	-0.013097
958.902826	-0.012437
959.078995	-0.015171
959.255145	-0.013073
959.431277	-0.012226
959.607390	-0.011431
959.783486	-0.013879
959.959563	-0.009837
960.135622	-0.012969
960.311662	-0.012414
960.487685	-0.011491
960.663689	-0.008889
960.839675	-0.011399
961.015643	-0.009249
961.191593	-0.008839
961.367524	-0.005263
961.543437	-0.006519
961.719332	-0.006214
961.895209	-0.001986
962.071067	-0.006476
962.246907	-0.008274
962.422730	-0.009295
962.598533	-0.012596
962.774319	-0.008345
962.950086	-0.010630
963.125835	-0.008140
963.301566	-0.006697
963.477279	-0.011047
963.652973	-0.009438
963.828650	-0.008464
964.004308	-0.005794
964.179947	-0.007151
964.355569	-0.006926
964.531172	-0.003397
964.706757	-0.006984
964.882324	-0.005747
965.057873	-0.004408
965.233403	-0.006773
965.408916	-0.006957
965.584410	-0.008853
965.759885	-0.008807
965.935343	-0.007806
966.110782	-0.007347
966.286203	-0.006562
966.461606	-0.007719
966.636991	-0.006849
966.812357	-0.004834
966.987705	-0.002155
967.163035	-0.002412
967.338347	-0.000496
967.513641	-0.002117
967.688916	-0.006440
967.864173	-0.008930
968.039412	-0.012027
968.214632	-0.010287
968.389835	-0.010738
968.565019	-0.015468
968.740185	-0.015664
968.915333	-0.014038
969.090462	-0.016011
969.265573	-0.013554
969.440667	-0.007809
969.615741	-0.000575
969.790798	-0.001218
969.965836	0.000157
970.140856	0.000234
970.315858	0.002220
970.490842	0.000767
970.665808	-0.002614
970.840755	-0.001573
971.015684	-0.002713
971.190595	-0.005420
971.365487	-0.003950
971.540362	-0.002412
971.715218	0.001308
971.890056	-0.000747
972.064875	0.001979
972.239677	0.007533
972.414460	0.003116
972.589225	-0.001384
972.763972	-0.000380
972.938700	-0.003319
973.113411	-0.002414
973.288103	-0.000227
973.462777	0.003400
973.637432	0.001957
973.812070	0.000461
973.986689	0.003517
974.161290	0.004467
974.335873	0.002851
974.510437	0.005303
974.684984	0.007700
974.859512	0.003168
975.034022	0.001765
975.208513	-0.000806
975.382987	0.000363
975.557442	0.000005
975.731879	0.006731
975.906298	0.006313
976.080698	0.008529
976.255080	0.004152
976.429445	0.004083
976.603790	0.011031
976.778118	0.013797
976.952427	0.014461
977.126719	0.013271
977.300992	0.010676
977.475246	0.011088
977.649483	0.009737
977.823701	0.008984
977.997901	0.010976
978.172083	0.002406
978.346247	0.004924
978.520392	0.006503
978.694519	0.005643
978.868628	0.003486
979.042719	0.004292
979.216791	0.001999
979.390845	0.006384
979.564882	0.009555
979.738899	0.008944
979.912899	0.005814
980.086880	0.003123
980.260843	0.004360
980.434788	0.004794
980.608715	0.005890
980.782623	0.006151
980.956514	0.001494
981.130386	-0.002554
981.304240	-0.004370
981.478075	-0.003025
981.651892	-0.001715
981.825692	0.000199
981.999472	-0.003015
982.173235	-0.009702
982.346980	-0.012460
982.520706	-0.007586
982.694414	-0.005925
982.868104	-0.001721
983.041775	-0.002178
983.215428	-0.000209
983.389064	-0.001513
983.562680	-0.000607
983.736279	0.004551
983.909860	0.008105
984.083422	0.001876
984.256966	-0.001171
984.430491	0.000952
984.603999	0.001646
984.777488	-0.001198
984.950959	-0.002127
985.124412	-0.000764
985.297847	0.000034
985.471263	-0.000112
985.644661	0.004515
985.818041	0.007623
985.991403	0.002086
986.164747	0.004450
986.338072	0.005120
986.511379	0.005246
986.684668	0.007377
986.857938	0.005298
987.031191	0.006394
987.204425	0.002040
987.377641	-0.000002
987.550839	0.002198
987.724018	-0.001428
987.897179	-0.004898
988.070322	-0.003149
988.243447	-0.007649
988.416554	-0.009097
988.589642	-0.009750
988.762712	-0.007592
988.935764	-0.007095
989.108798	-0.008238
989.281813	-0.008616
989.454811	-0.005881
989.627790	-0.004884
989.800751	-0.003511
989.973693	0.000230
990.146617	-0.000258
990.319524	-0.001216
990.492412	0.000648
990.665281	0.000909
990.838133	0.002176
991.010966	0.001714
991.183781	0.002288
991.356578	-0.000143
991.529356	0.000960
991.702117	-0.002138
991.874859	0.001005
992.047583	-0.000297
992.220288	-0.001706
992.392976	-0.003615
992.565645	-0.002725
992.738296	-0.003894
992.910929	0.000172
993.083543	-0.000583
993.256139	0.003773
993.428718	0.000870
993.601277	0.001257
993.773819	0.003194
993.946342	0.004756
994.118848	0.002363
994.291335	0.004806
994.463803	0.001920
994.636254	0.002252
994.808686	0.000302
994.981100	0.004204
995.153496	0.000085
995.325874	-0.002016
995.498233	-0.001787
995.670574	0.002602
995.842897	-0.001268
996.015202	0.001021
996.187488	-0.003840
996.359757	-0.004804
996.532007	-0.006956
996.704239	-0.006754
996.876452	-0.004216
997.048648	-0.007074
997.220825	-0.010567
997.392984	-0.012044
997.565124	-0.012360
997.737247	-0.007607
997.909351	-0.009945
998.081437	-0.013430
998.253505	-0.008448
998.425554	-0.013054
998.597586	-0.010424
998.769599	-0.010517
998.941594	-0.005055
999.113571	-0.005803
999.285529	-0.008721
999.457469	-0.005329
999.629391	-0.004178
999.801295	-0.007274
999.973181	-0.001869
1000.145048	0.000982
1000.316897	0.001248
1000.488728	-0.001681
1000.660541	0.003816
1000.832335	0.003702
1001.004111	0.003951
1001.175869	0.008593
1001.347609	0.011054
1001.519331	0.008839
1001.691034	0.006092
1001.862719	0.007985
1002.034386	0.007477
1002.206035	0.001202
1002.377665	0.001436
1002.549277	-0.000499
1002.720871	-0.001775
1002.892447	-0.001882
1003.064004	-0.003627
1003.235544	-0.004557
1003.407065	-0.006330
1003.578568	-0.005569
1003.750052	-0.005810
1003.921519	-0.004440
1004.092967	-0.004688
1004.264397	-0.004470
1004.435809	-0.006308
1004.607202	-0.005242
1004.778577	-0.002840
1004.949934	-0.001906
1005.121273	-0.002226
1005.292594	0.002269
1005.463896	0.000656
1005.635180	0.003564
1005.806446	-0.000259
1005.977694	-0.000723
1006.148923	-0.000374
1006.320135	-0.000733
1006.491328	-0.000981
1006.662503	-0.000986
1006.833659	-0.002803
1007.004798	-0.000979
1007.175918	-0.004415
1007.347020	-0.003802
1007.518103	-0.002121
1007.689169	0.001745
1007.860216	0.000562
1008.031245	0.003128
1008.202256	0.001107
1008.373248	0.001386
1008.544223	0.004041
1008.715179	0.007916
1008.886117	0.012112
1009.057036	0.010697
1009.227938	0.007390
1009.398821	0.008417
1009.569686	0.005784
1009.740533	0.005646
1009.911361	0.006078
1010.082172	0.005353
1010.252964	0.002991
1010.423738	-0.002237
1010.594493	-0.001249
1010.765231	0.000371
1010.935950	-0.001499
1011.106651	-0.002599
1011.277334	0.001400
1011.447998	0.001163
1011.618645	-0.001991
1011.789273	0.000756
1011.959882	0.002508
1012.130474	0.002799
1012.301048	0.003543
1012.471603	0.007122
1012.642140	0.008244
1012.812658	0.007606
1012.983159	0.007830
1013.153641	0.007327
1013.324105	0.004361
1013.494551	0.008419
1013.664979	0.007730
1013.835388	0.005235
1014.005779	0.006011
1014.176152	0.009195
1014.346507	0.007354
1014.516843	0.006245
1014.687162	0.005680
1014.857462	0.009788
1015.027744	0.006787
1015.198007	0.008440
1015.368252	0.005552
1015.538480	0.002339
1015.708689	-0.001093
1015.878879	0.003531
1016.049052	0.005745
1016.219206	0.009720
1016.389342	0.005480
1016.559460	0.004359
1016.729559	0.002228
1016.899641	0.007848
1017.069704	0.006472
1017.239749	0.004344
1017.409775	0.000477
1017.579784	-0.003138
1017.749774	-0.004998
1017.919746	-0.004590
1018.089700	-0.003565
1018.259635	-0.006116
1018.429553	-0.007252
1018.599452	-0.008518
1018.769333	-0.009473
1018.939195	-0.009623
1019.109040	-0.008598
1019.278866	-0.009936
1019.448674	-0.009342
1019.618464	-0.008297
1019.788235	-0.004684
1019.957989	-0.005348
1020.127724	-0.004324
1020.297441	-0.000108
1020.467139	-0.001285
1020.636820	-0.003018
1020.806482	-0.001737
1020.976126	-0.001923
1021.145752	-0.003416
1021.315359	-0.004619
1021.484948	-0.006647
1021.654519	-0.006774
1021.824072	-0.008376
1021.993607	-0.006422
1022.163123	-0.002916
1022.332621	-0.005181
1022.502101	-0.003384
1022.671563	-0.004417
1022.841007	-0.004849
1023.010432	-0.001777
1023.179839	-0.002817
1023.349228	-0.000870
1023.518598	-0.001775
1023.687951	-0.002491
1023.857285	0.000682
1024.026601	-0.003677
1024.195899	-0.002439
1024.365178	0.000628
1024.534439	-0.000773
1024.703682	0.000890
1024.872907	0.000312
1025.042114	-0.000006
1025.211302	0.000429
1025.380472	-0.000224
1025.549624	0.003247
1025.718758	0.003603
1025.887873	0.004723
1026.056970	0.006460
1026.226049	0.007037
1026.395110	0.006538
1026.564153	0.005703
1026.733177	0.001776
1026.902183	0.002728
1027.071171	0.000500
1027.240141	-0.002992
1027.409092	-0.010143
1027.578026	-0.010843
1027.746940	-0.010128
1027.915837	-0.010434
1028.084716	-0.009606
1028.253576	-0.007052
1028.422418	-0.008317
1028.591242	-0.004723
1028.760048	-0.002656
1028.928835	-0.000327
1029.097604	-0.004102
1029.266355	-0.003953
1029.435088	-0.003491
1029.603803	-0.000124
1029.772499	0.002406
1029.941177	-0.000340
1030.109837	-0.001743
1030.278478	-0.000093
1030.447102	0.005984
1030.615707	0.006878
1030.784294	0.003426
1030.952863	0.002317
1031.121413	-0.000455
1031.289945	-0.001214
1031.458460	0.000049
1031.626955	-0.002448
1031.795433	-0.003241
1031.963892	-0.009618
1032.132334	-0.004403
1032.300756	0.000116
1032.469161	0.001998
1032.637548	0.000322
1032.805916	-0.002117
1032.974266	-0.000689
1033.142598	0.001872
1033.310911	0.003900
1033.479207	0.003843
1033.647484	0.000516
1033.815743	-0.000233
1033.983983	-0.002487
1034.152206	-0.001072
1034.320410	-0.000688
1034.488596	0.001325
1034.656764	-0.001766
1034.824914	-0.002543
1034.993045	-0.002299
1035.161158	0.000017
1035.329253	-0.000341
1035.497330	-0.000475
1035.665388	-0.001173
1035.833428	-0.005148
1036.001450	-0.007042
1036.169454	-0.001824
1036.337440	-0.004395
1036.505407	-0.003357
1036.673356	-0.003938
1036.841287	-0.003869
1037.009200	0.001368
1037.177094	0.004799
1037.344970	0.008430
1037.512828	0.005625
1037.680668	0.002769
1037.848489	0.001821
1038.016293	0.001540
1038.184078	-0.000588
1038.351845	-0.002426
1038.519593	-0.004619
1038.687324	-0.007245
1038.855036	-0.005468
1039.022730	-0.003161
1039.190406	-0.001310
1039.358063	0.001136
1039.525702	0.003142
1039.693323	0.002760
1039.860926	0.002475
1040.028511	0.000258
1040.196077	-0.000148
1040.363625	0.000130
1040.531155	-0.001654
1040.698667	-0.001525
1040.866161	-0.002423
1041.033636	-0.003080
1041.201093	-0.001561
1041.368532	-0.001058
1041.535952	0.000448
1041.703355	0.001206
1041.870739	0.002893
1042.038105	0.004412
1042.205452	0.001036
1042.372782	0.002086
1042.540093	-0.000722
1042.707386	-0.004744
1042.874661	-0.003359
1043.041918	-0.004796
1043.209156	-0.005262
1043.376376	-0.009289
1043.543578	-0.005972
1043.710762	-0.005424
1043.877927	-0.004594
1044.045074	-0.003390
1044.212203	-0.001488
1044.379314	-0.004520
1044.546407	-0.005066
1044.713481	-0.003984
1044.880537	-0.002378
1045.047575	-0.005405
1045.214595	-0.003680
1045.381596	-0.002649
1045.548579	-0.001991
1045.715544	0.000281
1045.882491	0.001229
1046.049420	-0.002011
1046.216330	-0.000920
1046.383222	-0.000855
1046.550096	-0.003331
1046.716951	-0.004697
1046.883789	-0.006346
1047.050608	-0.008119
1047.217409	-0.007669
1047.384192	-0.004413
1047.550956	0.000844
1047.717703	0.001356
1047.884431	-0.000016
1048.051140	0.003621
1048.217832	0.005397
1048.384505	0.005580
1048.551161	0.006280
1048.717798	0.003601
1048.884416	0.002679
1049.051017	0.002452
1049.217599	0.000888
1049.384163	0.001113
1049.550709	-0.001267
1049.717237	0.000436
1049.883746	-0.002746
1050.050237	0.000836
1050.216710	0.001978
1050.383165	0.000162
1050.549601	-0.001696
1050.716019	-0.001853
1050.882420	-0.004282
1051.048801	-0.000783
1051.215165	-0.005820
1051.381510	-0.006381
1051.547837	-0.007261
1051.714146	-0.005044
1051.880437	-0.002040
1052.046709	0.001903
1052.212964	0.001721
1052.379200	0.003797
1052.545417	0.003668
1052.711617	0.001991
1052.877798	0.007995
1053.043961	0.006914
1053.210106	0.008987
1053.376233	0.006781
1053.542341	0.005254
1053.708432	0.005143
1053.874504	0.005288
1054.040557	0.004754
1054.206593	0.010707
1054.372610	0.006772
1054.538609	0.009311
1054.704590	0.001744
1054.870553	0.001136
1055.036497	-0.000051
1055.202424	-0.002134
1055.368331	-0.003483
1055.534221	-0.005972
1055.700093	-0.010047
1055.865946	-0.006993
1056.031781	-0.009886
1056.197598	-0.008578
1056.363397	-0.006746
1056.529177	-0.009582
1056.694939	-0.009121
1056.860683	-0.008352
1057.026409	-0.005598
1057.192116	-0.003656
1057.357806	-0.007689
1057.523477	-0.004462
1057.689130	0.002161
1057.854764	-0.000027
1058.020381	0.004769
1058.185979	0.006552
1058.351559	0.012181
1058.517120	0.011230
1058.682664	0.010115
1058.848189	0.012707
1059.013696	0.010163
1059.179185	0.005711
1059.344656	0.005250
1059.510108	-0.002769
1059.675542	-0.002811
1059.840958	-0.008072
1060.006356	-0.010583
1060.171735	-0.009949
1060.337096	-0.010018
1060.502439	-0.013592
1060.667764	-0.013238
1060.833071	-0.011823
1060.998359	-0.006530
1061.163629	-0.008925
1061.328881	-0.008095
1061.494115	-0.003560
1061.659330	-0.003608
1061.824527	-0.006181
1061.989706	-0.003655
1062.154867	-0.004485
1062.320010	-0.005853
1062.485134	-0.003206
1062.650240	-0.000450
1062.815328	-0.002415
1062.980398	-0.005009
1063.145449	-0.006993
1063.310482	-0.003473
1063.475497	-0.005462
1063.640494	-0.003526
1063.805473	-0.001462
1063.970433	-0.004467
1064.135375	-0.005744
1064.300299	-0.004792
1064.465204	-0.002625
1064.630092	0.002880
1064.794961	0.000942
1064.959812	0.000308
1065.124645	-0.002026
1065.289459	-0.004383
1065.454256	-0.000082
1065.619034	-0.001886
1065.783793	0.003790
1065.948535	-0.000869
1066.113258	-0.004297
1066.277964	-0.005277
1066.442651	-0.001457
1066.607319	-0.002061
1066.771970	-0.000774
1066.936602	-0.003001
1067.101216	-0.001451
1067.265812	-0.009983
1067.430389	-0.007636
1067.594949	-0.006969
1067.759490	-0.004865
1067.924013	-0.005321
1068.088518	-0.007516
1068.253004	-0.011009
1068.417472	-0.014710
1068.581922	-0.017164
1068.746354	-0.011873
1068.910768	-0.015370
1069.075163	-0.016411
1069.239540	-0.015537
1069.403899	-0.015378
1069.568240	-0.015362
1069.732562	-0.014122
1069.896866	-0.011075
1070.061152	-0.010642
1070.225420	-0.017086
1070.389670	-0.016696
1070.553901	-0.019092
1070.718114	-0.026866
1070.882309	-0.028830
1071.046486	-0.027938
1071.210644	-0.029426
1071.374784	-0.030463
1071.538906	-0.028780
1071.703010	-0.025985
1071.867096	-0.021215
1072.031163	-0.018413
1072.195212	-0.013397
1072.359243	-0.012835
1072.523256	-0.007828
1072.687250	-0.003211
1072.851226	-0.002749
1073.015184	-0.000861
1073.179124	0.002858
1073.343045	0.000312
1073.506949	-0.001626
1073.670834	0.001185
1073.834701	-0.001377
1073.998549	-0.004251
1074.162380	-0.005536
1074.326192	-0.006607
1074.489986	-0.010298
1074.653761	-0.013080
1074.817519	-0.013196
1074.981258	-0.009020
1075.144979	-0.011425
1075.308682	-0.002641
1075.472367	-0.005188
1075.636033	-0.008585
1075.799681	-0.008711
1075.963311	-0.013180
1076.126923	-0.012827
1076.290516	-0.015499
1076.454092	-0.018115
1076.617649	-0.021314
1076.781187	-0.028164
1076.944708	-0.025736
1077.108210	-0.026527
1077.271695	-0.028323
1077.435160	-0.018616
1077.598608	-0.020455
1077.762038	-0.018545
1077.925449	-0.018299
1078.088842	-0.012754
1078.252217	-0.014254
1078.415573	-0.017982
1078.578912	-0.013471
1078.742232	-0.011127
1078.905534	-0.013797
1079.068817	-0.015579
1079.232083	-0.016478
1079.395330	-0.018477
1079.558559	-0.021964
1079.721770	-0.020783
1079.884962	-0.020169
1080.048136	-0.019711
1080.211293	-0.018091
1080.374430	-0.020030
1080.537550	-0.018847
1080.700651	-0.021066
1080.863735	-0.020390
1081.026800	-0.015764
1081.189846	-0.017951
1081.352875	-0.015278
1081.515885	-0.016482
1081.678877	-0.014849
1081.841851	-0.010911
1082.004807	-0.007487
1082.167744	-0.003940
1082.330663	0.001960
1082.493564	-0.000237
1082.656447	0.002805
1082.819312	0.003231
1082.982158	-0.001179
1083.144986	-0.005429
1083.307796	-0.012073
1083.470587	-0.005906
1083.633361	-0.002636
1083.796116	-0.006567
1083.958853	-0.007472
1084.121571	-0.005368
1084.284272	-0.006196
1084.446954	-0.002971
1084.609618	-0.000602
1084.772264	0.000573
1084.934892	-0.005710
1085.097501	-0.010496
1085.260092	-0.014987
1085.422665	-0.016429
1085.585220	-0.015385
1085.747756	-0.012970
1085.910274	-0.013663
1086.072774	-0.015535
1086.235256	-0.009951
1086.397720	-0.011048
1086.560165	-0.005929
1086.722592	-0.004766
1086.885001	-0.004136
1087.047392	-0.005374
1087.209764	-0.007030
1087.372119	0.003109
1087.534455	0.005279
1087.696772	0.006001
1087.859072	0.006214
1088.021353	0.007033
1088.183616	0.006413
1088.345861	0.008748
1088.508088	0.012923
1088.670296	0.008834
1088.832486	0.003434
1088.994658	-0.001517
1089.156812	-0.006069
1089.318948	-0.004309
1089.481065	-0.011733
1089.643164	-0.014277
1089.805245	-0.013617
1089.967308	-0.018993
1090.129352	-0.018375
1090.291378	-0.021047
1090.453386	-0.016614
1090.615376	-0.012827
1090.777347	-0.017053
1090.939301	-0.020371
1091.101236	-0.019386
1091.263153	-0.017804
1091.425051	-0.012545
1091.586932	-0.010273
1091.748794	-0.008481
1091.910638	-0.010010
1092.072463	-0.010884
1092.234271	-0.016297
1092.396060	-0.008709
1092.557831	-0.001203
1092.719584	-0.002563
1092.881319	-0.007474
1093.043035	-0.004509
1093.204733	-0.005194
1093.366413	-0.004262
1093.528075	-0.006685
1093.689718	0.003055
1093.851343	0.002519
1094.012950	-0.004524
1094.174539	-0.003362
1094.336110	-0.002557
1094.497662	-0.009263
1094.659196	-0.008139
1094.820712	-0.006791
1094.982210	-0.011359
1095.143689	-0.015213
1095.305151	-0.011711
1095.466594	-0.010268
1095.628018	-0.011966
1095.789425	-0.010795
1095.950813	-0.007021
1096.112183	-0.015119
1096.273535	-0.015274
1096.434869	-0.011986
1096.596184	-0.005428
1096.757482	-0.014118
1096.918761	-0.010532
1097.080021	-0.013167
1097.241264	-0.010696
1097.402488	-0.008960
1097.563694	0.001943
1097.724882	0.000730
1097.886052	0.001434
1098.047203	-0.007280
1098.208336	-0.000776
1098.369451	-0.001879
1098.530548	0.001146
1098.691627	-0.002963
1098.852687	-0.006448
1099.013729	-0.010590
1099.174753	-0.011302
1099.335758	-0.012210
1099.496746	-0.006892
1099.657715	-0.006313
1099.818666	-0.004646
1099.979599	-0.004137
1100.140513	-0.007070
1100.301409	-0.010649
1100.462287	-0.012425
1100.623147	-0.018987
1100.783989	-0.018969
1100.944812	-0.016961
1101.105617	-0.017248
1101.266404	-0.017173
1101.427173	-0.025980
1101.587923	-0.024694
1101.748656	-0.024057
1101.909370	-0.020654
1102.070066	-0.016728
1102.230743	-0.008491
1102.391403	-0.013258
1102.552044	-0.018193
1102.712667	-0.019570
1102.873271	-0.015404
1103.033858	-0.011200
1103.194426	-0.005491
1103.354976	-0.008548
1103.515508	-0.001802
1103.676021	-0.017249
1103.836517	-0.011206
1103.996994	-0.010607
1104.157453	-0.010155
1104.317893	-0.006849
1104.478316	-0.005754
1104.638720	-0.014701
1104.799106	-0.014035
1104.959474	-0.016516
1105.119823	-0.001586
1105.280155	-0.006206
1105.440468	0.002570
1105.600763	-0.003445
1105.761039	-0.007724
1105.921298	-0.009815
1106.081538	0.002244
1106.241760	0.001333
1106.401964	-0.001772
1106.562149	-0.005005
1106.722316	0.007546
1106.882465	0.000600
1107.042596	-0.001834
1107.202709	-0.001870
1107.362803	-0.004840
1107.522879	-0.012717
1107.682937	-0.004513
1107.842977	-0.010119
1108.002999	-0.005951
1108.163002	-0.012217
1108.322987	-0.017875
1108.482954	-0.015340
1108.642902	-0.015787
1108.802833	-0.014486
1108.962745	-0.009096
1109.122639	-0.011939
1109.282515	-0.008000
1109.442372	-0.015039
1109.602211	-0.025127
1109.762032	-0.012881
1109.921835	-0.007342
1110.081620	-0.016127
1110.241386	-0.023047
1110.401134	-0.022173
1110.560864	-0.031432
1110.720576	-0.027376
1110.880269	-0.026484
1111.039945	-0.022189
1111.199602	-0.024674
1111.359240	-0.022172
1111.518861	-0.015653
1111.678463	-0.009242
1111.838047	-0.008089
1111.997613	-0.001690
1112.157161	-0.003583
1112.316690	-0.007615
1112.476202	-0.004963
1112.635695	-0.004140
1112.795169	-0.004627
1112.954626	0.006074
1113.114064	-0.004188
1113.273484	-0.007528
1113.432886	-0.013865
1113.592270	-0.011250
1113.751635	-0.008935
1113.910983	-0.012318
1114.070312	-0.020342
1114.229622	-0.023743
1114.388915	-0.038093
1114.548189	-0.029225
1114.707445	-0.030753
1114.866683	-0.024386
1115.025903	-0.026250
1115.185104	-0.035698
1115.344287	-0.040703
1115.503452	-0.031457
1115.662599	-0.028939
1115.821727	-0.027520
1115.980838	-0.026928
1116.139930	-0.023027
1116.299004	-0.029449
1116.458059	-0.033449
1116.617097	-0.026939
1116.776116	-0.028789
1116.935117	-0.028414
1117.094099	-0.032114
1117.253064	-0.038048
1117.412010	-0.033966
1117.570938	-0.034376
1117.729848	-0.031665
1117.888740	-0.029688
1118.047613	-0.023160
1118.206468	-0.020125
1118.365305	-0.027742
1118.524124	-0.033983
1118.682924	-0.019903
1118.841707	-0.018416
1119.000471	-0.025095
1119.159216	-0.019646
1119.317944	-0.022085
1119.476653	-0.022084
1119.635344	-0.010606
1119.794017	-0.016186
1119.952672	-0.023714
1120.111308	-0.019754
1120.269927	-0.034539
1120.428527	-0.029789
1120.587108	-0.040992
1120.745672	-0.029605
1120.904217	-0.031080
1121.062744	-0.032383
1121.221253	-0.033256
1121.379744	-0.009114
1121.538216	-0.014560
1121.696671	-0.005578
1121.855107	-0.002388
1122.013524	0.006014
1122.171924	-0.004065
1122.330305	-0.003539
1122.488668	-0.009848
1122.647013	-0.006285
1122.805340	-0.023049
1122.963648	-0.026912
1123.121938	-0.029015
1123.280210	-0.034754
1123.438464	-0.039377
1123.596700	-0.037160
1123.754917	-0.053372
1123.913116	-0.043931
1124.071297	-0.042199
1124.229459	-0.033687
1124.387604	-0.023955
1124.545730	-0.024941
1124.703838	-0.016834
1124.861928	-0.013724
1125.019999	-0.016291
1125.178052	0.000365
1125.336088	-0.015258
1125.494104	-0.011474
1125.652103	-0.008036
1125.810083	-0.020310
1125.968045	-0.022272
1126.125989	-0.026546
1126.283915	-0.028941
1126.441823	-0.031180
1126.599712	-0.030671
1126.757583	-0.023792
1126.915436	-0.024357
1127.073270	-0.032346
1127.231087	-0.026226
1127.388885	-0.018536
1127.546665	-0.010796
1127.704426	-0.014386
1127.862170	-0.016516
1128.019895	-0.014107
1128.177602	-0.017950
1128.335291	-0.015727
1128.492961	-0.012497
1128.650614	-0.006521
1128.808248	-0.013420
1128.965864	-0.024003
1129.123461	-0.018333
1129.281041	-0.006821
1129.438602	-0.016086
1129.596145	-0.018053
1129.753670	-0.020330
1129.911176	-0.017697
1130.068665	-0.019632
1130.226135	0.004183
1130.383587	0.004670
1130.541020	0.002240
1130.698436	0.002458
1130.855833	0.004352
1131.013212	0.014147
1131.170573	0.009985
1131.327915	0.006255
1131.485239	0.001037
1131.642545	-0.024288
1131.799833	-0.032621
1131.957103	-0.024843
1132.114354	-0.031797
1132.271588	-0.038893
1132.428803	-0.037783
1132.585999	-0.039403
1132.743178	-0.037296
1132.900338	-0.037644
1133.057480	-0.040201
1133.214604	-0.021084
1133.371710	-0.024985
1133.528797	-0.025462
1133.685866	-0.025293
1133.842917	-0.026036
1133.999950	-0.019495
1134.156964	-0.025415
1134.313960	-0.035483
1134.470938	-0.014671
1134.627898	-0.025231
1134.784840	-0.030249
1134.941763	-0.032760
1135.098668	-0.023199
1135.255555	-0.027736
1135.412424	-0.040859
1135.569274	-0.034027
1135.726107	-0.023532
1135.882921	-0.037212
1136.039716	-0.033405
1136.196494	-0.027673
1136.353253	-0.012500
1136.509995	-0.006901
1136.666717	-0.006700
1136.823422	0.020758
1136.980109	0.013327
1137.136777	0.009303
1137.293427	0.009207
1137.450059	-0.005057
1137.606672	-0.006820
1137.763267	-0.017587
1137.919844	-0.018252
1138.076403	-0.016963
1138.232944	-0.022339
1138.389466	-0.012254
1138.545971	0.006063
1138.702457	0.014693
1138.858924	0.025113
1139.015374	0.035886
1139.171805	0.048546
1139.328218	0.030952
1139.484613	0.022843
1139.640990	0.008120
1139.797348	-0.000212
1139.953688	-0.027776
1140.110010	-0.034107
1140.266314	-0.029691
1140.422600	-0.045486
1140.578867	-0.051718
1140.735116	-0.041478
1140.891347	-0.047222
1141.047559	-0.047208
1141.203754	-0.049848
1141.359930	-0.038494
1141.516088	-0.032489
1141.672228	-0.040849
1141.828349	-0.040081
1141.984452	-0.040860
1142.140537	-0.047054
1142.296604	-0.037664
1142.452653	-0.041018
1142.608683	-0.026971
1142.764695	-0.033622
1142.920689	-0.047557
1143.076665	-0.036332
1143.232622	-0.037994
1143.388562	-0.047947
1143.544483	-0.048078
1143.700385	-0.044138
1143.856270	-0.036977
1144.012136	-0.040088
1144.167985	-0.027541
1144.323814	-0.025432
1144.479626	-0.024588
1144.635420	-0.020219
1144.791195	-0.015178
1144.946952	-0.018650
1145.102691	-0.027199
1145.258411	-0.021946
1145.414113	-0.025815
1145.569798	-0.034783
1145.725463	-0.037753
1145.881111	-0.040438
1146.036741	-0.030615
1146.192352	-0.032542
1146.347945	-0.020617
1146.503519	-0.007995
1146.659076	-0.017669
1146.814614	-0.011799
1146.970134	-0.021737
1147.125636	-0.015210
1147.281120	-0.021646
1147.436585	-0.030427
1147.592032	-0.021048
1147.747461	-0.035630
1147.902872	-0.037304
1148.058265	-0.042477
1148.213639	-0.058220
1148.368995	-0.034306
1148.524333	-0.036120
1148.679653	-0.028384
1148.834954	-0.029943
1148.990237	-0.041525
1149.145502	-0.041649
1149.300749	-0.044230
1149.455977	-0.038861
1149.611188	-0.029054
1149.766380	-0.035583
1149.921553	-0.037173
1150.076709	-0.047815
1150.231846	-0.042783
1150.386966	-0.030230
1150.542066	-0.014531
1150.697149	0.000750
1150.852214	-0.008325
1151.007260	-0.007263
1151.162288	-0.015887
1151.317298	-0.008569
1151.472289	-0.007539
1151.627263	0.001236
1151.782218	-0.007422
1151.937155	-0.005454
1152.092073	-0.020102
1152.246974	0.018961
1152.401856	0.006704
1152.556720	0.011515
1152.711566	0.017744
1152.866393	0.024143
1153.021203	0.014989
1153.175994	0.013231
1153.330767	-0.002180
1153.485521	-0.010061
1153.640258	-0.033215
1153.794976	-0.020258
1153.949676	-0.023451
1154.104358	-0.025182
1154.259021	-0.039575
1154.413667	-0.048230
1154.568294	-0.052013
1154.722903	-0.043728
1154.877493	-0.046750
1155.032066	-0.054561
1155.186620	-0.070595
1155.341156	-0.055799
1155.495674	-0.060209
1155.650173	-0.059144
1155.804654	-0.050753
1155.959118	-0.056713
1156.113562	-0.069910
1156.267989	-0.060795
1156.422397	-0.053332
1156.576788	-0.033047
1156.731160	-0.042824
1156.885513	-0.036983
1157.039849	-0.043520
1157.194166	-0.049745
1157.348465	-0.027484
1157.502746	-0.014376
1157.657009	-0.019765
1157.811253	-0.021282
1157.965479	-0.017548
1158.119687	-0.003676
1158.273877	-0.014044
1158.428048	0.018421
1158.582201	0.004026
1158.736337	0.006391
1158.890453	0.006408
1159.044552	-0.002547
1159.198632	0.000913
1159.352694	-0.020230
1159.506738	-0.043957
1159.660764	-0.044261
1159.814771	-0.047799
1159.968761	-0.037320
1160.122732	-0.052221
1160.276685	-0.057405
1160.430619	-0.045063
1160.584535	-0.033659
1160.738434	-0.025140
1160.892313	-0.018760
1161.046175	-0.018486
1161.200019	-0.029997
1161.353844	-0.033471
1161.507651	-0.038506
1161.661440	-0.019511
1161.815210	-0.019506
1161.968962	-0.048376
1162.122697	-0.057958
1162.276412	-0.066408
1162.430110	-0.056822
1162.583789	-0.051070
1162.737451	-0.038887
1162.891094	-0.042903
1163.044718	-0.061161
1163.198325	-0.049024
1163.351913	-0.039593
1163.505483	-0.035953
1163.659035	-0.019405
1163.812569	-0.027088
1163.966084	-0.032804
1164.119581	-0.024994
1164.273060	-0.016197
1164.426521	0.007156
1164.579964	0.005793
1164.733388	-0.005388
1164.886794	-0.014019
1165.040182	-0.003570
1165.193551	0.015013
1165.346903	0.034452
1165.500236	0.018786
1165.653551	0.023052
1165.806848	0.002783
1165.960126	-0.018052
1166.113386	-0.011838
1166.266628	-0.001367
1166.419852	-0.015832
1166.573058	-0.038743
1166.726245	-0.059739
1166.879414	-0.055081
1167.032565	-0.066032
1167.185698	-0.063523
1167.338812	-0.075122
1167.491909	-0.061149
1167.644987	-0.052859
1167.798046	-0.050366
1167.951088	-0.052723
1168.104111	-0.044985
1168.257117	-0.051938
1168.410103	-0.044389
1168.563072	-0.024243
1168.716023	0.000354
1168.868955	0.001447
1169.021869	0.000942
1169.174765	-0.014609
1169.327642	0.010211
1169.480501	-0.005181
1169.633343	-0.003717
1169.786165	-0.012331
1169.938970	-0.045721
1170.091757	-0.051006
1170.244525	-0.074230
1170.397275	-0.059756
1170.550007	-0.045303
1170.702720	-0.057198
1170.855415	-0.051403
1171.008092	-0.054139
1171.160751	-0.050422
1171.313392	-0.042351
1171.466014	-0.089602
1171.618619	-0.093741
1171.771205	-0.093741
1171.923772	-0.093741
