sample name	sample
index	1312
start time	 04-29-2021  04:22:38 PM
880	0.151402
Peak Time (s)	101.037
Peak Height 	0.1514
calc peak height	100,103
Baseline Time (s)	9.536
Baseline Value 	-0.004069
subtract baseline	10,4
Abs	0.117760
Peak Time (s)	101.537
Peak Height 	0.1178
calc peak height	100,103
Baseline Time (s)	11.037
Baseline Value 	0.002079
subtract baseline	10,3
PK_550	0.062465
Peak Time (s)	101.037
Peak Height 	0.06246
calc peak height	100,103
Baseline Time (s)	10.536
Baseline Value 	5.8212E-4
subtract baseline	10,2
PK_880	0.109825
Peak Time (s)	101.037
Peak Height 	0.1098
calc peak height	100,103
Baseline Time (s)	11.037
Baseline Value 	0.001102
subtract baseline	10,1


Time (s)	A880-A510	A880-A775	A880-A975	A880	I510	I775	I975	I880	
0.038000	-0.004449	-0.000538	-0.000880	0.008170	6271.687748	40608.817922	3879.466187	20734.065027
0.536000	-0.000670	0.000653	-0.002506	0.004542	6328.006565	41028.142126	3883.667982	20882.896874
1.036500	-0.001022	-0.000177	-0.001927	0.003877	6330.409594	41013.647778	3886.287178	20910.294068
1.537000	0.000425	-0.000363	-0.003895	0.001589	6359.199800	41197.940178	3886.964350	21004.949624
2.037000	-0.005400	-0.000757	-0.001267	0.006960	6273.639876	40694.710422	3881.191075	20783.583759
2.534500	0.001473	0.000304	-0.001585	0.001343	6369.227196	41278.213753	3892.375327	21015.153576
3.034500	0.001107	-0.000441	-0.002181	-0.001887	6391.536101	41497.634476	3897.983590	21149.665000
3.535000	0.002456	-0.000530	-0.003303	0.000254	6385.356240	41300.767473	3891.039693	21060.402903
4.035500	-0.000466	0.000680	-0.004002	0.005607	6321.412908	40937.451808	3878.299007	20839.097315
4.536000	0.000508	-0.000743	-0.002149	-0.000182	6373.574399	41320.279607	3894.416518	21078.510927
5.036000	-0.001610	-0.000385	0.002032	0.000084	6355.101814	41328.481015	3902.785922	21067.463489
5.536000	0.000114	-0.000429	-0.001966	-0.000022	6369.270429	41333.856353	3894.465285	21071.858748
6.036500	0.000495	-0.000132	-0.001889	-0.000129	6373.058970	41369.489427	3894.855297	21076.301292
6.536500	0.002800	0.000035	0.000641	0.000116	6389.116519	41362.712664	3899.734626	21066.125377
7.037000	0.001518	-0.000990	-0.002551	-0.000692	6385.421360	41343.605819	3894.647183	21099.793754
7.539500	0.001190	-0.000100	-0.000746	-0.000204	6379.050585	41378.982177	3897.454284	21079.436929
8.035000	0.000653	0.000120	-0.004805	0.000039	6372.989452	41376.970694	3888.316509	21069.341659
8.535000	0.000567	0.000761	0.001779	0.000458	6369.065977	41396.582200	3901.439771	21051.895047
9.035500	0.000083	-0.000294	-0.005171	-0.000369	6371.733193	41376.508587	3888.404488	21086.331106
9.536000	-0.000433	-0.000019	-0.000830	0.000000	6364.857216	41368.112977	3896.839924	21070.951665
10.036000	-0.001332	0.000422	0.003190	0.000169	6356.591034	41392.177493	3905.092704	21063.927205
10.536000	-0.000778	0.000000	-0.001141	-0.000271	6364.287339	41393.788943	3896.754200	21082.254039
11.036500	0.000000	0.000087	0.000000	0.000044	6367.874146	41373.601493	3898.516958	21069.104595
11.537000	0.000550	-0.000345	0.000665	-0.000451	6375.997192	41379.220491	3901.000613	21089.737016
12.037500	0.000757	0.000349	0.000350	0.000176	6372.728921	41385.075165	3898.983159	21063.634431
12.535000	-0.001806	0.000062	-0.004279	-0.000776	6360.230559	41443.876247	3891.152839	21103.269930
13.035000	0.004285	0.000943	0.001077	-0.000358	6404.454385	41484.849118	3901.684998	21085.875567
13.535500	0.000072	0.000284	0.000020	-0.000488	6372.568888	41437.988595	3899.697960	21091.278771
14.035500	-0.000468	0.000228	0.000045	0.002610	6344.414370	41160.161861	3893.145729	20962.664172
14.536500	-0.000097	0.000030	-0.005723	0.001574	6355.270791	41233.744751	3883.142807	21005.546872
15.041500	0.001188	0.000077	-0.000003	-0.000428	6380.783043	41414.434965	3899.520435	21088.766257
15.536500	0.000122	0.000081	-0.000823	-0.000511	6373.131996	41422.151927	3897.944222	21092.235362
16.036500	-0.002170	-0.000626	-0.001936	0.004664	6315.598521	40905.821027	3884.611796	20877.885021
16.537000	0.001638	0.000122	0.000912	-0.000122	6381.903923	41391.397952	3900.823827	21076.028674
17.035000	0.002331	0.000048	0.000620	-0.004002	6417.734438	41728.959978	3908.544530	21238.304425
17.535000	-0.001201	0.000074	-0.001007	-0.000267	6360.980135	41399.985697	3897.031669	21082.087034
18.035500	-0.001299	-0.000343	0.002518	0.001303	6348.088185	41224.863486	3901.214511	21016.816251
18.535500	0.000620	-0.000357	0.000490	0.000138	6371.964721	41326.173686	3899.365133	21065.209754
19.035000	0.001911	0.000180	-0.000736	0.000574	6378.608132	41335.088423	3895.815791	21047.069064
19.536000	-0.000859	0.000553	-0.001775	0.000642	6356.592319	41362.002301	3893.460087	21044.266596
20.036000	-0.001771	-0.000385	-0.000944	0.001358	6344.021524	41216.272335	3893.704487	21014.525672
20.536500	0.001000	0.000012	-0.003562	0.000447	6372.517206	41331.499329	3890.082194	21052.362080
21.037000	0.001720	0.000178	-0.001900	0.000755	6375.714921	41318.865949	3892.952487	21039.539130
21.540000	0.002519	0.001436	0.003560	0.001763	6374.091458	41341.010536	3902.460960	20997.731145
22.034500	-0.000008	-0.000066	0.002397	0.001804	6354.188301	41205.129848	3899.879790	20996.024730
22.535000	-0.001781	-0.000370	-0.001403	0.000303	6352.082068	41310.463838	3894.972729	21058.338345
23.035500	0.001130	0.000628	0.004714	0.000702	6371.543613	41363.289047	3907.227745	21041.767952
23.536000	-0.000545	-0.000730	-0.003569	-0.000395	6367.055645	41340.253939	3891.852699	21087.412839
24.036000	-0.001542	-0.000700	-0.003049	-0.000052	6356.671125	41312.643230	3892.226410	21073.106072
24.536500	-0.001086	-0.000264	-0.000194	0.000291	6357.546791	41320.882889	3897.575400	21058.845750
25.036500	0.000110	-0.000490	0.003047	0.000053	6368.660679	41321.924931	3905.033661	21068.744740
25.537000	0.000217	0.000240	0.002319	0.000267	6367.830765	41367.377125	3903.007704	21059.824391
26.037000	0.000060	0.000345	-0.001968	0.000395	6365.620182	41365.409259	3893.572940	21054.505804
26.537000	0.000169	0.000465	-0.000466	0.000775	6363.514097	41342.405114	3895.962297	21038.711791
27.037500	0.003200	0.000306	-0.001723	-0.001620	6405.836834	41540.219950	3898.393363	21138.519703
27.535000	0.001845	0.001273	0.003469	0.000765	6376.611438	41414.696130	3904.411555	21039.158608
28.035500	0.002780	0.000520	-0.001797	-0.000282	6392.072479	41440.685538	3895.379869	21082.713190
28.535500	0.001519	-0.000007	-0.000217	-0.000693	6385.427141	41430.427841	3899.630792	21099.820256
29.036000	-0.000059	0.000616	0.002943	-0.000444	6371.204473	41463.428060	3905.879270	21089.426165
29.536000	-0.000445	0.000206	-0.000200	-0.001289	6374.770479	41501.939115	3900.942310	21124.668688
30.037000	-0.000042	0.000303	-0.002445	-0.000550	6372.166060	41445.199450	3894.570547	21093.876322
30.539500	-0.000006	-0.000143	-0.001419	0.000934	6360.927762	41274.884176	3893.595249	21032.102414
31.040000	0.000615	-0.000332	0.006069	0.001354	6362.488279	41221.314657	3908.745656	21014.699956
31.534500	0.000252	0.000075	0.000131	0.001567	6358.022496	41238.294057	3895.546584	21005.836643
32.036500	0.000752	0.000585	-0.004492	-0.000646	6379.083194	41478.611256	3890.426676	21097.856682
32.535500	-0.000184	-0.000658	0.000672	-0.001438	6377.970615	41438.721919	3903.134156	21130.917547
33.035500	0.001911	-0.000007	0.003284	-0.000841	6389.643905	41443.501574	3907.471114	21105.991898
33.536000	-0.000210	0.000217	0.004210	0.002234	6349.306746	41192.229352	3902.846617	20978.227497
34.036000	-0.000813	0.000528	0.000195	0.000559	6357.583008	41367.043889	3897.832952	21047.683909
34.536000	-0.001146	0.000509	-0.002501	0.000810	6353.070583	41343.234020	3891.560203	21037.255318
35.036500	0.000670	-0.000241	-0.001638	0.000552	6369.134506	41299.869866	3893.941539	21047.980837
35.537000	-0.000332	-0.000371	-0.004157	0.001542	6353.708298	41201.322582	3886.509648	21006.893103
36.037500	0.001805	0.001162	0.001489	0.002366	6363.870777	41263.695692	3896.737967	20972.743166
36.535000	-0.002442	0.000449	-0.005084	0.001019	6341.459696	41319.489337	3885.656069	21028.574469
37.035500	0.000781	0.000258	0.001903	0.001036	6366.241493	41301.226705	3900.468449	21027.897020
37.535500	0.000971	0.000547	-0.001898	0.003030	6352.272192	41151.222734	3888.136866	20945.263974
38.035000	-0.000446	0.000567	-0.002086	0.000897	6357.811423	41340.774255	3892.258944	21033.671932
38.536000	0.000826	0.000082	-0.002278	0.001031	6366.631869	41286.183622	3891.564868	21028.096515
39.036500	0.001192	0.000714	-0.002636	0.000972	6369.928006	41347.088052	3890.932176	21030.555640
39.536500	-0.000269	-0.000098	0.001742	0.000589	6361.570220	41309.277416	3901.081156	21046.463629
40.036500	0.000756	0.000781	-0.003766	0.001961	6358.877558	41265.769413	3886.450433	20989.505568
40.539500	0.000637	0.000809	0.002144	0.001117	6364.497226	41342.632148	3900.808352	21024.512441
41.034500	0.000494	0.000545	0.001473	0.000990	6364.369258	41330.512768	3899.643720	21029.786386
41.535000	-0.001266	-0.001226	-0.003409	-0.000512	6362.369204	41306.884577	3892.440308	21092.274260
42.038000	0.000286	0.000376	-0.006458	0.002770	6348.990977	41159.040936	3879.093612	20956.009404
42.535500	0.000590	-0.000131	0.002907	0.000288	6370.559890	41332.847324	3904.226284	21058.966761
43.035500	0.000359	-0.000066	-0.000685	0.000305	6368.636419	41337.070554	3896.497990	21058.254300
43.536000	0.004160	0.000039	0.004498	-0.003558	6428.652174	41688.634444	3915.992567	21219.650227
44.039500	-0.002120	-0.000084	-0.002382	0.004483	6317.352126	40968.806171	3884.051229	20885.307715
44.537000	0.002316	0.000695	0.004109	-0.000586	6390.817405	41483.071078	3908.703051	21095.360108
45.042000	0.000705	0.000702	0.003762	-0.000614	6378.474729	41486.175324	3908.014690	21096.537105
45.537500	0.002870	0.001256	-0.000258	-0.000200	6392.129545	41498.542503	3898.486077	21079.259423
46.035000	0.000007	0.000238	0.000607	0.004595	6332.800469	40987.174016	3890.127053	20880.715069
46.535000	0.001201	0.000526	0.002384	-0.001004	6385.371012	41505.030617	3905.881457	21112.769785
47.035000	0.001061	-0.000055	0.000496	0.000240	6374.596018	41343.756442	3899.157913	21060.945496
47.535500	-0.000812	-0.000453	0.000416	0.002872	6339.746606	41077.450696	3893.375859	20951.809249
48.035500	-0.002666	-0.000583	0.002779	0.003993	6316.932500	40968.089400	3896.022408	20905.538382
48.536000	0.003864	0.000504	-0.001892	-0.000663	6403.542453	41473.001304	3895.988445	21098.587666
49.036500	0.001006	0.000126	0.003483	-0.001206	6385.428425	41487.549156	3908.688403	21121.201051
49.537000	-0.002733	0.000549	-0.003432	0.003479	6320.345982	41112.061027	3883.955813	20926.726906
50.040000	-0.002873	-0.000938	-0.001494	0.009784	6271.402414	40435.054730	3874.814889	20668.281851
50.537500	0.002329	-0.000235	0.004508	0.010048	6308.832824	40472.821108	3886.843681	20657.525682
51.034000	0.018050	-0.036515	0.075833	0.693161	3709.741177	10180.894398	3194.337928	6658.920005
51.535000	-0.027770	-0.031827	-0.031048	0.028064	5961.579502	36431.987745	3780.477974	19939.847204
52.035500	-0.043050	-0.112704	-0.045649	-0.323919	9433.119370	65379.254057	4732.157532	41103.331179
52.535500	-0.026817	-0.164993	-0.012339	-0.377292	10551.804295	65535.000000	5121.372225	46086.540264
53.036000	-0.025858	-0.096405	-0.010502	-0.305316	9412.241137	65049.472348	4800.569717	39505.422241
53.536000	-0.028830	-0.062493	-0.015340	-0.258083	8711.950096	63176.282384	4593.766329	35742.943388
54.036500	-0.020424	-0.052469	-0.011022	-0.246800	8674.206041	63002.113133	4567.934692	34903.067052
54.539500	-0.020390	-0.038654	-0.011710	-0.222645	8367.513846	61591.288929	4479.108077	33176.808075
55.034500	-0.020559	-0.037616	-0.017583	-0.223874	8380.644290	61897.746386	4463.061574	33262.384542
55.537500	-0.020974	-0.039703	-0.011831	-0.227334	8418.513596	62084.093721	4495.062333	33504.442905
56.035000	-0.008971	-0.026260	-0.006160	-0.197271	8197.716759	59867.098339	4411.784559	31463.956183
56.535000	-0.004140	-0.014898	-0.004536	-0.139871	7604.857135	54151.185712	4238.047462	27939.303949
57.035500	-0.000099	-0.008576	0.001919	-0.108967	7328.514427	51338.434829	4168.647275	26225.991133
57.536000	0.000446	-0.002345	-0.000153	-0.075238	7009.915240	48375.081601	4073.823572	24490.094954
58.035500	0.006271	0.001086	0.010441	-0.056881	6895.784483	46843.307511	4054.271226	23600.446278
58.536500	0.013285	0.002844	0.012274	-0.026140	6688.524130	44015.305627	3984.465844	22192.351934
59.036500	0.017366	0.006561	0.013257	-0.011507	6599.923609	42998.174797	3953.084471	21556.286289
59.537500	0.023414	0.007906	0.022027	0.013684	6444.591637	40863.228777	3916.618425	20510.301976
60.037000	0.029166	0.010625	0.031727	0.039652	6287.814518	38891.610420	3881.826109	19493.697137
60.535000	0.031144	0.013444	0.038834	0.056399	6177.794149	37759.969222	3861.814464	18869.573503
61.035500	0.037832	0.015297	0.043328	0.064188	6169.747241	37288.609073	3855.076203	18587.421696
61.535500	0.039918	0.018107	0.045180	0.078838	6079.289111	36367.472743	3829.381760	18070.209574
62.035500	0.041958	0.021731	0.055215	0.086446	6040.029303	36063.069580	3834.195728	17808.412514
62.536000	0.049451	0.024829	0.052845	0.090741	6062.515337	35972.185718	3821.038590	17662.644472
63.036500	0.054570	0.027466	0.061745	0.146494	5725.217916	32180.736691	3734.033640	15895.523607
63.537000	0.042081	0.027191	0.056940	0.121089	5807.554483	33916.844274	3771.134409	16672.681022
64.037000	0.045419	0.031725	0.055544	0.124965	5804.078845	33963.650268	3761.470478	16551.145691
64.537500	0.051291	0.034592	0.056770	0.120548	5871.368117	34486.735081	3771.818639	16689.742935
65.052000	0.055106	0.038649	0.061115	0.116875	5921.344767	35051.498019	3786.753942	16806.050826
65.534500	0.061145	0.042422	0.058981	0.115354	5972.686571	35444.119174	3785.602617	16854.499076
66.038000	0.057336	0.042429	0.063445	0.117188	5934.282765	35308.130709	3790.556171	16796.109509
66.536000	0.061512	0.044179	0.067174	0.112163	5997.162827	35815.430637	3807.257917	16956.708327
67.036000	0.064455	0.046023	0.065665	0.114339	6002.459314	35790.390399	3800.185692	16886.917180
67.536500	0.069267	0.046937	0.069413	0.115582	6027.256823	35765.551250	3804.985837	16847.221971
68.037000	0.065789	0.046678	0.064442	0.113757	6015.743468	35883.804779	3798.961483	16905.550353
68.536500	0.070387	0.049176	0.068182	0.114370	6043.574211	36026.685877	3804.949775	16885.941962
69.037000	0.071572	0.050041	0.072846	0.113234	6059.895799	36179.047952	3816.172705	16922.321416
69.534500	0.073966	0.050909	0.076703	0.113463	6075.196065	36227.791473	3823.265966	16914.964926
70.035000	0.074526	0.050334	0.074025	0.113617	6078.079147	36172.168887	3817.723666	16910.057182
70.534500	0.074642	0.051417	0.070904	0.113765	6077.849003	36243.596847	3811.370080	16905.313257
71.035000	0.073820	0.051710	0.070324	0.114614	6066.019335	36201.054293	3808.604379	16878.128581
71.538500	0.073743	0.052612	0.068763	0.121296	6018.634505	35762.644485	3792.844191	16666.173500
72.035500	0.078645	0.054013	0.078441	0.117974	6076.390861	36120.521000	3817.840203	16771.151675
72.536000	0.079439	0.055125	0.077632	0.119189	6073.405997	36112.684671	3813.899265	16732.667931
73.036500	0.076372	0.055222	0.081060	0.119408	6050.220636	36103.332363	3820.154956	16725.725293
73.539500	0.075103	0.056249	0.082548	0.125497	5998.938270	35720.192989	3811.198545	16534.566904
74.037000	0.078949	0.056220	0.082384	0.120974	6057.330760	36060.119528	3819.681319	16676.301015
74.535000	0.080341	0.056775	0.091075	0.121794	6061.366195	36040.015557	3835.215730	16650.510458
75.034500	0.084478	0.058354	0.081639	0.124496	6071.508663	35954.803610	3811.376243	16565.812732
75.535500	0.081663	0.057134	0.082446	0.131207	6004.812095	35359.059060	3800.018821	16357.710982
76.035500	0.083798	0.059423	0.089277	0.127902	6042.718408	35778.098752	3819.613324	16459.789889
76.535500	0.085004	0.058087	0.082288	0.128120	6049.658566	35661.185656	3805.634539	16453.035076
77.036000	0.084633	0.056932	0.083019	0.128171	6046.693120	35570.663137	3806.941993	16451.440353
77.536000	0.081623	0.056500	0.085604	0.133791	5986.695053	35120.438235	3801.115235	16278.429306
78.037000	0.081820	0.057580	0.086092	0.135734	5974.706932	35056.751682	3798.336451	16219.137377
78.539500	0.085736	0.058228	0.087176	0.131386	6031.898895	35427.284135	3808.760955	16352.211009
79.037500	0.086652	0.056817	0.088526	0.131479	6037.655030	35315.291924	3811.191109	16349.347484
79.537500	0.085183	0.057859	0.087773	0.137389	5986.437882	34955.475155	3798.386715	16168.841065
80.035000	0.087618	0.056841	0.086019	0.131722	6042.726165	35299.023747	3805.883002	16341.882073
80.536000	0.085712	0.056893	0.092020	0.131772	6029.037751	35299.159136	3817.411115	16340.336079
81.036000	0.086365	0.056502	0.088958	0.131368	6036.421646	35300.144104	3812.243353	16352.759047
81.539000	0.089319	0.057148	0.088423	0.131937	6053.159204	35305.830137	3810.103646	16335.257115
82.036500	0.088884	0.055916	0.093592	0.131846	6050.741056	35221.143707	3820.339109	16338.062585
82.536500	0.087484	0.056720	0.096231	0.133056	6032.447181	35191.087791	3823.139823	16300.945527
83.053000	0.091042	0.056826	0.089107	0.133948	6051.135681	35132.980171	3807.542909	16273.646003
83.537000	0.091931	0.056586	0.095210	0.134764	6051.645379	35054.984408	3817.796773	16248.712533
84.034500	0.088186	0.056297	0.093073	0.140629	5984.806662	34604.547560	3802.324640	16070.940263
84.535000	0.088319	0.056050	0.094737	0.135489	6021.300387	34962.243843	3815.463756	16226.623967
85.035000	0.092241	0.056053	0.100373	0.136010	6045.067928	34924.124417	3825.476369	16210.743772
85.535500	0.093871	0.056501	0.093741	0.136879	6050.419505	34893.277772	3810.832736	16184.332198
86.036000	0.089060	0.056584	0.101025	0.142331	5979.116538	34501.814895	3814.385830	16019.783702
86.536000	0.093434	0.057414	0.095416	0.138474	6036.164129	34843.280446	3810.987883	16135.977495
87.036500	0.095170	0.056657	0.101716	0.138602	6047.439879	34778.503601	3823.020807	16132.104016
87.535500	0.094114	0.056863	0.098439	0.142257	6014.532121	34527.393265	3809.516106	16021.997515
88.037000	0.088644	0.056629	0.097812	0.144844	5959.078298	34323.577121	3803.330286	15944.653003
88.537000	0.096993	0.058464	0.100105	0.141482	6040.025795	34700.180645	3814.248636	16045.278057
89.037500	0.098305	0.057277	0.105904	0.141124	6051.744097	34639.869189	3826.297500	16056.047285
89.535500	0.095290	0.058362	0.098136	0.145213	6002.192903	34422.021774	3803.243735	15933.650803
90.035000	0.097004	0.058082	0.101539	0.147755	5996.470268	34218.651514	3804.895758	15858.123131
90.535500	0.099886	0.058088	0.107483	0.143161	6048.534277	34550.694244	3825.395533	15994.909973
91.036000	0.101656	0.058656	0.107262	0.144057	6054.686024	34526.960583	3823.198505	15968.129793
91.536000	0.100681	0.058578	0.104193	0.145849	6035.266526	34391.640934	3813.705352	15914.704550
92.036500	0.099519	0.058966	0.100108	0.149929	5998.822555	34126.169642	3797.995429	15793.893709
92.536500	0.104161	0.060148	0.110614	0.146730	6053.502197	34441.385756	3824.532779	15888.525649
93.037000	0.102788	0.060137	0.102380	0.146573	6044.956709	34451.958653	3808.793558	15893.189653
93.534500	0.102883	0.059140	0.103367	0.148320	6033.389746	34254.143011	3807.326756	15841.412107
94.034500	0.103769	0.060029	0.104613	0.147170	6047.658413	34401.083952	3811.959274	15875.483591
94.535500	0.105745	0.060986	0.107839	0.148269	6053.817720	34390.749644	3816.090217	15842.913161
95.035500	0.106218	0.060209	0.111056	0.147757	6060.765438	34371.634211	3823.384982	15858.080505
95.536500	0.102667	0.060055	0.106840	0.149066	6026.675977	34266.274457	3812.599023	15819.363340
96.036000	0.105653	0.060460	0.105375	0.148236	6053.405011	34355.235644	3811.368428	15843.900677
96.537000	0.107727	0.061722	0.114318	0.149423	6059.649004	34360.618763	3826.524395	15808.817191
97.039500	0.107404	0.061347	0.112539	0.149263	6058.505792	34345.113720	3823.338849	15813.540600
97.534500	0.104386	0.061189	0.109079	0.150628	6027.769633	34235.513855	3813.914293	15773.322923
98.037000	0.106848	0.061680	0.114804	0.149655	6051.833526	34340.896478	3827.026503	15801.985520
98.534500	0.108714	0.062254	0.116569	0.150884	6056.316157	34293.712112	3828.084220	15765.791424
99.034500	0.104676	0.061401	0.108489	0.149886	6034.978771	34304.112174	3814.210318	15795.182215
99.535500	0.105947	0.061293	0.109036	0.150310	6040.906600	34265.868437	3814.447059	15782.682512
100.035500	0.107234	0.061786	0.116243	0.150673	6047.387210	34275.176981	3827.856568	15771.998022
100.535500	0.106357	0.061770	0.114520	0.150175	6044.727158	34309.937442	3825.440840	15786.666026
101.036500	0.109825	0.062465	0.113102	0.151402	6060.489096	34271.531490	3820.248272	15750.553240
101.536500	0.109107	0.061851	0.117760	0.150730	6060.172091	34275.766164	3830.745349	15770.331614
102.036500	0.106823	0.061268	0.109693	0.150569	6045.231914	34245.450986	3815.223108	15775.063929
102.537000	0.106792	0.061479	0.115117	0.150818	6043.269065	34242.668954	3825.350829	15767.729671
103.037000	0.107550	0.061398	0.114064	0.151223	6045.748579	34207.836898	3822.484822	15755.837985
103.535000	0.105141	0.061584	0.114495	0.153055	6016.120603	34089.869052	3819.738951	15702.108810
104.035500	0.104346	0.059960	0.107470	0.155763	5991.872713	33781.628868	3800.913352	15623.111429
104.535500	0.107911	0.061528	0.115658	0.151705	6044.895492	34182.541446	3824.669370	15741.681290
105.036000	0.107459	0.062468	0.115985	0.152534	6035.915111	34190.443291	3823.682057	15717.350033
105.535500	0.107322	0.061573	0.116158	0.152847	6032.778366	34104.006709	3823.408048	15708.203869
106.036500	0.109349	0.061557	0.119986	0.152359	6050.405720	34137.805621	3831.928314	15722.498843
106.539500	0.106646	0.060653	0.113072	0.151362	6038.433657	34144.361558	3820.268102	15751.731077
107.037000	0.107561	0.060544	0.117546	0.151830	6041.571045	34103.129078	3828.146431	15738.015906
107.537000	0.106504	0.061084	0.113378	0.152937	6026.435852	34062.560103	3817.787150	15705.563089
108.037500	0.107576	0.060582	0.118783	0.152669	6035.796629	34045.896818	3828.932997	15713.419669
