sample name	sample
index	555
start time	 03-15-2021  12:13:28 PM
880	0.047758
Peak Time (s)	91.539
Peak Height 	0.04776
calc peak height	90,93
Baseline Time (s)	10.537
Baseline Value 	-0.004887
subtract baseline	10,4
Abs	0.031535
Peak Time (s)	90.536
Peak Height 	0.03153
calc peak height	90,93
Baseline Time (s)	11.034
Baseline Value 	0.003015
subtract baseline	10,3
PK_550	0.016400
Peak Time (s)	92.535
Peak Height 	0.0164
calc peak height	90,93
Baseline Time (s)	9.04
Baseline Value 	6.0594E-4
subtract baseline	10,2
PK_880	0.030901
Peak Time (s)	90.036
Peak Height 	0.0309
calc peak height	90,93
Baseline Time (s)	11.034
Baseline Value 	0.00149
subtract baseline	10,1


Time (s)	A880-A510	A880-A775	A880-A975	A880	I510	I775	I975	I880	
0.038500	0.000015	-0.000650	-0.000492	0.001654	6130.858046	40551.991611	3757.882750	21482.968398
0.537500	-0.000949	-0.001020	-0.006577	0.004215	6104.132965	40298.533296	3738.979242	21373.250904
1.039000	-0.001509	0.000294	-0.008280	0.004309	6099.192515	40403.789356	3735.094731	21369.222114
1.540000	-0.004289	-0.000348	-0.007218	0.007152	6057.063164	40103.653680	3731.262602	21248.166900
2.039500	-0.002683	0.000136	-0.002086	0.000565	6118.628862	40715.160135	3756.768382	21529.824422
2.535500	-0.003315	-0.000454	0.004241	-0.000103	6118.904462	40721.941862	3772.326686	21558.651771
3.039500	-0.000159	-0.000192	0.003136	-0.000646	6147.084968	40792.209511	3771.067464	21582.094474
3.536500	-0.001701	-0.000278	-0.009416	0.001095	6122.062206	40632.933727	3739.587594	21507.027702
4.036000	-0.002369	-0.000324	-0.005176	0.000044	6124.968608	40720.465874	3751.119012	21552.291403
4.536500	0.002161	-0.000446	-0.000379	-0.000301	6162.230486	40739.888615	3762.462456	21567.186007
5.037000	-0.000725	0.000620	0.003586	0.000577	6133.418096	40756.269073	3769.337687	21529.308149
5.534500	-0.001241	-0.000054	0.002414	-0.000189	6135.325657	40764.357779	3768.430452	21562.342335
6.035000	-0.001473	-0.000495	0.001701	-0.000562	6136.407455	40758.420120	3767.672599	21578.465400
6.535000	-0.001780	0.000245	0.001250	0.000000	6129.776841	40773.916997	3765.412311	21554.182121
7.035000	-0.002576	-0.000362	0.000275	-0.000421	6126.929432	40757.726219	3764.181337	21572.380421
7.536000	0.001152	0.000823	-0.003772	0.000850	6145.670256	40750.295544	3752.431355	21517.585125
8.036000	-0.001473	-0.000422	-0.000899	-0.000178	6133.472890	40731.286918	3761.036364	21561.881076
8.536000	0.002495	-0.000723	-0.002390	-0.000910	6169.487798	40768.981995	3759.356248	21593.520242
9.039500	-0.000394	0.000000	-0.000225	-0.000443	6143.733592	40791.250416	3763.119488	21573.313099
9.537000	-0.001640	0.000072	0.002621	0.000192	6129.392147	40742.116549	3768.043676	21545.931790
10.037000	-0.001198	-0.000425	-0.001327	0.000166	6132.954200	40701.069977	3759.328448	21547.057074
10.537500	0.000433	0.000300	0.001359	0.000000	6146.669986	40778.796536	3765.656109	21554.201101
11.034000	0.000000	0.000628	0.000000	0.000260	6141.370535	40784.721011	3762.058242	21542.976486
11.535500	0.000369	-0.000277	0.000157	-0.000480	6149.859697	40770.342844	3764.051734	21574.934056
12.035500	0.000122	0.000580	-0.001146	-0.000070	6144.827298	40809.336020	3760.251003	21557.215934
12.535000	-0.002120	-0.000352	-0.002141	-0.001012	6134.897187	40810.206802	3760.133347	21597.900164
13.036000	-0.001174	0.000155	-0.000369	-0.001830	6148.375220	40926.194000	3765.884587	21633.319980
13.536500	0.000403	0.000558	0.002136	0.000202	6144.894197	40783.612483	3766.937279	21545.470952
14.039000	-0.000117	0.000348	-0.002910	0.000042	6142.147383	40779.268329	3756.104808	21552.388202
14.537000	0.001107	0.000186	0.000316	0.002344	6133.918604	40564.780595	3758.146309	21453.358864
15.037000	0.000375	0.000891	-0.001789	0.000658	6141.197852	40772.997416	3757.220984	21525.855587
15.543000	0.001749	0.000345	0.002505	0.000031	6156.508938	40779.951354	3768.141055	21552.845520
16.035000	-0.000230	0.000717	0.001238	0.000154	6140.431280	40801.788596	3765.044986	21547.576204
16.534500	-0.001411	0.000335	-0.001067	-0.000768	6138.448321	40849.013703	3761.972896	21587.368000
17.036000	-0.001215	0.000267	0.000122	0.002728	6113.356585	40538.409244	3756.868308	21436.871523
17.536000	0.000408	0.000513	0.006568	-0.002426	6165.087629	41009.954715	3782.805499	21659.163993
18.036500	-0.000622	0.000347	0.002778	0.001698	6125.673074	40634.889015	3765.035071	21481.075426
18.539000	-0.001175	0.000239	0.001229	0.001406	6123.695550	40650.882019	3762.243135	21493.645639
19.036500	-0.003759	-0.000561	-0.002221	0.000659	6109.763800	40646.297684	3756.263640	21525.785619
19.537000	-0.002999	0.000020	0.001804	0.000931	6113.457773	40673.142036	3764.574430	21514.066055
20.034500	-0.002096	0.000771	0.000531	0.002086	6111.552484	40638.006719	3759.191030	21464.411839
20.537500	-0.002452	0.000279	-0.000659	0.001450	6113.670131	40650.496872	3757.965393	21491.737476
21.034500	-0.001420	0.000520	0.001310	0.001516	6120.988906	40665.739908	3762.177619	21488.889441
21.535500	-0.000653	0.000380	0.001320	0.001893	6123.959885	40620.774796	3761.366489	21472.722698
22.035500	0.002158	0.000809	0.002241	0.001877	6145.504046	40659.457312	3763.442711	21473.383811
22.535500	0.000571	0.000284	-0.003513	0.001649	6135.133459	40633.683238	3751.246359	21483.205402
23.038500	-0.000605	-0.000444	0.002280	0.000608	6134.105219	40660.866154	3766.354851	21527.994858
23.536500	-0.002310	-0.000265	0.004501	0.000884	6119.034703	40652.451830	3770.698108	21516.095985
24.037000	-0.000067	0.001010	0.000424	0.001664	6130.153186	40695.552036	3759.886983	21482.528562
24.537000	-0.000413	-0.000252	0.001321	0.000921	6133.183208	40650.405978	3763.525131	21514.529568
25.034500	-0.000731	-0.000175	-0.003077	0.000857	6131.244223	40662.679644	3753.944067	21517.278305
25.535000	-0.001585	0.000672	0.003682	0.002043	6115.753438	40633.164020	3766.281141	21466.282196
26.035000	-0.001352	0.000472	0.001230	0.001499	6121.643617	40663.028938	3762.037878	21489.640617
26.535500	-0.000811	0.000825	0.002914	0.001605	6124.945337	40684.649565	3765.546200	21485.098983
27.036000	-0.000751	0.000393	0.000209	0.001018	6129.864936	40698.090756	3760.841693	21510.341411
27.536000	0.001483	-0.000371	0.002626	-0.000985	6162.276436	40806.259460	3770.683683	21596.748134
28.036500	0.004032	0.001041	0.001722	-0.001835	6188.508965	41004.466822	3770.563101	21633.553378
28.536500	-0.000199	-0.000392	0.005660	-0.000997	6149.457364	40805.379741	3777.523454	21597.244947
29.034000	-0.002666	-0.000287	-0.007439	0.003989	6092.880190	40381.221427	3737.601762	21382.879834
29.537000	0.000641	0.001208	0.006088	-0.000190	6149.721798	40874.843424	3776.671441	21562.413564
30.035000	-0.001928	0.000229	0.001911	-0.000331	6131.178312	40801.484126	3767.624969	21568.480945
30.535500	0.000661	0.000234	-0.001415	-0.000748	6154.149537	40838.393803	3761.156430	21586.515998
31.038500	-0.002076	0.000182	-0.000438	0.004048	6096.888253	40416.714626	3752.730909	21380.375050
31.535500	-0.003012	-0.000119	0.001779	0.002989	6097.817528	40482.375638	3759.953859	21425.708391
32.037000	-0.002938	0.000271	0.000899	0.000888	6114.241440	40698.784200	3762.660053	21515.914751
32.563500	0.001421	0.001187	0.001122	0.000269	6152.177546	40832.750635	3764.531379	21542.595422
33.037000	-0.003404	0.000309	-0.000646	0.003674	6089.706043	40460.094949	3753.094929	21396.375477
33.536500	0.002083	0.001254	0.001042	0.000458	6155.805560	40822.137875	3763.932649	21534.467667
34.041500	-0.000962	-0.000000	-0.000791	-0.000729	6141.583188	40816.296934	3762.499947	21585.697206
34.537500	0.000353	0.000331	0.001878	0.000845	6139.604429	40707.840826	3764.931238	21517.801736
35.038000	-0.002635	-0.000978	-0.002572	0.002359	6105.416844	40462.553762	3751.754183	21452.722000
35.535000	-0.002434	0.000276	-0.000320	0.002051	6109.254695	40598.022917	3757.387096	21465.918552
36.035500	-0.002187	0.000288	0.002705	0.002255	6109.584002	40581.339801	3763.636624	21457.178474
36.536000	-0.003285	0.000428	0.001300	0.002043	6102.888317	40611.829956	3760.987752	21466.248987
37.036000	-0.000680	0.000260	0.001430	0.003480	6111.716520	40472.635896	3758.097405	21404.673038
37.536000	0.001217	0.000763	0.001668	0.002237	6135.568945	40624.117868	3761.372652	21457.922280
38.037000	0.000192	0.000861	0.000102	0.002365	6126.789606	40621.539816	3757.624819	21452.431266
38.537000	-0.001831	0.000053	-0.000174	0.001939	6114.674901	40588.401681	3757.958335	21470.737257
39.037000	-0.000843	0.000153	0.000523	0.001977	6121.876875	40593.728752	3759.412830	21469.086520
39.537500	-0.000474	0.000711	0.003464	0.002515	6120.596010	40595.488481	3764.744003	21446.013539
40.038000	0.000194	0.000530	0.001133	0.002439	6126.248238	40586.357184	3759.740322	21449.267568
40.535500	-0.002628	-0.000030	-0.000227	0.001511	6111.878778	40618.347880	3758.787196	21489.135923
41.035500	-0.001393	0.000335	0.002712	0.002317	6115.119626	40579.943777	3763.512358	21454.485354
41.536000	-0.001113	0.000646	-0.002228	0.002155	6118.472830	40621.074615	3752.955257	21461.446192
42.039000	-0.002277	-0.000126	0.003156	0.001362	6115.660155	40622.888873	3766.625623	21495.516988
42.536000	-0.001307	-0.000073	0.000040	0.001529	6121.756614	40613.060708	3759.337245	21488.365530
43.037000	-0.000663	0.000309	0.001046	0.002409	6119.957208	40569.679232	3759.613732	21450.535377
43.537500	0.001011	0.000832	-0.001359	0.002548	6131.627040	40603.071849	3754.002749	21444.581070
44.036500	-0.002696	0.000304	0.000152	0.002032	6107.419023	40602.059451	3758.472838	21466.736803
44.537500	-0.000457	0.000276	0.003594	-0.002543	6159.334064	40999.352613	3776.352883	21664.214683
45.035500	-0.003289	0.000616	-0.000557	0.005713	6075.270870	40310.329804	3748.818374	21309.339528
45.534500	-0.001334	0.001184	-0.001553	0.001852	6119.097402	40694.314783	3755.107046	21474.462108
46.035500	0.001312	0.001809	0.010470	0.001863	6139.148192	40747.844715	3781.929904	21473.989964
46.536500	0.000177	0.000197	0.007472	-0.000181	6146.097046	40785.588974	3779.771951	21562.000589
47.036000	-0.001824	0.000057	-0.001199	0.004641	6094.315802	40354.628224	3749.760243	21355.028965
47.536500	-0.000147	-0.000023	0.004049	0.000977	6134.779743	40665.378839	3769.477273	21512.081875
48.050500	0.000993	0.001036	0.005385	0.000767	6145.085457	40776.059914	3772.939238	21521.122791
48.537000	-0.002457	-0.000204	-0.001723	0.002478	6105.856974	40519.249023	3753.356165	21447.612653
49.037500	-0.000750	0.000132	0.000859	0.004194	6105.790075	40399.826577	3755.263778	21374.149892
49.546000	-0.001302	0.000241	0.002460	0.002335	6115.675718	40570.319355	3762.913250	21453.730511
50.035500	0.000498	0.001220	0.005854	0.001693	6134.245687	40711.395240	3771.915862	21481.321846
50.541000	0.003271	0.000929	0.003919	0.000409	6165.298406	40797.916968	3770.457615	21536.543079
51.036000	-0.004189	0.000616	-0.000773	0.004645	6076.530933	40402.657701	3750.685345	21354.880665
51.539000	-0.000046	0.001049	0.003448	0.003355	6117.471518	40551.844045	3762.843224	21410.014546
52.036500	0.018536	0.001095	0.008540	0.037942	5998.307719	37669.484972	3699.536436	19986.713784
52.536500	-0.002824	-0.016914	0.000023	0.089022	5510.671793	32548.653537	3584.024760	18081.568589
53.037000	-0.017200	-0.022241	-0.003613	-0.076934	6632.769063	45839.311333	3939.919965	25185.537023
53.537500	-0.004058	-0.036367	0.012709	-0.221201	8296.522151	60859.386284	4450.502476	33998.936090
54.037500	-0.017322	-0.024304	0.005773	-0.108308	6916.944986	48840.818449	4052.213268	26861.255581
54.535000	-0.012450	-0.018411	-0.001625	-0.169494	7589.308147	56522.034647	4217.485545	30498.942028
55.035500	-0.013179	-0.018583	-0.008611	-0.187273	7780.096167	58742.707070	4253.186904	31655.686256
55.535000	0.004402	-0.028881	0.003035	-0.228798	8502.624272	62909.464103	4442.620996	34549.176770
56.035500	0.000872	-0.018730	-0.002890	-0.202879	8130.343197	60767.893500	4326.393228	32710.769661
56.536500	0.003071	-0.009337	0.003857	-0.167562	7740.757553	57411.881616	4229.129817	30376.029486
57.036500	0.005185	-0.009568	-0.002352	-0.164509	7730.144320	57001.002847	4198.948623	30183.020025
57.536000	0.006028	-0.008434	0.004318	-0.132717	7392.694030	53310.088141	4120.245064	28251.285361
58.034000	0.006916	-0.007587	0.004805	-0.112812	7196.967981	51143.807460	4062.461280	27111.896422
58.534500	0.008248	-0.005463	0.001836	-0.093527	7019.888336	49272.731885	3999.333308	26056.676333
59.035000	0.003674	-0.005725	0.000141	-0.065132	6713.166397	46308.403485	3918.963835	24585.852147
59.535500	0.006009	-0.005799	0.003762	-0.050860	6607.735431	44896.386725	3891.825501	23882.129669
60.035000	0.003303	-0.004498	0.006699	-0.031550	6420.715497	43188.575127	3851.383058	22966.051105
60.536000	0.006439	-0.003212	0.002564	-0.017332	6330.096196	42005.071184	3807.822546	22317.059632
61.036000	0.001070	-0.003585	0.003472	-0.000353	6154.254875	40471.555346	3771.163706	21569.439857
61.536500	0.005185	-0.001144	0.004190	-0.014775	6299.467403	41961.085071	3805.662408	22202.604377
62.037000	0.003425	-0.003742	0.006278	0.013942	6063.949170	39240.293711	3745.774911	20962.264762
62.537000	0.002947	-0.003734	0.005653	0.026720	5966.559429	38185.901401	3716.993196	20436.175519
63.036500	0.004090	-0.002568	0.003134	0.017732	6040.721120	39021.761019	3730.772508	20804.592609
63.549500	0.004772	-0.000876	0.009622	0.011656	6091.165322	39674.564739	3758.132108	21058.022559
64.035000	0.002993	-0.002047	0.000353	0.011282	6080.604314	39606.997749	3738.680893	21073.706719
64.535500	0.003797	-0.000218	0.009870	0.009481	6100.197977	39915.517556	3763.499051	21149.586486
65.055500	0.001881	0.000476	0.006159	0.011973	6067.117882	39762.382716	3749.817565	21044.695158
65.538000	0.004552	0.000822	0.006594	0.010582	6097.588618	39910.277846	3753.824534	21103.167807
66.036000	0.007333	0.002046	0.009938	0.009064	6130.159361	40145.058610	3764.577891	21167.204952
66.537000	0.005678	0.002156	0.009017	0.009350	6115.412915	40129.933568	3761.897379	21155.127068
67.036500	0.005546	0.001382	0.011092	0.014198	6077.889715	39650.450747	3755.765731	20951.551968
67.537000	0.005387	0.002012	0.009468	0.012657	6088.263563	39834.882547	3755.583988	21016.035296
68.040500	0.009517	0.003192	0.010110	0.012331	6121.921046	39963.345634	3757.717084	21029.672020
68.535000	0.009710	0.003329	0.010357	0.012257	6123.947632	39981.359533	3758.427686	21032.781002
69.035500	0.006458	0.003675	0.009677	0.017655	6058.875564	39551.940304	3745.088874	20807.761844
69.535500	0.008932	0.004848	0.014972	0.017044	6081.937256	39702.976869	3758.046315	20833.099207
70.036000	0.014277	0.004616	0.008389	0.015700	6132.500285	39797.525376	3746.543816	20888.940463
70.536000	0.014148	0.005570	0.017842	0.016549	6125.057395	39806.409240	3765.509379	20853.636212
71.036500	0.012586	0.006302	0.014663	0.022954	6065.061651	39326.838236	3744.407949	20589.617823
71.536000	0.013780	0.005661	0.013606	0.019826	6097.472508	39536.337171	3748.927699	20718.061262
72.037000	0.015670	0.006867	0.015531	0.019722	6112.532056	39647.134647	3753.378095	20722.357797
72.537000	0.014922	0.007005	0.020133	0.019989	6104.860851	39636.287364	3762.955699	20711.364984
73.037500	0.012341	0.006634	0.007766	0.023919	6056.043768	39273.713483	3727.441730	20550.167559
73.535000	0.015433	0.007697	0.021002	0.023012	6085.939538	39439.317144	3758.185385	20587.226052
74.035500	0.016714	0.008797	0.018629	0.022819	6097.025708	39548.413759	3753.379300	20595.119148
74.535500	0.015467	0.009055	0.016899	0.023581	6081.922631	39505.825667	3747.918886	20563.961123
75.038500	0.013699	0.008967	0.015914	0.026245	6048.847575	39274.345695	3739.977898	20455.452597
75.538500	0.016547	0.008931	0.016534	0.026902	6065.153649	39216.251937	3739.895255	20428.780948
76.036500	0.018418	0.009145	0.026414	0.025491	6089.741172	39352.551006	3764.684960	20486.079128
76.539500	0.018471	0.010216	0.020641	0.025454	6090.413424	39445.762741	3752.011356	20487.581747
77.040000	0.015333	0.009981	0.020842	0.029763	6034.888650	39064.930275	3743.037749	20313.130320
77.537500	0.018026	0.010098	0.018358	0.027600	6070.983501	39255.498496	3742.337821	20400.477090
78.038000	0.017818	0.010778	0.024067	0.027852	6067.552726	39291.450432	3754.271576	20390.286648
78.535500	0.017919	0.011018	0.024274	0.028679	6062.138993	39242.253247	3752.907918	20356.869205
79.038500	0.018645	0.010897	0.017152	0.030556	6053.562179	39075.192495	3733.339408	20281.223341
79.536000	0.019132	0.010746	0.019924	0.029172	6067.506381	39178.220035	3742.326700	20336.977848
80.036000	0.019136	0.011746	0.025034	0.030582	6057.019733	39143.865156	3750.398788	20280.173831
80.536500	0.020481	0.012589	0.027140	0.032034	6056.223961	39093.037221	3751.833745	20221.878115
81.036500	0.017568	0.011163	0.023591	0.033787	6021.685773	38828.655360	3740.268743	20151.772986
81.536500	0.020689	0.011808	0.021003	0.032442	6054.735581	38993.914323	3737.576974	20205.527068
82.037500	0.019851	0.012024	0.026019	0.033140	6043.332653	38953.841568	3746.959597	20177.630655
82.535000	0.021706	0.013067	0.022677	0.034270	6048.711801	38946.623261	3737.244731	20132.518920
83.035000	0.018841	0.012093	0.022526	0.036281	6012.708603	38699.391620	3732.584550	20052.518528
83.535500	0.022583	0.013166	0.022826	0.035122	6048.896292	38884.064626	3735.727199	20098.565201
84.036000	0.023026	0.013136	0.023118	0.036245	6043.849861	38788.533862	3733.934161	20053.927863
84.539000	0.023096	0.012901	0.025084	0.035939	6046.641784	38794.357921	3738.840327	20066.079236
85.036500	0.022222	0.013537	0.026336	0.039439	6014.351533	38558.204332	3733.987283	19927.643886
85.536500	0.022454	0.013892	0.030860	0.040773	6006.262431	38477.723554	3740.881518	19875.151230
86.037000	0.025934	0.014570	0.021047	0.039115	6044.134405	38669.948873	3723.357230	19940.431521
86.537000	0.025096	0.014361	0.028578	0.039203	6037.276956	38645.414944	3739.338149	19936.940451
87.034500	0.022397	0.014425	0.028522	0.041182	6002.851765	38487.928718	3734.941459	19859.119793
87.537500	0.025060	0.014222	0.023374	0.039794	6032.641060	38585.337462	3726.871627	19913.664393
88.035000	0.023094	0.014314	0.026270	0.040376	6013.872815	38545.007900	3731.831052	19890.778809
88.535500	0.027243	0.015369	0.024401	0.041451	6036.526985	38543.363967	3725.525252	19848.551174
89.038500	0.025766	0.014883	0.026209	0.043130	6013.267067	38365.900974	3725.799932	19782.831528
89.536000	0.023937	0.015329	0.023666	0.044486	5989.967029	38291.512780	3717.515823	19729.954811
90.036000	0.030901	0.016243	0.030608	0.043092	6051.481194	38480.402571	3735.322985	19784.337157
90.536000	0.026263	0.016063	0.031535	0.043533	6013.960564	38429.513039	3736.370185	19767.114732
91.040000	0.027433	0.016388	0.027247	0.045190	6010.385862	38320.541486	3723.622287	19702.567813
91.539000	0.026787	0.016127	0.029639	0.047758	5986.895503	38090.237555	3723.247010	19603.013296
92.034500	0.026417	0.016183	0.030470	0.044958	6004.637288	38322.775993	3731.010902	19711.591309
92.535000	0.029164	0.016400	0.026035	0.045266	6022.554077	38315.329168	3720.883112	19699.618977
93.038000	0.026395	0.016942	0.030557	0.047214	5987.993754	38200.644226	3726.363580	19624.033579
93.535500	0.028929	0.017213	0.029648	0.046859	6009.115373	38251.640308	3725.181665	19637.786290
94.035500	0.027466	0.017430	0.032220	0.047490	5993.795344	38217.964132	3729.331389	19613.366657
94.536000	0.028208	0.017062	0.031795	0.047202	6001.326131	38211.457542	3729.039873	19624.521609
95.036500	0.029928	0.018067	0.030983	0.049670	5995.857554	38092.581139	3722.039326	19529.294399
95.539500	0.028687	0.018368	0.033071	0.051938	5970.333345	37933.277413	3721.656371	19442.231137
96.040000	0.028627	0.016270	0.030517	0.048114	5997.716794	38072.979466	3724.360396	19589.269729
96.537000	0.029431	0.017746	0.026365	0.049078	5996.548087	38114.486679	3713.519732	19552.071361
97.038000	0.030490	0.017931	0.029235	0.050917	5990.851589	37980.403459	3715.692954	19481.341762
97.535000	0.029359	0.017825	0.028518	0.052654	5970.017576	37831.697935	3710.526912	19414.856803
98.035500	0.031988	0.019271	0.034860	0.051965	5994.136707	38004.065818	3725.408199	19441.193328
98.541000	0.031225	0.019020	0.039029	0.051632	5991.001840	38010.681209	3735.064607	19453.937466
99.036500	0.029056	0.017753	0.032431	0.051901	5973.274087	37886.567769	3720.374909	19443.642610
99.536000	0.028426	0.018077	0.031502	0.055070	5945.847357	37657.831543	3711.718742	19322.749320
100.039500	0.030964	0.018707	0.034957	0.052421	5983.356574	37921.602048	3724.643115	19423.754353
100.537000	0.032092	0.019464	0.031832	0.053541	5983.412800	37892.274713	3715.634272	19380.961984
101.040000	0.028952	0.019472	0.030554	0.054623	5952.845471	37805.738630	3710.666206	19339.752637
101.537000	0.030469	0.018396	0.031742	0.057057	5946.251666	37524.376343	3708.054378	19247.421654
102.035000	0.031009	0.019186	0.037423	0.054545	5968.269456	37789.006662	3725.372583	19342.721232
102.535000	0.030553	0.019707	0.036657	0.054922	5962.246763	37800.639308	3722.937386	19328.393439
103.035500	0.031352	0.019644	0.037585	0.055769	5961.896506	37727.501642	3723.110642	19296.237427
103.536000	0.034175	0.018796	0.033380	0.055471	5984.528493	37683.343500	3714.830888	19307.549608
104.036000	0.034255	0.019545	0.035857	0.055725	5983.259535	37723.090527	3719.531022	19297.893968
104.536500	0.035277	0.019873	0.035388	0.056705	5983.564731	37670.720009	3716.464337	19260.734315
105.039500	0.032657	0.019940	0.033524	0.057911	5955.855977	37579.571155	3710.000756	19215.153171
105.537000	0.031847	0.019716	0.038207	0.056711	5958.663810	37657.649480	3722.426705	19260.504651
106.037000	0.033107	0.019619	0.034877	0.056836	5966.873519	37639.883966	3715.107737	19255.776186
106.537500	0.033829	0.020159	0.036419	0.057824	5964.950344	37604.035100	3716.279513	19218.438575
107.035500	0.036282	0.020552	0.036065	0.059210	5972.671996	37524.637874	3712.609055	19166.159801
107.535000	0.034554	0.020571	0.033211	0.058708	5963.801746	37566.295638	3707.673299	19185.085387
108.038500	0.034472	0.019669	0.037796	0.058701	5963.253806	37494.791578	3717.336025	19185.348114
108.536000	0.036413	0.021239	0.034567	0.059461	5971.797515	37559.455885	3708.934776	19156.712738
109.036500	0.037333	0.021403	0.037690	0.060949	5967.692266	37453.880762	3712.369611	19100.858277
109.535500	0.032367	0.020040	0.038222	0.063392	5914.518198	37151.974168	3708.358734	19009.514481
110.039500	0.037143	0.021048	0.040513	0.061451	5962.686992	37385.610350	3717.265620	19082.044016
110.537000	0.034843	0.020912	0.037434	0.061174	5948.102852	37396.818682	3711.357803	19092.416929
111.037500	0.035528	0.021143	0.041059	0.062164	5945.907536	37336.537475	3716.913702	19055.363492
111.535000	0.033495	0.021478	0.035897	0.065536	5907.297005	37096.157342	3699.045603	18929.750971
112.035000	0.036866	0.021848	0.043225	0.062663	5951.940555	37352.882099	3720.443283	19036.698701
112.538000	0.035684	0.021795	0.043716	0.062798	5942.473500	37337.903946	3721.198967	19031.662033
113.036000	0.036529	0.021711	0.036430	0.063122	5946.217228	37305.549911	3705.177165	19019.577894
113.536000	0.035650	0.022281	0.037040	0.066832	5913.398751	37057.271834	3698.727337	18881.736424
114.039500	0.038983	0.022660	0.040625	0.064749	5952.170305	37251.856026	3710.552681	18958.991836
114.536500	0.037708	0.021467	0.036128	0.064108	5947.601208	37208.083946	3702.491335	18982.810914
115.036500	0.040256	0.023543	0.048699	0.065793	5953.817236	37239.039356	3725.430731	18920.223926
115.537000	0.036138	0.022650	0.038389	0.068358	5906.028937	36966.329597	3698.362870	18825.406689
116.035000	0.035732	0.022997	0.038521	0.065406	5924.143360	37226.509249	3704.773261	18934.586432
116.535500	0.036289	0.021970	0.040579	0.065647	5926.399300	37126.271505	3708.571738	18925.644727
117.035500	0.039614	0.023387	0.039496	0.066329	5945.339981	37184.353472	3704.881450	18900.378081
117.538000	0.037860	0.022902	0.039421	0.069817	5907.891586	36871.598277	3697.475999	18771.698119
118.038500	0.039395	0.023394	0.043810	0.067267	5937.031851	37110.769630	3711.953830	18865.666632
118.536000	0.039207	0.023757	0.046887	0.068288	5928.383396	37058.923054	3716.288378	18828.000329
119.039500	0.039289	0.023035	0.038291	0.067043	5937.885926	37100.189848	3700.887253	18873.960070
119.536500	0.039144	0.023172	0.038200	0.071567	5904.582257	36755.870413	3691.349240	18707.544080
120.037000	0.040312	0.023332	0.044977	0.068187	5937.014410	37033.421076	3712.471792	18831.700487
120.537500	0.039674	0.023610	0.053128	0.070292	5917.420500	36889.953487	3725.282572	18754.287992
121.038000	0.039595	0.024724	0.042616	0.069991	5918.990503	37000.952197	3703.750936	18765.309684
121.535000	0.042699	0.024156	0.042688	0.069441	5945.148029	36999.625369	3705.049146	18785.544291
122.038500	0.038087	0.023952	0.043795	0.069454	5912.083300	36982.547401	3707.334601	18785.062792
122.535500	0.038603	0.024690	0.046030	0.070330	5909.528439	36971.631600	3710.182499	18752.876940
123.036000	0.043013	0.024687	0.041252	0.070297	5941.251382	36974.036323	3700.279503	18754.104261
123.536500	0.041666	0.024155	0.040887	0.070273	5931.772223	36934.153578	3699.571002	18754.981199
124.037000	0.043018	0.025045	0.044666	0.071689	5931.311291	36892.904454	3704.485722	18703.094343
124.537000	0.041142	0.024057	0.039576	0.073782	5903.047730	36652.250119	3689.628483	18626.734276
125.037000	0.041756	0.025540	0.051494	0.072111	5919.290907	36898.597720	3717.945495	18687.660155
125.534500	0.042969	0.025637	0.049472	0.072463	5925.431932	36878.654516	3712.934154	18674.803362
126.035000	0.042080	0.024848	0.044134	0.072286	5920.346765	36830.693484	3702.132944	18681.250936
126.535000	0.038638	0.024729	0.038874	0.075034	5876.532684	36607.105672	3685.627745	18581.193053
127.035500	0.043734	0.024905	0.035626	0.072906	5927.729327	36786.709788	3683.344321	18658.637825
127.536000	0.042279	0.025580	0.047310	0.073194	5915.301619	36816.976168	3706.864424	18648.151685
128.036000	0.046402	0.025442	0.045921	0.074165	5937.817841	36730.338369	3701.943765	18612.794162
128.535500	0.041398	0.025240	0.048868	0.076905	5882.781618	36501.539374	3702.371269	18513.422390
129.036500	0.043263	0.025499	0.051116	0.074234	5914.904029	36729.406355	3712.665929	18610.280777
129.534000	0.039503	0.024816	0.043130	0.078073	5861.295562	36378.500844	3688.117114	18471.297206
130.040000	0.044542	0.025949	0.047814	0.075595	5914.316513	36658.391520	3702.903811	18560.843263
130.535000	0.044018	0.025530	0.049707	0.078209	5892.067442	36423.099156	3701.405817	18466.376647
131.035500	0.047151	0.027359	0.050758	0.076986	5923.001778	36659.862307	3706.146679	18510.528903
131.538500	0.040631	0.025977	0.046378	0.079764	5857.352372	36337.539252	3691.309133	18410.433237
132.044500	0.045852	0.026247	0.046945	0.076545	5916.879132	36607.612603	3699.125991	18526.445438
132.536000	0.044044	0.027028	0.048901	0.080920	5873.162286	36329.457578	3694.124565	18368.998106
133.037500	0.045173	0.027212	0.047911	0.077674	5904.028833	36594.923834	3698.787448	18485.671535
133.536500	0.044782	0.026888	0.049195	0.082222	5869.202495	36218.461083	3692.047982	18322.441988
134.037500	0.046201	0.027311	0.049311	0.078402	5906.155027	36546.040365	3700.180851	18459.419719
134.537000	0.043036	0.026634	0.042015	0.081899	5859.245408	36223.805842	3678.055356	18333.990241
135.035000	0.045703	0.027599	0.050093	0.079233	5896.742767	36503.994543	3700.081304	18429.533053
135.535000	0.045385	0.028245	0.049481	0.083895	5861.715583	36194.290036	3689.201805	18262.846035
136.035500	0.047576	0.027859	0.049209	0.079852	5905.626604	36476.231856	3696.966300	18407.300524
136.536000	0.045908	0.027672	0.049862	0.085137	5856.688323	36055.172862	3687.435742	18218.719050
137.041500	0.047495	0.028158	0.053738	0.080210	5902.513625	36471.604839	3705.634500	18394.449445
137.536000	0.044732	0.028918	0.047535	0.085561	5845.535007	36118.080058	3681.824397	18203.695760
138.036000	0.047388	0.027939	0.053527	0.081093	5895.505530	36386.369766	3703.352506	18362.792171
138.536500	0.044801	0.028090	0.049815	0.086582	5838.917931	35976.735500	3684.389334	18167.561344
139.037500	0.047853	0.028754	0.054315	0.082248	5890.625901	36360.124412	3702.587801	18321.508104
139.534000	0.046611	0.029123	0.045526	0.086685	5850.792807	36047.746069	3675.477336	18163.915604
140.035000	0.050269	0.029612	0.053221	0.083156	5901.294372	36356.283216	3698.432517	18289.130579
140.535000	0.048507	0.028278	0.051156	0.082500	5893.470445	36304.091832	3695.519173	18312.532375
141.037500	0.050771	0.028985	0.055576	0.083169	5904.766353	36306.974811	3703.296973	18288.675910
141.535500	0.048137	0.029120	0.049802	0.088072	5851.767389	35941.696937	3681.329639	18115.005468
142.036000	0.051375	0.029734	0.056439	0.084336	5900.768963	36274.780043	3702.664058	18247.139198
142.536000	0.047977	0.029383	0.054335	0.089879	5838.082730	35824.265338	3686.887121	18051.482398
143.036500	0.051352	0.029432	0.053477	0.084925	5896.445130	36206.353440	3695.303243	18226.259899
143.536500	0.050381	0.030436	0.053852	0.085604	5884.794765	36231.296265	3694.676645	18202.184028
144.037000	0.052425	0.030465	0.052113	0.086334	5894.060085	36177.419401	3689.597154	18176.332706
144.534500	0.050316	0.030182	0.056015	0.091562	5842.632952	35757.162249	3686.880356	17992.536582
145.035000	0.051570	0.029962	0.056699	0.086126	5889.489754	36154.806610	3699.485053	18183.687150
145.535500	0.050906	0.031033	0.050567	0.092456	5840.526966	35753.948469	3674.006247	17961.357950
146.034500	0.051022	0.030302	0.056249	0.086915	5880.075122	36120.406998	3696.918893	18155.806348
146.536000	0.049980	0.029701	0.053058	0.091412	5841.344577	35732.121957	3681.159016	17997.797894
147.036500	0.051361	0.029984	0.055768	0.087725	5876.755269	36034.003758	3694.252136	18127.202561
147.536500	0.050481	0.029907	0.049596	0.092321	5838.507841	35678.897558	3672.320640	17966.043943
148.037000	0.053952	0.031370	0.057265	0.089052	5885.658771	36038.610084	3694.603917	18080.523860
148.537500	0.052069	0.030789	0.048820	0.094925	5831.465901	35549.010962	3665.547590	17875.481668
149.037000	0.056667	0.031500	0.056437	0.089946	5898.525325	35980.273050	3691.058035	18049.134727
149.534500	0.050015	0.031556	0.053276	0.094309	5821.528033	35653.352788	3675.731067	17896.868573
150.035500	0.056169	0.031947	0.060795	0.091069	5887.064343	35928.761083	3697.729576	18009.793086
150.538000	0.051903	0.031205	0.056657	0.096502	5819.418094	35461.724836	3678.134178	17820.909245
151.036000	0.057885	0.032617	0.061941	0.091410	5896.775969	35953.778872	3699.396919	17997.849632
151.536000	0.053329	0.032137	0.055939	0.096526	5829.107586	35529.949344	3676.631984	17820.079859
152.036500	0.055990	0.032639	0.062135	0.092576	5875.199743	35866.686107	3697.383218	17957.148706
152.536500	0.050293	0.031486	0.052226	0.097662	5800.377263	35395.807163	3666.885100	17780.881974
153.037000	0.057258	0.032595	0.058521	0.093080	5880.575382	35825.066723	3688.903525	17939.608632
153.537000	0.057930	0.031673	0.056303	0.092398	5890.116846	35806.871328	3685.760360	17963.370314
154.037500	0.056534	0.033721	0.056582	0.094640	5864.538782	35792.133722	3681.758571	17885.366552
154.535000	0.056507	0.033455	0.061669	0.094205	5867.394788	35804.953047	3693.058361	17900.467723
155.038000	0.057183	0.032404	0.065122	0.094238	5871.903705	35722.775217	3700.130587	17899.322040
155.535500	0.054167	0.032163	0.061788	0.099030	5817.606632	35344.122472	3683.422386	17733.848870
156.035500	0.057854	0.033621	0.062482	0.095352	5868.797544	35730.585160	3692.372324	17860.695534
156.536000	0.056630	0.034167	0.065007	0.095753	5857.422631	35741.588084	3696.752470	17846.800329
157.036000	0.057145	0.033893	0.063547	0.096277	5857.365910	35681.188168	3692.659863	17828.693572
157.536500	0.060369	0.035154	0.061953	0.097555	5870.986733	35679.941816	3686.768037	17784.576296
158.037000	0.055878	0.033561	0.063059	0.096554	5846.601143	35635.185555	3691.087178	17819.123384
158.537000	0.056476	0.034722	0.066655	0.097549	5843.836394	35647.763563	3696.446306	17784.782290
159.035000	0.058138	0.034618	0.064824	0.098071	5851.773417	35600.455673	3691.595225	17766.795034
159.534000	0.056543	0.035170	0.062104	0.103190	5805.329966	35257.923067	3675.625271	17591.643632
160.035500	0.058118	0.034030	0.061723	0.097583	5855.038327	35592.933720	3686.241209	17783.615642
160.535500	0.056579	0.034779	0.065664	0.104611	5795.844235	35123.013431	3679.955240	17543.385071
161.036000	0.059695	0.033822	0.059754	0.098812	5857.468779	35484.743996	3679.729016	17741.308263
161.536000	0.059166	0.034132	0.063459	0.103078	5824.166296	35188.849109	3678.591495	17595.441491
162.036500	0.061404	0.035135	0.064556	0.099938	5861.541270	35498.809673	3687.217178	17702.672553
162.536500	0.056047	0.034949	0.056638	0.106501	5779.312710	34995.433303	3658.079637	17479.412509
163.037000	0.063312	0.036506	0.066737	0.101785	5861.970926	35463.027257	3687.900582	17639.493336
163.534500	0.058055	0.034967	0.058584	0.105168	5802.135216	35095.582332	3664.593190	17524.493893
164.035500	0.061480	0.035505	0.069415	0.101503	5851.147313	35409.145430	3693.981519	17649.128163
164.537500	0.060403	0.036297	0.063527	0.107715	5800.770554	35005.328705	3669.382663	17438.493408
165.123500	0.060020	0.036370	0.062827	0.102618	5833.252708	35390.391213	3678.242745	17611.105075
165.535500	0.064462	0.036330	0.065404	0.103117	5860.696040	35350.032060	3682.462116	17594.120891
166.039000	0.062508	0.037057	0.071294	0.103815	5842.211053	35352.205593	3693.089535	17570.372476
166.536000	0.058255	0.036970	0.067402	0.109677	5772.730813	34909.979546	3673.225533	17372.574602
167.036500	0.063197	0.036814	0.071022	0.104330	5843.422944	35295.561656	3691.472095	17552.911062
167.537000	0.059703	0.036750	0.064964	0.109557	5783.395133	34902.619532	3668.571154	17376.600681
168.037500	0.064315	0.037001	0.064020	0.104741	5848.342247	35278.782500	3676.362244	17538.956299
168.537500	0.060686	0.036872	0.068363	0.110915	5780.845904	34811.608173	3672.669408	17331.158779
