sample name	sample
index	1224
start time	 04-29-2021  10:50:13 AM
880	0.074226
Peak Time (s)	92.035
Peak Height 	0.07423
calc peak height	90,93
Baseline Time (s)	8.536
Baseline Value 	-0.004642
subtract baseline	10,4
Abs	0.032145
Peak Time (s)	92.535
Peak Height 	0.03214
calc peak height	90,93
Baseline Time (s)	11.041
Baseline Value 	0.001528
subtract baseline	10,3
PK_550	0.027915
Peak Time (s)	90.037
Peak Height 	0.02792
calc peak height	90,93
Baseline Time (s)	9.037
Baseline Value 	8.0876E-4
subtract baseline	10,2
PK_880	0.026786
Peak Time (s)	92.535
Peak Height 	0.02679
calc peak height	90,93
Baseline Time (s)	9.537
Baseline Value 	0.001506
subtract baseline	10,1


Time (s)	A880-A510	A880-A775	A880-A975	A880	I510	I775	I975	I880	
0.037000	-0.000988	-0.000822	0.000742	0.001303	6190.415884	44274.101230	3864.763269	22807.026282
0.537500	-0.003188	-0.001063	-0.003904	0.006286	6136.081854	43779.357027	3842.648739	22579.597183
1.035500	-0.001370	-0.000420	-0.002177	0.004495	6163.270633	44009.199016	3850.671561	22661.033924
1.538000	-0.001909	0.000114	-0.000492	0.000967	6185.959933	44395.551913	3862.681642	22822.452320
2.035500	-0.001550	-0.000585	0.005741	0.000087	6195.410337	44412.826006	3879.302105	22862.939217
2.536000	-0.003924	-0.001461	-0.004256	0.004284	6145.594364	43930.637746	3846.404405	22670.653949
3.036500	0.000876	-0.000098	0.003495	-0.001102	6223.142857	44573.383336	3876.815886	22917.754425
3.536500	0.000064	-0.000838	-0.000337	0.000275	6206.316808	44370.728841	3864.645321	22854.282648
4.036500	0.000017	-0.000291	0.002503	0.000462	6204.526246	44405.118107	3870.825718	22845.684790
4.537000	-0.001115	-0.000387	0.001066	0.004091	6168.262814	44050.614547	3859.059125	22679.486130
5.034500	-0.000105	0.000123	-0.002540	0.000341	6204.519576	44456.261883	3859.391213	22851.253166
5.537500	-0.001062	-0.000121	-0.001142	0.000995	6192.205705	44370.422851	3861.112057	22821.185596
6.038000	0.000777	0.000145	-0.000264	0.000837	6207.479241	44410.953281	3863.511863	22828.462007
6.534500	-0.001584	-0.000265	0.005203	0.000203	6194.262085	44432.363317	3877.761662	22857.597533
7.035500	0.001017	-0.000232	-0.000025	0.000226	6214.005752	44433.279931	3865.483270	22856.523293
7.536000	0.000384	0.000171	-0.000803	0.000680	6205.668718	44428.370252	3862.625526	22835.640899
8.036500	0.000920	-0.000969	0.001341	-0.000646	6219.968364	44446.187806	3870.699868	22896.710534
8.536000	0.000735	0.000010	-0.001939	0.000000	6213.577183	44478.153819	3861.569840	22866.949179
9.036500	-0.000296	0.000000	-0.001988	0.000152	6204.509892	44462.633303	3861.106720	22859.964007
9.537500	0.000000	-0.000288	0.002493	-0.000281	6210.097296	44476.486338	3872.541828	22879.909508
10.035000	-0.000909	-0.000831	0.003716	-0.000236	6202.780201	44420.213412	3875.300696	22877.801819
10.538000	0.000207	0.000533	-0.000101	0.000656	6204.496700	44465.431669	3864.309617	22836.771933
11.041000	-0.001608	-0.000333	0.000000	-0.000043	6195.958573	44449.410833	3866.168550	22868.922889
11.535500	0.001624	0.000076	0.000560	0.002736	6199.428529	44223.269706	3861.022717	22741.382110
12.036000	-0.000171	-0.000913	0.004994	-0.000452	6210.097197	44433.041489	3878.813888	22887.790872
12.536500	0.000877	0.000995	0.001468	0.000940	6207.461553	44482.434252	3867.298169	22823.729929
13.036500	-0.000821	-0.000209	0.003436	-0.001405	6212.414898	44591.850699	3877.387951	22931.732323
13.538500	-0.001945	-0.000279	-0.003611	0.000732	6187.477958	44380.467595	3856.019793	22833.282758
14.042500	0.000608	-0.000067	-0.007845	0.001868	6198.287144	44292.273095	3843.731933	22781.102738
14.537000	-0.002465	0.000160	0.001932	0.001728	6175.946372	44327.307813	3866.544739	22787.553376
15.036500	0.000467	-0.001020	0.004645	-0.001859	6225.820202	44557.568623	3881.304463	22952.705528
15.538000	-0.001191	-0.000619	0.001027	0.000525	6194.806862	44367.812499	3867.236561	22842.794344
16.035000	0.001855	0.000443	0.003394	-0.001261	6231.916315	44640.678485	3876.952925	22925.105562
16.535500	0.000176	-0.000135	0.000925	-0.001688	6222.257803	44626.070262	3872.162849	22944.801755
17.036000	0.003269	0.000328	0.005460	-0.003385	6259.351643	44834.189744	3886.846160	23023.412869
17.536500	-0.002382	-0.000121	0.003610	0.000251	6187.812701	44441.563188	3873.910735	22855.394275
18.036500	-0.002225	-0.001127	-0.001129	-0.000493	6194.691197	44416.519508	3864.593094	22889.681292
18.537000	-0.001779	-0.000709	0.003659	-0.000174	6195.659059	44425.964906	3875.020972	22874.970182
19.042500	-0.002676	-0.000072	0.004505	0.000345	6184.857186	44437.248459	3875.789876	22851.077463
19.537500	-0.000279	-0.000662	0.001238	0.000669	6200.675252	44349.862285	3867.392311	22836.156990
20.040000	-0.001267	0.000195	0.002346	0.000661	6193.189724	44432.527966	3869.995653	22836.536251
20.535000	-0.001676	-0.000494	0.000257	-0.000491	6198.867348	44476.852479	3867.808471	22889.558709
21.035000	-0.001805	0.000509	0.009062	0.000229	6192.375472	44503.929852	3886.818739	22856.390306
21.536000	-0.003246	0.000484	-0.003025	0.001072	6174.995555	44420.956698	3856.587193	22817.658309
22.036500	-0.000501	-0.000372	0.001366	0.000073	6203.538373	44434.505245	3869.080087	22863.570673
22.536500	-0.001766	-0.000173	0.000817	0.000400	6191.370603	44422.303997	3867.038896	22848.538179
23.036500	-0.001359	0.000069	0.002904	0.000657	6192.521376	44420.930880	3871.307238	22836.740527
23.537000	0.001340	-0.000042	0.002796	0.001430	6207.246675	44336.427758	3869.251691	22801.221353
24.036500	-0.000536	-0.000013	-0.000705	0.000428	6200.559291	44434.940288	3863.438532	22847.260204
24.535000	-0.001949	-0.000930	0.002329	0.000023	6192.850485	44385.995240	3871.445637	22865.884356
25.037500	0.000999	-0.000732	0.001920	0.000132	6214.599098	44394.559640	3870.236301	22860.884411
25.535500	0.000378	0.000240	0.001789	0.000624	6206.057463	44440.373872	3868.780688	22838.240016
26.035500	-0.000461	-0.000337	0.001303	0.000734	6198.792790	44374.757446	3867.392690	22833.194894
26.536000	-0.000509	0.000085	0.004471	0.000576	6199.624186	44430.148988	3875.164707	22840.424982
27.036000	-0.000328	0.000219	-0.000420	-0.000714	6210.900085	44566.552720	3866.751959	22899.842345
27.536500	0.002779	0.000587	0.003891	-0.002438	6248.184444	44767.865611	3880.894465	22979.534620
28.037000	0.001813	-0.000339	0.005945	-0.001627	6234.420780	44600.672326	3883.831840	22942.016738
28.537000	0.002092	0.000354	0.004876	-0.001257	6233.717550	44631.643319	3880.430520	22924.896619
29.036500	0.002558	-0.000041	0.001313	-0.001640	6240.289121	44630.559620	3872.959330	22942.623105
29.537500	0.003209	0.000124	0.000941	-0.001623	6245.196616	44644.789324	3872.049032	22941.833427
30.034500	0.001574	0.000636	0.002963	-0.000938	6227.250725	44628.158778	3875.181301	22910.178437
30.535500	-0.000807	-0.000533	-0.003922	0.002275	6184.395118	44209.153711	3851.762105	22762.472629
31.035500	-0.001816	-0.000097	-0.002514	0.001006	6186.368541	44371.616487	3857.915012	22820.662403
31.536500	0.000614	0.000325	0.004884	-0.001246	6222.238039	44627.905633	3880.424581	22924.423063
32.036000	0.002470	0.000470	0.001348	-0.001731	6240.308588	44688.456300	3873.254753	22946.814416
32.536500	-0.002131	-0.000529	0.003404	-0.000524	6195.635936	44476.650805	3875.244114	22891.084402
33.039000	-0.000683	-0.000142	0.001791	-0.002050	6218.436899	44660.276551	3875.040510	22961.560331
33.537500	-0.000590	-0.000110	-0.001011	0.001178	6194.407790	44353.989548	3860.990717	22812.767047
34.037500	-0.001749	0.000668	0.000350	0.001186	6185.508192	44427.594960	3864.127427	22812.417931
34.537500	0.000123	-0.000277	0.004029	0.000934	6201.725676	44361.345112	3873.292331	22823.987393
35.035000	0.000561	-0.000533	0.004443	0.000226	6210.509955	44404.504224	3875.922560	22856.533520
35.536000	0.003497	0.000074	0.000782	0.001007	6227.088270	44387.897409	3865.546685	22820.647723
36.035500	-0.000448	0.000597	0.001993	0.001503	6193.016399	44390.495456	3867.209966	22797.866882
36.536500	0.000255	0.000122	0.001108	0.001355	6199.519045	44359.298730	3865.495285	22804.665765
37.036500	-0.002303	0.000208	0.003593	0.001076	6182.130235	44394.198242	3871.939260	22817.478969
37.536500	-0.000054	-0.000291	0.000450	0.001533	6195.795871	44302.892044	3863.552883	22796.489038
38.037000	0.001015	0.000332	-0.001224	0.001787	6202.021583	44338.076305	3859.089938	22784.825244
38.537000	-0.000173	0.000103	-0.000480	0.001796	6192.879340	44315.419184	3860.791760	22784.442018
39.040000	-0.000746	-0.000615	0.007702	0.000865	6195.614196	44335.730616	3882.092526	22827.179159
39.535000	-0.000375	0.000662	0.000380	0.001993	6189.830888	44349.862467	3862.325214	22775.376317
40.035000	-0.000561	0.000049	0.007057	0.001130	6195.004990	44373.821221	3879.947415	22815.007302
40.535500	-0.002545	-0.000291	0.003115	0.000599	6183.917981	44392.011544	3871.935955	22839.378871
41.036000	-0.000391	-0.000691	-0.002032	0.000690	6199.660847	44345.176234	3859.758985	22835.217637
41.536500	-0.000940	-0.000062	0.003328	0.001806	6186.950375	44298.653561	3869.615332	22783.975916
42.036500	0.001311	-0.000408	-0.002826	0.000715	6212.509960	44369.797212	3857.869103	22834.056763
42.537000	-0.001047	0.000144	0.002284	0.001506	6188.421561	44347.018508	3867.879168	22797.741503
43.037000	0.000350	0.000056	0.003727	0.001048	6202.594672	44382.247393	3872.316499	22818.753935
43.540000	-0.001516	-0.000044	0.003228	0.000561	6192.048339	44419.230019	3872.288699	22841.132059
44.037500	-0.000215	-0.000584	0.003232	-0.002095	6222.385277	44622.167634	3878.532064	22963.666942
44.535500	0.000133	-0.000502	-0.003578	-0.000995	6216.599695	44524.309582	3860.079661	22912.796930
45.034500	0.000751	-0.000920	0.002665	-0.002438	6232.481598	44622.826160	3878.004566	22979.530411
45.535500	-0.002146	0.000045	0.004092	0.001371	6181.077686	44350.323054	3872.414015	22803.902590
46.036000	-0.001107	-0.000181	0.004806	-0.001520	6211.110367	44605.619505	3880.888147	22937.079635
46.536500	0.001165	-0.000245	0.004184	-0.000167	6218.167327	44469.715416	3876.238415	22874.649998
47.036500	0.000304	-0.000069	0.000463	0.001506	6198.730486	44326.602468	3863.644770	22797.705950
47.537000	-0.000485	0.000371	-0.002939	0.002737	6183.324635	44251.244047	3852.957085	22741.320322
48.038000	0.001126	-0.000339	0.008095	-0.001489	6228.052821	44587.401772	3888.601638	22935.623162
48.537500	0.002816	-0.000198	-0.000479	-0.000579	6234.067807	44513.586337	3866.300407	22893.613276
49.035000	0.000144	-0.000823	0.004070	-0.002358	6227.178292	44624.377276	3881.128572	22975.827336
49.535500	0.000008	-0.000025	-0.001291	0.000051	6207.610272	44469.861114	3862.953706	22864.592092
50.040000	0.003237	0.000442	-0.002080	-0.000295	6235.134584	44547.844994	3861.927921	22880.543485
50.536000	0.013543	-0.002519	0.020537	0.161663	5245.636951	31386.486222	3585.893160	16651.713049
51.041000	0.012658	-0.024766	0.006929	0.165056	5222.436471	29752.970843	3557.880659	16544.479161
51.536500	-0.003458	-0.025802	-0.001323	-0.062293	6691.043763	48122.258648	4018.277457	25951.086529
52.041000	-0.015907	-0.031915	-0.013675	-0.145371	7364.429777	56891.814733	4223.803378	30816.870138
52.537000	-0.001301	-0.022398	0.005136	-0.140432	7465.407609	57463.942738	4268.191320	30500.817372
53.037000	0.006449	-0.011918	0.004560	-0.063027	6785.620779	49670.492683	4036.117843	25990.104625
53.535000	-0.003395	-0.018288	0.004317	0.005734	6138.675501	42239.512285	3862.779021	22604.684697
54.040500	-0.006989	-0.012426	-0.000536	-0.037852	6453.194884	46984.404435	3956.676261	24688.008790
54.536000	-0.000505	-0.007774	0.004841	-0.045119	6568.197651	48211.162467	3989.184396	25056.137375
55.040500	-0.001865	-0.005971	-0.001462	-0.068657	6761.542855	50934.128128	4035.051037	26291.756377
55.536000	-0.000175	-0.008546	-0.001002	-0.093197	7003.330329	53426.494562	4104.904118	27653.341796
56.036500	0.002840	-0.003832	0.002166	-0.093697	7036.855544	54036.852939	4115.494959	27681.887414
56.536500	0.009809	0.001189	0.005184	-0.082883	7000.195461	53359.177038	4093.091771	27071.713725
57.037000	0.010589	0.002939	0.007421	-0.058733	6784.235367	50822.155016	4032.230250	25762.646916
57.534500	0.011243	0.002599	0.008378	-0.058064	6784.108387	50710.993157	4033.011704	25727.433484
58.037500	0.014030	0.004541	0.008289	-0.044292	6686.542357	49426.039157	3996.044600	25013.965991
58.535000	0.013521	0.005805	0.010965	-0.031209	6569.193034	48176.737018	3969.055854	24356.851277
59.035500	0.017484	0.007716	0.010063	-0.019898	6507.266160	47207.078398	3938.197400	23804.442625
59.536000	0.016705	0.007474	0.015630	-0.006158	6387.940302	45803.169368	3918.024377	23152.517782
60.036000	0.016424	0.014052	0.017693	0.066477	5845.447702	39748.588330	3758.772392	20028.847659
60.539000	0.017704	0.011289	0.017429	0.039113	6047.764691	41896.519641	3816.883978	21144.731984
61.036500	0.018984	0.009787	0.027016	0.017357	6220.440066	43758.589714	3888.781281	22083.519168
61.537000	0.012989	0.012039	0.011467	0.052072	5921.358601	40815.336923	3775.930200	20607.507762
62.039000	0.014404	0.020476	0.015648	0.068934	5815.014863	40086.741479	3749.463839	19932.033006
62.537500	0.014707	0.020313	0.010217	0.053678	5922.147753	41402.058100	3769.901782	20542.052980
63.034000	0.016099	0.022660	0.018209	0.044372	5998.062851	42449.299559	3807.029370	20924.796931
63.535000	0.012811	0.020494	0.017838	0.042755	5986.078535	42399.331841	3809.761488	20992.139544
64.035500	0.015559	0.021234	0.016037	0.036956	6047.852588	42998.712966	3818.579879	21235.732621
64.536000	0.014457	0.022789	0.016298	0.038031	6032.001714	43043.011130	3816.777528	21190.334124
65.036500	0.015410	0.022272	0.014727	0.038745	6033.743412	42929.462072	3811.737250	21160.252867
65.536000	0.015689	0.022127	0.011678	0.045444	5987.431486	42303.426367	3790.527855	20880.289096
66.036500	0.018525	0.022615	0.016802	0.045158	6009.863022	42373.676310	3802.239139	20892.141043
66.537000	0.016631	0.021323	0.018843	0.047829	5977.121622	42015.084891	3800.867151	20781.646322
67.037500	0.014836	0.023569	0.015334	0.052151	5933.772178	41828.538941	3783.987638	20604.275058
67.537500	0.012999	0.022949	0.016503	0.058487	5876.805270	41209.864458	3773.014755	20347.446628
68.035000	0.017244	0.023442	0.016793	0.058586	5905.566919	41244.664306	3773.417764	20343.448641
68.535500	0.017431	0.023485	0.023242	0.062451	5880.041475	40908.621187	3778.892517	20188.649337
69.036000	0.017821	0.023749	0.021899	0.066410	5855.466649	40586.544374	3767.694908	20031.487714
69.536000	0.012862	0.023555	0.022285	0.074704	5765.979444	39856.975717	3751.248769	19706.862813
70.036000	0.016989	0.024203	0.016799	0.074822	5792.758529	39902.097477	3739.772487	19702.270313
70.536500	0.019317	0.024965	0.027057	0.079926	5774.184212	39533.885921	3750.319828	19505.600944
71.036500	0.018714	0.024260	0.015667	0.083373	5747.310263	39185.358416	3720.291664	19374.106576
71.537000	0.015852	0.023904	0.015198	0.091060	5678.448419	38519.377930	3704.215552	19084.554185
72.040000	0.019196	0.024019	0.020366	0.090452	5704.047778	38578.695629	3715.568154	19107.266380
72.535000	0.017578	0.025527	0.022439	0.094164	5669.582665	38398.099166	3712.331294	18969.088007
73.035000	0.019696	0.024760	0.024790	0.096475	5668.336584	38147.289839	3712.409203	18883.635384
73.535500	0.016482	0.024608	0.024388	0.103266	5604.795289	37588.262428	3698.346345	18635.204050
74.036000	0.020563	0.025790	0.025778	0.102256	5636.942948	37763.790660	3703.011397	18671.886681
74.536000	0.020463	0.024014	0.030317	0.102357	5635.666530	37613.421117	3711.711306	18668.229721
75.036500	0.023426	0.024507	0.023207	0.102810	5651.649522	37616.596719	3696.940238	18651.743342
75.537000	0.019653	0.025125	0.025811	0.108717	5590.513331	37196.267589	3690.571402	18438.561269
76.037000	0.022265	0.025396	0.029705	0.105818	5625.155376	37447.600126	3703.725235	18542.839226
76.539500	0.020684	0.026136	0.030032	0.105562	5616.784892	37526.924768	3704.864614	18552.072145
77.037500	0.022966	0.025651	0.025324	0.104017	5641.026507	37611.593363	3698.704718	18607.965559
77.538000	0.024432	0.026097	0.026501	0.103924	5650.961361	37654.703915	3701.172381	18611.323910
78.035500	0.023060	0.025828	0.023917	0.103883	5642.471951	37636.387322	3696.239173	18612.800241
78.535500	0.024672	0.026970	0.024014	0.102633	5660.752485	37828.296745	3698.847404	18658.176535
79.036000	0.027921	0.026737	0.029242	0.101135	5691.337305	37930.215262	3711.998982	18712.722280
79.536000	0.026620	0.026777	0.030780	0.099929	5690.721972	38030.870985	3717.425054	18756.798368
80.036500	0.023573	0.026583	0.020874	0.099639	5672.922232	38038.633211	3698.564151	18767.398003
80.536000	0.026355	0.026548	0.027623	0.096555	5710.932302	38286.299455	3717.854435	18880.701678
81.034000	0.027165	0.026707	0.031639	0.094700	5728.368496	38450.714973	3729.580610	18949.212536
81.534500	0.025072	0.027072	0.025831	0.092790	5727.168315	38637.558400	3721.779295	19020.096092
82.037000	0.025751	0.027197	0.028324	0.094144	5722.739094	38536.511763	3724.051375	18969.818096
82.535500	0.025841	0.027848	0.029299	0.090706	5745.946293	38873.683863	3732.914985	19097.769053
83.035500	0.027486	0.027671	0.028747	0.089052	5767.814968	38996.291653	3735.142826	19159.692400
83.535500	0.025219	0.028042	0.033056	0.087179	5765.201014	39183.380369	3747.744579	19230.122013
84.036000	0.024434	0.028334	0.030777	0.089218	5746.480597	39037.637513	3738.923039	19153.477414
84.536000	0.027189	0.028219	0.028430	0.084943	5793.295352	39385.495523	3742.851428	19314.554783
85.037000	0.028097	0.028681	0.031266	0.083843	5806.802140	39516.951674	3750.922086	19356.243706
85.537000	0.027352	0.028763	0.029209	0.082125	5813.367931	39669.062911	3750.223586	19421.586832
86.039500	0.024489	0.027599	0.029909	0.084208	5780.129976	39395.117803	3747.381317	19342.391363
86.537500	0.027935	0.029193	0.032436	0.079911	5832.334403	39893.668468	3761.495197	19506.180053
87.035000	0.026434	0.028368	0.032079	0.077997	5835.146238	39986.596094	3764.747395	19579.671899
87.535500	0.025430	0.027689	0.025352	0.081456	5804.910637	39634.784295	3743.684643	19447.102000
88.035500	0.026614	0.028202	0.031305	0.076026	5849.836210	40141.135711	3767.254563	19655.690701
88.536500	0.027851	0.027865	0.034104	0.074811	5866.654749	40216.433744	3775.713668	19702.695263
89.036000	0.025861	0.027720	0.027337	0.073978	5858.709474	40275.613527	3763.237076	19735.031935
89.536500	0.024621	0.027867	0.023500	0.078123	5821.976069	39933.067572	3746.716470	19574.816015
90.037000	0.026704	0.027915	0.031537	0.072534	5874.448685	40417.000584	3775.099532	19791.195476
90.537000	0.024317	0.027208	0.027957	0.071269	5866.712705	40465.253378	3770.214488	19840.552313
91.037000	0.025160	0.027209	0.025128	0.070496	5877.851939	40532.195277	3765.897291	19870.778173
91.535000	0.020398	0.026225	0.028827	0.073349	5825.711298	40201.127188	3767.671394	19759.445916
92.035500	0.022971	0.026639	0.028875	0.074226	5837.248320	40161.397814	3765.935007	19725.402286
92.535500	0.026786	0.027538	0.032145	0.070213	5891.067860	40585.295128	3781.317197	19881.855993
93.036000	0.024115	0.026000	0.029821	0.068460	5884.705583	40603.960429	3780.102679	19950.665100
93.536000	0.022772	0.025853	0.027168	0.072420	5848.217194	40249.034588	3766.140574	19795.618322
94.036000	0.023970	0.025328	0.022612	0.071926	5859.812271	40246.345519	3757.669523	19814.881025
94.537000	0.026381	0.025706	0.029895	0.067873	5904.526871	40629.452189	3781.509923	19973.774841
95.037000	0.026773	0.025849	0.030203	0.067526	5909.684520	40672.078698	3782.907233	19987.451541
95.540000	0.023799	0.025188	0.021274	0.071562	5861.140568	40265.666672	3755.650933	19829.116861
96.034500	0.028645	0.025657	0.030436	0.066981	5926.599998	40702.787884	3784.568861	20008.936719
