sample name	sample
index	1394
start time	 05-10-2021  10:46:04 AM
880	0.198194
Peak Time (s)	92.536
Peak Height 	0.1982
calc peak height	90,93
Baseline Time (s)	11.539
Baseline Value 	-0.004708
subtract baseline	10,4
Abs	0.142361
Peak Time (s)	91.535
Peak Height 	0.1424
calc peak height	90,93
Baseline Time (s)	9.04
Baseline Value 	0.003684
subtract baseline	10,3
PK_550	0.092495
Peak Time (s)	91.038
Peak Height 	0.0925
calc peak height	90,93
Baseline Time (s)	9.04
Baseline Value 	0.001224
subtract baseline	10,2
PK_880	0.136767
Peak Time (s)	92.536
Peak Height 	0.1368
calc peak height	90,93
Baseline Time (s)	9.04
Baseline Value 	0.002826
subtract baseline	10,1


Time (s)	A880-A510	A880-A775	A880-A975	A880	I510	I775	I975	I880	
0.034500	-0.000927	-0.000794	0.001218	0.001006	6407.804624	45155.704347	3903.140990	23302.483312
0.538000	-0.001483	-0.001126	-0.008591	0.003009	6386.904453	44929.297441	3873.950929	23208.389694
1.035500	-0.004348	-0.000337	-0.004511	0.005163	6346.268620	44797.554911	3878.656330	23107.726224
1.536500	0.001323	-0.000424	0.001221	0.000435	6430.984056	45247.224120	3904.578649	23329.370878
2.036500	-0.000894	-0.000484	-0.002166	-0.000132	6417.411801	45296.637464	3897.528509	23356.124020
2.536500	-0.001810	-0.000782	0.001539	-0.000322	6411.451511	45286.144676	3907.279370	23365.105433
3.039500	0.001603	0.000279	0.001947	-0.000075	6437.503847	45365.507166	3907.684633	23353.425455
3.540000	-0.000321	-0.000401	-0.002079	-0.000215	6422.799299	45312.841315	3897.953087	23360.036665
4.037500	-0.002637	-0.000183	0.001384	0.000483	6398.095567	45266.018054	3904.866257	23327.098377
4.537500	-0.001081	-0.000543	-0.002668	-0.000121	6415.787251	45289.884852	3896.253589	23355.619234
5.035000	-0.000873	-0.000634	0.000178	0.000124	6415.482944	45257.093100	3902.746915	23344.048932
5.535000	-0.001651	0.000364	-0.001548	0.000451	6406.426425	45322.571701	3897.618296	23328.639407
6.036000	0.000403	-0.000899	-0.006323	-0.000486	6430.994382	45290.639966	3888.093591	23372.820511
6.536000	-0.001859	0.000173	0.002285	0.000152	6407.168589	45333.081408	3907.965115	23342.738590
7.036000	0.000031	-0.000449	0.001122	-0.000191	6425.501002	45305.799761	3905.903163	23358.915591
7.536500	-0.001193	-0.000550	-0.002018	0.000011	6413.783096	45276.275825	3897.542263	23349.395343
8.037500	0.000711	0.000064	-0.001193	0.000262	6427.365825	45311.648650	3898.971660	23337.510516
8.539500	-0.000100	0.000467	-0.000473	0.000800	6416.279853	45298.502003	3899.428238	23312.187412
9.040500	0.000000	0.000000	0.000000	0.000001	6423.667405	45330.912545	3902.608224	23349.856389
9.534000	0.000688	0.000778	0.000091	0.000405	6426.005314	45367.484701	3901.824360	23330.810960
10.038000	0.000444	-0.000245	-0.002319	-0.000692	6433.033963	45374.626507	3898.544156	23382.577585
10.538000	-0.002232	-0.001171	0.001869	-0.000805	6411.952167	45295.264254	3909.325829	23387.918131
11.035000	0.000020	-0.000554	-0.003704	-0.000601	6428.789283	45335.599456	3894.868672	23378.268923
11.539000	-0.000391	0.000759	0.001327	0.000000	6420.454126	45405.114830	3905.936455	23349.891461
12.036500	-0.001207	-0.000362	-0.000352	-0.000151	6414.998445	45310.431099	3902.107544	23357.019938
12.539500	-0.000522	0.000484	0.001289	-0.000160	6420.700625	45393.880808	3906.243893	23357.456169
13.039000	0.000042	-0.000499	0.001141	-0.002635	6445.772500	45540.004947	3912.105887	23474.609264
13.537000	0.000698	0.000713	-0.002768	-0.000354	6432.339329	45435.284767	3896.582819	23366.611208
14.057000	-0.000944	0.000818	0.003929	-0.000154	6417.177061	45425.984444	3912.880575	23357.162914
14.536500	0.002135	-0.000184	-0.002964	0.001904	6425.571014	45127.597931	3890.487992	23260.229113
15.037500	-0.002642	0.000260	0.000969	0.000925	6394.447839	45266.187886	3902.720475	23306.302319
15.557500	-0.000514	-0.000088	0.001358	-0.000883	6426.709978	45408.642840	3908.236043	23391.602074
16.035500	-0.001568	-0.000626	-0.000466	-0.001227	6420.862537	45389.607938	3904.515544	23407.847478
16.536500	0.000681	0.000007	0.002446	-0.000508	6433.470388	45381.203757	3910.030044	23373.856189
17.036000	0.000613	0.000381	0.004996	-0.000433	6432.294763	45410.520856	3916.288145	23370.344184
17.536000	0.000219	0.000373	-0.000562	-0.002873	6449.203472	45648.977654	3908.410641	23485.892567
18.036500	0.001273	0.000336	-0.002141	-0.002489	6454.765727	45607.674550	3903.482993	23467.688676
18.534000	-0.001760	-0.000162	0.000701	0.000888	6401.954317	45228.617432	3902.140973	23308.028103
19.034000	0.000268	-0.000713	-0.002164	0.000355	6422.960321	45226.892255	3896.320602	23333.145609
19.535000	-0.001720	-0.000474	0.001162	0.000694	6403.869339	45217.112942	3903.783305	23317.171800
20.036000	-0.000068	0.000438	-0.001103	0.001320	6412.264033	45244.972584	3896.560510	23287.683131
20.535500	-0.001410	0.000064	0.000499	0.001251	6401.850905	45215.326937	3900.730735	23290.969620
21.035000	-0.001857	-0.000959	-0.002580	0.000386	6405.269180	45199.889296	3895.209849	23331.694696
21.536000	-0.001284	0.000364	0.006499	0.001546	6400.463417	45215.681651	3915.079634	23277.053267
22.036500	-0.002861	-0.000464	-0.001312	0.001217	6390.282509	45167.266222	3896.298517	23292.566931
22.539500	-0.001426	-0.000035	0.000656	0.001328	6401.087298	45198.178767	3900.927884	23287.318312
23.037500	-0.001257	-0.000232	-0.004042	0.000886	6406.083530	45221.971552	3890.342156	23308.123008
23.537500	-0.001161	-0.000253	-0.000895	0.001164	6404.589171	45192.912836	3897.467504	23295.028639
24.038500	-0.003562	0.000091	0.000446	0.001107	6385.470472	45231.975317	3900.958008	23297.742817
24.538000	-0.001484	0.000278	-0.002733	0.001371	6400.261534	45224.422876	3892.385310	23285.321652
25.036000	-0.001586	0.000032	-0.004036	0.001155	6401.193378	45221.524772	3889.690082	23295.453291
25.535500	-0.000055	0.000286	0.001031	0.001408	6411.658681	45221.637749	3901.665907	23283.573787
26.036500	-0.001230	-0.000535	-0.003194	0.000731	6407.572898	45207.615944	3892.826345	23315.429923
26.536500	-0.001633	0.000140	0.002470	0.001023	6401.884355	45244.835126	3906.240072	23301.678473
27.037000	0.001087	0.000422	-0.000189	0.001484	6420.402840	45227.441429	3898.428376	23279.978487
27.537000	0.000383	-0.000252	-0.000282	0.001268	6416.402485	45182.933589	3898.738069	23290.165866
28.039500	0.000514	0.000461	0.002356	-0.001604	6441.143224	45533.080617	3912.569677	23425.717115
28.537000	-0.000517	-0.000597	-0.005284	0.000642	6414.147088	45210.179641	3887.874356	23319.612695
29.087500	0.000362	0.000620	0.001737	-0.000100	6427.481886	45401.387179	3907.220619	23354.622302
29.538500	0.001892	0.000920	0.004376	-0.000140	6440.430359	45434.559390	3913.976387	23356.511394
30.036000	-0.000805	-0.000003	-0.001283	-0.000902	6424.468415	45418.830224	3901.656819	23392.496043
30.538500	0.000854	0.000413	0.001874	0.001663	6417.021721	45209.118134	3903.138890	23271.576787
31.037000	-0.000964	-0.000552	-0.003507	-0.001155	6425.241509	45389.874248	3896.737967	23404.451167
31.536500	-0.000723	-0.000705	-0.002351	0.001246	6407.506444	45140.997778	3893.642277	23291.182862
32.039500	0.000255	-0.000089	-0.002815	0.002243	6407.353080	45103.951796	3890.019467	23244.314388
32.543000	-0.001928	0.000095	-0.000592	0.002903	6384.151563	45057.866272	3893.895785	23213.397636
33.038500	-0.000337	-0.000154	0.000345	-0.000744	6427.026587	45388.674715	3905.341925	23385.042089
33.538000	0.000816	0.000144	-0.003858	-0.000581	6435.178537	45401.756853	3894.435453	23377.302166
34.034500	0.001168	0.000505	-0.001635	-0.000115	6434.243383	45391.537132	3898.811176	23355.318281
34.536500	-0.000443	0.000463	-0.001421	0.002259	6401.511272	45156.052176	3893.435591	23243.575936
35.041000	-0.001707	-0.000189	0.000858	0.001765	6395.220835	45140.743607	3900.341996	23266.790901
35.536500	0.000357	0.000038	-0.000793	0.001700	6412.645713	45169.071984	3896.386943	23269.852568
36.040000	-0.002756	-0.000524	-0.002333	0.001194	6391.321026	45163.635104	3893.815912	23293.631968
36.539500	-0.001422	0.000010	0.001788	0.002401	6392.357961	45098.283414	3901.077696	23236.930372
37.036500	0.002188	-0.000456	-0.001275	0.001409	6430.090998	45149.324247	3895.911741	23283.530918
37.537500	-0.001180	0.000382	-0.005640	0.002060	6397.111597	45167.529694	3883.499838	23252.909742
38.037500	-0.002311	-0.000425	-0.000408	0.000868	6397.615662	45204.974097	3899.420354	23308.984274
38.538000	0.000610	-0.000133	0.003057	0.001723	6414.528521	45150.200120	3905.953806	23268.740758
39.035000	-0.000304	0.000608	0.000819	0.002280	6402.477948	45168.116625	3898.957527	23242.598977
39.536000	-0.000504	-0.000235	-0.001994	0.001415	6407.914607	45170.145155	3894.106446	23283.213451
40.035000	0.002010	0.001245	-0.000968	0.002453	6420.026496	45213.271087	3894.079025	23234.471253
40.536000	-0.001998	-0.000199	-0.000336	0.001735	6393.084957	45142.642717	3897.436175	23268.175603
41.036500	-0.001892	0.000354	-0.002633	0.002102	6390.962567	45160.716273	3890.821577	23250.970989
41.537000	-0.001378	0.000127	-0.004426	0.001718	6398.295869	45175.974982	3887.335427	23269.004897
42.037000	-0.000854	0.000329	-0.004313	0.001799	6401.914049	45187.746771	3887.413560	23265.186280
42.534000	-0.001987	0.000875	-0.003718	0.003853	6375.942447	45041.292087	3883.817346	23168.881645
43.034500	-0.001421	0.000500	0.000526	0.001636	6398.603535	45220.156214	3899.833881	23272.821017
43.538000	-0.000802	0.000268	-0.001029	0.001624	6403.772351	45198.819055	3895.988892	23273.413331
44.035500	0.000879	-0.000039	-0.000929	0.001071	6422.089595	45222.742304	3897.612065	23299.402330
44.536000	-0.000402	0.000189	-0.001864	0.003708	6390.021287	44988.907140	3888.749952	23175.690334
45.036000	0.002091	0.000106	0.000006	-0.003082	6466.484424	45643.262195	3910.368518	23495.817341
45.536500	0.002460	0.000034	0.002718	-0.000755	6450.221434	45408.104231	3911.339753	23385.553910
46.090000	-0.000790	-0.000107	0.000993	0.000683	6411.574192	45253.877013	3903.386527	23317.677365
46.537000	-0.001790	-0.000216	0.000225	0.004828	6369.629925	44841.460494	3891.145247	23123.331785
47.034500	0.000717	0.000825	0.004790	-0.000169	6430.971506	45428.091856	3915.096383	23357.862017
47.540500	0.003631	0.000241	-0.000724	-0.000689	6459.398807	45421.862967	3902.524152	23382.440024
48.035000	0.000297	0.000165	0.004996	-0.000944	6433.899648	45439.427283	3917.583945	23394.496163
48.535500	-0.001917	0.000521	-0.002310	0.004423	6371.887545	44951.803901	3885.883119	23142.270607
49.035500	-0.002497	-0.000420	-0.000311	0.001681	6389.462873	45126.339640	3897.634150	23270.717628
49.536500	0.001192	-0.000285	0.000797	-0.000335	6436.261669	45335.916927	3905.449288	23365.707286
50.036500	0.000220	0.000660	-0.002279	-0.000207	6427.188894	45415.727205	3897.437156	23359.682798
50.539000	-0.003697	-0.000382	-0.003700	0.005822	6346.204883	44729.761309	3879.028991	23077.032856
51.036000	0.000296	0.000454	0.000264	-0.000493	6430.166642	45423.519570	3904.506903	23373.148783
51.536500	0.002579	0.000792	0.001677	-0.001945	6461.095296	45599.067853	3911.717148	23441.889664
52.034500	0.001197	-0.000036	0.006790	-0.000121	6434.531533	45339.294625	3920.052658	23355.607473
52.537500	-0.002568	0.000937	0.005626	0.006307	6351.392919	44810.038381	3900.905954	23054.461615
53.034500	0.023433	-0.009414	0.036021	0.294012	4766.803831	24018.917699	3415.577145	13271.039428
53.535500	0.005612	-0.012695	0.000100	0.108819	5667.873232	34984.958551	3661.808845	18808.178880
54.035500	0.005180	-0.023575	-0.004753	-0.086949	7268.093622	51991.005948	4129.167959	27891.985198
54.536000	-0.016640	-0.039352	-0.010302	-0.174108	7985.324004	60753.427771	4400.788300	33455.606252
55.041500	0.008573	-0.025419	0.015572	-0.156887	8080.702080	60317.454913	4432.700339	32266.110178
55.539500	0.012859	-0.012549	0.022409	-0.074274	7217.559497	51805.025156	4173.735476	27171.896719
56.036500	0.013654	-0.008956	0.031672	-0.006820	6596.166738	45122.991624	4003.382503	23674.225666
56.537000	0.018778	-0.006749	0.030957	-0.007952	6650.510551	45448.558654	4004.522553	23728.542075
57.040500	0.036185	0.009400	0.038012	0.001740	6718.617830	46085.211073	3997.322533	23267.934178
57.538000	0.045916	0.019053	0.048642	-0.003407	6853.433633	47580.972509	4041.056904	23511.287327
58.035500	0.054386	0.023383	0.053709	-0.004542	6942.953151	48146.230585	4058.685491	23565.329523
58.538000	0.059829	0.030490	0.060733	0.041351	6578.988902	44284.047719	3952.237123	21488.818511
59.036000	0.068908	0.036184	0.070770	0.046894	6609.470952	44298.412684	3964.064342	21252.558675
59.536000	0.077017	0.037941	0.074977	0.049361	6658.617144	44230.798801	3968.674259	21148.340368
60.036000	0.083417	0.043546	0.087778	0.086783	6396.079010	41313.952719	3905.102103	19638.320221
60.537000	0.086541	0.045942	0.092691	0.123258	6133.985947	38417.839213	3828.708874	18286.581786
61.036500	0.095501	0.050696	0.100542	0.147868	6017.772278	36832.307351	3790.348057	17436.633583
61.537500	0.103484	0.053463	0.110293	0.169100	5922.604386	35421.537768	3764.909600	16741.078537
62.035000	0.107783	0.058411	0.118791	0.184561	5844.646198	34644.672171	3749.802537	16255.526668
62.534500	0.103175	0.059032	0.112264	0.192690	5758.108283	34101.326336	3718.792843	16007.107997
63.034500	0.106652	0.059763	0.115182	0.192092	5785.523501	34196.862265	3726.137735	16025.229501
63.538500	0.107807	0.063297	0.115271	0.206161	5699.526954	33447.689756	3697.282242	15605.506558
64.045000	0.108595	0.067508	0.118994	0.212489	5663.410413	33299.366889	3692.008459	15421.118869
64.544000	0.107511	0.069275	0.120080	0.209428	5676.249545	33638.737039	3700.420449	15509.987270
65.038500	0.112419	0.073738	0.119751	0.199442	5774.842333	34677.288323	3720.322390	15804.248543
65.586000	0.112879	0.076191	0.119300	0.191200	5834.032917	35468.562685	3736.705578	16052.301134
66.037500	0.115935	0.077608	0.122632	0.187403	5881.480891	35861.416990	3751.955619	16168.137418
66.534000	0.113938	0.078443	0.115960	0.183698	5893.425236	36207.377300	3745.579036	16282.179307
67.035000	0.114530	0.078867	0.124334	0.181210	5915.080862	36431.130751	3769.139333	16359.292140
67.620500	0.113720	0.079804	0.118760	0.179270	5923.072728	36653.838661	3761.191959	16419.758891
68.267500	0.112795	0.079948	0.119153	0.182126	5896.434804	36443.958608	3755.842298	16330.864804
68.539000	0.111825	0.080851	0.117508	0.183999	5876.562774	36369.172487	3748.254658	16272.890076
69.040000	0.115154	0.081031	0.114748	0.178055	5941.868642	36843.890723	3755.119750	16457.742186
69.539000	0.118263	0.081981	0.122038	0.180106	5949.410101	36758.069196	3766.525629	16393.675980
70.036500	0.118473	0.082703	0.120657	0.181574	5940.444444	36700.044175	3760.304572	16347.991568
70.537000	0.112772	0.081907	0.121112	0.188533	5851.673217	36102.554324	3746.258239	16133.566264
71.034000	0.115164	0.081441	0.124287	0.183570	5902.935721	36447.708488	3763.868563	16286.152686
71.538500	0.120173	0.082619	0.121266	0.186603	5916.850870	36304.881186	3750.735765	16192.697109
72.035000	0.119987	0.083679	0.124379	0.189187	5897.351429	36187.981165	3751.875902	16113.585898
72.744500	0.123680	0.083583	0.127585	0.193743	5891.306948	35833.733130	3748.969546	15975.256010
73.044000	0.121568	0.082358	0.126334	0.192562	5884.792838	35830.422963	3748.818151	16010.969958
73.535000	0.118495	0.082142	0.130145	0.194353	5850.998940	35678.798075	3753.170807	15956.842067
74.037500	0.122551	0.083602	0.131514	0.197463	5857.540915	35554.598300	3749.418532	15863.380563
74.580000	0.121020	0.083464	0.127854	0.204537	5798.548014	35017.567873	3726.613472	15653.280702
75.037000	0.124633	0.083146	0.128212	0.199643	5856.864414	35357.254524	3737.701240	15798.267734
75.540000	0.126128	0.085803	0.131004	0.201914	5851.496483	35386.116292	3738.807414	15730.771498
76.037000	0.127211	0.085238	0.128556	0.202417	5855.504348	35306.377297	3732.553376	15715.872021
76.537500	0.121508	0.084326	0.130209	0.207530	5781.589600	34860.547049	3725.275136	15565.398763
77.035000	0.126698	0.085406	0.133163	0.202067	5854.378972	35345.029638	3743.084038	15726.251853
77.535000	0.126619	0.085656	0.131469	0.201403	5858.434467	35413.360988	3740.887681	15745.948710
78.038000	0.126993	0.085652	0.132267	0.200969	5864.031654	35445.526222	3743.516878	15758.824482
78.536500	0.124851	0.086610	0.127796	0.207497	5804.462304	35031.211270	3720.300460	15566.347747
79.038500	0.128036	0.087039	0.135679	0.201052	5870.702734	35543.210853	3750.659508	15756.359765
79.537500	0.126983	0.086952	0.136952	0.200741	5865.541823	35560.059094	3754.075632	15765.581434
80.039500	0.128123	0.087083	0.138083	0.200335	5876.291620	35600.424545	3757.404000	15777.657783
80.537000	0.125158	0.085860	0.136142	0.204026	5830.275009	35232.956695	3745.266485	15668.330221
81.037000	0.128311	0.087749	0.134531	0.199101	5886.220397	35743.600207	3752.388527	15814.414895
81.535000	0.127563	0.085756	0.136491	0.197228	5894.093535	35734.554714	3760.697150	15870.423972
82.037500	0.129049	0.087325	0.133364	0.198090	5898.472062	35787.983754	3752.054271	15844.623364
82.545500	0.129367	0.087511	0.136489	0.197587	5904.239116	35840.159867	3759.911926	15859.669606
83.035500	0.131900	0.086791	0.131919	0.196517	5929.685457	35866.661791	3752.330069	15891.758384
83.535500	0.128234	0.087894	0.136156	0.197487	5896.983929	35876.765696	3759.404860	15862.667560
84.039000	0.131050	0.087218	0.138176	0.197085	5919.643090	35856.029366	3764.686595	15874.722371
84.537000	0.130847	0.089214	0.136253	0.198356	5909.236484	35910.949334	3757.727602	15836.661111
85.036500	0.131278	0.087910	0.132226	0.196348	5926.464075	35964.466851	3753.356613	15896.811090
85.537500	0.131362	0.088087	0.136926	0.196010	5929.462674	36003.678491	3764.302453	15906.976778
86.040000	0.133182	0.087333	0.141466	0.195654	5944.924604	35973.318288	3775.062332	15917.662016
86.538000	0.131173	0.088493	0.139823	0.198730	5908.909054	35827.983248	3764.690813	15825.514315
87.038000	0.130525	0.088678	0.142419	0.196095	5922.928110	36042.176254	3776.192933	15904.402537
87.535500	0.134208	0.089397	0.141015	0.195910	5950.412994	36111.188798	3773.499649	15909.970012
88.035000	0.132465	0.089630	0.138813	0.197110	5929.480758	36037.431829	3766.025018	15873.968735
88.539000	0.130738	0.089944	0.135611	0.200686	5892.109736	35789.690236	3751.299860	15767.225068
89.036500	0.134860	0.090877	0.142509	0.196754	5949.042799	36159.797625	3774.936035	15884.629036
89.537000	0.132718	0.090953	0.141690	0.196526	5935.421976	36183.013184	3773.631438	15891.473072
90.037000	0.134075	0.090587	0.134971	0.196920	5942.265195	36124.884654	3758.062393	15879.655716
90.537500	0.135722	0.091697	0.139766	0.197484	5949.988032	36166.671014	3767.294154	15862.767430
91.037500	0.135739	0.092495	0.139827	0.197955	5946.755929	36191.732272	3766.394219	15848.672218
91.535000	0.134934	0.091908	0.142361	0.197835	5941.867160	36155.917391	3772.223300	15852.238457
92.035000	0.133609	0.091580	0.138481	0.197830	5932.493141	36131.252412	3763.725585	15852.412382
92.536000	0.136767	0.091597	0.135674	0.198194	5952.378857	36104.731390	3756.822777	15841.501299
93.041500	0.135966	0.091368	0.136654	0.198267	5946.143461	36081.677184	3758.792979	15839.337901
93.539500	0.134459	0.091051	0.136566	0.199076	5929.674439	35995.805852	3756.845396	15815.159663
94.036500	0.135936	0.092636	0.141313	0.201431	5923.463500	35937.322003	3762.045246	15745.108769
94.537500	0.136054	0.092692	0.138827	0.203709	5908.214273	35768.918639	3751.717896	15677.694049
95.037000	0.136234	0.093565	0.138359	0.202237	5919.871653	35946.695001	3753.884421	15721.219486
95.540500	0.139625	0.093742	0.144856	0.202959	5938.791928	35905.277785	3766.448683	15699.855380
96.037500	0.136973	0.093128	0.139966	0.203971	5912.845426	35782.074220	3753.608605	15669.949613
96.538500	0.136485	0.092894	0.143088	0.204437	5906.124196	35729.213873	3759.367368	15656.224513
97.035500	0.136914	0.093510	0.143241	0.204217	5910.696306	35792.417392	3760.177672	15662.704333
97.536000	0.136551	0.092854	0.137699	0.204672	5904.929747	35708.408054	3747.218510	15649.283982
98.039000	0.136552	0.093285	0.141844	0.206232	5893.987010	35623.365243	3752.782068	15603.426517
98.537000	0.137615	0.092634	0.141745	0.206894	5896.806602	35524.743581	3751.143197	15584.030285
