sample name	sample
index	92
start time	 02-15-2021  10:41:23 AM
880	0.003865
Peak Time (s)	92.538
Peak Height 	0.003865
calc peak height	90,93
Baseline Time (s)	11.035
Baseline Value 	-0.001666
subtract baseline	10,4
Abs	0.013066
Peak Time (s)	91.538
Peak Height 	0.01307
calc peak height	90,93
Baseline Time (s)	11.035
Baseline Value 	0.005932
subtract baseline	10,3
PK_550	0.006829
Peak Time (s)	90.036
Peak Height 	0.006829
calc peak height	90,93
Baseline Time (s)	10.535
Baseline Value 	-5.0442E-5
subtract baseline	10,2
PK_880	0.012209
Peak Time (s)	91.538
Peak Height 	0.01221
calc peak height	90,93
Baseline Time (s)	8.537
Baseline Value 	3.4079E-4
subtract baseline	10,1


Time (s)	A880-A510	A880-A775	A880-A975	A880	I510	I775	I975	I880	
0.034500	-0.003883	-0.000305	0.002941	0.007402	4189.760445	15851.698357	3173.729069	8948.004884
0.537500	-0.004206	-0.001419	-0.021187	0.003801	4199.440450	15925.798285	3159.879576	8998.378535
1.035000	-0.001484	0.000444	-0.010132	0.004352	4205.892206	15965.097670	3166.884788	8990.641858
1.536000	-0.003847	-0.001380	0.002709	-0.000228	4212.516940	16047.998992	3178.883388	9055.248281
2.035000	-0.004891	-0.000308	-0.009591	0.003254	4199.033028	15975.472226	3167.993372	9006.074846
2.535000	0.000504	0.000957	0.006173	0.001241	4221.177155	16074.214976	3180.288290	9034.457211
3.035500	0.000987	0.000697	-0.000269	0.000061	4226.197696	16102.058505	3176.596728	9051.150997
3.536500	-0.004104	0.000802	-0.000235	0.001976	4205.168273	16047.339002	3175.287535	9024.076356
4.036500	0.000367	0.000463	0.005201	0.001974	4218.553665	16037.150171	3179.087216	9024.099879
4.536500	-0.003027	-0.000661	0.002411	0.001438	4209.984757	16019.449312	3177.506579	9031.666962
5.037000	-0.000085	-0.001433	0.010150	-0.000015	4223.184768	16039.940810	3184.004347	9052.219792
5.537500	-0.001786	-0.001200	0.010201	-0.000695	4220.107314	16067.532164	3184.527198	9061.866320
6.035000	-0.001677	0.000490	-0.009558	0.000930	4215.547704	16069.472620	3169.594150	9038.841823
6.535000	-0.000288	0.001281	-0.001806	0.001688	4217.444692	16070.478755	3174.397893	9028.138354
7.035500	-0.000626	0.000676	0.004952	0.001647	4216.552227	16053.459804	3179.141991	9028.716774
7.538500	0.002074	0.001089	-0.008595	0.000777	4227.321392	16092.225030	3170.355910	9041.009795
8.036500	0.002191	0.000923	-0.006373	0.001708	4224.856158	16059.049578	3171.238718	9027.851836
8.536500	0.000000	-0.000190	0.009310	0.000239	4222.677492	16069.820194	3183.224391	9048.631144
9.037000	-0.001679	-0.000299	0.011419	-0.000290	4219.208574	16082.499569	3185.109023	9056.117490
9.537000	-0.003533	0.000279	-0.001852	-0.000254	4213.534013	16098.930547	3175.713318	9055.614330
10.037500	0.001284	0.000181	-0.012322	-0.000725	4229.479949	16110.241584	3168.839894	9062.296142
10.535000	-0.001546	0.000000	-0.008741	0.001491	4214.259033	16037.760832	3169.768972	9030.917925
11.035000	0.002015	-0.000259	0.000000	0.000000	4229.495908	16074.977451	3176.826635	9052.013469
11.535500	0.000304	0.000025	0.001765	0.000400	4223.107939	16071.447281	3177.780588	9046.348927
12.035500	-0.003126	0.000482	-0.007719	-0.000537	4215.604919	16113.671558	3171.855712	9059.633374
12.535500	-0.002619	0.000895	0.010964	0.002179	4208.991104	16044.022260	3183.020408	9021.212801
13.036500	0.002410	0.000910	-0.004148	-0.000958	4233.606938	16139.411685	3174.608572	9065.599564
13.536500	-0.001684	0.000817	0.003815	-0.000135	4218.729114	16111.625615	3179.595866	9053.926627
14.037000	-0.001082	0.000325	0.012747	0.000256	4219.362531	16084.885652	3185.670485	9048.382798
14.537500	-0.001118	-0.000034	0.015670	0.002974	4211.101981	15992.116779	3185.818128	9010.017544
15.035000	0.004386	0.001685	0.003030	0.001254	4232.888490	16095.828535	3178.068264	9034.261145
15.566500	-0.002604	0.000858	0.001307	-0.000422	4216.825061	16121.563900	3178.035283	9057.993498
16.035000	0.002913	0.003088	-0.003249	0.001297	4228.286438	16137.077201	3173.670387	9033.653969
16.535500	-0.003483	0.001060	-0.000522	0.001223	4209.263591	16077.857940	3175.611584	9034.706129
17.038500	0.002576	0.000696	-0.008427	0.000423	4229.913360	16091.047965	3170.712717	9046.018218
17.539000	0.002626	0.002693	0.009258	-0.001079	4234.632559	16197.412095	3184.127339	9067.321743
18.036000	0.000935	0.000041	0.008287	0.001044	4223.069795	16052.484211	3181.924149	9037.239608
18.536500	-0.003651	0.001120	-0.002201	0.002833	4203.964436	16031.093585	3173.334168	9012.002863
19.037000	-0.003621	0.001571	-0.002322	0.002373	4205.422974	16058.579012	3173.567604	9018.482141
19.537500	-0.001534	0.001670	-0.002499	0.002292	4211.896123	16064.015947	3173.501486	9019.623280
20.034500	0.001604	0.000665	0.000905	0.002325	4221.225575	16032.677092	3175.837739	9019.159378
20.535000	-0.005662	0.000903	0.005967	0.002304	4199.563032	16040.478888	3179.393914	9019.453717
21.035500	0.001026	0.001753	-0.001071	0.002082	4220.214629	16072.839698	3174.634031	9022.582794
21.535500	-0.000217	0.001474	-0.000467	0.002319	4215.760012	16057.237462	3174.887986	9019.230729
22.036000	-0.003414	-0.000496	-0.018804	0.000539	4211.517506	16051.519495	3163.623588	9044.384781
22.536500	0.001175	0.002568	0.017213	0.003150	4217.449386	16065.215644	3186.801912	9007.537094
23.036000	-0.001343	0.001010	0.000745	0.002335	4212.339910	16042.783909	3175.719256	9019.018601
23.547500	-0.002090	-0.000702	-0.005725	0.002196	4210.520246	15995.398547	3171.348938	9020.970108
24.037000	-0.002708	-0.000965	0.006028	0.000241	4214.522775	16046.352514	3180.892424	9048.594025
24.537000	-0.001309	0.000368	-0.007357	0.001721	4214.279883	16041.927995	3170.556743	9027.669006
25.034500	0.000105	0.000939	0.006058	0.001662	4218.705250	16060.947150	3179.910671	9028.511865
25.535000	0.001991	0.000982	-0.007699	0.002463	4221.975398	16038.074384	3169.817360	9017.211507
26.035500	0.001608	0.001625	-0.009379	0.002912	4219.467672	16043.911334	3168.369183	9010.888166
26.538500	0.001857	0.002042	0.006658	0.002655	4220.990539	16064.260980	3179.633513	9014.508159
27.036000	0.001294	0.000152	0.010185	0.002544	4219.629929	16010.632995	3182.206041	9016.064533
27.536500	0.001971	0.003120	0.005504	0.004568	4215.577843	16039.054903	3177.480586	8987.613132
28.037000	0.003162	0.000069	0.012703	-0.001635	4237.964615	16134.451597	3187.000111	9075.228555
28.537000	0.002157	0.001784	0.002009	0.002409	4222.635890	16063.902878	3176.547738	9017.965417
29.034500	0.003836	0.002826	0.003589	0.001175	4231.457670	16132.838957	3178.515908	9035.380204
29.537500	0.000789	0.002491	0.005694	0.003776	4214.409877	16043.999775	3178.168277	8998.740978
30.035000	0.003229	0.002187	0.011371	0.001118	4229.787665	16115.162853	3184.067607	9036.188624
30.535000	-0.000790	0.001381	-0.006077	0.002650	4213.052083	16044.470359	3170.797237	9014.575630
31.067000	0.001473	0.001334	0.008474	0.000308	4226.923061	16113.895260	3182.579529	9047.655207
31.535000	-0.005015	0.000502	-0.003550	0.003592	4197.663277	15989.642695	3171.882531	9001.314317
32.036000	-0.001779	0.001742	0.000435	0.001481	4213.593452	16090.706049	3176.097994	9031.067034
32.541500	0.000734	0.002654	-0.007558	0.002748	4217.331497	16079.954971	3169.719018	9013.197366
33.036500	0.002294	0.001929	-0.010663	0.000674	4228.301063	16120.830796	3169.017127	9042.475082
33.537000	-0.001238	0.001687	-0.006922	0.003619	4208.814716	16024.479731	3169.558758	9000.944205
34.037000	0.001478	0.001887	0.014685	0.000553	4226.192508	16123.208162	3186.851350	9044.175632
34.537500	0.000194	0.000945	0.011917	0.001863	4218.368186	16055.053730	3183.925835	9025.674721
35.034500	-0.000699	0.001236	0.014170	0.002413	4214.035015	16047.240509	3185.143657	9017.911603
35.535500	-0.000564	0.000500	-0.002209	0.002625	4213.805068	16018.664351	3173.471585	9014.928626
36.036000	-0.000274	0.000378	-0.004997	0.002081	4216.306964	16031.380971	3171.927011	9022.590133
36.536000	-0.000887	0.001911	-0.006272	0.003696	4209.629560	16028.906338	3169.948994	8999.852094
37.036000	-0.000580	0.000974	-0.002754	0.002838	4213.118093	16026.515183	3172.949268	9011.924715
37.536500	0.004459	0.000389	0.007717	0.002286	4229.977739	16025.537960	3180.640587	9019.705071
38.037000	0.000727	0.001569	-0.007922	0.003693	4214.473811	16018.703701	3168.827792	8999.899683
38.537000	0.000093	0.000629	-0.004463	0.003053	4214.490660	16009.650261	3171.626028	9008.897249
39.034500	-0.001246	-0.000003	0.005248	0.001952	4213.775571	16023.772793	3179.135157	9024.408447
39.534500	0.002512	0.000326	-0.006444	0.002310	4224.005937	16022.891408	3170.778233	9019.360286
40.035000	0.001850	-0.000455	-0.000130	0.002981	4219.989672	15979.283484	3174.663639	9009.919630
40.538500	0.000743	0.002256	0.015783	0.003560	4214.921452	16043.412368	3185.478224	9001.774370
41.036000	0.000387	0.000769	-0.010520	0.002754	4216.270550	16022.890181	3167.702907	9013.107096
41.536000	0.002685	0.000376	-0.007263	0.002108	4225.141936	16030.494514	3170.356892	9022.213857
42.036500	0.000681	0.000253	-0.002054	0.002363	4218.331574	16019.121642	3173.759796	9018.622559
42.536500	-0.001880	0.000263	-0.000142	0.003078	4208.511694	15997.914544	3174.587606	9008.545788
43.037000	0.000294	0.000215	0.003674	0.002934	4215.450320	16000.798073	3177.343771	9010.578788
43.534500	0.000115	0.002066	0.002103	0.003654	4212.754101	16034.848482	3175.745920	9000.447241
44.037500	-0.002260	0.001177	-0.000944	0.002994	4207.630099	16027.952846	3174.090679	9009.732921
44.537500	-0.002755	0.000164	0.009260	0.002194	4208.540845	16021.532920	3181.798678	9021.003110
45.035500	0.008132	0.002933	-0.005835	0.001347	4244.047438	16130.884365	3171.855712	9032.960128
45.535000	-0.003068	0.000180	-0.002490	0.005024	4199.187380	15937.063820	3171.627078	8981.220548
46.035500	-0.002291	0.001422	0.007656	-0.000072	4216.714534	16128.065656	3182.267804	9053.030374
46.536000	-0.001371	-0.000420	0.006509	0.001415	4215.012215	16027.392264	3180.402796	9031.995533
47.036500	0.000490	0.000660	0.003905	0.000189	4224.308119	16097.043119	3179.431251	9049.335089
47.537000	0.000093	0.000927	0.006639	0.004933	4208.864519	15962.155602	3178.019739	8982.503365
48.065000	-0.000110	0.000257	-0.004999	-0.000582	4224.824487	16108.200090	3173.759417	9060.266450
48.538000	0.000432	-0.000529	-0.009499	0.002557	4216.998583	15989.790462	3168.528841	9015.888440
49.034500	0.001017	0.000998	0.004399	0.003347	4216.381126	16011.936495	3177.561577	9004.766849
49.538500	0.000601	0.000213	-0.019374	0.004565	4211.484304	15951.806040	3160.572000	8987.663334
50.038500	0.004398	0.002150	0.006264	0.001154	4233.228618	16112.967293	3180.413606	9035.677162
50.536000	-0.006094	0.000662	0.002164	0.001939	4199.367078	16044.239297	3176.984107	9024.603368
51.036000	0.002434	0.000999	-0.001670	-0.001910	4236.579993	16171.081504	3176.994177	9079.134074
51.536500	-0.005228	0.001306	0.003527	-0.000381	4208.842483	16133.917346	3179.566189	9057.408188
52.036500	-0.001412	-0.001540	0.005395	-0.000567	4220.847996	16053.369514	3181.015795	9060.049809
52.537000	-0.055668	-0.031550	0.003145	0.231278	3589.311781	10117.449655	3052.976661	6510.881625
53.037000	-0.076391	-0.039025	0.012714	0.028027	3943.137070	14203.109866	3166.326098	8667.379701
53.535000	-0.040761	-0.020555	-0.025089	-0.025016	4176.704953	16218.450058	3176.775992	9416.935311
54.035000	-0.009685	-0.010984	-0.005244	-0.123786	4617.438178	19979.589437	3271.949358	11081.780295
54.535500	-0.012559	-0.004275	0.001806	-0.081062	4447.455810	18623.847837	3240.546347	10314.973925
55.036000	-0.014156	-0.002572	-0.002360	-0.063952	4382.721350	18077.340408	3223.008752	10028.422796
55.536000	-0.020295	-0.003805	-0.001196	-0.092276	4459.804810	19051.438269	3247.548323	10509.006729
56.036000	-0.017729	-0.006834	-0.010909	-0.073305	4402.427565	18255.813363	3223.656317	10183.667053
56.537000	-0.014810	-0.003578	-0.000036	-0.049450	4332.281101	17546.508347	3213.351208	9794.239816
57.037000	-0.006856	-0.002227	-0.000979	-0.050175	4360.950010	17616.482532	3213.180654	9805.768004
57.536500	-0.013330	-0.003176	-0.000316	-0.046774	4328.375314	17470.233660	3211.047265	9751.872725
58.034500	-0.005920	-0.000038	-0.004001	-0.039385	4328.446412	17328.780410	3202.555179	9636.252358
58.535000	-0.007874	-0.003286	-0.014856	-0.031082	4295.384154	16951.198162	3188.365266	9508.635172
59.035000	-0.004947	-0.000554	-0.004262	-0.025674	4287.503110	16865.153611	3192.144739	9426.815985
59.538500	-0.001568	0.001585	0.004312	-0.017939	4273.775417	16686.943340	3192.760595	9311.556252
60.036000	-0.002636	-0.001182	-0.012140	-0.015003	4261.276758	16507.650524	3178.830869	9268.337672
60.536000	-0.000901	0.000012	-0.016610	-0.008724	4247.237297	16349.766663	3171.373055	9176.900446
61.036500	-0.004794	0.001378	-0.008804	-0.012048	4245.484335	16495.309951	3179.098560	9225.133650
61.536000	-0.008259	0.001167	-0.009667	-0.009944	4228.498252	16423.268948	3177.020325	9194.562676
62.037000	0.001495	0.001177	-0.002724	-0.016395	4278.547433	16625.308407	3186.519485	9288.799507
62.537500	0.000637	0.001225	0.006495	-0.020825	4289.832768	16767.085573	3196.505279	9354.316771
63.042000	0.001047	0.001380	-0.004113	-0.035562	4338.739082	17249.339293	3199.589246	9577.192023
63.535000	0.001809	0.000827	-0.005897	-0.040671	4358.153046	17400.165487	3202.093643	9656.225926
64.038000	0.004294	0.004276	0.008033	-0.039691	4363.175070	17482.616805	3212.031875	9640.996313
64.536000	0.001059	0.003276	-0.012604	-0.039171	4350.680611	17431.798246	3195.946365	9632.923694
65.062000	0.005202	0.002842	0.002933	-0.043441	4378.820602	17560.324761	3210.981594	9699.467518
65.536500	-0.000234	0.001902	-0.001692	-0.036931	4339.028072	17311.767904	3202.445717	9598.281641
66.036500	0.000886	0.003394	-0.007524	-0.040950	4356.014253	17495.245900	3201.076344	9660.577628
66.536500	0.000360	0.002800	-0.015049	-0.036359	4339.098331	17322.544012	3192.069979	9589.458542
67.037500	0.002879	0.002446	-0.007846	-0.037543	4351.318919	17350.052108	3198.277282	9607.723618
67.537500	-0.002721	0.001873	-0.009567	-0.031091	4311.925313	17118.886513	3192.226624	9508.770297
68.034500	0.003947	0.002623	-0.002917	-0.035043	4346.579215	17273.164635	3200.097070	9569.199539
68.535000	-0.001737	0.001827	-0.004159	-0.030773	4314.073296	17106.997792	3195.981154	9503.931224
69.035500	0.001875	0.003217	0.007829	-0.031177	4327.100971	17165.648305	3205.309468	9510.086712
69.536000	-0.002794	0.001242	-0.004807	-0.025786	4294.695746	16926.441155	3191.827523	9428.501794
70.036000	0.003663	0.001570	-0.013998	-0.030162	4329.617986	17078.740552	3188.320270	9494.640853
70.536000	0.002570	0.003492	-0.009037	-0.025182	4309.933757	16979.570943	3188.306584	9419.433358
71.036500	0.002004	0.001844	-0.001505	-0.027481	4315.523731	17000.610187	3195.508120	9454.042264
71.537000	-0.003763	0.000919	-0.005242	-0.021159	4276.992302	16768.009566	3188.141521	9359.291505
72.037500	-0.001941	0.001161	0.003037	-0.026411	4299.409016	16943.973867	3198.091184	9437.911074
72.534500	0.000180	0.001729	-0.001085	-0.021451	4290.372407	16803.136479	3191.378915	9363.643779
73.035000	0.002782	0.004199	0.002642	-0.021098	4297.528234	16870.838582	3193.855873	9358.387882
73.538000	0.002063	0.003336	-0.001933	-0.020898	4294.596632	16836.772774	3190.355074	9355.405027
74.035500	-0.000488	0.002286	0.012378	-0.020310	4284.639594	16784.481486	3200.519840	9346.670967
74.535500	0.001044	0.001914	-0.007132	-0.020734	4290.835266	16786.130216	3186.469600	9352.964345
75.036000	-0.002411	0.003224	0.005066	-0.018268	4272.164652	16749.364352	3193.557300	9316.421255
75.536500	0.000948	0.001815	-0.002665	-0.011875	4262.696164	16503.556934	3183.323043	9222.624504
76.037000	0.006038	0.003961	0.007448	-0.015627	4290.477796	16688.957918	3193.366537	9277.504984
76.536500	0.004479	0.003683	0.013401	-0.014803	4282.933323	16654.138661	3197.163740	9265.410015
77.034500	0.003878	0.003055	0.006869	-0.015232	4282.391856	16647.849932	3192.649618	9271.697619
77.535000	-0.002924	0.001476	-0.027302	-0.009160	4242.362857	16408.520338	3164.426145	9183.195359
78.035000	0.007859	0.002969	0.002179	-0.012542	4286.469238	16560.514789	3187.276443	9232.339313
78.535500	0.002586	0.003219	-0.014895	-0.008865	4258.438243	16453.522730	3172.647683	9178.940541
79.035500	0.005704	0.004246	0.008640	-0.010982	4274.766303	16551.674540	3190.835098	9209.633763
79.536500	0.002867	0.003137	0.001066	-0.011518	4267.564972	16533.722275	3185.737877	9217.426989
80.036000	0.003016	0.003241	0.006423	-0.010811	4265.822336	16514.867898	3189.096300	9207.147630
80.536500	-0.000976	0.002029	0.001610	-0.011826	4256.573419	16508.705897	3186.350515	9221.906659
81.036500	0.005036	0.002421	0.003536	-0.010310	4270.566881	16473.636791	3186.645627	9199.869471
81.537000	0.004242	0.003965	-0.005834	-0.008432	4262.233157	16463.272965	3178.645666	9172.679470
82.037500	0.003153	0.005058	-0.008304	-0.007483	4255.911346	16467.720501	3176.254346	9158.975671
82.535000	0.002783	0.002503	-0.004697	-0.009131	4259.870791	16439.498399	3179.936372	9182.775732
83.037500	0.006081	0.002842	0.003758	-0.008183	4267.186108	16420.623605	3185.275962	9169.080625
83.535500	0.002404	0.003668	0.001245	-0.001852	4236.312743	16250.854575	3178.995329	9078.311127
84.035000	0.004745	0.004184	-0.008684	-0.006736	4258.528808	16417.350296	3175.470035	9148.219258
84.536000	0.007168	0.003121	-0.001954	-0.006724	4266.024910	16384.047256	3180.173939	9148.044219
85.037000	0.006788	0.004354	-0.016611	-0.006801	4265.080320	16424.633112	3170.056735	9149.145711
85.536000	0.005680	0.004665	0.025768	-0.003890	4252.614468	16344.163137	3198.247450	9107.381046
86.037000	0.005808	0.004886	0.000514	-0.004455	4254.755337	16368.439050	3180.314438	9115.467321
86.537500	0.004255	0.003215	0.002552	-0.001913	4242.156774	16238.844198	3179.958681	9079.182772
87.034500	0.007748	0.003400	0.007552	-0.004899	4262.147039	16336.275941	3185.641858	9121.830094
87.535000	0.002065	0.003075	0.003861	-0.000467	4231.065911	16190.385281	3179.861904	9058.633524
88.035500	0.011385	0.004955	0.011851	-0.003365	4268.702404	16336.929650	3187.633922	9099.888201
88.536000	0.002887	0.004482	0.018425	-0.002545	4239.902711	16297.087171	3191.820466	9088.178535
89.036000	0.002974	0.003856	0.004834	-0.003164	4242.064924	16296.902526	3182.460375	9097.013274
89.536000	0.006570	0.003918	0.008631	0.000216	4242.725070	16195.278077	3182.756693	9048.949847
90.036000	0.008777	0.006829	0.003441	0.000316	4249.195255	16281.308731	3179.015401	9047.530462
90.536500	0.010724	0.004079	0.002770	-0.002007	4262.410139	16268.214582	3180.178896	9080.524490
91.037000	0.008706	0.003944	-0.005583	-0.002353	4257.221708	16274.705479	3174.580841	9085.455849
91.537500	0.012209	0.005898	0.013066	0.002184	4254.022856	16195.643027	3184.517575	9021.142741
92.034000	0.010576	0.005272	0.006181	-0.000455	4257.133365	16257.212409	3181.493719	9058.468200
92.538000	0.007088	0.004855	0.002244	0.003865	4233.165177	16112.770691	3175.697016	8997.481021
93.035500	0.006171	0.003472	0.021143	-0.000124	4242.547496	16192.051003	3192.038495	9053.777335
93.535500	0.011148	0.004639	0.018213	0.000019	4257.436536	16223.294349	3189.793837	9051.737269
94.036000	0.003387	0.005414	-0.005857	0.000362	4232.564123	16236.523906	3172.517702	9046.889626
94.536000	0.003485	0.006126	0.005701	0.005381	4217.686300	16105.371493	3177.050001	8976.230501
95.036500	0.009084	0.005335	0.009022	0.001750	4245.730636	16191.689605	3181.943910	9027.258796
95.534000	0.008568	0.004442	0.004782	0.000778	4247.134676	16194.117675	3179.634029	9041.002547
96.057000	0.005836	0.004682	-0.001700	0.001133	4237.676268	16190.601475	3174.856055	9035.979261
96.537500	0.007789	0.004744	0.010155	0.006088	4228.545042	16042.206226	3179.678509	8966.338607
97.034500	0.006644	0.006200	0.016086	0.003227	4233.757239	16173.036224	3185.935181	9006.448808
97.535500	0.008881	0.005070	0.006764	0.002240	4243.605232	16168.708825	3180.000682	9020.355202
98.059500	0.008729	0.006696	0.014775	0.003420	4239.526565	16182.262170	3184.855379	9003.734783
98.536000	0.008046	0.004376	-0.014055	0.006154	4229.124356	16029.116599	3163.045963	8965.416546
