sample name	sample
index	126
start time	 02-15-2021  01:04:11 PM
880	-0.008666
Peak Time (s)	91.535
Peak Height 	-0.008666
calc peak height	90,93
Baseline Time (s)	9.037
Baseline Value 	-0.003068
subtract baseline	10,4
Abs	0.009380
Peak Time (s)	90.037
Peak Height 	0.00938
calc peak height	90,93
Baseline Time (s)	11.036
Baseline Value 	-0.005163
subtract baseline	10,3
PK_550	0.001433
Peak Time (s)	92.035
Peak Height 	0.001433
calc peak height	90,93
Baseline Time (s)	9.037
Baseline Value 	1.3874E-4
subtract baseline	10,2
PK_880	-0.000238
Peak Time (s)	90.537
Peak Height 	-2.375E-4
calc peak height	90,93
Baseline Time (s)	9.037
Baseline Value 	-0.001144
subtract baseline	10,1


Time (s)	A880-A510	A880-A775	A880-A975	A880	I510	I775	I975	I880	
0.035000	-0.000960	-0.000800	-0.006972	0.002684	4275.869297	15878.357533	3254.169910	8988.132414
0.535000	0.001562	0.000577	-0.015489	0.004519	4277.851614	15864.845900	3247.626388	8962.887245
1.036000	0.000978	0.001289	0.003651	0.004596	4275.942817	15883.574520	3259.797642	8961.825278
1.536000	-0.000145	0.000084	0.003740	0.005502	4270.100465	15821.342914	3259.264652	8949.399783
2.035500	0.002302	0.000141	0.006063	0.002117	4286.965596	15922.942826	3263.007373	8995.947300
2.536500	0.000440	0.000459	0.017785	0.001219	4284.161518	15959.031928	3271.458818	9008.353694
3.036500	0.002141	-0.000978	-0.004422	-0.001519	4297.121750	15997.747001	3258.522411	9046.350188
3.537000	-0.001321	-0.000110	0.007075	0.004994	4268.181540	15830.565051	3261.779412	8956.358215
4.037500	0.000981	0.001240	-0.005748	0.001017	4286.320717	15988.285379	3256.024779	9011.155193
4.537500	-0.000792	0.001116	0.024212	0.001530	4279.687780	15969.326265	3275.644673	9004.064377
5.035000	0.000424	0.001437	0.012089	0.000607	4285.893185	16006.370983	3268.024653	9016.824340
5.535500	-0.000102	0.001391	0.016430	0.001477	4281.839172	15979.062016	3270.365261	9004.788356
6.038500	-0.000216	0.001372	-0.001227	0.001375	4281.803401	15981.535038	3258.718063	9006.197995
6.535500	0.003209	0.001828	0.024062	0.002572	4288.282133	15959.506761	3274.824006	8989.673054
7.035000	0.001862	0.000350	0.001193	0.001679	4286.957147	15942.124452	3260.097265	9001.994831
7.536500	0.000063	0.000688	-0.012779	0.001149	4283.272166	15967.938462	3251.450186	9009.330441
8.037000	-0.006085	-0.000329	0.008730	-0.000347	4269.838551	15982.170089	3266.414632	9030.059905
8.537000	-0.001289	-0.000286	0.016522	-0.000133	4283.064650	15977.066537	3271.519376	9027.084780
9.037000	0.000000	0.000000	0.012590	0.000000	4286.426105	15981.639885	3268.769820	9025.244447
9.534500	0.001647	0.001442	-0.008399	0.001590	4286.594192	15977.235471	3253.956683	9003.234090
10.035500	0.002915	-0.001355	0.016721	-0.001133	4298.260763	15975.044690	3272.335687	9040.986363
10.538000	0.000882	-0.000869	-0.000269	-0.000258	4289.747193	15963.469283	3260.408249	9028.824885
11.036000	-0.003042	0.001919	0.000000	0.000968	4274.810721	16009.967200	3259.782614	9011.829359
11.536000	-0.000017	0.000535	-0.015148	0.003411	4276.489374	15896.309725	3248.532263	8978.110932
12.036500	0.000552	0.000080	0.008104	0.000222	4287.384728	15977.404845	3265.617187	9022.160402
12.536500	-0.001297	-0.000854	0.016472	-0.000822	4285.045781	15980.699906	3271.954695	9036.661973
13.037000	0.002533	0.001207	0.021155	-0.001065	4296.937803	16049.450077	3275.326115	9040.029948
13.540000	-0.001531	0.000360	0.005912	0.004061	4270.258671	15871.930100	3261.628240	8969.176262
14.048500	-0.000737	0.000323	0.003138	0.000589	4282.572592	15973.712350	3262.087228	9017.077558
14.535500	0.000398	-0.001123	0.011314	0.001152	4284.232864	15914.074507	3267.139900	9009.280208
15.035500	0.001075	0.001166	0.005909	0.002381	4282.633166	15945.517091	3262.732469	8992.309832
15.547000	0.002598	0.000721	0.003209	0.005446	4278.166395	15841.753955	3258.955854	8950.174750
16.036000	0.002520	0.001859	0.008165	0.000615	4291.981196	16018.710989	3265.396437	9016.717070
16.536000	-0.002426	0.002162	0.001390	0.001208	4275.896423	16010.073512	3260.534547	9008.514474
17.036500	0.004667	0.001376	0.022298	0.000620	4298.256465	16004.170515	3274.953454	9016.650652
17.536500	0.002032	0.000651	0.014381	0.003742	4281.462482	15889.972509	3267.459732	8973.562921
18.037000	0.002486	0.000680	0.009669	-0.001954	4299.411782	16060.304867	3268.119777	9052.417904
18.537000	0.003013	0.001924	0.007744	0.003007	4286.443348	15949.426769	3263.530293	8983.672327
19.037500	0.002994	0.000520	0.007012	0.001469	4290.870000	15953.404819	3264.063369	9004.896619
19.535000	0.002772	0.000576	0.001899	0.003214	4285.139953	15903.338004	3259.556167	8980.825377
20.038000	0.005423	0.001638	0.012474	0.002943	4293.661330	15942.834558	3266.717199	8984.553359
20.536000	0.001761	0.000587	0.001132	0.001613	4286.858231	15951.136858	3260.100725	9002.911385
21.035500	0.002411	0.001582	0.000267	0.002442	4286.333464	15956.064042	3258.996048	8991.457977
21.536000	0.003913	0.000928	0.006070	0.003555	4287.468524	15903.659063	3262.064764	8976.130090
22.037000	0.004545	0.000870	0.017710	0.002236	4293.161959	15941.024365	3270.718229	8994.303423
22.536500	-0.000560	-0.000243	0.017295	0.001283	4281.073885	15936.297408	3271.083230	9007.474045
23.037000	0.000283	0.001948	0.009396	0.002516	4279.943123	15964.720763	3264.950687	8990.439926
23.534500	0.001106	-0.001384	0.016973	0.000732	4287.512547	15918.793480	3271.238223	9015.092415
24.038000	0.001393	0.000386	0.008480	0.001631	4285.733645	15944.641072	3264.930392	9002.663192
24.535500	-0.000967	0.000544	0.015502	0.001254	4279.979092	15960.518627	3269.888319	9007.867681
25.035500	0.006655	0.000614	0.004367	0.001377	4301.877264	15958.934515	3262.377091	9006.167193
25.535500	-0.002334	-0.000516	0.003540	0.000490	4278.236308	15951.739682	3262.416838	9018.450980
26.035500	0.000846	0.000324	0.009467	-0.000108	4289.203403	15994.488561	3266.746875	9026.736535
26.536500	-0.000324	0.000226	0.009168	0.000367	4284.416515	15977.429344	3266.229515	9020.150353
27.037000	0.001076	-0.000016	0.012888	0.000718	4287.469414	15959.824579	3268.487170	9015.294347
27.537000	0.005404	0.001279	0.023914	0.001616	4297.496118	15971.613470	3275.379460	9002.865391
28.037500	0.000805	0.003023	0.007224	0.000480	4287.371140	16057.572876	3264.860298	9018.587182
28.535000	0.003474	0.000206	0.008300	-0.000633	4298.434879	16006.651118	3266.318545	9034.035660
29.035000	0.005494	0.001250	0.023308	-0.000046	4302.649864	16020.263258	3276.107792	9025.880081
29.538000	0.003587	0.000950	0.020855	-0.001041	4299.962440	16041.049595	3275.102594	9039.696955
30.035500	0.002747	-0.000479	-0.001555	-0.001727	4299.511835	16018.863040	3260.527850	9049.253481
30.536000	0.001859	0.000373	0.010858	-0.000399	4293.014574	16004.668328	3267.874016	9030.787466
31.036500	0.000431	0.000918	-0.002880	-0.000851	4290.162273	16034.412651	3259.091327	9037.067578
31.567500	-0.001156	0.000261	0.015445	0.005087	4268.387968	15838.755344	3267.270776	8955.083548
32.037000	-0.001609	0.000482	0.005526	0.001339	4277.877652	15956.144737	3263.166807	9006.699139
32.537000	0.000190	-0.000690	-0.001613	-0.000212	4287.597876	15967.425085	3259.500343	9028.191176
33.072500	-0.001170	-0.000404	0.015755	-0.001164	4286.410393	16004.286038	3271.699398	9041.415674
33.537000	-0.003684	-0.001044	-0.004658	0.004288	4263.439663	15823.881232	3254.623562	8966.050134
34.035000	0.006486	0.001586	0.005739	-0.000265	4306.223034	16036.869633	3264.369154	9028.923640
34.535500	-0.001854	0.001441	0.009250	0.000089	4280.785735	16021.934602	3266.470543	9024.008946
35.035500	0.002255	0.001037	0.008071	-0.000037	4293.112897	16013.629464	3265.767601	9025.752900
35.536000	0.000366	0.000821	0.000172	0.003321	4277.857197	15907.430276	3258.362685	8979.351818
36.036500	0.003202	0.000103	0.004103	0.001287	4292.008766	15946.422719	3262.262808	9007.414907
36.536500	0.004375	0.001680	0.016149	0.002377	4292.252745	15960.900075	3269.566525	8992.359974
37.037000	0.001811	-0.000093	0.004797	0.000360	4290.655123	15968.149675	3263.331577	9020.248206
37.537000	-0.001779	-0.000341	-0.002990	0.002646	4273.616124	15893.016769	3256.752819	8988.653530
38.037500	0.001223	-0.000807	-0.004253	0.000433	4288.729132	15944.785360	3257.366799	9019.246852
38.535000	0.006385	-0.000036	0.007251	0.001201	4301.602059	15944.864389	3264.399657	9008.609952
39.038000	-0.000804	-0.000224	0.018881	0.000806	4281.749743	15951.014103	3272.486256	9014.073074
39.535500	-0.001746	-0.001682	0.009574	0.000476	4279.975634	15917.534346	3266.428162	9018.640156
40.036000	0.001051	0.000919	0.018522	0.001294	4285.716946	15970.465793	3271.909388	9007.315099
40.536000	-0.001621	0.000678	0.012937	0.001009	4278.796551	15971.792603	3268.325189	9011.270223
41.036500	-0.000118	0.000455	-0.001000	0.001075	4282.961090	15963.196344	3259.061117	9010.353906
41.537000	0.002044	-0.000449	0.016092	0.001575	4287.792496	15921.521716	3270.070062	9003.436204
42.037000	0.005498	0.002385	0.018851	0.002823	4294.235210	15968.621706	3271.093972	8986.212818
42.534500	0.004444	0.001669	0.011126	0.001725	4294.362782	15979.977861	3266.630648	9001.364398
43.035000	-0.000680	0.001067	0.011443	0.002217	4278.023358	15947.442441	3266.513887	8994.566539
43.538000	0.002998	0.001362	0.000903	0.002397	4288.176992	15950.855075	3259.439561	8992.085638
44.035000	0.003603	0.001802	0.015755	0.002361	4290.046756	15965.008149	3269.312054	8992.585429
44.538000	0.000444	0.000465	0.008281	0.000971	4284.893405	15966.604822	3265.236711	9011.794646
45.039000	0.001124	0.001449	0.022377	-0.002790	4297.865100	16108.429174	3277.361453	9064.068913
45.536500	0.003237	-0.000575	0.006521	0.001418	4291.730300	15922.457520	3263.772301	9005.610791
46.036500	0.001025	-0.000495	0.004171	-0.001382	4293.449072	16008.065618	3264.070582	9044.446508
46.536500	-0.002927	-0.001683	0.015893	-0.002570	4285.389516	16008.089184	3272.751245	9061.003787
47.037000	0.006253	0.000796	0.013840	-0.000464	4306.121747	16019.209039	3269.926637	9031.685071
47.535000	0.001747	-0.000760	0.015932	0.003096	4282.508558	15867.370393	3268.936088	8982.454575
48.035000	-0.000883	-0.001417	0.012406	-0.002353	4290.709670	16009.512582	3270.234006	9057.970035
48.566500	0.006004	0.000656	0.011468	-0.001000	4306.971918	16031.046343	3268.687780	9039.134779
49.035000	-0.003240	-0.000558	0.007975	0.001124	4273.792166	15931.649865	3264.931305	9009.671827
49.536000	0.003167	0.000659	0.001301	0.003547	4285.319504	15895.958690	3258.950070	8976.240277
50.036500	0.002682	0.000921	0.006971	-0.000271	4295.049856	16017.182029	3265.191404	9029.007173
50.539500	0.002581	0.000498	0.008028	-0.000652	4295.869839	16015.928187	3266.149127	9034.295919
51.036000	0.008629	0.000062	0.018720	-0.000784	4314.116183	16006.845980	3273.462827	9036.135046
51.534000	-0.000016	-0.000273	-0.013050	0.003044	4277.554620	15883.265527	3250.081571	8983.167816
52.034500	0.000273	-0.000912	0.012877	-0.004623	4300.752926	16092.591262	3272.095039	9089.720138
52.535000	0.010742	0.002233	0.015433	0.008552	4292.815408	15794.901782	3264.951582	8907.773038
53.037500	-0.032522	-0.021889	0.019857	0.187596	3783.972089	11034.191293	3169.410220	6912.078026
53.535500	-0.031749	-0.018157	-0.016018	0.008197	4175.376558	15220.410234	3245.010497	8912.597700
54.036000	0.000358	-0.012047	0.016146	-0.054523	4456.645881	17310.015169	3310.608524	9831.107865
54.536000	-0.012946	-0.010476	-0.002210	-0.088207	4525.539593	18515.630391	3322.615387	10381.956867
55.035500	-0.021800	-0.006443	-0.008763	-0.089265	4498.802703	18697.946831	3318.262128	10399.962408
55.536000	-0.021556	-0.008542	-0.018249	-0.113046	4582.763573	19498.853562	3329.703621	10816.432973
56.037000	-0.016780	-0.007524	-0.003207	-0.099503	4551.585456	19031.355501	3330.925128	10576.470780
56.537000	-0.010967	-0.008043	-0.003221	-0.079748	4503.285582	18302.579770	3315.147589	10239.592292
57.037000	-0.010174	-0.011093	0.005352	-0.074587	4488.466752	18016.978451	3317.819751	10154.074903
57.534500	-0.009921	-0.006801	-0.016468	-0.060219	4441.594040	17673.793637	3290.520778	9921.283995
58.035500	-0.005324	-0.007265	0.001777	-0.050419	4424.696794	17332.294540	3296.689539	9766.871889
58.535500	-0.005569	-0.005342	0.004872	-0.033803	4371.307899	16857.284066	3286.870082	9512.883460
59.035500	-0.008079	-0.005431	-0.000521	-0.037434	4374.795691	16970.328793	3285.613270	9567.565109
59.536000	-0.008109	-0.007580	0.002090	-0.026564	4341.283420	16559.299143	3279.787786	9405.238277
60.036500	-0.008839	-0.003814	0.009709	-0.022477	4326.738461	16549.328485	3282.265364	9345.249474
60.536500	-0.002394	-0.003140	0.010061	-0.026381	4358.187682	16692.351582	3285.278101	9402.541490
61.036500	-0.005091	-0.003358	0.002177	-0.024603	4344.497736	16629.799540	3278.481537	9376.387137
61.534500	-0.011168	-0.003596	-0.001587	-0.015657	4299.555759	16345.708430	3269.767961	9246.395870
62.035000	-0.010345	-0.004271	0.010922	-0.012390	4292.390693	16225.629766	3276.078942	9199.596158
62.537500	-0.005328	-0.004484	-0.010413	-0.007713	4293.383606	16078.121065	3258.654269	9133.192179
63.035500	-0.007386	-0.004020	0.001374	-0.005987	4282.361568	16040.340276	3265.270450	9108.875540
63.535500	-0.004768	-0.001487	0.007109	-0.007756	4295.151143	16169.604876	3270.305685	9133.798905
64.035000	-0.006463	-0.000979	-0.010096	-0.025987	4344.533113	16747.971879	3271.001258	9396.744894
64.536000	-0.004883	0.000501	-0.005312	-0.030629	4363.606554	16942.385397	3277.465597	9465.473111
65.036500	-0.008786	-0.000893	-0.004094	-0.028958	4346.504806	16844.678372	3277.151239	9440.638487
65.561000	-0.008060	-0.000740	0.001650	-0.032028	4358.128046	16947.433560	3283.318571	9486.326267
66.037500	-0.007442	-0.002867	-0.012397	-0.031583	4358.659483	16865.387823	3273.245022	9479.684735
66.538000	-0.006916	-0.002325	-0.008427	-0.030929	4358.264907	16861.803727	3275.520251	9469.930250
67.038000	-0.011295	-0.001842	-0.017208	-0.029939	4341.858188	16845.716514	3268.864944	9455.202383
67.537500	-0.011275	-0.002185	0.006391	-0.022845	4320.545111	16611.548371	3280.195081	9350.631835
68.035500	-0.008889	-0.000672	-0.008519	-0.028581	4345.044292	16839.733098	3273.844354	9435.052423
68.539000	-0.004639	0.000111	-0.006766	-0.027673	4355.259984	16835.786286	3274.423700	9421.614865
69.036500	-0.006353	-0.000743	-0.017318	-0.027197	4348.556739	16793.638803	3266.950635	9414.587518
69.536500	-0.006201	0.002043	-0.018637	-0.022827	4335.742410	16743.599527	3263.168615	9350.368116
70.036500	-0.007914	-0.000352	0.005835	-0.024916	4336.878360	16733.970784	3281.256706	9380.981020
70.537000	-0.006406	-0.000666	-0.001083	-0.024572	4340.403702	16713.242949	3276.200660	9375.925817
71.037500	-0.002942	0.000866	0.001260	-0.022987	4346.118877	16711.590026	3276.724562	9352.707515
71.538000	-0.009169	-0.000418	-0.023878	-0.017726	4311.572092	16507.294564	3256.420060	9276.224390
72.038000	-0.008420	-0.001950	0.003998	-0.023198	4330.166666	16629.917442	3278.771244	9355.795142
72.535500	-0.004054	0.001226	-0.003556	-0.020657	4335.671657	16649.765760	3271.823061	9318.720106
73.035500	-0.003879	0.000270	-0.001694	-0.021098	4337.537617	16633.652986	3273.394075	9325.143614
73.536000	-0.009274	0.001805	-0.011787	-0.014418	4301.481750	16473.697710	3262.141176	9228.600982
74.036000	-0.007487	-0.000297	0.000620	-0.021324	4327.336106	16622.997965	3275.136178	9328.430285
74.536500	-0.008339	0.000593	-0.003345	-0.019831	4320.310224	16604.149704	3271.404267	9306.709303
75.036500	-0.006969	0.001445	-0.007224	-0.019425	4323.196122	16618.115276	3268.508205	9300.829655
75.537500	-0.001389	0.001713	0.003815	-0.018836	4338.226568	16608.057404	3275.623190	9292.285192
76.037500	-0.003622	0.001109	-0.006670	-0.018524	4330.537724	16579.496975	3268.274701	9287.761667
76.537500	-0.002151	0.000607	-0.000095	-0.017921	4333.154247	16545.138232	3272.316459	9279.037261
77.035500	-0.007223	0.000508	0.000417	-0.018530	4319.760209	16561.014286	3273.081680	9287.858405
77.538500	-0.006953	0.000711	0.002718	-0.018164	4319.471515	16555.902677	3274.405970	9282.553956
78.036000	-0.006824	0.002107	0.008202	-0.017220	4317.041064	16569.968830	3277.538394	9268.912121
78.536000	0.000265	0.002066	-0.002685	-0.017489	4339.154360	16577.074124	3270.264509	9272.795864
79.036500	-0.003127	0.003480	0.008143	-0.014576	4320.184133	16530.502049	3275.669547	9230.875018
79.536500	-0.004512	0.000387	-0.000084	-0.016943	4323.120082	16507.959297	3271.658222	9264.914256
80.037000	-0.007759	-0.000599	-0.011335	-0.018385	4317.728978	16522.121490	3265.064212	9285.760073
80.537500	-0.002869	0.001274	-0.013213	-0.017216	4328.868805	16543.960050	3263.045020	9268.854488
81.035000	-0.006758	0.001718	0.017755	-0.016213	4314.238370	16526.590815	3283.523226	9254.398459
81.540500	-0.006030	0.001237	0.004086	-0.015647	4314.719410	16494.144494	3273.618801	9246.250671
82.035500	-0.003862	0.001840	-0.012797	-0.015263	4320.039120	16500.934094	3262.032385	9240.734002
82.535500	-0.004163	0.001241	-0.004490	-0.015817	4320.794674	16499.551363	3267.920975	9248.699655
83.036000	-0.007821	0.001069	0.008865	-0.015398	4308.667616	16481.246269	3276.735527	9242.674686
83.536500	-0.005000	0.001058	-0.000362	-0.015449	4317.199912	16482.489839	3270.455875	9243.406035
84.036500	-0.006918	0.002509	0.012359	-0.014074	4307.418966	16484.854224	3278.240354	9223.671792
84.537000	-0.004218	0.001675	-0.005136	-0.014886	4317.849535	16484.152211	3266.864015	9235.314797
85.037000	-0.007783	0.000451	-0.001812	-0.015256	4308.359011	16457.796827	3269.345638	9240.636332
85.537500	-0.004798	0.001800	0.000534	-0.013637	4312.407984	16449.441665	3269.835955	9217.410988
86.037000	-0.009336	0.001076	-0.003310	-0.014326	4301.028131	16448.369227	3267.711655	9227.280802
86.535500	-0.005290	0.000275	-0.000101	-0.014839	4314.518367	16439.485819	3270.219960	9234.644511
87.035500	-0.004251	-0.001374	-0.008750	-0.014594	4316.881425	16381.227173	3264.262618	9231.124478
87.536500	-0.006907	0.000405	-0.008956	-0.013338	4305.277208	16397.280731	3263.295359	9213.132982
88.036000	-0.007026	-0.000396	-0.003772	-0.014257	4307.642835	16400.939919	3267.356053	9226.300084
88.536500	-0.008612	0.001495	-0.017972	-0.012385	4297.452787	16401.505865	3256.784372	9199.525770
89.036000	-0.007308	0.001277	-0.007008	-0.013164	4303.583931	16418.775984	3264.470509	9210.656984
89.537000	-0.009510	0.000508	-0.009315	-0.007257	4279.886007	16214.867555	3259.072237	9126.756428
90.036500	-0.003124	-0.000203	0.009380	-0.013108	4315.815092	16371.582884	3275.510715	9209.852749
90.537000	-0.000238	0.000250	0.004385	-0.012445	4322.452426	16365.145563	3271.638684	9200.383277
91.035000	-0.006749	0.000167	0.008387	-0.012247	4302.527035	16356.543060	3274.236242	9197.557262
91.535500	-0.009994	-0.001338	-0.007500	-0.008666	4282.567996	16201.646385	3261.178875	9146.662465
92.035500	-0.001924	0.001433	-0.002647	-0.010618	4311.978723	16345.418371	3265.676988	9174.357068
92.536000	-0.003772	0.001300	-0.015962	-0.011177	4308.155053	16358.441548	3257.302265	9182.296097
93.036000	-0.010571	-0.001392	0.007584	-0.012334	4291.564139	16311.490588	3273.745478	9198.786959
93.536500	-0.006806	-0.000059	-0.009681	-0.006105	4284.386722	16162.870117	3258.085371	9110.525314
94.037000	-0.002805	0.000578	-0.001705	-0.010758	4309.779899	16323.524421	3266.398262	9176.338629
94.537500	-0.004529	-0.000073	-0.006832	-0.010545	4304.052867	16297.163984	3262.853878	9173.309239
95.034500	0.000104	0.001058	0.000954	-0.009728	4315.362511	16306.740231	3267.488135	9161.714420
95.542500	0.000231	0.001223	0.005035	-0.009326	4314.542923	16299.514416	3269.964508	9156.011194
96.035000	-0.004242	0.000392	-0.003119	-0.009939	4303.109956	16292.848706	3264.910407	9164.700886
96.557500	-0.005650	0.001307	0.006544	-0.009659	4298.143270	16312.242150	3271.212833	9160.730181
97.036000	-0.004571	0.000100	0.013431	-0.009685	4301.394741	16276.245096	3275.943555	9161.110008
97.539000	-0.005270	0.000010	0.020592	-0.004276	4283.539367	16109.868833	3277.154992	9084.859319
98.036000	-0.006541	-0.000171	-0.003804	-0.009285	4294.436549	16255.810214	3264.022796	9155.432292
98.561000	-0.003925	0.000979	-0.006915	-0.008761	4300.578365	16274.890362	3261.624935	9148.013837
99.036500	-0.007222	-0.001203	0.002793	-0.008852	4291.177123	16211.359870	3268.133978	9149.293407
