sample name	sample
index	787
start time	 03-31-2021  02:04:52 PM


Wavelength (nm)	Absorbance
494.344910	0.694839
494.563924	0.694839
494.782919	0.694839
495.001897	-0.090590
495.220856	0.009193
495.439797	0.066352
495.658719	0.021823
495.877624	-0.002360
496.096510	0.000154
496.315378	-0.029437
496.534227	-0.044444
496.753059	0.020142
496.971872	0.077008
497.190667	0.210879
497.409444	0.227983
497.628203	0.235940
497.846943	0.238196
498.065665	0.238164
498.284369	0.241086
498.503055	0.244645
498.721723	0.243334
498.940372	0.244589
499.159003	0.244173
499.377616	0.243899
499.596210	0.244466
499.814787	0.245707
500.033345	0.247396
500.251885	0.245793
500.470406	0.244524
500.688910	0.245767
500.907395	0.244908
501.125862	0.246787
501.344311	0.248024
501.562742	0.247420
501.781154	0.246852
501.999548	0.245962
502.217924	0.247076
502.436282	0.246688
502.654621	0.245881
502.872942	0.247113
503.091245	0.245587
503.309530	0.245291
503.527797	0.245910
503.746045	0.247005
503.964275	0.247190
504.182487	0.249274
504.400681	0.250067
504.618856	0.250954
504.837013	0.250120
505.055152	0.251714
505.273273	0.251905
505.491376	0.251953
505.709460	0.251031
505.927526	0.252071
506.145574	0.249965
506.363604	0.250981
506.581615	0.251762
506.799608	0.252467
507.017583	0.252602
507.235540	0.252520
507.453478	0.253493
507.671399	0.252937
507.889301	0.252885
508.107185	0.255117
508.325050	0.253763
508.542898	0.253597
508.760727	0.254574
508.978538	0.255258
509.196330	0.256252
509.414105	0.257180
509.631861	0.257927
509.849599	0.259262
510.067319	0.258076
510.285021	0.259158
510.502704	0.259323
510.720369	0.259017
510.938016	0.259018
511.155645	0.258600
511.373255	0.257295
511.590848	0.257598
511.808422	0.257928
512.025977	0.257904
512.243515	0.258931
512.461034	0.259539
512.678536	0.260498
512.896018	0.261060
513.113483	0.261130
513.330930	0.261850
513.548358	0.262982
513.765768	0.263062
513.983160	0.264129
514.200533	0.264057
514.417889	0.265115
514.635226	0.264580
514.852545	0.263965
515.069845	0.265088
515.287128	0.265734
515.504392	0.266449
515.721638	0.265525
515.938866	0.266576
516.156075	0.267838
516.373267	0.266612
516.590440	0.267467
516.807594	0.269382
517.024731	0.268842
517.241850	0.269255
517.458950	0.268684
517.676032	0.269389
517.893095	0.268767
518.110141	0.266891
518.327168	0.268672
518.544177	0.269063
518.761168	0.269205
518.978141	0.270349
519.195095	0.270823
519.412031	0.271241
519.628949	0.272311
519.845849	0.272980
520.062731	0.274449
520.279594	0.274442
520.496439	0.275462
520.713266	0.275836
520.930074	0.275608
521.146865	0.275841
521.363637	0.276376
521.580391	0.275773
521.797127	0.276351
522.013844	0.276970
522.230543	0.277269
522.447224	0.277049
522.663887	0.277081
522.880532	0.277805
523.097158	0.278426
523.313766	0.279491
523.530356	0.279930
523.746928	0.279624
523.963481	0.280369
524.180017	0.280937
524.396534	0.280855
524.613032	0.281220
524.829513	0.281884
525.045975	0.281890
525.262420	0.282147
525.478845	0.283935
525.695253	0.285342
525.911643	0.285702
526.128014	0.285545
526.344367	0.286462
526.560702	0.287396
526.777018	0.288115
526.993316	0.288817
527.209597	0.288693
527.425858	0.288616
527.642102	0.289136
527.858328	0.289557
528.074535	0.290517
528.290724	0.289949
528.506894	0.289726
528.723047	0.290562
528.939181	0.290692
529.155297	0.291622
529.371395	0.292296
529.587475	0.293038
529.803536	0.293381
530.019579	0.293277
530.235604	0.294260
530.451611	0.295423
530.667600	0.294788
530.883570	0.296087
531.099522	0.296336
531.315456	0.296261
531.531372	0.296722
531.747269	0.297257
531.963148	0.298501
532.179009	0.299465
532.394852	0.299635
532.610676	0.300199
532.826482	0.299761
533.042271	0.300880
533.258040	0.301570
533.473792	0.301011
533.689525	0.301136
533.905240	0.302044
534.120937	0.302559
534.336616	0.303472
534.552277	0.304398
534.767919	0.304823
534.983543	0.304521
535.199149	0.304786
535.414736	0.306419
535.630306	0.307190
535.845857	0.306862
536.061390	0.308056
536.276904	0.307722
536.492401	0.307590
536.707879	0.308588
536.923339	0.309510
537.138781	0.309964
537.354204	0.310010
537.569610	0.311166
537.784997	0.311758
538.000366	0.311597
538.215716	0.312450
538.431049	0.313673
538.646363	0.314996
538.861659	0.315503
539.076937	0.316174
539.292196	0.316252
539.507438	0.316400
539.722661	0.316982
539.937866	0.317566
540.153052	0.318260
540.368221	0.319489
540.583371	0.319154
540.798503	0.319914
541.013617	0.320766
541.228712	0.321137
541.443789	0.321161
541.658848	0.322548
541.873889	0.322197
542.088912	0.322908
542.303916	0.322868
542.518902	0.323332
542.733870	0.323615
542.948820	0.323309
543.163752	0.324961
543.378665	0.326281
543.593560	0.325707
543.808437	0.327291
544.023295	0.327179
544.238136	0.327226
544.452958	0.327616
544.667762	0.327484
544.882548	0.328679
545.097315	0.328473
545.312064	0.328574
545.526795	0.328629
545.741508	0.328006
545.956203	0.328701
546.170879	0.328802
546.385537	0.329776
546.600177	0.330333
546.814799	0.330479
547.029402	0.330725
547.243988	0.331296
547.458555	0.332676
547.673103	0.333595
547.887634	0.333841
548.102146	0.334880
548.316640	0.335355
548.531116	0.336175
548.745574	0.337282
548.960013	0.337873
549.174435	0.337770
549.388838	0.338361
549.603222	0.339561
549.817589	0.340638
550.031937	0.341034
550.246267	0.341218
550.460579	0.341670
550.674873	0.341311
550.889148	0.341849
551.103405	0.342681
551.317644	0.342937
551.531865	0.342801
551.746068	0.342547
551.960252	0.342701
552.174418	0.342861
552.388566	0.343248
552.602696	0.344064
552.816807	0.344739
553.030900	0.344620
553.244975	0.344926
553.459032	0.345398
553.673070	0.345672
553.887091	0.345847
554.101093	0.346449
554.315077	0.346546
554.529042	0.346804
554.742990	0.347267
554.956919	0.348528
555.170830	0.348648
555.384722	0.349466
555.598597	0.350027
555.812453	0.350799
556.026291	0.351541
556.240111	0.352262
556.453913	0.353043
556.667696	0.353171
556.881461	0.353140
557.095208	0.354194
557.308937	0.354331
557.522647	0.355441
557.736339	0.355613
557.950013	0.355583
558.163669	0.356396
558.377307	0.357203
558.590926	0.357880
558.804527	0.358477
559.018110	0.358245
559.231675	0.358396
559.445221	0.358025
559.658749	0.358996
559.872259	0.359723
560.085751	0.359491
560.299225	0.359665
560.512680	0.359892
560.726117	0.360831
560.939536	0.361471
561.152937	0.362002
561.366319	0.363041
561.579683	0.363293
561.793029	0.362915
562.006357	0.363111
562.219667	0.363475
562.432958	0.363868
562.646231	0.363451
562.859486	0.364192
563.072723	0.364549
563.285941	0.364880
563.499141	0.365493
563.712323	0.366445
563.925487	0.367306
564.138632	0.366944
564.351760	0.366873
564.564869	0.367015
564.777960	0.367092
564.991032	0.367354
565.204087	0.367421
565.417123	0.367540
565.630141	0.367625
565.843140	0.368000
566.056122	0.369382
566.269085	0.370571
566.482030	0.371776
566.694957	0.372425
566.907866	0.372711
567.120756	0.372732
567.333628	0.373184
567.546482	0.373554
567.759318	0.373796
567.972135	0.373832
568.184935	0.373312
568.397716	0.373475
568.610478	0.373366
568.823223	0.374236
569.035949	0.375674
569.248657	0.375898
569.461347	0.376587
569.674019	0.377006
569.886672	0.376073
570.099308	0.377267
570.311925	0.376919
570.524523	0.377183
570.737104	0.377357
570.949666	0.377092
571.162210	0.376827
571.374736	0.377361
571.587244	0.377724
571.799733	0.378566
572.012205	0.378838
572.224658	0.379905
572.437092	0.380386
572.649509	0.381276
572.861907	0.381210
573.074287	0.382164
573.286649	0.382335
573.498993	0.382651
573.711318	0.383616
573.923625	0.383577
574.135914	0.384244
574.348185	0.384521
574.560438	0.384409
574.772672	0.385369
574.984888	0.385731
575.197086	0.385859
575.409266	0.386269
575.621427	0.386708
575.833570	0.386972
576.045695	0.387349
576.257802	0.388350
576.469890	0.388280
576.681961	0.388328
576.894013	0.388572
577.106046	0.388974
577.318062	0.389513
577.530059	0.389554
577.742039	0.390200
577.954000	0.389816
578.165942	0.389690
578.377867	0.390447
578.589773	0.391048
578.801661	0.391311
579.013531	0.392091
579.225382	0.391657
579.437216	0.391842
579.649031	0.392472
579.860828	0.392708
580.072606	0.392764
580.284367	0.393021
580.496109	0.392971
580.707833	0.393752
580.919539	0.393484
581.131227	0.394727
581.342896	0.395582
581.554547	0.395677
581.766180	0.396505
581.977795	0.396725
582.189391	0.397430
582.400969	0.398041
582.612529	0.397772
582.824071	0.398522
583.035595	0.398601
583.247100	0.398579
583.458587	0.399219
583.670056	0.399542
583.881506	0.400076
584.092939	0.400594
584.304353	0.401224
584.515749	0.401722
584.727127	0.401834
584.938486	0.401875
585.149828	0.402542
585.361151	0.402256
585.572456	0.402240
585.783742	0.402989
585.995011	0.403054
586.206261	0.403283
586.417493	0.403515
586.628706	0.403805
586.839902	0.404488
587.051079	0.404645
587.262238	0.405242
587.473379	0.405720
587.684502	0.405967
587.895606	0.406323
588.106692	0.406159
588.317760	0.407005
588.528810	0.407532
588.739841	0.408137
588.950855	0.408386
589.161850	0.408386
589.372827	0.409048
589.583785	0.409200
589.794726	0.409453
590.005648	0.409793
590.216552	0.409965
590.427437	0.410906
590.638305	0.411236
590.849154	0.411422
591.059985	0.412191
591.270798	0.412120
591.481592	0.412559
591.692369	0.412956
591.903127	0.413255
592.113867	0.413299
592.324588	0.413177
592.535292	0.413614
592.745977	0.414504
592.956644	0.414718
593.167293	0.414946
593.377923	0.415145
593.588536	0.415549
593.799130	0.416228
594.009706	0.417034
594.220263	0.417082
594.430803	0.417019
594.641324	0.416991
594.851827	0.417483
595.062312	0.418352
595.272778	0.418940
595.483227	0.418374
595.693657	0.419015
595.904069	0.418952
596.114462	0.419537
596.324838	0.419870
596.535195	0.420723
596.745534	0.420922
596.955855	0.421083
597.166157	0.421385
597.376441	0.422594
597.586707	0.422126
597.796955	0.423106
598.007185	0.423305
598.217396	0.424023
598.427589	0.424048
598.637764	0.423682
598.847921	0.424090
599.058060	0.424395
599.268180	0.424191
599.478282	0.425032
599.688366	0.424671
599.898431	0.424527
600.108479	0.424727
600.318508	0.425064
600.528519	0.426147
600.738511	0.426628
600.948486	0.426679
601.158442	0.427023
601.368380	0.427645
601.578300	0.428167
601.788202	0.428971
601.998085	0.429169
602.207950	0.429263
602.417797	0.429503
602.627626	0.429659
602.837436	0.430411
603.047228	0.430996
603.257002	0.431056
603.466758	0.431230
603.676496	0.431521
603.886215	0.431882
604.095916	0.431938
604.305599	0.431926
604.515264	0.432050
604.724910	0.431895
604.934538	0.431983
605.144148	0.431959
605.353740	0.432477
605.563314	0.432897
605.772869	0.433073
605.982406	0.433478
606.191925	0.433913
606.401425	0.434099
606.610908	0.434181
606.820372	0.434614
607.029818	0.434994
607.239246	0.434940
607.448655	0.435130
607.658047	0.435460
607.867420	0.435957
608.076775	0.436505
608.286111	0.436665
608.495430	0.437434
608.704730	0.437633
608.914012	0.438192
609.123275	0.438681
609.332521	0.438940
609.541748	0.439268
609.750957	0.439283
609.960148	0.439229
610.169321	0.439256
610.378475	0.439466
610.587611	0.439606
610.796729	0.439819
611.005829	0.439803
611.214910	0.440084
611.423974	0.440196
611.633019	0.440652
611.842045	0.440737
612.051054	0.441718
612.260044	0.441873
612.469017	0.442163
612.677970	0.441997
612.886906	0.442543
613.095824	0.442465
613.304723	0.442561
613.513604	0.442782
613.722467	0.443398
613.931311	0.443484
614.140138	0.443713
614.348946	0.444003
614.557736	0.444442
614.766507	0.444667
614.975261	0.444920
615.183996	0.445358
615.392713	0.445614
615.601412	0.445827
615.810092	0.445956
616.018754	0.446178
616.227399	0.446221
616.436024	0.446673
616.644632	0.446949
616.853222	0.447507
617.061793	0.447549
617.270346	0.447635
617.478880	0.447926
617.687397	0.448070
617.895895	0.448703
618.104375	0.449209
618.312837	0.449565
618.521281	0.449767
618.729706	0.449853
618.938113	0.450539
619.146502	0.450971
619.354873	0.451218
619.563226	0.451524
619.771560	0.451367
619.979876	0.451772
620.188174	0.451956
620.396453	0.452513
620.604715	0.452881
620.812958	0.453146
621.021183	0.453279
621.229390	0.453824
621.437578	0.453820
621.645748	0.454616
621.853900	0.454871
622.062034	0.454997
622.270150	0.454867
622.478247	0.455137
622.686326	0.455112
622.894387	0.455562
623.102430	0.455702
623.310454	0.456210
623.518461	0.455975
623.726449	0.456347
623.934418	0.456535
624.142370	0.456973
624.350303	0.457542
624.558218	0.457451
624.766115	0.457720
624.973994	0.457894
625.181855	0.457794
625.389697	0.458312
625.597521	0.458418
625.805327	0.458359
626.013114	0.458606
626.220883	0.458540
626.428634	0.458866
626.636367	0.459275
626.844082	0.459413
627.051778	0.460149
627.259457	0.460397
627.467117	0.460643
627.674758	0.461191
627.882382	0.461579
628.089987	0.462054
628.297574	0.462440
628.505143	0.462257
628.712694	0.462929
628.920226	0.462921
629.127740	0.463023
629.335236	0.462657
629.542714	0.463172
629.750174	0.463194
629.957615	0.463525
630.165038	0.464092
630.372443	0.464534
630.579829	0.464457
630.787198	0.464841
630.994548	0.465031
631.201880	0.465746
631.409194	0.465857
631.616489	0.466185
631.823766	0.466264
632.031025	0.466369
632.238266	0.466649
632.445489	0.466759
632.652693	0.466792
632.859879	0.466937
633.067047	0.467228
633.274197	0.467575
633.481329	0.467391
633.688442	0.467725
633.895537	0.468293
634.102614	0.468689
634.309672	0.469078
634.516713	0.469700
634.723735	0.470493
634.930739	0.470462
635.137724	0.470444
635.344692	0.471250
635.551641	0.471470
635.758572	0.471495
635.965485	0.471762
636.172379	0.472017
636.379256	0.471911
636.586114	0.471580
636.792954	0.472231
636.999775	0.472701
637.206579	0.472875
637.413364	0.473236
637.620131	0.473578
637.826880	0.473867
638.033610	0.474285
638.240323	0.474915
638.447017	0.475564
638.653692	0.475963
638.860350	0.476356
639.066990	0.476251
639.273611	0.476247
639.480214	0.476476
639.686798	0.476694
639.893365	0.476945
640.099913	0.477220
640.306443	0.477299
640.512955	0.477430
640.719449	0.477216
640.925924	0.477733
641.132381	0.478307
641.338820	0.478958
641.545241	0.479154
641.751644	0.479477
641.958028	0.479676
642.164394	0.479817
642.370742	0.480471
642.577071	0.481072
642.783383	0.481735
642.989676	0.481877
643.195951	0.481739
643.402207	0.482050
643.608446	0.482299
643.814666	0.482674
644.020868	0.483333
644.227052	0.483005
644.433218	0.483347
644.639365	0.483324
644.845494	0.483720
645.051605	0.484308
645.257698	0.484844
645.463772	0.485208
645.669828	0.485663
645.875866	0.485915
646.081886	0.486650
646.287888	0.487072
646.493871	0.487682
646.699836	0.488077
646.905783	0.488097
647.111712	0.488262
647.317622	0.488534
647.523514	0.488988
647.729388	0.489255
647.935244	0.489597
648.141082	0.489956
648.346901	0.490233
648.552702	0.490533
648.758485	0.491117
648.964250	0.491372
649.169996	0.491413
649.375724	0.491595
649.581434	0.492130
649.787126	0.492619
649.992800	0.492696
650.198455	0.493101
650.404092	0.493183
650.609711	0.493282
650.815311	0.493667
651.020894	0.494321
651.226458	0.494284
651.432004	0.494444
651.637532	0.494534
651.843041	0.495199
652.048532	0.495191
652.254006	0.495632
652.459460	0.495805
652.664897	0.496009
652.870315	0.495920
653.075716	0.496358
653.281097	0.496586
653.486461	0.496872
653.691807	0.496792
653.897134	0.497359
654.102443	0.497312
654.307734	0.498160
654.513006	0.498351
654.718261	0.498875
654.923497	0.499311
655.128715	0.499554
655.333915	0.499880
655.539096	0.500355
655.744259	0.500548
655.949404	0.501293
656.154531	0.500993
656.359640	0.501691
656.564730	0.502058
656.769802	0.502699
656.974856	0.503057
657.179892	0.503522
657.384909	0.504253
657.589908	0.504551
657.794889	0.504923
657.999852	0.505766
658.204797	0.506410
658.409723	0.506474
658.614631	0.506431
658.819521	0.507409
659.024393	0.507643
659.229246	0.507818
659.434081	0.508375
659.638898	0.508803
659.843697	0.509270
660.048478	0.509399
660.253240	0.509729
660.457984	0.510415
660.662710	0.510244
660.867417	0.510587
661.072107	0.510617
661.276778	0.510747
661.481431	0.510871
661.686066	0.511273
661.890682	0.511207
662.095281	0.511830
662.299861	0.512094
662.504422	0.512395
662.708966	0.512766
662.913491	0.513090
663.117999	0.513385
663.322488	0.513649
663.526958	0.513501
663.731411	0.514246
663.935845	0.514942
664.140261	0.515419
664.344659	0.516147
664.549038	0.516275
664.753400	0.516984
664.957743	0.517843
665.162068	0.518524
665.366375	0.519009
665.570663	0.519336
665.774933	0.519711
665.979185	0.519644
666.183419	0.519986
666.387635	0.520387
666.591832	0.520802
666.796011	0.520915
667.000172	0.521263
667.204315	0.521653
667.408439	0.521728
667.612545	0.521790
667.816634	0.522207
668.020703	0.522353
668.224755	0.523182
668.428788	0.523387
668.632803	0.523380
668.836800	0.523380
669.040779	0.523912
669.244739	0.524251
669.448681	0.524717
669.652605	0.525236
669.856511	0.525455
670.060399	0.525563
670.264268	0.525771
670.468119	0.526528
670.671952	0.527493
670.875767	0.527810
671.079563	0.528571
671.283341	0.528775
671.487101	0.529453
671.690843	0.529969
671.894567	0.530393
672.098272	0.530726
672.301959	0.531221
672.505628	0.531481
672.709278	0.531604
672.912911	0.531938
673.116525	0.532489
673.320121	0.532522
673.523699	0.533054
673.727258	0.533679
673.930799	0.534029
674.134322	0.534072
674.337827	0.533974
674.541314	0.534513
674.744782	0.534893
674.948232	0.535470
675.151664	0.536119
675.355078	0.536422
675.558474	0.536641
675.761851	0.537173
675.965210	0.537631
676.168551	0.538347
676.371873	0.538907
676.575178	0.539213
676.778464	0.539806
676.981732	0.539754
677.184981	0.540291
677.388213	0.540638
677.591426	0.540930
677.794621	0.541425
677.997798	0.541980
678.200956	0.542245
678.404097	0.542976
678.607219	0.542946
678.810323	0.543617
679.013408	0.543704
679.216476	0.543937
679.419525	0.544406
679.622556	0.544772
679.825569	0.545362
680.028563	0.545497
680.231540	0.545475
680.434498	0.545742
680.637438	0.545897
680.840359	0.546282
681.043263	0.546492
681.246148	0.547106
681.449015	0.547644
681.651864	0.547947
681.854694	0.548543
682.057506	0.549382
682.260301	0.549788
682.463076	0.550416
682.665834	0.551217
682.868573	0.551924
683.071295	0.552169
683.273998	0.552469
683.476682	0.552264
683.679349	0.552757
683.881997	0.553041
684.084627	0.553379
684.287239	0.553656
684.489833	0.553669
684.692408	0.554197
684.894965	0.554389
685.097504	0.554848
685.300025	0.555309
685.502527	0.555690
685.705012	0.555959
685.907478	0.556573
686.109925	0.557034
686.312355	0.557656
686.514766	0.557697
686.717159	0.558425
686.919534	0.558670
687.121891	0.559431
687.324230	0.559623
687.526550	0.559636
687.728852	0.559714
687.931136	0.559811
688.133401	0.560116
688.335649	0.560635
688.537878	0.561024
688.740089	0.561316
688.942281	0.561535
689.144456	0.562209
689.346612	0.562802
689.548750	0.563157
689.750870	0.563647
689.952971	0.563880
690.155055	0.564511
690.357120	0.564851
690.559167	0.565266
690.761195	0.565378
690.963206	0.565180
691.165198	0.565319
691.367172	0.566083
691.569128	0.566141
691.771065	0.566269
691.972984	0.566208
692.174885	0.566124
692.376768	0.566536
692.578633	0.567025
692.780479	0.567428
692.982308	0.567756
693.184118	0.567697
693.385909	0.568372
693.587683	0.568631
693.789438	0.568841
693.991175	0.569388
694.192894	0.569611
694.394595	0.569629
694.596277	0.569734
694.797941	0.570246
694.999587	0.570834
695.201215	0.571127
695.402824	0.571702
695.604416	0.572345
695.805989	0.572481
696.007543	0.572847
696.209080	0.573754
696.410598	0.574363
696.612099	0.574445
696.813580	0.574563
697.015044	0.574753
697.216490	0.574932
697.417917	0.575519
697.619326	0.575752
697.820717	0.575633
698.022089	0.575205
698.223444	0.575766
698.424780	0.575879
698.626098	0.576153
698.827397	0.576824
699.028679	0.577230
699.229942	0.576787
699.431187	0.577438
699.632414	0.578462
699.833622	0.579040
700.034813	0.579452
700.235985	0.579985
700.437139	0.580159
700.638274	0.580408
700.839392	0.580804
701.040491	0.581594
701.241572	0.581703
701.442635	0.581511
701.643679	0.582233
701.844706	0.582380
702.045714	0.582809
702.246704	0.583365
702.447675	0.583538
702.648629	0.583745
702.849564	0.583909
703.050481	0.584291
703.251380	0.584398
703.452260	0.584247
703.653122	0.584302
703.853966	0.584647
704.054792	0.584810
704.255600	0.585090
704.456389	0.584984
704.657160	0.585284
704.857913	0.585534
705.058648	0.585980
705.259365	0.586138
705.460063	0.586852
705.660743	0.586728
705.861405	0.586812
706.062048	0.586901
706.262674	0.587154
706.463281	0.587380
706.663870	0.587415
706.864441	0.587564
707.064993	0.587754
707.265527	0.587476
707.466043	0.587907
707.666541	0.588013
707.867021	0.588056
708.067482	0.588224
708.267925	0.588237
708.468350	0.588663
708.668757	0.588520
708.869145	0.588791
709.069516	0.588881
709.269868	0.588853
709.470201	0.589249
709.670517	0.589666
709.870814	0.590154
710.071093	0.590567
710.271354	0.590955
710.471597	0.591749
710.671821	0.592198
710.872028	0.592383
711.072216	0.592890
711.272385	0.592859
711.472537	0.592753
711.672670	0.593076
711.872785	0.593053
712.072882	0.592911
712.272961	0.592685
712.473021	0.592571
712.673063	0.592810
712.873087	0.592450
713.073093	0.592803
713.273081	0.593279
713.473050	0.593257
713.673001	0.592899
713.872934	0.592609
714.072849	0.593055
714.272745	0.593020
714.472623	0.593222
714.672483	0.593687
714.872325	0.593657
715.072148	0.593577
715.271954	0.593159
715.471741	0.593717
715.671509	0.594091
715.871260	0.594153
716.070992	0.594585
716.270707	0.594699
716.470403	0.594532
716.670080	0.594672
716.869740	0.594723
717.069381	0.595262
717.269004	0.595009
717.468609	0.595154
717.668195	0.594733
717.867764	0.594812
718.067314	0.594684
718.266846	0.595195
718.466360	0.595150
718.665855	0.595017
718.865332	0.594959
719.064791	0.595288
719.264232	0.595197
719.463655	0.595437
719.663059	0.595332
719.862445	0.595503
720.061813	0.594880
720.261163	0.594935
720.460494	0.595466
720.659807	0.595423
720.859102	0.595280
721.058379	0.595122
721.257638	0.595316
721.456878	0.595158
721.656100	0.594791
721.855304	0.595263
722.054490	0.595604
722.253657	0.595381
722.452806	0.595865
722.651937	0.596295
722.851050	0.596558
723.050145	0.596644
723.249221	0.596796
723.448279	0.597385
723.647319	0.597423
723.846340	0.597163
724.045344	0.597340
724.244329	0.597445
724.443296	0.597361
724.642245	0.597600
724.841175	0.597492
725.040088	0.597826
725.238982	0.597822
725.437857	0.597891
725.636715	0.598436
725.835554	0.598441
726.034376	0.597911
726.233179	0.597889
726.431963	0.597915
726.630730	0.597979
726.829478	0.598070
727.028208	0.597743
727.226920	0.597751
727.425614	0.597237
727.624289	0.597248
727.822946	0.597739
728.021585	0.597677
728.220206	0.597500
728.418808	0.597477
728.617392	0.597407
728.815958	0.597833
729.014506	0.597724
729.213036	0.598230
729.411547	0.598274
729.610040	0.598159
729.808515	0.598001
730.006972	0.597943
730.205410	0.598166
730.403831	0.598185
730.602233	0.598331
730.800616	0.598796
730.998982	0.598729
731.197329	0.598677
731.395658	0.598605
731.593969	0.598845
731.792262	0.599091
731.990536	0.598981
732.188793	0.598987
732.387031	0.598689
732.585250	0.598216
732.783452	0.597984
732.981635	0.597871
733.179800	0.597788
733.377947	0.597796
733.576076	0.597731
733.774186	0.597680
733.972278	0.597655
734.170352	0.597823
734.368408	0.597918
734.566446	0.598226
734.764465	0.598418
734.962466	0.598618
735.160449	0.598552
735.358413	0.598963
735.556360	0.599009
735.754288	0.599143
735.952198	0.599310
736.150090	0.599578
736.347963	0.599368
736.545818	0.599580
736.743655	0.599546
736.941474	0.599465
737.139275	0.599474
737.337057	0.599382
737.534821	0.598840
737.732567	0.598366
737.930295	0.598020
738.128005	0.598111
738.325696	0.597457
738.523369	0.597204
738.721024	0.597167
738.918660	0.596779
739.116279	0.597003
739.313879	0.597465
739.511461	0.597525
739.709024	0.597342
739.906570	0.597248
740.104097	0.597726
740.301606	0.597910
740.499097	0.597821
740.696569	0.598014
740.894024	0.597750
741.091460	0.597735
741.288878	0.597772
741.486277	0.598175
741.683659	0.598285
741.881022	0.598190
742.078367	0.598079
742.275694	0.598399
742.473002	0.598443
742.670293	0.599333
742.867565	0.599251
743.064819	0.599774
743.262054	0.599991
743.459272	0.599662
743.656471	0.599938
743.853652	0.600318
744.050815	0.600816
744.247959	0.600663
744.445085	0.599964
744.642194	0.599824
744.839283	0.599674
745.036355	0.599538
745.233408	0.599683
745.430444	0.599472
745.627461	0.599395
745.824459	0.598918
746.021440	0.598736
746.218402	0.598900
746.415346	0.598865
746.612272	0.598612
746.809180	0.598185
747.006069	0.597896
747.202940	0.598036
747.399793	0.598043
747.596628	0.598087
747.793444	0.598305
747.990243	0.598490
748.187023	0.598712
748.383784	0.598738
748.580528	0.599329
748.777253	0.599921
748.973960	0.599931
749.170649	0.599659
749.367320	0.599611
749.563973	0.599556
749.760607	0.599265
749.957223	0.599234
750.153821	0.599238
750.350400	0.599570
750.546962	0.599345
750.743505	0.599338
750.940030	0.599707
751.136536	0.599795
751.333025	0.599714
751.529495	0.599643
751.725947	0.599769
751.922381	0.599808
752.118796	0.599299
752.315194	0.599534
752.511573	0.599365
752.707934	0.599260
752.904276	0.599444
753.100601	0.599674
753.296907	0.599728
753.493195	0.599936
753.689465	0.599994
753.885716	0.600054
754.081949	0.600201
754.278164	0.599926
754.474361	0.599798
754.670540	0.599901
754.866700	0.600217
755.062843	0.600695
755.258967	0.600743
755.455072	0.601028
755.651160	0.601235
755.847229	0.601031
756.043280	0.601201
756.239313	0.601425
756.435328	0.601654
756.631324	0.601475
756.827302	0.601397
757.023262	0.601191
757.219204	0.601227
757.415127	0.601299
757.611033	0.601383
757.806920	0.601461
758.002788	0.601632
758.198639	0.601734
758.394471	0.601811
758.590286	0.601642
758.786081	0.601483
758.981859	0.601297
759.177619	0.601111
759.373360	0.601160
759.569083	0.601436
759.764788	0.601534
759.960474	0.601453
760.156143	0.601294
760.351793	0.601491
760.547425	0.601400
760.743038	0.601522
760.938634	0.601501
761.134211	0.601434
761.329770	0.601432
761.525311	0.601634
761.720833	0.601264
761.916338	0.601729
762.111824	0.602145
762.307292	0.602917
762.502741	0.603227
762.698173	0.603808
762.893586	0.604094
763.088981	0.604310
763.284358	0.604101
763.479716	0.604285
763.675057	0.604299
763.870379	0.603815
764.065683	0.603917
764.260968	0.603850
764.456236	0.603842
764.651485	0.603730
764.846716	0.604185
765.041929	0.604306
765.237123	0.604802
765.432299	0.604824
765.627457	0.605163
765.822597	0.605008
766.017719	0.605243
766.212822	0.605077
766.407907	0.605303
766.602974	0.604965
766.798023	0.605305
766.993054	0.605043
767.188066	0.605034
767.383060	0.604929
767.578036	0.604978
767.772993	0.604709
767.967933	0.605045
768.162854	0.605372
768.357757	0.605658
768.552642	0.605563
768.747508	0.606036
768.942356	0.606230
769.137186	0.606743
769.331998	0.606811
769.526792	0.607439
769.721567	0.607664
769.916324	0.607378
770.111063	0.607689
770.305784	0.607628
770.500486	0.607469
770.695171	0.608030
770.889837	0.608460
771.084484	0.609070
771.279114	0.609232
771.473725	0.609455
771.668318	0.609883
771.862893	0.609368
772.057450	0.609073
772.251988	0.609647
772.446509	0.609584
772.641011	0.609032
772.835494	0.608871
773.029960	0.608663
773.224407	0.608475
773.418836	0.608432
773.613247	0.608656
773.807640	0.609163
774.002014	0.608919
774.196370	0.609475
774.390708	0.610103
774.585028	0.610240
774.779330	0.610824
774.973613	0.611206
775.167878	0.611703
775.362125	0.612425
775.556354	0.612901
775.750564	0.613716
775.944756	0.613306
776.138930	0.613466
776.333086	0.613722
776.527223	0.613926
776.721343	0.614440
776.915444	0.614731
777.109526	0.615088
777.303591	0.615485
777.497637	0.615339
777.691666	0.615623
777.885676	0.615856
778.079667	0.616081
778.273641	0.615767
778.467596	0.615661
778.661533	0.615506
778.855452	0.615815
779.049352	0.616275
779.243235	0.616110
779.437099	0.616660
779.630945	0.616654
779.824773	0.617183
780.018582	0.617513
780.212373	0.617842
780.406146	0.618693
780.599901	0.618657
780.793638	0.618801
780.987356	0.619577
781.181056	0.619438
781.374738	0.619951
781.568402	0.620167
781.762047	0.620410
781.955674	0.620601
782.149283	0.620453
782.342874	0.621217
782.536447	0.621401
782.730001	0.621164
782.923537	0.621172
783.117055	0.621416
783.310555	0.621392
783.504036	0.622008
783.697499	0.622323
783.890944	0.622601
784.084371	0.622286
784.277780	0.622365
784.471170	0.623096
784.664542	0.623740
784.857896	0.623701
785.051231	0.624135
785.244549	0.624015
785.437848	0.624377
785.631129	0.624668
785.824392	0.625457
786.017636	0.626100
786.210863	0.626634
786.404071	0.627040
786.597260	0.627243
786.790432	0.627366
786.983585	0.627779
787.176721	0.627707
787.369838	0.627870
787.562936	0.627203
787.756017	0.627246
787.949079	0.626747
788.142123	0.626727
788.335149	0.627335
788.528156	0.627786
788.721146	0.628008
788.914117	0.628445
789.107070	0.628909
789.300005	0.629788
789.492921	0.629871
789.685819	0.630332
789.878699	0.630804
790.071561	0.630656
790.264405	0.630451
790.457230	0.630946
790.650037	0.631260
790.842826	0.631694
791.035597	0.631774
791.228349	0.632471
791.421084	0.632936
791.613800	0.633299
791.806497	0.633966
791.999177	0.634996
792.191838	0.634738
792.384481	0.634692
792.577106	0.635078
792.769713	0.635641
792.962301	0.635478
793.154871	0.635811
793.347423	0.636106
793.539957	0.636296
793.732473	0.635791
793.924970	0.636146
794.117449	0.636691
794.309910	0.636733
794.502353	0.636665
794.694777	0.637117
794.887183	0.637082
795.079571	0.637356
795.271941	0.637541
795.464293	0.638623
795.656626	0.639319
795.848941	0.639544
796.041238	0.639858
796.233516	0.640001
796.425777	0.640545
796.618019	0.641182
796.810243	0.641458
797.002449	0.642446
797.194636	0.642509
797.386805	0.642749
797.578956	0.642689
797.771089	0.642905
797.963204	0.643751
798.155300	0.643704
798.347378	0.644105
798.539438	0.644752
798.731480	0.644540
798.923503	0.644467
799.115509	0.645144
799.307496	0.645841
799.499465	0.646345
799.691415	0.646411
799.883348	0.646574
800.075262	0.646311
800.267158	0.646228
800.459035	0.646697
800.650895	0.647349
800.842736	0.647117
801.034559	0.647502
801.226364	0.647790
801.418150	0.648716
801.609919	0.649425
801.801669	0.650356
801.993401	0.650686
802.185114	0.650825
802.376810	0.651104
802.568487	0.651833
802.760146	0.652322
802.951787	0.652302
803.143409	0.651880
803.335014	0.651835
803.526600	0.652099
803.718168	0.652370
803.909717	0.652765
804.101249	0.653545
804.292762	0.653941
804.484257	0.653742
804.675734	0.653754
804.867192	0.654159
805.058632	0.654428
805.250054	0.654780
805.441458	0.655428
805.632844	0.655526
805.824211	0.655497
806.015561	0.655340
806.206891	0.655914
806.398204	0.656595
806.589499	0.657240
806.780775	0.657866
806.972033	0.657953
807.163273	0.658139
807.354495	0.658795
807.545698	0.659110
807.736883	0.659776
807.928050	0.660150
808.119199	0.660919
808.310329	0.661041
808.501441	0.661213
808.692535	0.661743
808.883611	0.662185
809.074669	0.662211
809.265708	0.662642
809.456729	0.662598
809.647732	0.663324
809.838717	0.663871
810.029683	0.664521
810.220632	0.665230
810.411562	0.665333
810.602474	0.664977
810.793367	0.666000
810.984242	0.665989
811.175100	0.666795
811.365938	0.666396
811.556759	0.666331
811.747562	0.665770
811.938346	0.666128
812.129112	0.666855
812.319860	0.667721
812.510589	0.667578
812.701300	0.668264
812.891994	0.668438
813.082668	0.669116
813.273325	0.669213
813.463964	0.669855
813.654584	0.670218
813.845186	0.670205
814.035769	0.670342
814.226335	0.670499
814.416882	0.670476
814.607411	0.670824
814.797922	0.670933
814.988415	0.671107
815.178889	0.671437
815.369345	0.671887
815.559783	0.672172
815.750203	0.672389
815.940605	0.673287
816.130988	0.673570
816.321353	0.673775
816.511700	0.674430
816.702028	0.674895
816.892339	0.675230
817.082631	0.675022
817.272905	0.674807
817.463161	0.674824
817.653398	0.674583
817.843617	0.674623
818.033819	0.674322
818.224001	0.674927
818.414166	0.675210
818.604312	0.675734
818.794440	0.675958
818.984550	0.676885
819.174642	0.677754
819.364716	0.678383
819.554771	0.678798
819.744808	0.679779
819.934827	0.679464
820.124827	0.679577
820.314810	0.679803
820.504774	0.680343
820.694720	0.680713
820.884647	0.680570
821.074557	0.680262
821.264448	0.680630
821.454321	0.680653
821.644176	0.680398
821.834012	0.680735
822.023831	0.680651
822.213631	0.680369
822.403413	0.680053
822.593176	0.680341
822.782922	0.680871
822.972649	0.680969
823.162358	0.680893
823.352049	0.681983
823.541721	0.681562
823.731376	0.681933
823.921012	0.682769
824.110629	0.683064
824.300229	0.683215
824.489811	0.683400
824.679374	0.683573
824.868919	0.683957
825.058445	0.683461
825.247954	0.684237
825.437444	0.684839
825.626916	0.684548
825.816370	0.684578
826.005806	0.684749
826.195223	0.685080
826.384622	0.685537
826.574003	0.685809
826.763366	0.686566
826.952711	0.686982
827.142037	0.686948
827.331345	0.687202
827.520635	0.687442
827.709906	0.687809
827.899160	0.687546
828.088395	0.687349
828.277612	0.687783
828.466810	0.687698
828.655991	0.687645
828.845153	0.687979
829.034297	0.687898
829.223423	0.688084
829.412531	0.688116
829.601620	0.688479
829.790691	0.688817
829.979744	0.688867
830.168779	0.689144
830.357795	0.689380
830.546793	0.689596
830.735773	0.689633
830.924735	0.690110
831.113679	0.690221
831.302604	0.690443
831.491511	0.690313
831.680400	0.690385
831.869271	0.690978
832.058123	0.691521
832.246957	0.690986
832.435773	0.691533
832.624571	0.691609
832.813351	0.691984
833.002112	0.691888
833.190855	0.692741
833.379580	0.693511
833.568287	0.693316
833.756975	0.692869
833.945645	0.693717
834.134297	0.694002
834.322931	0.694064
834.511547	0.694476
834.700144	0.695064
834.888723	0.694913
835.077284	0.694144
835.265826	0.694474
835.454351	0.695347
835.642857	0.695268
835.831345	0.695591
836.019815	0.696000
836.208266	0.695837
836.396699	0.696008
836.585114	0.696183
836.773511	0.697523
836.961890	0.697200
837.150250	0.696633
837.338592	0.696757
837.526916	0.696199
837.715222	0.696159
837.903510	0.696068
838.091779	0.696419
838.280030	0.696811
838.468263	0.696282
838.656477	0.696207
838.844674	0.696201
839.032852	0.695904
839.221012	0.696252
839.409153	0.696205
839.597277	0.695991
839.785382	0.695240
839.973469	0.695089
840.161538	0.695094
840.349589	0.695156
840.537621	0.695406
840.725635	0.696016
840.913631	0.696275
841.101609	0.696197
841.289568	0.696950
841.477509	0.697397
841.665432	0.697583
841.853337	0.696543
842.041224	0.696753
842.229092	0.696739
842.416942	0.696335
842.604774	0.696451
842.792588	0.696677
842.980383	0.696655
843.168160	0.696976
843.355919	0.696804
843.543660	0.697999
843.731382	0.698024
843.919087	0.698078
844.106773	0.698041
844.294441	0.697905
844.482090	0.697822
844.669722	0.698347
844.857335	0.698142
845.044930	0.698192
845.232507	0.698011
845.420065	0.698755
845.607605	0.699007
845.795127	0.698970
845.982631	0.698823
846.170117	0.698998
846.357584	0.698562
846.545033	0.698764
846.732464	0.698977
846.919877	0.699079
847.107272	0.698520
847.294648	0.698565
847.482006	0.698605
847.669346	0.698621
847.856667	0.698409
848.043971	0.698011
848.231256	0.697526
848.418523	0.697030
848.605771	0.696778
848.793002	0.696832
848.980214	0.696575
849.167408	0.696378
849.354584	0.697027
849.541742	0.697195
849.728881	0.697148
849.916002	0.696923
850.103105	0.697244
850.290190	0.697234
850.477256	0.697605
850.664304	0.697977
850.851334	0.698303
851.038346	0.697984
851.225340	0.698286
851.412315	0.698582
851.599272	0.699200
851.786211	0.699312
851.973132	0.699304
852.160034	0.698951
852.346918	0.698884
852.533784	0.698778
852.720632	0.697920
852.907462	0.697743
853.094273	0.697545
853.281066	0.697229
853.467841	0.696994
853.654598	0.696541
853.841336	0.696315
854.028056	0.695743
854.214758	0.695943
854.401442	0.696316
854.588107	0.695977
854.774755	0.695910
854.961384	0.696240
855.147995	0.696191
855.334587	0.696626
855.521162	0.696726
855.707718	0.696971
855.894256	0.696473
856.080775	0.697005
856.267277	0.697201
856.453760	0.696990
856.640225	0.696686
856.826672	0.697120
857.013101	0.697568
857.199511	0.697215
857.385903	0.697401
857.572277	0.697588
857.758633	0.696731
857.944970	0.696420
858.131290	0.696348
858.317591	0.695485
858.503873	0.694940
858.690138	0.694609
858.876384	0.694676
859.062612	0.694376
859.248822	0.694022
859.435014	0.694416
859.621188	0.694074
859.807343	0.693959
859.993480	0.694226
860.179599	0.693977
860.365699	0.693166
860.551781	0.693089
860.737846	0.692860
860.923891	0.692984
861.109919	0.692526
861.295929	0.692745
861.481920	0.692466
861.667893	0.692893
861.853848	0.692689
862.039784	0.693155
862.225702	0.692856
862.411603	0.693208
862.597484	0.693108
862.783348	0.693162
862.969193	0.693163
863.155021	0.693632
863.340830	0.692991
863.526620	0.692635
863.712393	0.692507
863.898147	0.692859
864.083883	0.692205
864.269601	0.691905
864.455301	0.691825
864.640982	0.691086
864.826645	0.691005
865.012290	0.691213
865.197917	0.691426
865.383526	0.690937
865.569116	0.690304
865.754688	0.690690
865.940242	0.690316
866.125777	0.690601
866.311295	0.690151
866.496794	0.689320
866.682275	0.689321
866.867737	0.689175
867.053182	0.689443
867.238608	0.689299
867.424016	0.688380
867.609406	0.688223
867.794778	0.687719
867.980131	0.688557
868.165466	0.688627
868.350783	0.687784
868.536082	0.687802
868.721362	0.687114
868.906625	0.686972
869.091869	0.687924
869.277094	0.688558
869.462302	0.688469
869.647491	0.687838
869.832662	0.687465
870.017815	0.687169
870.202950	0.686851
870.388066	0.686589
870.573165	0.686606
870.758245	0.686189
870.943306	0.685844
871.128350	0.685177
871.313375	0.685193
871.498382	0.685378
871.683371	0.686121
871.868342	0.685929
872.053294	0.686101
872.238229	0.685505
872.423144	0.684520
872.608042	0.684166
872.792922	0.683631
872.977783	0.683143
873.162626	0.682918
873.347451	0.682073
873.532258	0.681189
873.717046	0.680789
873.901816	0.680651
874.086568	0.680701
874.271302	0.679976
874.456017	0.680578
874.640715	0.680870
874.825394	0.680809
875.010055	0.680318
875.194697	0.680139
875.379322	0.680364
875.563928	0.680264
875.748516	0.679951
875.933085	0.680394
876.117637	0.679826
876.302170	0.679258
876.486685	0.679106
876.671182	0.679539
876.855661	0.679339
877.040121	0.678415
877.224563	0.677793
877.408987	0.677742
877.593393	0.676725
877.777780	0.676605
877.962150	0.676240
878.146501	0.676120
878.330833	0.675485
878.515148	0.676020
878.699444	0.675868
878.883722	0.675787
879.067982	0.675313
879.252224	0.676230
879.436447	0.675651
879.620653	0.675286
879.804840	0.674558
879.989008	0.673940
880.173159	0.673380
880.357291	0.673277
880.541405	0.673554
880.725501	0.673331
880.909579	0.672621
881.093638	0.672612
881.277680	0.672763
881.461703	0.672785
881.645707	0.672496
881.829694	0.672154
882.013662	0.671760
882.197612	0.671430
882.381544	0.671086
882.565458	0.670677
882.749353	0.670422
882.933230	0.669682
883.117089	0.669240
883.300930	0.669234
883.484753	0.669266
883.668557	0.669406
883.852343	0.669111
884.036111	0.668875
884.219861	0.668124
884.403592	0.667824
884.587305	0.667191
884.771000	0.666758
884.954677	0.666640
885.138335	0.665967
885.321976	0.665403
885.505598	0.664659
885.689201	0.664287
885.872787	0.663657
886.056354	0.663499
886.239904	0.663752
886.423434	0.663287
886.606947	0.663199
886.790442	0.663247
886.973918	0.663212
887.157376	0.662658
887.340816	0.662412
887.524237	0.662797
887.707641	0.661684
887.891026	0.660890
888.074393	0.660309
888.257741	0.659841
888.441072	0.659371
888.624384	0.657953
888.807678	0.657460
888.990954	0.657586
889.174211	0.656644
889.357451	0.656317
889.540672	0.656949
889.723875	0.656398
889.907059	0.655356
890.090226	0.654107
890.273374	0.654444
890.456504	0.654169
890.639616	0.653032
890.822709	0.652936
891.005785	0.652407
891.188842	0.650717
891.371881	0.650055
891.554901	0.649947
891.737904	0.650050
891.920888	0.650077
892.103854	0.649670
892.286802	0.649282
892.469731	0.648956
892.652643	0.648903
892.835536	0.648824
893.018410	0.649234
893.201267	0.648716
893.384106	0.649377
893.566926	0.648453
893.749728	0.647966
893.932511	0.647786
894.115277	0.646627
894.298024	0.646338
894.480753	0.646503
894.663464	0.646622
894.846157	0.646648
895.028831	0.645773
895.211487	0.645377
895.394125	0.645337
895.576745	0.644378
895.759346	0.644278
895.941930	0.644044
896.124495	0.642332
896.307041	0.640945
896.489570	0.639935
896.672080	0.637678
896.854573	0.636733
897.037046	0.635896
897.219502	0.635199
897.401940	0.635363
897.584359	0.634840
897.766760	0.635126
897.949143	0.634275
898.131507	0.634393
898.313854	0.634619
898.496182	0.634127
898.678492	0.632671
898.860783	0.632664
899.043057	0.630993
899.225312	0.630028
899.407549	0.629167
899.589768	0.628661
899.771968	0.627806
899.954151	0.627341
900.136315	0.626624
900.318461	0.626898
900.500588	0.626511
900.682698	0.626679
900.864789	0.626326
901.046862	0.625342
901.228917	0.625414
901.410953	0.624957
901.592971	0.624477
901.774972	0.623988
901.956953	0.622592
902.138917	0.621368
902.320862	0.620844
902.502790	0.620284
902.684699	0.620110
902.866589	0.618606
903.048462	0.617805
903.230316	0.616686
903.412152	0.616615
903.593970	0.617267
903.775770	0.616628
903.957551	0.615257
904.139314	0.614695
904.321059	0.614511
904.502786	0.613995
904.684494	0.613431
904.866185	0.613810
905.047857	0.612593
905.229510	0.610892
905.411146	0.611079
905.592763	0.610797
905.774363	0.609574
905.955943	0.608783
906.137506	0.608268
906.319051	0.607323
906.500577	0.605966
906.682085	0.605752
906.863575	0.605839
907.045046	0.604651
907.226500	0.604760
907.407935	0.604483
907.589352	0.603947
907.770750	0.603216
907.952131	0.602570
908.133493	0.601957
908.314837	0.601148
908.496163	0.600373
908.677470	0.599860
908.858760	0.598321
909.040031	0.596713
909.221284	0.595184
909.402518	0.595102
909.583735	0.594134
909.764933	0.593201
909.946113	0.592026
910.127275	0.590739
910.308418	0.589572
910.489544	0.588935
910.670651	0.588446
910.851740	0.588049
911.032810	0.586436
911.213863	0.585657
911.394897	0.585035
911.575913	0.584560
911.756911	0.584276
911.937890	0.583558
912.118851	0.582299
912.299794	0.582454
912.480719	0.582345
912.661626	0.582684
912.842514	0.582495
913.023384	0.582183
913.204236	0.581291
913.385070	0.580777
913.565886	0.579807
913.746683	0.579764
913.927462	0.577526
914.108223	0.576005
914.288965	0.574075
914.469690	0.572602
914.650396	0.571069
914.831084	0.570854
915.011754	0.570024
915.192405	0.569400
915.373038	0.568404
915.553653	0.568227
915.734250	0.567669
915.914829	0.566743
916.095389	0.566005
916.275931	0.565749
916.456455	0.564731
916.636961	0.563670
916.817448	0.563266
916.997917	0.562377
917.178368	0.562333
917.358801	0.561204
917.539216	0.561225
917.719612	0.560804
917.899990	0.559223
918.080350	0.558048
918.260692	0.557518
918.441015	0.554745
918.621320	0.554015
918.801607	0.552949
918.981876	0.551646
919.162127	0.550518
919.342359	0.548795
919.522573	0.548011
919.702769	0.546937
919.882947	0.545820
920.063106	0.545965
920.243247	0.544594
920.423370	0.544236
920.603475	0.544031
920.783562	0.543168
920.963630	0.542966
921.143680	0.542588
921.323712	0.541959
921.503725	0.540408
921.683721	0.539481
921.863698	0.539956
922.043657	0.538718
922.223598	0.538243
922.403520	0.536533
922.583424	0.535578
922.763311	0.533566
922.943178	0.532912
923.123028	0.531991
923.302859	0.530876
923.482673	0.529142
923.662467	0.527461
923.842244	0.525490
924.022003	0.525353
924.201743	0.523091
924.381465	0.522644
924.561169	0.520518
924.740854	0.520533
924.920522	0.520166
925.100171	0.519433
925.279802	0.518018
925.459414	0.517904
925.639009	0.516987
925.818585	0.516054
925.998143	0.515593
926.177683	0.515809
926.357205	0.514479
926.536708	0.513385
926.716193	0.511464
926.895660	0.511570
927.075109	0.509685
927.254539	0.508960
927.433951	0.508993
927.613345	0.507397
927.792721	0.506182
927.972079	0.505254
928.151418	0.504070
928.330739	0.503763
928.510042	0.502600
928.689327	0.501440
928.868593	0.499063
929.047841	0.497831
929.227071	0.497278
929.406283	0.495974
929.585476	0.493597
929.764652	0.492277
929.943809	0.490884
930.122948	0.487919
930.302068	0.487172
930.481171	0.485933
930.660255	0.485589
930.839321	0.483910
931.018369	0.482669
931.197398	0.481139
931.376409	0.480766
931.555402	0.479216
931.734377	0.480393
931.913334	0.479705
932.092272	0.479127
932.271192	0.477624
932.450094	0.477454
932.628978	0.474859
932.807844	0.475023
932.986691	0.473460
933.165520	0.471286
933.344331	0.468687
933.523123	0.467564
933.701898	0.466790
933.880654	0.464723
934.059392	0.463104
934.238111	0.463267
934.416813	0.462696
934.595496	0.460587
934.774161	0.460198
934.952808	0.459009
935.131437	0.456232
935.310047	0.454846
935.488639	0.455364
935.667213	0.453263
935.845769	0.451516
936.024306	0.449365
936.202825	0.446819
936.381326	0.445176
936.559809	0.444785
936.738274	0.445024
936.916720	0.443067
937.095148	0.438805
937.273558	0.438125
937.451950	0.436421
937.630323	0.435716
937.808678	0.436471
937.987015	0.435345
938.165334	0.433795
938.343635	0.430887
938.521917	0.429182
938.700181	0.429424
938.878427	0.428801
939.056655	0.428720
939.234864	0.427779
939.413055	0.425570
939.591228	0.424575
939.769383	0.421297
939.947519	0.421095
940.125638	0.420294
940.303738	0.418536
940.481820	0.416225
940.659883	0.414049
940.837929	0.412257
941.015956	0.412465
941.193965	0.410269
941.371955	0.410238
941.549928	0.409210
941.727882	0.408467
941.905818	0.407753
942.083736	0.405945
942.261636	0.405778
942.439517	0.403607
942.617380	0.401796
942.795225	0.401967
942.973052	0.400150
943.150860	0.397675
943.328651	0.396391
943.506423	0.394789
943.684176	0.393643
943.861912	0.391130
944.039629	0.388880
944.217328	0.387136
944.395009	0.384827
944.572672	0.384463
944.750317	0.384156
944.927943	0.382627
945.105551	0.378878
945.283141	0.376628
945.460712	0.374341
945.638265	0.373657
945.815801	0.370226
945.993317	0.367842
946.170816	0.366346
946.348297	0.364529
946.525759	0.361661
946.703203	0.361849
946.880629	0.360370
947.058036	0.360313
947.235425	0.358094
947.412797	0.357471
947.590149	0.356504
947.767484	0.353372
947.944800	0.350840
948.122099	0.350626
948.299379	0.349689
948.476640	0.350167
948.653884	0.346643
948.831109	0.347899
949.008316	0.347610
949.185505	0.347394
949.362676	0.346335
949.539828	0.344852
949.716962	0.342557
949.894078	0.340577
950.071176	0.337866
950.248256	0.336705
950.425317	0.332151
950.602360	0.329253
950.779385	0.326931
950.956391	0.323537
951.133380	0.323472
951.310350	0.323532
951.487302	0.320847
951.664235	0.318977
951.841151	0.317322
952.018048	0.316525
952.194927	0.316483
952.371788	0.315080
952.548631	0.316544
952.725455	0.313358
952.902261	0.310373
953.079049	0.309317
953.255819	0.308176
953.432570	0.308549
953.609303	0.307097
953.786018	0.305870
953.962715	0.302435
954.139394	0.301081
954.316054	0.302175
954.492696	0.300249
954.669320	0.299808
954.845926	0.295509
955.022513	0.293399
955.199083	0.294571
955.375634	0.292293
955.552166	0.293697
955.728681	0.290041
955.905177	0.285111
956.081655	0.283785
956.258115	0.282119
956.434557	0.284057
956.610980	0.280793
956.787385	0.276124
956.963772	0.276079
957.140141	0.275533
957.316492	0.276895
957.492824	0.278078
957.669138	0.277639
957.845434	0.278676
958.021712	0.277350
958.197971	0.279491
958.374212	0.277412
958.550435	0.275653
958.726640	0.272937
958.902826	0.270380
959.078995	0.268486
959.255145	0.264489
959.431277	0.262276
959.607390	0.259818
959.783486	0.256967
959.959563	0.255973
960.135622	0.253955
960.311662	0.253540
960.487685	0.252509
960.663689	0.250804
960.839675	0.252077
961.015643	0.251981
961.191593	0.251288
961.367524	0.251996
961.543437	0.253819
961.719332	0.256119
961.895209	0.256042
962.071067	0.255205
962.246907	0.252806
962.422730	0.253723
962.598533	0.251394
962.774319	0.249690
962.950086	0.247947
963.125835	0.248702
963.301566	0.248392
963.477279	0.246541
963.652973	0.246790
963.828650	0.251359
964.004308	0.250077
964.179947	0.250672
964.355569	0.252600
964.531172	0.252189
964.706757	0.247711
964.882324	0.243078
965.057873	0.239174
965.233403	0.240605
965.408916	0.238456
965.584410	0.238661
965.759885	0.236082
965.935343	0.233601
966.110782	0.231266
966.286203	0.234410
966.461606	0.234962
966.636991	0.238967
966.812357	0.237366
966.987705	0.234577
967.163035	0.233156
967.338347	0.237092
967.513641	0.239756
967.688916	0.239762
967.864173	0.238475
968.039412	0.239691
968.214632	0.238180
968.389835	0.236685
968.565019	0.238514
968.740185	0.240445
968.915333	0.236849
969.090462	0.236939
969.265573	0.237336
969.440667	0.234371
969.615741	0.234805
969.790798	0.235234
969.965836	0.235654
970.140856	0.234291
970.315858	0.232810
970.490842	0.231589
970.665808	0.232709
970.840755	0.232987
971.015684	0.236835
971.190595	0.234751
971.365487	0.233360
971.540362	0.233068
971.715218	0.235004
971.890056	0.232076
972.064875	0.231544
972.239677	0.227858
972.414460	0.229238
972.589225	0.227367
972.763972	0.226082
972.938700	0.226783
973.113411	0.227344
973.288103	0.227801
973.462777	0.232710
973.637432	0.237296
973.812070	0.237493
973.986689	0.235107
974.161290	0.234891
974.335873	0.236398
974.510437	0.236319
974.684984	0.236136
974.859512	0.234344
975.034022	0.232957
975.208513	0.233501
975.382987	0.233619
975.557442	0.234949
975.731879	0.235453
975.906298	0.235910
976.080698	0.236638
976.255080	0.236338
976.429445	0.235157
976.603790	0.231142
976.778118	0.225218
976.952427	0.223385
977.126719	0.222857
977.300992	0.220431
977.475246	0.218548
977.649483	0.213886
977.823701	0.213063
977.997901	0.213437
978.172083	0.214517
978.346247	0.216407
978.520392	0.218700
978.694519	0.218082
978.868628	0.222192
979.042719	0.223734
979.216791	0.226319
979.390845	0.227174
979.564882	0.225600
979.738899	0.228292
979.912899	0.229463
980.086880	0.225462
980.260843	0.226611
980.434788	0.225781
980.608715	0.225418
980.782623	0.228103
980.956514	0.230539
981.130386	0.233254
981.304240	0.232284
981.478075	0.233149
981.651892	0.239537
981.825692	0.239122
981.999472	0.236171
982.173235	0.235633
982.346980	0.233668
982.520706	0.229608
982.694414	0.228562
982.868104	0.228462
983.041775	0.227981
983.215428	0.225045
983.389064	0.227349
983.562680	0.229319
983.736279	0.231391
983.909860	0.229791
984.083422	0.231625
984.256966	0.233294
984.430491	0.232933
984.603999	0.232079
984.777488	0.231746
984.950959	0.231061
985.124412	0.231560
985.297847	0.229650
985.471263	0.230358
985.644661	0.231455
985.818041	0.232325
985.991403	0.234108
986.164747	0.236694
986.338072	0.236699
986.511379	0.237418
986.684668	0.234456
986.857938	0.238609
987.031191	0.240257
987.204425	0.241143
987.377641	0.238614
987.550839	0.237287
987.724018	0.234054
987.897179	0.234802
988.070322	0.235472
988.243447	0.236735
988.416554	0.231468
988.589642	0.230854
988.762712	0.231138
988.935764	0.233418
989.108798	0.234758
989.281813	0.234843
989.454811	0.235210
989.627790	0.232882
989.800751	0.232532
989.973693	0.233952
990.146617	0.232860
990.319524	0.234551
990.492412	0.235324
990.665281	0.231709
990.838133	0.232082
991.010966	0.230583
991.183781	0.231474
991.356578	0.231637
991.529356	0.233897
991.702117	0.234461
991.874859	0.230405
992.047583	0.227746
992.220288	0.230864
992.392976	0.229716
992.565645	0.232257
992.738296	0.232221
992.910929	0.233901
993.083543	0.233338
993.256139	0.233467
993.428718	0.233173
993.601277	0.232667
993.773819	0.230078
993.946342	0.232161
994.118848	0.228473
994.291335	0.229296
994.463803	0.225827
994.636254	0.226573
994.808686	0.226522
994.981100	0.227175
995.153496	0.227345
995.325874	0.228741
995.498233	0.228775
995.670574	0.229742
995.842897	0.226702
996.015202	0.230551
996.187488	0.227525
996.359757	0.226148
996.532007	0.226388
996.704239	0.227172
996.876452	0.227402
997.048648	0.227401
997.220825	0.230715
997.392984	0.231662
997.565124	0.231513
997.737247	0.230363
997.909351	0.230591
998.081437	0.227939
998.253505	0.228485
998.425554	0.227879
998.597586	0.226334
998.769599	0.224608
998.941594	0.225329
999.113571	0.222145
999.285529	0.222820
999.457469	0.224929
999.629391	0.227476
999.801295	0.225573
999.973181	0.225642
1000.145048	0.225568
1000.316897	0.224643
1000.488728	0.222568
1000.660541	0.224730
1000.832335	0.226669
1001.004111	0.227634
1001.175869	0.226665
1001.347609	0.228505
1001.519331	0.230744
1001.691034	0.231102
1001.862719	0.229734
1002.034386	0.230249
1002.206035	0.230152
1002.377665	0.229717
1002.549277	0.227041
1002.720871	0.227234
1002.892447	0.224612
1003.064004	0.223240
1003.235544	0.225324
1003.407065	0.230142
1003.578568	0.231328
1003.750052	0.232030
1003.921519	0.231624
1004.092967	0.233890
1004.264397	0.235089
1004.435809	0.237683
1004.607202	0.236451
1004.778577	0.237025
1004.949934	0.233854
1005.121273	0.234270
1005.292594	0.232706
1005.463896	0.231405
1005.635180	0.230894
1005.806446	0.230477
1005.977694	0.229011
1006.148923	0.230083
1006.320135	0.228350
1006.491328	0.229154
1006.662503	0.227849
1006.833659	0.230716
1007.004798	0.233634
1007.175918	0.232949
1007.347020	0.234782
1007.518103	0.236480
1007.689169	0.238050
1007.860216	0.239867
1008.031245	0.240517
1008.202256	0.242921
1008.373248	0.240676
1008.544223	0.239785
1008.715179	0.238603
1008.886117	0.235490
1009.057036	0.235641
1009.227938	0.234075
1009.398821	0.231232
1009.569686	0.226733
1009.740533	0.227016
1009.911361	0.227545
1010.082172	0.226688
1010.252964	0.229955
1010.423738	0.232590
1010.594493	0.231855
1010.765231	0.231322
1010.935950	0.230810
1011.106651	0.235702
1011.277334	0.232296
1011.447998	0.231812
1011.618645	0.233161
1011.789273	0.230493
1011.959882	0.229681
1012.130474	0.228979
1012.301048	0.229848
1012.471603	0.232183
1012.642140	0.229826
1012.812658	0.231316
1012.983159	0.231879
1013.153641	0.229714
1013.324105	0.232003
1013.494551	0.231007
1013.664979	0.231159
1013.835388	0.231214
1014.005779	0.230932
1014.176152	0.232906
1014.346507	0.231893
1014.516843	0.231966
1014.687162	0.234092
1014.857462	0.232174
1015.027744	0.230135
1015.198007	0.232318
1015.368252	0.231292
1015.538480	0.230949
1015.708689	0.229099
1015.878879	0.230647
1016.049052	0.230865
1016.219206	0.230642
1016.389342	0.231438
1016.559460	0.234001
1016.729559	0.231359
1016.899641	0.232946
1017.069704	0.232497
1017.239749	0.234305
1017.409775	0.233268
1017.579784	0.231311
1017.749774	0.232513
1017.919746	0.233183
1018.089700	0.233301
1018.259635	0.233780
1018.429553	0.235098
1018.599452	0.236999
1018.769333	0.234235
1018.939195	0.234753
1019.109040	0.235404
1019.278866	0.232497
1019.448674	0.233309
1019.618464	0.233827
1019.788235	0.234216
1019.957989	0.233987
1020.127724	0.230338
1020.297441	0.232353
1020.467139	0.234161
1020.636820	0.234494
1020.806482	0.237396
1020.976126	0.234190
1021.145752	0.234318
1021.315359	0.233918
1021.484948	0.233561
1021.654519	0.234567
1021.824072	0.234173
1021.993607	0.233658
1022.163123	0.233993
1022.332621	0.231990
1022.502101	0.233624
1022.671563	0.231473
1022.841007	0.230262
1023.010432	0.230190
1023.179839	0.231176
1023.349228	0.231203
1023.518598	0.229280
1023.687951	0.228923
1023.857285	0.229068
1024.026601	0.228476
1024.195899	0.230486
1024.365178	0.233756
1024.534439	0.231692
1024.703682	0.230934
1024.872907	0.230681
1025.042114	0.231647
1025.211302	0.231986
1025.380472	0.231410
1025.549624	0.231642
1025.718758	0.229233
1025.887873	0.227960
1026.056970	0.230348
1026.226049	0.232261
1026.395110	0.232007
1026.564153	0.232170
1026.733177	0.232213
1026.902183	0.232526
1027.071171	0.232276
1027.240141	0.233072
1027.409092	0.232835
1027.578026	0.230785
1027.746940	0.230173
1027.915837	0.231485
1028.084716	0.230251
1028.253576	0.229162
1028.422418	0.229455
1028.591242	0.229260
1028.760048	0.228213
1028.928835	0.228416
1029.097604	0.229137
1029.266355	0.229670
1029.435088	0.229910
1029.603803	0.230640
1029.772499	0.230724
1029.941177	0.230454
1030.109837	0.229188
1030.278478	0.231472
1030.447102	0.230672
1030.615707	0.229402
1030.784294	0.225817
1030.952863	0.225268
1031.121413	0.223398
1031.289945	0.222014
1031.458460	0.220935
1031.626955	0.223957
1031.795433	0.223697
1031.963892	0.222579
1032.132334	0.224035
1032.300756	0.226410
1032.469161	0.224991
1032.637548	0.226528
1032.805916	0.230697
1032.974266	0.232476
1033.142598	0.232710
1033.310911	0.231662
1033.479207	0.234537
1033.647484	0.234432
1033.815743	0.235495
1033.983983	0.235241
1034.152206	0.234989
1034.320410	0.232975
1034.488596	0.232656
1034.656764	0.229817
1034.824914	0.227964
1034.993045	0.228036
1035.161158	0.223882
1035.329253	0.222110
1035.497330	0.223037
1035.665388	0.224110
1035.833428	0.222466
1036.001450	0.222895
1036.169454	0.221953
1036.337440	0.223893
1036.505407	0.222129
1036.673356	0.222598
1036.841287	0.222932
1037.009200	0.221816
1037.177094	0.220941
1037.344970	0.222882
1037.512828	0.222475
1037.680668	0.225720
1037.848489	0.228798
1038.016293	0.228494
1038.184078	0.231223
1038.351845	0.230409
1038.519593	0.233262
1038.687324	0.232807
1038.855036	0.231717
1039.022730	0.229856
1039.190406	0.229219
1039.358063	0.223485
1039.525702	0.225236
1039.693323	0.222451
1039.860926	0.223392
1040.028511	0.220989
1040.196077	0.221974
1040.363625	0.221834
1040.531155	0.224095
1040.698667	0.222670
1040.866161	0.225600
1041.033636	0.226150
1041.201093	0.227680
1041.368532	0.228153
1041.535952	0.228110
1041.703355	0.228851
1041.870739	0.228796
1042.038105	0.229813
1042.205452	0.233367
1042.372782	0.235225
1042.540093	0.232768
1042.707386	0.233167
1042.874661	0.232924
1043.041918	0.234178
1043.209156	0.232483
1043.376376	0.235944
1043.543578	0.235849
1043.710762	0.231437
1043.877927	0.227994
1044.045074	0.227071
1044.212203	0.227707
1044.379314	0.225816
1044.546407	0.225072
1044.713481	0.225573
1044.880537	0.223996
1045.047575	0.224535
1045.214595	0.225793
1045.381596	0.227815
1045.548579	0.228003
1045.715544	0.230544
1045.882491	0.233673
1046.049420	0.236179
1046.216330	0.237074
1046.383222	0.236244
1046.550096	0.233786
1046.716951	0.232626
1046.883789	0.230332
1047.050608	0.230811
1047.217409	0.228437
1047.384192	0.227246
1047.550956	0.223943
1047.717703	0.223553
1047.884431	0.225189
1048.051140	0.227081
1048.217832	0.229729
1048.384505	0.231155
1048.551161	0.232216
1048.717798	0.232755
1048.884416	0.232439
1049.051017	0.234926
1049.217599	0.236044
1049.384163	0.233740
1049.550709	0.233305
1049.717237	0.232798
1049.883746	0.234924
1050.050237	0.235145
1050.216710	0.234803
1050.383165	0.236684
1050.549601	0.236848
1050.716019	0.235014
1050.882420	0.234126
1051.048801	0.231122
1051.215165	0.232301
1051.381510	0.229459
1051.547837	0.230740
1051.714146	0.230544
1051.880437	0.228048
1052.046709	0.226784
1052.212964	0.229176
1052.379200	0.230044
1052.545417	0.233801
1052.711617	0.229834
1052.877798	0.231274
1053.043961	0.231062
1053.210106	0.232662
1053.376233	0.233784
1053.542341	0.235408
1053.708432	0.233388
1053.874504	0.234927
1054.040557	0.232180
1054.206593	0.234379
1054.372610	0.236130
1054.538609	0.235453
1054.704590	0.234364
1054.870553	0.238065
1055.036497	0.235797
1055.202424	0.236892
1055.368331	0.237357
1055.534221	0.239130
1055.700093	0.238664
1055.865946	0.236660
1056.031781	0.237105
1056.197598	0.233378
1056.363397	0.230531
1056.529177	0.231901
1056.694939	0.231702
1056.860683	0.229751
1057.026409	0.229410
1057.192116	0.230021
1057.357806	0.232450
1057.523477	0.232074
1057.689130	0.235050
1057.854764	0.233736
1058.020381	0.234677
1058.185979	0.234143
1058.351559	0.234433
1058.517120	0.234945
1058.682664	0.232633
1058.848189	0.230719
1059.013696	0.232320
1059.179185	0.235334
1059.344656	0.237747
1059.510108	0.236176
1059.675542	0.235077
1059.840958	0.233910
1060.006356	0.232216
1060.171735	0.234633
1060.337096	0.231983
1060.502439	0.229257
1060.667764	0.228617
1060.833071	0.227458
1060.998359	0.230183
1061.163629	0.230967
1061.328881	0.235581
1061.494115	0.237440
1061.659330	0.239920
1061.824527	0.239209
1061.989706	0.239014
1062.154867	0.239368
1062.320010	0.241667
1062.485134	0.239092
1062.650240	0.239569
1062.815328	0.235035
1062.980398	0.233628
1063.145449	0.231712
1063.310482	0.236173
1063.475497	0.238708
1063.640494	0.237055
1063.805473	0.235004
1063.970433	0.235167
1064.135375	0.235821
1064.300299	0.237674
1064.465204	0.240237
1064.630092	0.242022
1064.794961	0.241688
1064.959812	0.239550
1065.124645	0.239211
1065.289459	0.237605
1065.454256	0.236989
1065.619034	0.236779
1065.783793	0.237650
1065.948535	0.238475
1066.113258	0.236928
1066.277964	0.238248
1066.442651	0.242450
1066.607319	0.242587
1066.771970	0.242751
1066.936602	0.243956
1067.101216	0.243980
1067.265812	0.243581
1067.430389	0.243127
1067.594949	0.242472
1067.759490	0.242248
1067.924013	0.240458
1068.088518	0.242407
1068.253004	0.246157
1068.417472	0.246077
1068.581922	0.247063
1068.746354	0.248182
1068.910768	0.246419
1069.075163	0.247047
1069.239540	0.243234
1069.403899	0.243399
1069.568240	0.243323
1069.732562	0.241824
1069.896866	0.241972
1070.061152	0.242010
1070.225420	0.242626
1070.389670	0.242210
1070.553901	0.243650
1070.718114	0.248480
1070.882309	0.248091
1071.046486	0.247890
1071.210644	0.247065
1071.374784	0.246064
1071.538906	0.244352
1071.703010	0.243507
1071.867096	0.244972
1072.031163	0.244958
1072.195212	0.245257
1072.359243	0.245028
1072.523256	0.246324
1072.687250	0.245402
1072.851226	0.245138
1073.015184	0.248030
1073.179124	0.245664
1073.343045	0.244773
1073.506949	0.245787
1073.670834	0.241770
1073.834701	0.244145
1073.998549	0.243572
1074.162380	0.245965
1074.326192	0.250467
1074.489986	0.250288
1074.653761	0.253241
1074.817519	0.255326
1074.981258	0.253441
1075.144979	0.254849
1075.308682	0.253076
1075.472367	0.255328
1075.636033	0.255274
1075.799681	0.252636
1075.963311	0.250590
1076.126923	0.251316
1076.290516	0.250009
1076.454092	0.249861
1076.617649	0.252179
1076.781187	0.252584
1076.944708	0.251823
1077.108210	0.251873
1077.271695	0.247619
1077.435160	0.248613
1077.598608	0.246152
1077.762038	0.248586
1077.925449	0.248360
1078.088842	0.246881
1078.252217	0.247752
1078.415573	0.244507
1078.578912	0.242188
1078.742232	0.247563
1078.905534	0.248572
1079.068817	0.252811
1079.232083	0.254145
1079.395330	0.255474
1079.558559	0.255683
1079.721770	0.255825
1079.884962	0.257594
1080.048136	0.258202
1080.211293	0.257334
1080.374430	0.256410
1080.537550	0.255771
1080.700651	0.250333
1080.863735	0.250674
1081.026800	0.249101
1081.189846	0.250011
1081.352875	0.251157
1081.515885	0.254323
1081.678877	0.256725
1081.841851	0.257773
1082.004807	0.253292
1082.167744	0.254616
1082.330663	0.253628
1082.493564	0.253607
1082.656447	0.247026
1082.819312	0.243471
1082.982158	0.243040
1083.144986	0.241560
1083.307796	0.240768
1083.470587	0.244540
1083.633361	0.244244
1083.796116	0.244899
1083.958853	0.247511
1084.121571	0.251195
1084.284272	0.256168
1084.446954	0.254435
1084.609618	0.253960
1084.772264	0.258765
1084.934892	0.255947
1085.097501	0.257081
1085.260092	0.257414
1085.422665	0.261433
1085.585220	0.262820
1085.747756	0.261300
1085.910274	0.260099
1086.072774	0.260600
1086.235256	0.257748
1086.397720	0.262724
1086.560165	0.264581
1086.722592	0.262456
1086.885001	0.262656
1087.047392	0.261667
1087.209764	0.258542
1087.372119	0.257803
1087.534455	0.257568
1087.696772	0.258640
1087.859072	0.256008
1088.021353	0.253654
1088.183616	0.258936
1088.345861	0.254585
1088.508088	0.254057
1088.670296	0.260650
1088.832486	0.264878
1088.994658	0.270268
1089.156812	0.271228
1089.318948	0.269977
1089.481065	0.274098
1089.643164	0.269539
1089.805245	0.271584
1089.967308	0.278327
1090.129352	0.272355
1090.291378	0.273365
1090.453386	0.268705
1090.615376	0.268010
1090.777347	0.268082
1090.939301	0.265007
1091.101236	0.269392
1091.263153	0.267374
1091.425051	0.259426
1091.586932	0.262389
1091.748794	0.261266
1091.910638	0.262827
1092.072463	0.259493
1092.234271	0.264939
1092.396060	0.267235
1092.557831	0.262660
1092.719584	0.262854
1092.881319	0.264111
1093.043035	0.265100
1093.204733	0.267476
1093.366413	0.268974
1093.528075	0.270236
1093.689718	0.267597
1093.851343	0.266861
1094.012950	0.274658
1094.174539	0.276958
1094.336110	0.286366
1094.497662	0.285438
1094.659196	0.283555
1094.820712	0.283374
1094.982210	0.283760
1095.143689	0.284545
1095.305151	0.291283
1095.466594	0.287489
1095.628018	0.287379
1095.789425	0.281029
1095.950813	0.280340
1096.112183	0.278803
1096.273535	0.275001
1096.434869	0.273278
1096.596184	0.270250
1096.757482	0.265923
1096.918761	0.267983
1097.080021	0.264365
1097.241264	0.262988
1097.402488	0.264938
1097.563694	0.266450
1097.724882	0.268844
1097.886052	0.270526
1098.047203	0.275296
1098.208336	0.271500
1098.369451	0.271290
1098.530548	0.270829
1098.691627	0.269860
1098.852687	0.271470
1099.013729	0.272089
1099.174753	0.270956
1099.335758	0.274670
1099.496746	0.273066
1099.657715	0.281283
1099.818666	0.279572
1099.979599	0.282235
1100.140513	0.284840
1100.301409	0.283175
1100.462287	0.280147
1100.623147	0.281717
1100.783989	0.278517
1100.944812	0.278104
1101.105617	0.274719
1101.266404	0.276383
1101.427173	0.279559
1101.587923	0.277307
1101.748656	0.272831
1101.909370	0.273538
1102.070066	0.268631
1102.230743	0.267217
1102.391403	0.269039
1102.552044	0.264984
1102.712667	0.263828
1102.873271	0.265441
1103.033858	0.264072
1103.194426	0.262975
1103.354976	0.263663
1103.515508	0.269826
1103.676021	0.273071
1103.836517	0.270166
1103.996994	0.272641
1104.157453	0.275450
1104.317893	0.269200
1104.478316	0.277970
1104.638720	0.284154
1104.799106	0.287594
1104.959474	0.293262
1105.119823	0.291717
1105.280155	0.290478
1105.440468	0.290457
1105.600763	0.284191
1105.761039	0.287096
1105.921298	0.282767
1106.081538	0.282496
1106.241760	0.278300
1106.401964	0.270808
1106.562149	0.273314
1106.722316	0.282846
1106.882465	0.282257
1107.042596	0.291354
1107.202709	0.293255
1107.362803	0.296368
1107.522879	0.293991
1107.682937	0.295994
1107.842977	0.304269
1108.002999	0.304415
1108.163002	0.294195
1108.322987	0.293990
1108.482954	0.284764
1108.642902	0.285591
1108.802833	0.282309
1108.962745	0.285497
1109.122639	0.288988
1109.282515	0.284361
1109.442372	0.284245
1109.602211	0.285803
1109.762032	0.286548
1109.921835	0.284836
1110.081620	0.286508
1110.241386	0.285884
1110.401134	0.282034
1110.560864	0.279332
1110.720576	0.274341
1110.880269	0.272500
1111.039945	0.278552
1111.199602	0.280163
1111.359240	0.285940
1111.518861	0.279916
1111.678463	0.283220
1111.838047	0.288222
1111.997613	0.286446
1112.157161	0.292205
1112.316690	0.297807
1112.476202	0.297067
1112.635695	0.296693
1112.795169	0.291403
1112.954626	0.290348
1113.114064	0.292645
1113.273484	0.296379
1113.432886	0.298349
1113.592270	0.299416
1113.751635	0.296222
1113.910983	0.291663
1114.070312	0.289509
1114.229622	0.294590
1114.388915	0.299614
1114.548189	0.291024
1114.707445	0.290574
1114.866683	0.293122
1115.025903	0.290998
1115.185104	0.292595
1115.344287	0.294160
1115.503452	0.293791
1115.662599	0.302080
1115.821727	0.302203
1115.980838	0.307137
1116.139930	0.297955
1116.299004	0.295758
1116.458059	0.294637
1116.617097	0.294531
1116.776116	0.297872
1116.935117	0.306923
1117.094099	0.294074
1117.253064	0.293427
1117.412010	0.295246
1117.570938	0.301589
1117.729848	0.305575
1117.888740	0.308694
1118.047613	0.302488
1118.206468	0.301356
1118.365305	0.297731
1118.524124	0.307724
1118.682924	0.305109
1118.841707	0.297312
1119.000471	0.293691
1119.159216	0.292002
1119.317944	0.292319
1119.476653	0.301284
1119.635344	0.302032
1119.794017	0.296346
1119.952672	0.294405
1120.111308	0.301470
1120.269927	0.303615
1120.428527	0.307504
1120.587108	0.312203
1120.745672	0.310427
1120.904217	0.307642
1121.062744	0.304888
1121.221253	0.309034
1121.379744	0.303371
1121.538216	0.302200
1121.696671	0.304006
1121.855107	0.302034
1122.013524	0.302590
1122.171924	0.300915
1122.330305	0.302683
1122.488668	0.302371
1122.647013	0.301023
1122.805340	0.305015
1122.963648	0.301434
1123.121938	0.307732
1123.280210	0.302726
1123.438464	0.298920
1123.596700	0.298693
1123.754917	0.295218
1123.913116	0.296764
1124.071297	0.297326
1124.229459	0.293668
1124.387604	0.297615
1124.545730	0.302635
1124.703838	0.306996
1124.861928	0.307362
1125.019999	0.310654
1125.178052	0.313273
1125.336088	0.306320
1125.494104	0.308639
1125.652103	0.313608
1125.810083	0.320017
1125.968045	0.309087
1126.125989	0.310973
1126.283915	0.314189
1126.441823	0.315779
1126.599712	0.320116
1126.757583	0.320888
1126.915436	0.319532
1127.073270	0.307203
1127.231087	0.304812
1127.388885	0.313291
1127.546665	0.311806
1127.704426	0.310803
1127.862170	0.307974
1128.019895	0.310728
1128.177602	0.307470
1128.335291	0.311462
1128.492961	0.330704
1128.650614	0.325127
1128.808248	0.317124
1128.965864	0.316800
1129.123461	0.312090
1129.281041	0.314431
1129.438602	0.303374
1129.596145	0.312609
1129.753670	0.307989
1129.911176	0.303755
1130.068665	0.303891
1130.226135	0.309592
1130.383587	0.312114
1130.541020	0.315982
1130.698436	0.313330
1130.855833	0.314078
1131.013212	0.319504
1131.170573	0.323199
1131.327915	0.325940
1131.485239	0.335144
1131.642545	0.336678
1131.799833	0.327591
1131.957103	0.324966
1132.114354	0.321240
1132.271588	0.332567
1132.428803	0.328938
1132.585999	0.324264
1132.743178	0.322931
1132.900338	0.315005
1133.057480	0.308495
1133.214604	0.324440
1133.371710	0.322296
1133.528797	0.320482
1133.685866	0.311374
1133.842917	0.315485
1133.999950	0.320408
1134.156964	0.320010
1134.313960	0.322989
1134.470938	0.325224
1134.627898	0.314190
1134.784840	0.325712
1134.941763	0.336414
1135.098668	0.338327
1135.255555	0.332144
1135.412424	0.326614
1135.569274	0.332684
1135.726107	0.333915
1135.882921	0.334769
1136.039716	0.348903
1136.196494	0.332728
1136.353253	0.332073
1136.509995	0.336524
1136.666717	0.340343
1136.823422	0.342693
1136.980109	0.331763
1137.136777	0.326167
1137.293427	0.330315
1137.450059	0.322180
1137.606672	0.327319
1137.763267	0.315683
1137.919844	0.308681
1138.076403	0.304939
1138.232944	0.312493
1138.389466	0.308594
1138.545971	0.311158
1138.702457	0.301870
1138.858924	0.301949
1139.015374	0.309586
1139.171805	0.318915
1139.328218	0.317288
1139.484613	0.326178
1139.640990	0.316556
1139.797348	0.320405
1139.953688	0.309405
1140.110010	0.315067
1140.266314	0.322150
1140.422600	0.320935
1140.578867	0.318699
1140.735116	0.322942
1140.891347	0.311979
1141.047559	0.309220
1141.203754	0.308257
1141.359930	0.315033
1141.516088	0.326545
1141.672228	0.316611
1141.828349	0.317437
1141.984452	0.313108
1142.140537	0.311872
1142.296604	0.312534
1142.452653	0.315869
1142.608683	0.321695
1142.764695	0.318041
1142.920689	0.307116
1143.076665	0.313347
1143.232622	0.307571
1143.388562	0.308959
1143.544483	0.297018
1143.700385	0.309968
1143.856270	0.311115
1144.012136	0.312420
1144.167985	0.320667
1144.323814	0.316502
1144.479626	0.315271
1144.635420	0.316631
1144.791195	0.323123
1144.946952	0.343735
1145.102691	0.334127
1145.258411	0.338829
1145.414113	0.340639
1145.569798	0.333641
1145.725463	0.344062
1145.881111	0.333678
1146.036741	0.334524
1146.192352	0.333316
1146.347945	0.338959
1146.503519	0.334758
1146.659076	0.336547
1146.814614	0.329023
1146.970134	0.345070
1147.125636	0.341734
1147.281120	0.354880
1147.436585	0.352574
1147.592032	0.350411
1147.747461	0.336985
1147.902872	0.345536
1148.058265	0.336120
1148.213639	0.345950
1148.368995	0.331919
1148.524333	0.330554
1148.679653	0.332488
1148.834954	0.327782
1148.990237	0.349736
1149.145502	0.352455
1149.300749	0.341657
1149.455977	0.352305
1149.611188	0.332871
1149.766380	0.332421
1149.921553	0.340186
1150.076709	0.334745
1150.231846	0.350343
1150.386966	0.320945
1150.542066	0.313151
1150.697149	0.317969
1150.852214	0.309958
1151.007260	0.313190
1151.162288	0.322076
1151.317298	0.321293
1151.472289	0.324210
1151.627263	0.320424
1151.782218	0.334564
1151.937155	0.337980
1152.092073	0.340866
1152.246974	0.350185
1152.401856	0.368447
1152.556720	0.354315
1152.711566	0.333572
1152.866393	0.338559
1153.021203	0.337631
1153.175994	0.331933
1153.330767	0.325002
1153.485521	0.320794
1153.640258	0.320241
1153.794976	0.321979
1153.949676	0.332641
1154.104358	0.346677
1154.259021	0.332863
1154.413667	0.324909
1154.568294	0.325056
1154.722903	0.336287
1154.877493	0.343732
1155.032066	0.335767
1155.186620	0.322397
1155.341156	0.314550
1155.495674	0.311560
1155.650173	0.319314
1155.804654	0.316028
1155.959118	0.320035
1156.113562	0.328498
1156.267989	0.328020
1156.422397	0.323721
1156.576788	0.326817
1156.731160	0.335107
1156.885513	0.348283
1157.039849	0.348605
1157.194166	0.356136
1157.348465	0.350595
1157.502746	0.339701
1157.657009	0.334612
1157.811253	0.337623
1157.965479	0.337102
1158.119687	0.335578
1158.273877	0.326277
1158.428048	0.328482
1158.582201	0.331888
1158.736337	0.336157
1158.890453	0.336825
1159.044552	0.341549
1159.198632	0.336701
1159.352694	0.328393
1159.506738	0.323902
1159.660764	0.313903
1159.814771	0.312806
1159.968761	0.314252
1160.122732	0.310390
1160.276685	0.309378
1160.430619	0.308083
1160.584535	0.322068
1160.738434	0.322769
1160.892313	0.320190
1161.046175	0.334977
1161.200019	0.328921
1161.353844	0.310149
1161.507651	0.319665
1161.661440	0.325585
1161.815210	0.330023
1161.968962	0.318101
1162.122697	0.326117
1162.276412	0.326883
1162.430110	0.309637
1162.583789	0.318348
1162.737451	0.321532
1162.891094	0.329996
1163.044718	0.324068
1163.198325	0.310947
1163.351913	0.325364
1163.505483	0.327746
1163.659035	0.325461
1163.812569	0.336757
1163.966084	0.325063
1164.119581	0.336185
1164.273060	0.322150
1164.426521	0.325533
1164.579964	0.333174
1164.733388	0.315810
1164.886794	0.299337
1165.040182	0.301565
1165.193551	0.299529
1165.346903	0.290782
1165.500236	0.289264
1165.653551	0.303286
1165.806848	0.297476
1165.960126	0.302720
1166.113386	0.312377
1166.266628	0.334111
1166.419852	0.332652
1166.573058	0.343486
1166.726245	0.352416
1166.879414	0.362608
1167.032565	0.335341
1167.185698	0.335264
1167.338812	0.332206
1167.491909	0.335831
1167.644987	0.336032
1167.798046	0.342392
1167.951088	0.335303
1168.104111	0.322250
1168.257117	0.306919
1168.410103	0.310726
1168.563072	0.320090
1168.716023	0.321236
1168.868955	0.314790
1169.021869	0.305743
1169.174765	0.300427
1169.327642	0.294167
1169.480501	0.305415
1169.633343	0.317206
1169.786165	0.316439
1169.938970	0.299771
1170.091757	0.293049
1170.244525	0.285685
1170.397275	0.280817
1170.550007	0.272462
1170.702720	0.278664
1170.855415	0.277005
1171.008092	0.274913
1171.160751	0.282887
1171.313392	0.295345
1171.466014	0.276601
1171.618619	0.348168
1171.771205	0.348168
1171.923772	0.348168
