sample name	sample
index	1139
start time	 04-22-2021  02:56:48 PM
880	0.034834
Peak Time (s)	100.537
Peak Height 	0.03483
calc peak height	100,103
Baseline Time (s)	9.537
Baseline Value 	-0.002952
subtract baseline	10,4
Abs	-0.015095
Peak Time (s)	102.035
Peak Height 	-0.0151
calc peak height	100,103
Baseline Time (s)	11.035
Baseline Value 	0.00347
subtract baseline	10,3
PK_550	0.004925
Peak Time (s)	102.035
Peak Height 	0.004925
calc peak height	100,103
Baseline Time (s)	9.537
Baseline Value 	2.1608E-4
subtract baseline	10,2
PK_880	-0.015528
Peak Time (s)	102.035
Peak Height 	-0.01553
calc peak height	100,103
Baseline Time (s)	11.035
Baseline Value 	5.2265E-4
subtract baseline	10,1


Time (s)	A880-A510	A880-A775	A880-A975	A880	I510	I775	I975	I880	
0.036500	-0.005588	-0.000712	-0.005804	0.007781	6192.507393	42600.058516	3898.375410	22473.699323
0.538500	0.000226	0.000522	0.003493	0.004606	6260.299890	43004.012901	3926.784085	22616.939666
1.037500	0.000017	0.000514	-0.003259	0.004493	6259.571708	43013.717029	3911.560193	22622.063662
1.538000	-0.000804	0.000309	0.001107	0.001502	6276.148145	43271.154016	3928.444595	22758.014382
2.038000	-0.003294	-0.000543	-0.000856	0.001491	6257.216556	43193.253450	3923.937617	22758.509118
2.541000	-0.000825	-0.000992	0.000126	0.000127	6286.531974	43278.041523	3929.357682	22820.825138
3.035500	0.000470	-0.000137	0.000350	-0.001044	6305.523990	43466.263176	3932.593492	22874.448609
3.536000	0.001254	0.000397	-0.002390	0.001485	6292.071106	43280.831320	3920.420809	22758.766789
4.036500	0.000778	-0.000562	-0.005920	0.000699	6294.460894	43264.838572	3914.143033	22794.662964
4.536000	0.001809	0.000434	-0.000973	0.001377	6297.178457	43294.284633	3923.930541	22763.701875
5.037000	0.000513	0.000504	0.001449	0.001157	6288.900022	43321.210010	3930.036576	22773.751242
5.537500	0.001204	0.000611	0.004602	0.001084	6294.769746	43337.902299	3937.542691	22777.072024
6.036500	0.000173	0.000257	-0.006054	0.000557	6290.891380	43354.009891	3914.159714	22801.149880
6.535000	0.001884	0.000871	0.001010	0.001698	6295.279888	43305.086963	3927.767043	22749.074962
7.035500	-0.002298	0.000205	-0.003254	0.000262	6274.204466	43376.613490	3921.246588	22814.646248
7.535500	-0.002006	-0.000466	0.001333	-0.000195	6279.937773	43356.719982	3932.904837	22835.555021
8.035500	0.000279	0.000182	0.000789	0.000145	6294.886053	43385.380149	3930.854316	22820.007338
8.539000	0.000541	-0.000303	0.001310	-0.000148	6299.157315	43367.454196	3932.743080	22833.393969
9.036000	-0.001708	-0.000260	-0.002009	0.000018	6280.591348	43356.036224	3924.674521	22825.792203
9.536500	0.001866	0.000000	0.002589	0.000000	6308.244814	43381.869607	3935.375874	22826.626187
10.037000	-0.000103	0.000798	-0.002512	0.000343	6290.421308	43424.171156	3922.766219	22810.933183
10.537000	0.002647	0.000076	-0.001325	-0.000122	6315.226920	43400.238183	3926.575592	22832.187887
11.035000	0.000000	-0.000657	0.000000	-0.000712	6299.337755	43386.973159	3931.011047	22859.254074
11.535000	-0.001123	0.000186	0.001143	0.000140	6284.144014	43386.209640	3931.687238	22820.231404
12.035000	-0.001301	0.000053	-0.001349	0.000140	6282.775400	43373.776781	3925.914497	22820.207826
12.538500	-0.004045	-0.000794	0.003008	0.004002	6232.476953	42938.539847	3927.059299	22644.319928
13.036000	-0.000892	0.001106	-0.001032	-0.001587	6299.200943	43632.933032	3930.644256	22899.375464
13.535500	-0.001482	0.000772	0.001093	-0.000165	6283.724141	43469.035101	3932.277103	22834.165629
14.036500	0.000938	0.000059	-0.001790	-0.000724	6306.673527	43454.714338	3926.893858	22859.798263
14.536000	-0.002468	0.000679	-0.006528	0.004752	6238.734138	43005.053258	3903.564810	22610.353362
15.037000	-0.001130	0.000923	-0.004727	0.001189	6276.041176	43357.138399	3915.746737	22772.275155
15.540500	0.001239	0.000146	-0.001915	-0.000215	6305.061032	43415.427203	3925.429069	22836.464900
16.037000	0.000838	0.000441	-0.003171	-0.000338	6302.910283	43454.299216	3922.816707	22842.081073
16.538000	-0.001297	0.000356	-0.001256	0.005398	6242.703811	42915.832098	3914.061440	22581.100071
17.037500	0.003278	0.000523	0.000890	-0.000122	6320.121964	43441.876263	3931.707826	22832.214085
17.535000	0.001286	0.000455	-0.002112	-0.003273	6329.134757	43729.904443	3932.052532	22976.993923
18.035500	0.003171	0.000100	-0.001096	-0.002586	6338.463320	43632.361354	3932.819113	22945.346035
18.536000	-0.002122	0.000284	0.001068	0.003397	6251.635426	43093.605329	3923.978706	22671.788442
19.037500	0.001553	0.000702	0.002348	0.001162	6296.865998	43339.146729	3932.111437	22773.530873
19.536500	-0.001429	0.001490	-0.000402	0.001625	6270.425016	43369.307914	3924.673919	22752.401755
20.036500	-0.002412	0.000645	-0.002213	0.001045	6267.338717	43344.706400	3921.838260	22778.841457
20.537500	-0.000636	0.001224	-0.001031	0.003853	6259.470223	43138.149588	3918.108156	22651.054976
21.035000	-0.000378	0.000337	-0.001839	0.000877	6284.196238	43331.658595	3923.084932	22786.508829
21.534500	0.000616	0.000947	-0.004191	0.001485	6287.161585	43331.892350	3916.295804	22758.765193
22.035000	-0.000833	0.001057	-0.003778	0.001294	6277.516117	43359.916861	3917.679447	22767.510625
22.535000	-0.000911	0.000112	0.000472	0.002735	6265.896929	43138.701472	3924.129877	22701.838721
23.036500	-0.000576	0.000782	0.004553	0.001467	6278.159118	43318.237362	3936.533362	22759.590393
23.536500	0.000033	0.000998	-0.000915	0.001010	6286.336563	43380.752729	3924.909231	22780.461177
24.036000	-0.000048	0.000286	-0.003688	0.000895	6286.601343	43325.310320	3918.797946	22785.720924
24.536500	-0.001578	0.000434	-0.003467	0.003362	6256.031395	43110.553253	3913.661668	22673.338317
25.034000	-0.000262	0.000476	-0.005631	0.001168	6282.854058	43317.550108	3913.729352	22773.223298
25.537500	0.000697	0.000838	0.000681	0.000827	6292.846522	43382.877097	3929.020860	22788.792520
26.035500	0.001031	-0.000449	-0.003357	0.000594	6297.216354	43285.056674	3920.247707	22799.464918
26.536000	0.000658	0.000429	-0.001359	0.001085	6290.564000	43320.901603	3923.711996	22777.024586
27.035000	0.000321	0.000568	-0.009777	0.001750	6282.869819	43272.207723	3903.006809	22746.708305
27.535500	-0.001337	0.000342	-0.005156	0.002854	6261.742864	43148.967866	3910.973118	22696.430132
28.036000	0.000716	0.001132	0.001236	-0.001267	6309.153732	43605.480270	3935.176091	22884.703818
28.536500	0.001130	0.000239	-0.001192	-0.000015	6302.676432	43405.563515	3926.637958	22827.331186
29.073000	-0.001440	0.000240	0.003437	-0.000430	6286.083740	43444.238579	3938.357281	22846.324426
29.537000	-0.002312	0.000952	-0.006834	0.004474	6242.020196	43055.805149	3903.501171	22622.940271
30.037500	0.001994	0.000155	-0.000054	-0.000018	6309.375181	43397.914375	3929.276983	22827.446186
30.534000	-0.001413	-0.000075	0.004690	-0.000217	6284.655243	43395.075616	3940.791653	22836.566122
31.035000	0.001823	0.000435	-0.001850	0.000152	6306.738795	43408.154915	3924.732514	22819.674552
31.535500	-0.004170	-0.000230	-0.005775	0.004183	6230.168738	42973.731726	3906.554188	22636.116699
32.038500	0.000575	0.000083	0.001247	0.002066	6282.391101	43197.953820	3927.464029	22732.301462
32.563500	-0.005883	-0.000253	-0.001693	0.004901	6211.851691	42905.581761	3914.199305	22603.574726
33.036000	0.000051	0.000265	0.000192	0.000123	6293.294558	43395.055309	3929.518613	22820.998344
33.536500	-0.001873	0.000590	-0.005277	0.005536	6237.305839	42924.729952	3904.620806	22574.895190
34.037000	-0.000094	0.000274	0.000065	-0.000171	6294.443848	43423.302808	3929.908023	22834.474343
34.537000	0.001384	-0.000103	-0.003223	-0.000311	6306.921607	43401.159394	3922.634517	22840.841904
35.038000	0.001580	0.000382	0.002789	-0.002092	6322.236893	43612.565826	3940.731095	22922.610615
35.537500	0.000499	-0.000485	0.000023	0.002630	6277.487411	43093.305382	3923.336925	22706.614739
36.035000	-0.001717	-0.000354	0.002193	0.001387	6270.039037	43220.328627	3931.228474	22763.252232
36.536000	-0.001304	0.000916	-0.006342	0.003613	6256.211835	43131.906196	3906.559748	22661.943321
37.039000	0.001635	0.000899	-0.002019	0.001948	6291.436652	43284.450609	3920.211645	22737.665379
37.536000	-0.000936	-0.000081	-0.001319	0.002851	6264.831189	43110.247593	3919.745668	22696.593165
38.036500	0.000824	0.000978	-0.001640	0.002170	6283.506250	43271.212500	3920.570775	22727.557714
38.537000	-0.002893	0.000436	-0.006207	0.002988	6248.882486	43145.307122	3908.280436	22690.338685
39.037000	-0.001411	0.000890	-0.004393	0.001752	6269.595991	43301.879097	3915.223749	22746.623389
39.537500	-0.001786	-0.000037	-0.002825	0.002743	6259.167399	43124.263886	3916.541497	22701.475918
40.035000	-0.001088	0.000386	-0.003142	0.001595	6273.265162	43269.686965	3918.445873	22753.781377
40.535500	-0.002404	0.000845	0.006006	0.003533	6248.453275	43132.754823	3935.102915	22665.576764
41.035000	-0.002067	0.000439	0.000136	0.001336	6267.757898	43298.621187	3926.583407	22765.589615
41.538500	0.000502	0.001019	-0.003063	0.001826	6283.674485	43306.949543	3918.097639	22743.229631
42.036000	-0.001025	0.000340	-0.003090	0.001045	6277.949923	43316.351491	3919.825832	22778.857159
42.536500	-0.002334	0.000257	-0.008413	0.003120	6252.128720	43116.640199	3902.993657	22684.366385
43.036000	0.000409	0.000510	0.001381	0.001625	6284.499705	43278.326693	3928.795687	22752.404435
43.537000	-0.000753	0.000755	-0.000951	0.003351	6262.401775	43141.217707	3919.441156	22673.840964
44.037000	-0.002639	0.000532	-0.004917	0.001338	6263.378481	43307.099508	3914.973099	22765.507916
44.537500	0.001641	0.000617	-0.001503	0.003319	6280.956724	43131.493748	3918.249774	22675.298522
45.038000	0.000917	0.001006	-0.004225	0.001618	6288.456482	43325.025699	3915.913005	22752.706747
45.535000	-0.001945	0.000219	-0.006901	0.005370	6238.013318	42905.889070	3901.329998	22582.390983
46.035500	-0.000484	0.000393	-0.002007	-0.000482	6293.836964	43463.278608	3925.832835	22848.701938
46.563500	-0.002758	0.000689	-0.004934	0.005217	6233.020397	42963.104007	3906.115943	22589.300620
47.036500	-0.000302	0.000155	-0.000709	-0.000651	6296.537531	43456.894828	3929.225824	22856.442196
47.536500	-0.001817	-0.000257	-0.004916	0.005122	6240.862210	42884.915414	3906.372824	22593.596765
48.037000	-0.000487	0.000152	-0.000979	-0.000212	6291.734486	43415.732368	3927.585748	22836.344157
48.537000	-0.002227	0.000430	-0.000598	0.004806	6240.145886	42977.114605	3916.917755	22607.895443
49.034500	-0.001747	-0.000270	0.003434	0.001178	6271.414667	43247.524196	3934.600428	22772.808606
49.534500	-0.002368	0.000329	-0.002516	0.003871	6246.166158	43053.971976	3914.672339	22650.253177
50.035000	-0.000022	0.000492	0.005870	-0.000078	6294.284407	43434.929760	3943.234131	22830.213422
50.535500	-0.002901	0.000094	0.000908	0.004431	6237.880163	42980.683192	3921.231939	22624.871928
51.036000	0.001313	-0.000021	-0.000480	-0.000061	6304.444267	43385.537748	3928.389373	22829.414663
51.536000	-0.002974	0.000467	-0.003546	0.004020	6240.443967	43052.947529	3911.984771	22643.518306
52.036000	0.002962	0.000320	0.000049	-0.001092	6325.205550	43513.388233	3932.007380	22876.669403
52.536500	-0.003853	-0.000470	-0.000616	0.008881	6197.248430	42521.933626	3907.598306	22424.319779
53.036500	0.009452	-0.008584	-0.000522	0.377066	4384.677776	19622.042075	3345.008418	11292.649465
53.537000	-0.009363	-0.018170	-0.029495	-0.011527	6310.549669	42769.038208	3888.584286	23361.228281
54.034500	-0.015442	-0.047541	-0.029190	-0.210756	8192.372593	61798.821335	4451.553049	35241.727393
54.535000	-0.028315	-0.039921	-0.034039	-0.197961	7891.556446	61102.583002	4390.708140	34304.275366
55.035000	-0.010375	-0.040918	-0.013199	-0.209906	8243.518889	62585.621738	4505.775632	35178.582834
55.538000	-0.012424	-0.025218	-0.014831	-0.173934	7799.856830	59868.666246	4374.517523	32616.782077
56.035500	-0.004431	-0.017620	-0.009260	-0.146242	7584.811730	57297.742515	4302.446223	30784.227663
56.536000	-0.004796	-0.015723	-0.016466	-0.134356	7455.918864	56063.291545	4243.128451	30032.776736
57.036000	-0.006233	-0.012707	-0.010668	-0.131418	7410.760922	56072.878778	4251.850065	29850.232864
57.539000	-0.001888	-0.010043	-0.011639	-0.118205	7320.606703	54799.423408	4209.158229	29044.115266
58.037000	0.004220	-0.007242	-0.006589	-0.101996	7220.147561	53224.930871	4176.537396	28088.205069
58.534500	-0.003198	-0.004821	-0.009395	-0.056962	6734.427200	48531.969966	4045.817458	25612.229581
59.035000	-0.007546	-0.003367	-0.013866	-0.043289	6580.635636	47268.968399	3999.882376	24909.869122
59.535000	-0.011944	-0.003692	-0.021032	-0.037355	6495.294690	46635.611976	3967.893632	24611.867380
60.035500	-0.003627	-0.002006	-0.013847	-0.035805	6550.958795	46649.302064	3981.535819	24534.693004
60.535500	-0.001671	-0.000292	-0.007704	-0.032365	6538.681833	46476.209427	3988.144186	24364.420377
61.036000	-0.004852	-0.000969	-0.011332	-0.025435	6456.109242	45721.602730	3962.568759	24025.450926
61.536500	-0.005653	-0.001521	-0.014578	-0.019158	6399.444714	45055.179894	3940.025451	23723.017884
62.036500	-0.003421	-0.001173	-0.008676	-0.001779	6281.229557	43438.234764	3913.506434	22908.196249
62.536500	-0.008364	-0.001964	-0.013812	-0.001274	6239.715736	43317.784631	3900.729083	22885.010010
63.037000	-0.009534	0.000635	-0.018469	0.031830	5990.127310	40583.647570	3819.328729	21421.989643
63.537000	-0.011831	0.001237	-0.018577	0.032748	5967.709905	40556.310221	3817.215171	21383.006474
64.035000	-0.009845	-0.001410	-0.016202	0.020435	6068.702362	41401.420028	3847.968207	21913.080407
64.535500	-0.014225	-0.004765	-0.017317	0.016554	6065.114666	41447.892401	3853.874682	22083.264835
65.038500	-0.013614	-0.004913	-0.014977	0.013954	6088.229126	41665.531331	3864.520589	22198.168265
65.536000	-0.016438	-0.006665	-0.018515	0.030701	5949.977409	40053.587561	3821.568809	21470.100904
66.036000	-0.014721	-0.008986	-0.012497	0.046130	5856.760410	38570.043944	3802.310973	20823.712336
66.536000	-0.016386	-0.008579	-0.016028	0.059194	5759.857144	37548.652384	3769.356312	20294.105253
67.036500	-0.017827	-0.002731	-0.018773	0.116170	5406.306715	33712.682004	3660.651047	18161.726124
67.536500	-0.023289	-0.009547	-0.017137	0.096115	5490.217336	34663.068342	3698.415166	18880.600457
68.037000	-0.024021	-0.007557	-0.018484	0.129099	5300.528456	32482.818792	3639.499352	17715.589294
68.534500	-0.026133	-0.009246	-0.021291	0.138199	5240.640768	31759.618150	3620.130246	17409.435281
69.034500	-0.026274	-0.003495	-0.016729	0.135079	5256.401570	32352.937928	3632.564234	17513.661019
69.556000	-0.027253	-0.004016	-0.026062	0.129745	5279.638908	32679.959393	3626.064590	17693.645208
70.035500	-0.025597	-0.002562	-0.017854	0.123359	5323.161776	33220.396009	3650.080949	17912.001930
70.536000	-0.025410	-0.002858	-0.024892	0.122242	5330.295220	33277.541274	3640.238580	17950.528530
71.035500	-0.019686	-0.000313	-0.018975	0.109812	5431.876923	34339.432136	3671.177801	18386.040436
71.536500	-0.021341	0.000142	-0.020403	0.105563	5446.740220	34680.641631	3676.052551	18537.801986
72.033500	-0.018247	0.001323	-0.018182	0.093219	5537.063762	35682.432434	3701.725804	18987.184458
72.537500	-0.021026	0.001077	-0.020462	0.090851	5534.624121	35842.552853	3701.885909	19074.886601
73.036500	-0.018981	0.001545	-0.019625	0.077895	5625.428851	36873.172666	3727.008890	19563.118744
73.537500	-0.018664	0.003590	-0.017531	0.073274	5656.014017	37397.038923	3739.533801	19740.842194
74.035000	-0.013772	0.003100	-0.022843	0.066015	5732.772468	37937.142595	3743.201694	20023.826481
74.538000	-0.018339	0.003179	-0.018012	0.065984	5703.865955	37945.949024	3752.431579	20025.036985
75.036000	-0.016792	0.003323	-0.019382	0.054770	5785.965806	38871.701732	3771.442604	20471.659828
75.536000	-0.022390	0.003925	-0.021786	0.053207	5759.745778	39050.950511	3769.801254	20534.829811
76.036500	-0.015800	0.004156	-0.020269	0.047546	5840.113813	39543.229274	3783.909126	20765.526205
76.536500	-0.021661	0.003843	-0.026116	0.050539	5781.803391	39266.225147	3766.566873	20643.189343
77.036500	-0.018421	0.003634	-0.024948	0.042507	5856.245475	39925.173198	3784.621604	20973.420585
77.534500	-0.019180	0.003080	-0.021640	0.043137	5846.969433	39824.708273	3789.951658	20947.330694
78.034500	-0.017241	0.002600	-0.019877	0.038340	5892.236815	40192.455489	3803.140883	21147.192371
78.535500	-0.019483	0.001300	-0.021295	0.035649	5895.280128	40311.803832	3805.723413	21260.288791
79.035500	-0.017399	0.002654	-0.017911	0.035367	5911.368706	40452.599015	3813.204139	21272.187122
79.535500	-0.016917	0.002107	-0.019909	0.033765	5925.610593	40543.610411	3812.394506	21339.897204
80.038500	-0.018937	0.001925	-0.019177	0.033758	5911.854045	40528.528985	3813.909112	21340.204718
80.536500	-0.022590	0.001703	-0.021492	0.033397	5889.492076	40540.510303	3809.908976	21355.490309
81.036500	-0.020187	0.000880	-0.018950	0.033158	5907.428036	40490.126714	3815.605373	21365.624683
81.536500	-0.022480	0.000712	-0.018610	0.032761	5894.547549	40509.832940	3817.120581	21382.463430
82.037000	-0.018308	0.000745	-0.021632	0.032916	5921.899327	40499.272751	3810.605083	21375.873544
82.534500	-0.018704	0.001989	-0.021538	0.033184	5917.359036	40583.578849	3810.249326	21364.491006
83.037000	-0.019056	0.001933	-0.024164	0.032499	5919.640570	40638.109753	3806.296752	21393.592507
83.535500	-0.020292	0.002407	-0.017670	0.033105	5907.074173	40626.698336	3818.348921	21367.866533
84.038500	-0.023813	0.002337	-0.020705	0.031295	5895.444757	40777.629102	3815.825813	21444.761549
84.535500	-0.025607	0.000915	-0.022511	0.029586	5894.867320	40802.653116	3815.627837	21517.681656
85.036000	-0.025728	0.002065	-0.021993	0.030040	5890.973095	40863.298175	3815.759626	21498.296797
85.536000	-0.023573	0.001406	-0.022558	0.030191	5904.575785	40792.746600	3814.290035	21491.858067
86.039000	-0.021907	0.001867	-0.025431	0.029458	5920.933046	40896.718917	3809.909354	21523.159275
86.534000	-0.024876	0.001535	-0.024210	0.029356	5901.386173	40876.663359	3812.614653	21527.519614
87.037500	-0.023937	0.002262	-0.022096	0.030233	5901.814594	40863.590981	3815.151808	21490.053982
87.534500	-0.024327	0.001841	-0.017948	0.031991	5887.255109	40674.166555	3820.073139	21415.159836
88.035500	-0.022983	0.002109	-0.020580	0.030463	5906.733452	40830.219476	3817.795189	21480.229589
88.538000	-0.026761	0.002302	-0.022544	0.036343	5841.726505	40338.256628	3801.785867	21231.064683
89.038500	-0.020631	0.003275	-0.017889	0.031804	5913.628797	40815.067500	3820.582838	21423.135776
89.535500	-0.022906	0.002890	-0.023181	0.033186	5888.779557	40661.465609	3806.895637	21364.412431
90.036000	-0.021082	0.002425	-0.023174	0.031716	5911.148048	40748.758509	3809.907323	21426.840807
90.536500	-0.021243	0.001971	-0.018173	0.031073	5914.436081	40765.203037	3821.504636	21454.239147
91.036500	-0.022269	0.002844	-0.022893	0.031073	5907.445131	40841.093218	3811.796087	21454.221970
91.534500	-0.020885	0.002071	-0.022676	0.032012	5910.475747	40692.333037	3810.320178	21414.269242
92.037000	-0.019816	0.002659	-0.020677	0.030851	5925.710349	40844.372130	3816.797806	21463.687982
92.534500	-0.021736	0.002853	-0.019141	0.030774	5913.114307	40867.987137	3820.122645	21466.959608
93.035000	-0.019236	0.001972	-0.020788	0.030185	5934.264434	40842.597623	3817.940800	21492.120702
93.535500	-0.021239	0.002279	-0.022439	0.031044	5914.666226	40794.552289	3812.785431	21455.479338
94.035500	-0.019483	0.002616	-0.025852	0.030163	5932.712960	40900.567950	3807.613158	21493.036989
94.536000	-0.022878	0.001867	-0.020710	0.035332	5874.487718	40387.725764	3807.557558	21273.655839
95.036500	-0.019010	0.002660	-0.024279	0.030145	5936.083160	40905.958814	3810.859555	21493.802180
95.536500	-0.018864	0.002007	-0.022862	0.030577	5934.122682	40811.491754	3812.875132	21475.394639
96.037500	-0.020637	0.002764	-0.018540	0.030006	5925.876757	40927.226448	3822.953949	21499.764009
96.534000	-0.023428	0.002215	-0.020871	0.035304	5870.971911	40420.136251	3807.287078	21274.833134
97.038500	-0.018822	0.002775	-0.018594	0.029831	5939.544913	40943.510958	3823.204513	21507.233422
97.535000	-0.018343	0.003553	-0.018651	0.031276	5932.898390	40885.296953	3820.097926	21445.589192
98.037500	-0.018389	0.003516	-0.018886	0.030573	5937.414619	40943.335981	3821.064204	21475.528137
98.535500	-0.020989	0.003153	-0.023891	0.034976	5889.639561	40529.348791	3801.825390	21288.696727
99.036000	-0.018338	0.003090	-0.016225	0.029135	5947.668849	41031.887191	3829.578307	21536.978287
99.536000	-0.017567	0.003840	-0.015180	0.030412	5944.179475	40985.782423	3829.093705	21482.405504
100.036000	-0.018060	0.004463	-0.018649	0.029912	5944.230613	41084.109905	3822.922689	21503.756008
100.536500	-0.019543	0.004543	-0.021330	0.034834	5900.407589	40661.951227	3807.309765	21294.686593
101.036500	-0.017538	0.004476	-0.015696	0.029196	5952.778226	41148.121052	3830.557512	21534.398034
101.534500	-0.016477	0.004082	-0.021173	0.028382	5965.771216	41184.968912	3820.867744	21569.260938
102.034500	-0.015528	0.004925	-0.015095	0.028780	5969.594146	41224.072886	3832.681657	21552.170988
102.535000	-0.020950	0.004022	-0.020595	0.032365	5907.628733	40831.229823	3813.857195	21399.266588
103.035500	-0.015955	0.005262	-0.012732	0.027727	5973.952119	41346.609575	3839.864257	21597.351973
103.535500	-0.018049	0.005057	-0.019773	0.027735	5959.351526	41327.831608	3825.107099	21596.990675
104.036000	-0.014962	0.005118	-0.016213	0.026809	5987.280593	41414.995766	3834.470495	21636.801152
104.536000	-0.020058	0.004028	-0.022609	0.029939	5930.302667	41043.539411	3814.700033	21502.594263
105.036500	-0.016403	0.004628	-0.021206	0.025453	5986.687741	41491.711594	3826.872337	21695.247061
105.537000	-0.017040	0.004566	-0.020584	0.025746	5980.192852	41460.237497	3827.556343	21682.603993
106.037000	-0.018227	0.004115	-0.014217	0.024505	5980.574729	41530.239917	3843.539673	21736.211249
106.534500	-0.015157	0.003981	-0.013663	0.024068	6005.133546	41557.128873	3845.640080	21755.116053
107.035000	-0.017821	0.003776	-0.020588	0.023650	5989.380847	41575.983141	3831.923046	21773.209428
107.535500	-0.015093	0.003943	-0.023994	0.023827	6007.285284	41575.150719	3824.457279	21765.561401
108.035500	-0.017415	0.005108	-0.014736	0.024222	5988.215302	41643.492561	3843.037185	21748.425250
108.535500	-0.015394	0.004445	-0.018199	0.023259	6009.154307	41670.255522	3837.758445	21790.148794
109.036000	-0.018029	0.004219	-0.023195	0.022778	5994.028750	41692.891549	3828.299479	21811.025925
109.536500	-0.017760	0.004039	-0.022950	0.022969	5994.575059	41659.958604	3828.414277	21802.766834
110.047000	-0.016929	0.004203	-0.015259	0.022423	6004.239253	41723.109277	3845.744137	21826.458547
110.545000	-0.018056	0.003627	-0.020036	0.021529	6002.608280	41751.544351	3837.532824	21865.372144
111.037000	-0.016733	0.004671	-0.016432	0.022477	6005.241109	41760.060263	3843.141398	21824.105790
111.534500	-0.017810	0.004282	-0.016486	0.022052	6000.658969	41763.299275	3843.927430	21842.609168
112.035000	-0.016354	0.003642	-0.020187	0.021302	6016.195012	41773.116802	3837.692861	21875.267346
112.541500	-0.018060	0.003654	-0.019031	0.021481	6002.912587	41758.209823	3839.753745	21867.460067
113.035000	-0.017797	0.004500	-0.018315	0.021969	6001.329886	41790.152526	3840.232632	21846.199772
