sample name	sample
index	465
start time	 03-11-2021  12:03:50 PM
880	0.229287
Peak Time (s)	92.038
Peak Height 	0.2293
calc peak height	90,93
Baseline Time (s)	11.037
Baseline Value 	-0.003516
subtract baseline	10,4
Abs	0.129369
Peak Time (s)	92.038
Peak Height 	0.1294
calc peak height	90,93
Baseline Time (s)	9.036
Baseline Value 	0.006273
subtract baseline	10,3
PK_550	0.068738
Peak Time (s)	90.536
Peak Height 	0.06874
calc peak height	90,93
Baseline Time (s)	11.037
Baseline Value 	0.001157
subtract baseline	10,2
PK_880	0.127037
Peak Time (s)	92.538
Peak Height 	0.127
calc peak height	90,93
Baseline Time (s)	9.54
Baseline Value 	0.004002
subtract baseline	10,1


Time (s)	A880-A510	A880-A775	A880-A975	A880	I510	I775	I975	I880	
0.036500	-0.002437	-0.001328	0.000392	-0.000151	7117.589498	46090.756664	3973.486127	24455.941648
0.537000	-0.005878	-0.000847	-0.004062	0.004992	7033.840789	45629.491741	3947.920908	24201.439412
1.037500	-0.002689	-0.000771	-0.006234	0.001629	7097.616972	45969.307830	3951.060476	24367.508905
1.538500	-0.003906	-0.000846	-0.003518	-0.000438	7105.967840	46167.423456	3963.769677	24470.271457
2.035000	-0.002084	-0.001087	-0.005125	-0.000850	7127.983061	46184.472602	3960.582324	24490.807262
2.535000	-0.006058	-0.001585	-0.006357	0.004223	7039.535459	45632.606479	3943.905744	24239.296847
3.035000	-0.002000	-0.000195	-0.004075	-0.002218	7142.341453	46410.240776	3967.038469	24559.104785
3.536000	-0.001714	-0.000421	-0.005887	-0.000530	7128.475811	46218.908451	3957.702495	24474.858000
4.036000	-0.002551	-0.000334	-0.003643	-0.000266	7117.612967	46201.247124	3962.977259	24461.692914
4.536500	-0.000338	-0.000391	-0.001580	0.000711	7129.807319	46098.254502	3965.878949	24413.102170
5.037000	-0.002840	0.000769	-0.004514	0.000513	7107.093661	46233.507225	3958.577711	24422.908424
5.537000	-0.000612	-0.000225	-0.006366	-0.000076	7134.882852	46193.180703	3955.225898	24452.246576
6.037500	0.000885	0.000218	0.003162	0.000734	7141.680467	46156.633687	3978.576273	24411.944848
6.535000	-0.000165	0.000780	0.002455	0.001017	7128.486681	46184.409082	3975.900582	24397.884684
7.035000	-0.001210	-0.000832	0.000649	-0.000498	7133.136115	46174.730973	3975.116047	24473.253051
7.535000	-0.000673	0.000015	-0.005835	0.000007	7133.445165	46208.771989	3956.412702	24448.077278
8.036000	-0.001727	-0.000602	0.002933	0.000844	7114.788533	46064.078994	3977.659881	24406.492074
8.535500	0.000345	-0.000283	-0.001839	-0.000221	7145.799551	46201.921818	3967.680628	24459.467820
9.036000	-0.000051	-0.000154	0.000000	-0.000369	7143.332389	46229.519800	3973.019169	24466.826022
9.539500	0.000000	0.000126	0.003792	0.000522	7135.014773	46168.518031	3980.856925	24422.474002
10.037000	0.000297	0.000207	-0.000682	0.001172	7131.524757	46111.871403	3967.048160	24390.169241
10.537000	-0.000694	-0.000237	0.001609	0.000103	7132.298395	46174.144848	3976.084201	24443.313381
11.037500	0.000004	0.000000	0.003335	0.000000	7140.218816	46208.022569	3981.033195	24448.442730
11.534500	-0.000150	0.000757	-0.006389	-0.000032	7139.015474	46286.813528	3955.046857	24450.026440
12.035000	-0.003049	-0.000861	0.002214	0.000291	7107.226026	46093.262370	3977.210739	24433.974848
12.535500	-0.000683	0.000228	-0.003380	0.000608	7127.410417	46170.089417	3961.346805	24418.205742
13.035500	0.001149	0.000223	0.000650	-0.001541	7166.913314	46384.358101	3977.934492	24525.276652
13.535500	-0.000459	0.000864	-0.000856	0.000801	7127.720553	46214.292787	3967.575590	24408.598740
14.039500	-0.002316	0.000684	-0.001205	0.001416	7103.371574	46135.060961	3964.994936	24378.092112
14.536500	-0.004330	0.000137	-0.003859	0.003280	7065.456911	45895.708021	3952.976127	24285.823667
15.037000	-0.002562	-0.001066	-0.002750	0.000521	7109.753516	46050.000829	3963.258101	24422.519003
15.560000	-0.001154	0.000691	0.000045	0.001209	7116.843134	46156.345550	3968.898227	24388.354898
16.037500	-0.001584	-0.000444	0.002716	0.001624	7108.524036	46002.262894	3974.967957	24367.768775
16.535000	-0.001684	0.000036	-0.001739	0.002124	7102.622394	46000.216566	3961.677601	24342.975235
17.035500	-0.001566	-0.000832	0.000802	0.000620	7118.588636	46063.431675	3972.514737	24417.610145
17.536000	-0.000505	-0.000944	0.003463	-0.002927	7164.243331	46406.247511	3989.344949	24594.615597
18.035500	0.000382	0.000244	-0.000136	0.001128	7132.799989	46119.927698	3968.630897	24392.392173
18.536500	-0.003258	-0.000729	-0.001375	0.001844	7089.938750	45952.182237	3963.398221	24356.877207
19.036500	-0.002182	-0.000537	-0.001033	0.002438	7094.662594	45912.269664	3962.724354	24327.463526
19.536500	-0.000549	0.000606	0.001329	0.002964	7105.521534	45973.490867	3967.636372	24301.432383
20.037000	-0.003164	-0.000760	-0.001878	0.002111	7088.237419	45922.579344	3961.341313	24343.619500
20.537500	-0.002531	0.000537	-0.001491	0.002884	7086.874784	45974.548987	3960.316888	24305.405731
21.037500	-0.002192	-0.000700	-0.000133	0.002022	7098.640468	45937.353645	3966.244311	24348.063311
21.535000	-0.001570	0.000989	0.006251	0.003488	7090.368011	45959.384998	3979.482682	24275.525169
22.036000	-0.002321	-0.000177	-0.003406	0.002228	7095.354905	45968.785847	3956.965522	24337.847207
22.536000	-0.002035	-0.000033	-0.001143	0.002801	7092.540105	45926.262867	3961.463032	24309.492941
23.036000	-0.001883	-0.000379	0.001522	0.002522	7096.763095	45919.606478	3969.336851	24323.279310
23.536000	-0.001156	0.000419	0.003121	0.002523	7103.897428	45998.677791	3973.637212	24323.253411
24.037000	-0.000981	0.000061	-0.003853	0.003008	7100.847247	45915.065283	3953.711603	24299.249043
24.537000	-0.002196	-0.000242	-0.000016	0.002463	7094.278492	45939.105355	3965.375481	24326.222609
25.037000	-0.002066	0.000015	-0.004576	0.002341	7096.750990	45976.652975	3953.562239	24332.237954
25.535000	-0.002682	-0.000613	0.000918	0.002276	7091.346101	45920.761680	3968.377339	24335.467229
26.034500	-0.002481	-0.000926	-0.005471	0.002041	7095.615287	45913.045341	3951.988367	24347.077720
26.535500	-0.001415	0.000153	0.000132	0.002786	7098.774711	45946.231742	3964.908006	24310.247150
27.036000	-0.001114	-0.000365	0.002761	0.002446	7105.062875	45928.531743	3972.872663	24327.047542
27.535500	-0.001157	0.000604	0.004571	0.001878	7110.229961	46081.142770	3979.293640	24355.189413
28.039000	0.000600	-0.000744	-0.007777	0.000905	7137.167005	46043.828006	3948.899510	24403.448638
28.536000	-0.001260	0.000208	-0.001764	0.001786	7110.120966	46050.985101	3962.514139	24359.759924
29.056000	-0.000625	0.000156	0.003206	0.002122	7113.052419	46012.307089	3974.944288	24343.079161
29.537000	-0.001678	-0.000406	-0.001736	0.001277	7111.010318	46040.469919	3963.946015	24384.975131
30.037500	0.000186	0.000461	-0.000062	0.003311	7109.336360	45924.639278	3962.986795	24284.292170
30.535000	-0.000950	-0.000439	0.001177	0.001471	7116.262239	46017.868225	3971.233344	24375.332636
31.058500	-0.000861	-0.000542	-0.000687	0.001028	7121.511443	46051.647746	3967.419840	24397.324189
31.535500	-0.003903	-0.000530	-0.000352	0.004010	7062.508907	45757.576878	3960.349869	24249.794322
32.035500	-0.002458	-0.000003	-0.002747	0.003933	7077.345079	45817.253631	3954.192073	24253.607792
32.590500	-0.001769	0.000180	0.001874	0.001992	7103.090242	46027.682785	3971.709528	24349.549113
33.036500	-0.000287	0.000598	-0.002893	0.002186	7115.751603	46049.891972	3958.442257	24339.920518
33.537000	-0.001533	0.000169	0.001488	0.001619	7109.070395	46063.546867	3971.672725	24367.992811
34.037000	-0.002067	0.000500	-0.000923	0.003242	7087.915869	45935.382482	3960.873615	24287.702234
34.534500	-0.000297	-0.000684	0.000063	0.001607	7121.362921	45980.077182	3967.880033	24368.624656
35.034500	-0.001268	-0.000101	-0.001617	0.003721	7091.042584	45828.489484	3957.752827	24264.036749
35.537500	-0.003729	0.000132	-0.003838	0.003788	7066.358715	45844.797432	3951.686781	24260.719817
36.035500	-0.002009	-0.000378	-0.003798	0.003542	7085.546783	45818.808372	3952.445616	24272.896547
36.535500	-0.002481	0.000262	-0.001571	0.003714	7079.259212	45865.042670	3957.893705	24264.405868
37.038500	-0.002620	-0.000096	-0.004814	0.003759	7077.456446	45825.146943	3949.186671	24262.167508
37.535500	-0.003155	0.000278	0.000200	0.003836	7071.476442	45854.563378	3962.282803	24258.348470
38.036500	-0.001775	0.000243	-0.001531	0.003808	7085.229581	45853.863726	3957.748249	24259.735640
38.536500	-0.003573	-0.000654	-0.001194	0.003056	7075.010382	45839.484809	3960.647013	24296.880705
39.037000	-0.003979	-0.000154	-0.007338	0.003794	7063.865416	45815.996163	3942.456672	24260.422140
39.537500	-0.000559	-0.000115	0.000611	0.003644	7098.752971	45834.699441	3963.894838	24267.849165
40.035000	-0.002055	0.000227	-0.006070	0.004120	7079.445877	45821.420848	3944.931909	24244.377011
40.535000	-0.002791	-0.000100	0.000914	0.003770	7075.676309	45823.699117	3964.367201	24261.617362
41.035500	-0.003729	-0.001156	-0.003274	0.003116	7072.910275	45784.049266	3954.960909	24293.938697
41.535500	-0.003000	-0.000017	-0.001801	0.004104	7070.383181	45798.969265	3956.246726	24245.167292
42.036000	-0.000562	0.000487	-0.002234	0.004544	7089.897099	45805.198155	3953.931440	24223.464357
42.536500	-0.002534	0.000503	-0.000378	0.004195	7074.043409	45841.333528	3959.789303	24240.681276
43.036500	-0.004151	0.000393	-0.003172	0.004010	7060.092685	45848.765246	3952.863205	24249.787433
43.537000	-0.001369	0.000437	-0.000904	0.004027	7087.064265	45851.422400	3958.833921	24248.948516
44.037500	-0.004074	0.000285	0.000325	0.004093	7060.036656	45829.844987	3961.932451	24245.709099
44.534500	0.000086	-0.000027	0.000073	0.000310	7137.966631	46174.447176	3971.387889	24433.019969
45.035000	0.000312	0.000297	0.000020	0.000756	7135.790979	46162.227050	3970.046403	24410.854728
45.535500	-0.001431	0.000138	0.000962	0.002168	7104.677835	46005.977710	3968.785373	24340.804796
46.035500	-0.002226	0.000220	-0.003332	0.005084	7068.381497	45725.560876	3949.603726	24196.904637
46.536000	-0.002431	0.000434	0.001575	0.002986	7086.861839	45954.235560	3968.237580	24300.365421
47.036000	-0.002329	0.000367	-0.003223	0.002261	7094.952918	46019.501262	3957.363952	24336.197708
47.536500	-0.001779	0.000515	-0.002509	0.002481	7098.186305	46012.319686	3958.677637	24325.320673
48.059000	-0.005413	-0.000417	-0.001913	0.004561	7042.508267	45714.309349	3954.738438	24222.641953
48.537000	-0.001967	0.000228	-0.004706	0.005391	7067.907818	45696.024214	3945.175415	24181.791711
49.037500	-0.002393	-0.000411	-0.000263	0.004034	7076.992056	45766.901297	3960.522076	24248.616668
49.563500	0.000118	0.000005	0.003461	0.002086	7120.738793	46001.022474	3975.731457	24344.889959
50.035000	-0.002196	-0.000430	-0.002983	0.004649	7072.907854	45704.317010	3951.671375	24218.279634
50.535000	-0.000717	0.000177	0.004503	0.002807	7105.415898	45946.476959	3976.597585	24309.184220
51.038500	0.000221	0.000581	0.002906	0.000094	7141.439156	46256.604901	3979.613179	24443.741997
51.536000	0.001722	0.000595	0.002731	0.000802	7149.307501	46187.366348	3977.225543	24408.567998
52.036500	-0.001918	-0.000428	-0.002167	0.003557	7086.287960	45812.337195	3956.728849	24272.147388
52.536500	0.001523	-0.000464	-0.000158	-0.003690	7192.139046	46531.031067	3981.566030	24632.887030
53.036500	0.008444	0.001502	0.002405	-0.002217	7247.103330	46580.545723	3984.525576	24559.060357
53.534000	-0.047963	-0.007698	-0.025928	0.211604	5204.596610	29032.726167	3479.808743	16112.245929
54.035000	-0.040578	-0.011099	-0.043724	-0.053515	7270.263147	50652.439325	3998.665224	27282.868457
54.535000	-0.040134	-0.141162	-0.036893	-0.301372	10689.010133	65535.000000	4951.791909	46096.920309
55.035500	-0.029908	-0.166541	-0.018345	-0.326751	11359.791482	65535.000000	5180.434700	48700.403490
55.538000	-0.048909	-0.144687	-0.017649	-0.304897	10594.687916	65535.000000	5067.416525	46449.502387
56.035500	-0.014623	-0.123626	-0.013359	-0.283836	10834.514862	65535.000000	4981.663497	44384.839626
56.535500	-0.022208	-0.075754	-0.011323	-0.233171	9830.800490	65133.426223	4750.945105	39809.602423
57.036000	-0.015339	-0.074509	-0.014299	-0.234139	9958.130666	65451.324832	4741.961738	39892.065156
57.537000	-0.004279	-0.080911	-0.009409	-0.241121	10260.158802	65535.000000	4795.677995	40492.662791
58.036500	-0.002350	-0.072768	-0.007976	-0.232686	10149.803690	65492.879599	4763.819300	39768.332883
58.537500	0.006419	-0.044082	0.006783	-0.194439	9669.970198	64129.604454	4660.622372	36654.712212
59.034500	0.012340	-0.015261	0.013245	-0.141936	8975.109442	60879.528195	4473.831592	32803.500382
59.535000	0.019908	-0.001870	0.017588	-0.097824	8479.840107	56919.154444	4327.686791	29908.997087
60.035500	0.028618	0.006702	0.026781	-0.060239	8116.929543	53427.477132	4231.240070	27664.378472
60.535500	0.038672	0.015637	0.037861	-0.023805	7805.823938	50326.499709	4150.281646	25666.287266
61.036000	0.047539	0.021257	0.043738	0.018239	7440.446410	46510.052010	4042.678716	23559.489247
61.536500	0.058890	0.028792	0.054727	0.053246	7196.455912	43836.135291	3976.017033	21954.456675
62.036000	0.063134	0.036523	0.056322	0.095447	6831.709082	40711.714926	3871.369604	20183.912485
62.536500	0.072448	0.041870	0.075416	0.113976	6747.863137	39580.869144	3872.760081	19459.258337
63.037000	0.076125	0.044438	0.075325	0.128989	6647.128197	38544.353824	3836.216126	18894.358192
63.537000	0.087551	0.051279	0.084563	0.140703	6644.604364	38146.500960	3830.346919	18466.970740
64.035000	0.092656	0.053673	0.089655	0.143611	6663.903107	38104.723975	3835.521894	18362.621402
64.535000	0.096205	0.055726	0.091446	0.150031	6638.694273	37752.434872	3824.580633	18134.755713
65.054500	0.098015	0.056857	0.096309	0.154731	6613.486723	37467.105136	3824.964277	17970.064278
65.536000	0.101834	0.058119	0.102501	0.159561	6604.712227	37184.151944	3828.173629	17802.664019
66.036000	0.102460	0.060652	0.095871	0.169208	6527.281771	36626.990062	3790.487127	17473.848312
66.536500	0.105071	0.061139	0.099752	0.168390	6556.527424	36728.500270	3801.221479	17501.446177
67.036500	0.105514	0.062277	0.099186	0.173025	6520.797900	36457.047190	3789.346319	17345.732213
67.540000	0.109192	0.063215	0.106111	0.177105	6517.387432	36215.047314	3795.822741	17210.028692
68.034500	0.105050	0.062421	0.100628	0.183709	6427.475512	35652.194948	3768.591091	16993.102338
68.534500	0.108961	0.063370	0.107380	0.183541	6461.338879	35736.558213	3784.089371	16998.567805
69.035000	0.107757	0.063647	0.104638	0.187136	6421.522683	35486.506069	3769.886531	16881.793337
69.538000	0.111591	0.065394	0.110321	0.191711	6415.417083	35275.020462	3772.355760	16734.607378
70.035500	0.108634	0.065554	0.107205	0.199669	6326.621053	34698.627899	3747.966982	16482.187986
70.535500	0.112523	0.067322	0.109502	0.198987	6363.541716	34878.629485	3754.468123	16503.662937
71.036500	0.112471	0.066988	0.109452	0.201526	6342.568767	34667.630960	3748.815001	16423.954326
71.536500	0.112235	0.067688	0.109558	0.204204	6319.137747	34523.293339	3743.236104	16340.439104
72.036500	0.113791	0.068874	0.110602	0.211474	6273.633798	34083.133396	3729.860402	16116.214100
72.537000	0.115659	0.069035	0.113211	0.208424	6312.764057	34314.703492	3742.008814	16209.830914
73.037500	0.118278	0.068887	0.111516	0.209642	6323.987088	34215.977844	3735.736219	16172.366031
73.534500	0.120144	0.071383	0.115671	0.212133	6318.976874	34216.301393	3739.313206	16096.079124
74.038000	0.117354	0.071440	0.109684	0.217499	6254.210545	33835.677431	3715.171152	15933.217161
74.535500	0.121468	0.070608	0.112754	0.213257	6320.578152	34079.611959	3730.647795	16061.794008
75.035500	0.121278	0.070305	0.110237	0.213179	6319.671458	34063.455075	3725.455158	16064.157381
75.536000	0.121116	0.070907	0.117935	0.214376	6308.802339	34020.818074	3739.357532	16027.751761
76.036500	0.122136	0.070796	0.120037	0.215110	6311.091482	33960.311646	3742.311139	16005.488514
76.536500	0.120309	0.070828	0.111523	0.215145	6296.225270	33960.074815	3724.014107	16004.412441
77.037000	0.122361	0.071608	0.122191	0.216729	6299.956991	33902.575329	3743.468558	15956.471773
77.536500	0.123319	0.071635	0.120035	0.217206	6303.798103	33870.489894	3737.787567	15942.067993
78.034500	0.120978	0.070839	0.119907	0.221578	6250.627049	33503.949883	3728.156463	15810.751795
78.537500	0.123306	0.070118	0.122111	0.217661	6300.053239	33730.044299	3741.280774	15928.323494
79.035500	0.124683	0.070906	0.118756	0.219241	6298.440695	33673.858843	3730.685200	15880.771735
79.535500	0.126768	0.071471	0.118468	0.220190	6307.504083	33646.708593	3728.049479	15852.299460
80.036000	0.121006	0.069545	0.119944	0.225291	6221.799540	33153.015386	3720.365752	15700.296995
80.536000	0.124954	0.071426	0.126098	0.221136	6285.521867	33576.554140	3742.384848	15823.965403
81.036000	0.123370	0.070287	0.122462	0.220598	6277.237997	33534.182168	3735.714805	15840.093103
81.536000	0.125122	0.070228	0.123246	0.221236	6286.066052	33484.983426	3736.026529	15820.984114
82.036500	0.122214	0.070732	0.118583	0.227689	6212.541779	33068.751328	3712.465561	15629.453085
82.537000	0.125754	0.070075	0.116272	0.222143	6283.878987	33410.439537	3719.260094	15793.889798
83.035000	0.124418	0.070223	0.122466	0.222382	6271.403946	33403.994911	3731.900922	15786.757082
83.535000	0.124893	0.069520	0.122884	0.222548	6273.853666	33343.004495	3732.439472	15781.811342
84.035500	0.124185	0.069466	0.124117	0.227533	6229.110113	32991.719842	3724.450631	15634.051269
84.536000	0.124228	0.070243	0.120802	0.223882	6258.073842	33300.212824	3725.163264	15742.106210
85.036000	0.126613	0.069727	0.126926	0.223569	6279.388994	33285.987807	3738.923418	15751.401483
85.536000	0.125944	0.069767	0.130333	0.224120	6269.733248	33250.291085	3745.095639	15735.041080
86.037000	0.123288	0.068555	0.121635	0.230152	6201.759274	32747.935590	3713.697206	15557.071033
86.536500	0.127319	0.069159	0.125105	0.224420	6278.238221	33186.852036	3733.187205	15726.128673
87.037000	0.127252	0.069502	0.126195	0.225097	6272.345720	33163.484589	3734.071131	15706.028618
87.537500	0.126640	0.069141	0.125281	0.225101	6267.483484	33138.088557	3732.105663	15705.915573
88.037500	0.123021	0.068233	0.126780	0.230781	6194.835371	32682.704585	3723.211171	15538.669809
88.535000	0.128342	0.068684	0.125029	0.225471	6278.021467	33080.583194	3730.778000	15694.968479
89.035500	0.125971	0.067608	0.124257	0.224435	6267.457445	33077.781056	3731.342164	15725.682849
89.535500	0.126468	0.068342	0.127153	0.225595	6262.225486	33048.166555	3735.058823	15691.295214
90.036000	0.120897	0.067425	0.123428	0.227788	6201.561887	32833.016285	3722.453300	15626.542422
90.536000	0.125960	0.068738	0.125882	0.226366	6252.159946	33022.145744	3730.688815	15668.497256
91.037000	0.124938	0.066329	0.125705	0.225473	6251.143022	32917.072114	3732.216933	15694.889643
91.536500	0.123874	0.065391	0.128340	0.224671	6249.083331	32907.732972	3739.595925	15718.676376
92.037500	0.125597	0.066683	0.129369	0.229287	6226.444033	32678.840153	3731.897773	15582.462180
92.537500	0.127037	0.065648	0.127818	0.225511	6267.375823	32867.471122	3736.665832	15693.773197
93.035000	0.126809	0.066909	0.130406	0.226422	6258.392378	32891.622303	3740.274750	15666.818367
93.535000	0.125386	0.066202	0.128390	0.226237	6248.659209	32855.592692	3736.333743	15672.297826
94.036000	0.122581	0.064724	0.128347	0.231138	6188.678979	32418.632357	3725.778071	15528.242210
94.535500	0.123669	0.065573	0.130464	0.227244	6227.339709	32742.908997	3738.629647	15642.564417
95.114500	0.123874	0.064157	0.129743	0.226118	6237.740534	32722.994724	3739.501180	15675.814490
95.536000	0.127787	0.064801	0.127717	0.227418	6258.257147	32677.903617	3732.359687	15637.425834
96.061500	0.120338	0.063772	0.127379	0.232613	6160.114619	32254.082768	3720.603835	15485.194814
96.537500	0.125381	0.063882	0.124951	0.227062	6242.154636	32639.373372	3727.221514	15647.941448
97.034000	0.125599	0.064120	0.126809	0.227150	6243.170128	32649.662417	3730.995203	15645.343927
97.535000	0.124623	0.063461	0.129939	0.227652	6231.597977	32570.224596	3736.623538	15630.545434
98.060500	0.121575	0.062518	0.126515	0.233135	6165.589569	32134.239085	3717.684259	15470.006023
98.535500	0.122121	0.061738	0.127794	0.227399	6214.067166	32469.875450	3732.565478	15637.982869
