sample name	sample
index	229
start time	 02-22-2021  10:57:24 AM
880	0.033302
Peak Time (s)	91.036
Peak Height 	0.0333
calc peak height	90,93
Baseline Time (s)	10.036
Baseline Value 	-0.002985
subtract baseline	10,4
Abs	0.041276
Peak Time (s)	90.539
Peak Height 	0.04128
calc peak height	90,93
Baseline Time (s)	10.537
Baseline Value 	4.0529E-4
subtract baseline	10,3
PK_550	0.020976
Peak Time (s)	92.537
Peak Height 	0.02098
calc peak height	90,93
Baseline Time (s)	11.54
Baseline Value 	1.6029E-4
subtract baseline	10,2
PK_880	0.039492
Peak Time (s)	92.537
Peak Height 	0.03949
calc peak height	90,93
Baseline Time (s)	9.036
Baseline Value 	7.6168E-4
subtract baseline	10,1


Time (s)	A880-A510	A880-A775	A880-A975	A880	I510	I775	I975	I880	
0.036000	-0.004319	0.000027	-0.002402	0.007543	6805.446365	46378.357051	3953.383353	24408.864353
0.536000	-0.002052	-0.000411	-0.000891	0.004881	6850.208249	46601.572973	3964.008897	24541.311707
1.036000	-0.002414	0.000551	0.001689	0.004352	6851.738132	46751.945227	3971.993538	24567.738800
1.541000	0.000323	0.000310	0.004227	0.001341	6904.598555	47032.443086	3986.382856	24718.681886
2.034500	-0.001786	-0.000185	-0.001309	0.007013	6833.200971	46410.209685	3957.503848	24435.172061
2.534000	-0.001011	0.000165	-0.002436	0.000934	6896.025645	47059.082944	3970.172098	24739.182795
3.035000	0.002271	0.000041	0.001570	-0.001299	6947.298081	47274.077793	3986.338083	24851.928450
3.535000	-0.000467	0.000334	0.003285	0.000931	6901.081761	47076.559040	3984.993497	24739.325649
4.035000	-0.000403	0.000529	-0.001595	0.001953	6892.231323	46992.566475	3969.712886	24687.912173
4.535500	-0.000457	0.000106	0.000455	0.000991	6900.618853	47047.360173	3977.487158	24736.323395
5.036000	0.001236	-0.000440	-0.003483	0.000308	6922.661791	47061.273927	3969.088835	24770.757408
5.536000	0.000339	-0.000145	0.001385	0.000391	6913.552800	47082.763284	3981.454536	24766.544375
6.036500	-0.000068	0.000440	0.001132	0.000680	6907.096054	47112.907384	3980.046622	24751.970734
6.534000	0.000730	0.000322	0.000429	0.000766	6913.700630	47092.214670	3978.001815	24747.643695
7.034000	-0.001331	-0.000708	0.001273	0.000126	6900.533129	47052.499467	3981.853035	24779.926255
7.536500	0.000770	0.000061	-0.001288	0.000612	6915.503791	47081.339738	3973.960057	24755.436952
8.048000	0.001183	0.000180	-0.005466	0.000772	6917.848173	47077.114146	3962.818272	24747.350830
8.535000	-0.000191	0.001092	-0.000889	0.001131	6901.781285	47133.385388	3973.650432	24729.265605
9.035500	0.000000	-0.000592	-0.000338	-0.000080	6914.777141	47085.296566	3978.206022	24790.320438
9.538000	0.000402	0.001042	0.000969	0.001134	6907.239684	47128.022923	3978.445552	24729.097424
10.036000	-0.000698	-0.000302	0.002340	0.000000	6907.557677	47106.614150	3984.959690	24786.278985
10.537000	0.001010	0.000357	0.000000	0.000617	6917.685669	47110.891104	3977.276634	24755.163822
11.037500	0.001150	-0.000328	0.001269	-0.000026	6924.968425	47106.654380	3982.239966	24787.615647
11.539500	-0.001079	0.000000	-0.005287	-0.000249	6906.340450	47162.772507	3965.887591	24798.848595
12.034500	-0.001019	0.000148	0.006425	-0.000190	6906.352506	47171.818110	3996.158727	24795.876869
12.537500	0.002012	-0.000164	0.001427	0.000498	6928.100871	47070.001089	3981.283982	24761.135939
13.035000	-0.002668	-0.000001	-0.000214	0.004200	6850.802880	46711.424740	3967.487231	24575.303324
13.550000	-0.000786	-0.000545	0.004330	-0.000915	6915.225869	47175.058917	3992.556350	24832.497176
14.039000	0.000412	0.000381	0.000918	0.002973	6890.335027	46874.104900	3973.559905	24636.744904
14.550500	-0.000940	0.000622	-0.001077	0.002360	6883.519230	46960.674510	3969.998394	24667.466577
15.036500	-0.003319	-0.000319	-0.002678	0.004158	6845.245714	46683.663682	3961.290378	24577.445008
15.536500	0.001065	0.000821	0.006014	-0.000104	6924.895399	47231.751012	3994.848639	24791.524954
16.040500	0.001972	-0.000188	0.002910	-0.000206	6934.292986	47139.204210	3986.983237	24796.684655
16.537500	-0.000177	0.000834	0.001276	-0.000192	6914.170060	47242.039013	3982.687163	24795.976135
17.034500	-0.001278	0.000667	0.001267	0.003868	6866.559581	46812.437703	3972.150786	24591.913273
17.537500	-0.000644	0.000367	-0.000850	0.000183	6906.362487	47156.126994	3976.199912	24777.044591
18.038500	-0.000496	0.000373	-0.003369	0.001532	6895.254528	47019.510675	3966.239130	24709.085744
18.535000	-0.001961	0.000253	0.001877	0.001363	6883.304155	47024.397465	3980.206056	24717.570832
19.036000	0.001098	0.000232	-0.001236	0.001589	6909.485298	46999.426442	3971.575123	24706.249624
19.536000	-0.001275	0.000067	0.000314	0.001180	6891.309362	47024.122640	3976.631995	24726.787536
20.036000	-0.002165	-0.000576	0.003519	0.000805	6886.571141	46996.955563	3985.934316	24745.696817
20.557500	-0.001490	0.000766	0.001646	0.001819	6883.441263	47030.177743	3978.424207	24694.639888
21.037000	0.000308	0.000265	0.000878	0.001972	6898.628631	46963.843209	3976.043783	24686.986141
21.537000	0.001045	0.000459	0.000796	0.001714	6907.828336	47009.698971	3976.497435	24699.922403
22.034500	-0.003399	0.000023	0.000246	0.001366	6870.056069	47000.821515	3975.974360	24717.432430
22.535000	-0.000673	0.000410	-0.000295	0.001598	6893.015781	47016.525027	3973.975687	24705.761052
23.035000	-0.001456	0.000268	-0.000988	0.001916	6882.858787	46969.836313	3971.370916	24689.780269
23.536000	-0.000333	0.000142	0.003095	0.001007	6901.618830	47049.455207	3984.303707	24735.538438
24.035500	0.000185	0.000825	0.002024	0.001853	6898.592019	47032.869248	3979.320166	24692.980307
24.535500	-0.000449	-0.000048	0.004910	0.001310	6897.744664	46999.291035	3988.248243	24720.278838
25.036000	-0.002127	0.000164	-0.002841	0.002449	6871.791343	46905.197128	3965.240921	24662.999035
25.534000	-0.001682	0.000534	0.001469	0.001499	6884.615653	47039.169550	3978.795663	24710.731157
26.034000	-0.000757	0.000290	0.003114	0.001381	6894.243680	47026.424036	3983.379276	24716.711034
26.534500	-0.001094	-0.000091	-0.000400	0.001187	6892.922646	47007.395176	3974.767142	24726.441125
27.035000	-0.000876	0.000261	0.001998	0.001478	6892.244466	47013.599695	3980.224165	24711.791680
27.534500	0.000873	0.000479	0.004192	-0.002371	6944.254026	47428.701951	3996.021533	24906.273195
28.035000	0.001086	0.000052	0.001788	-0.000231	6926.280516	47166.248057	3984.123772	24797.951288
28.535500	-0.000368	0.000215	0.006099	0.000407	6906.847579	47117.876921	3993.731276	24765.752322
29.035500	-0.002663	0.000392	0.000177	0.003945	6853.176264	46776.857235	3969.147207	24588.057391
29.536000	-0.000809	0.000885	-0.001274	0.003330	6875.805879	46888.983333	3967.000374	24618.857730
30.036500	-0.000861	-0.000009	0.001695	-0.000361	6909.397252	47173.228692	3984.217157	24804.483601
30.539000	-0.000129	0.000367	0.001813	0.001712	6896.985553	47000.590690	3979.136237	24700.043506
31.034500	0.000130	0.000671	0.003484	0.002388	6893.137376	46962.853536	3981.719972	24666.075588
31.541000	-0.002079	-0.000301	0.000771	0.003078	6866.466446	46794.539674	3972.908881	24631.491260
32.034500	-0.000721	0.000089	0.000500	-0.000380	6910.875652	47185.164745	3981.159269	24805.469941
32.535000	-0.000572	0.000046	-0.000648	-0.000360	6912.072028	47178.749105	3978.128939	24804.458871
33.035500	-0.002464	-0.000099	0.001116	0.004985	6845.494189	46622.461081	3968.887710	24536.109563
33.535500	-0.000160	-0.000159	0.001576	0.001783	6896.042691	46940.059249	3978.339687	24696.481061
34.036000	-0.000547	0.000345	0.002605	0.002100	6889.546913	46959.053648	3980.185244	24680.566482
34.536500	-0.002183	0.000127	0.000270	0.001600	6879.083636	46987.663150	3975.432281	24705.696231
35.036000	0.000232	0.000699	-0.000474	0.002452	6893.490004	46959.162890	3971.313663	24662.878620
35.534000	-0.001695	0.000511	0.001150	0.002495	6875.332200	46935.666335	3975.392914	24660.693203
36.034500	0.000422	0.000196	-0.000632	0.002074	6898.733229	46946.455151	3971.880908	24681.830198
36.534500	-0.001166	0.000938	0.004084	0.002451	6880.610060	46983.508219	3983.116611	24662.917122
37.035000	-0.002060	0.000709	0.001997	0.002576	6871.238759	46947.540681	3977.374907	24656.635926
37.535500	-0.001480	0.000406	0.003379	0.002360	6878.555410	46938.848438	3981.519741	24667.499036
38.035000	-0.001809	0.000477	0.000537	0.002122	6877.726682	46970.223584	3974.773218	24679.460239
38.536000	-0.001769	-0.000014	-0.001016	0.001849	6880.595880	46948.012364	3971.472116	24693.161090
39.036500	-0.002418	0.000388	0.003293	0.002347	6870.055575	46938.205788	3981.328841	24668.122275
39.536500	-0.002346	0.000727	0.000316	0.002233	6871.773704	46984.324673	3973.916557	24673.886930
40.034000	-0.001536	0.000635	0.002000	0.002160	6879.881434	46982.284534	3978.458772	24677.522291
40.534500	-0.003741	-0.000510	0.002512	0.001790	6863.032262	46903.774992	3980.747911	24696.133419
41.038000	-0.001124	0.000947	-0.005281	0.003467	6871.657249	46881.480404	3956.422014	24612.003498
41.535000	-0.001502	0.000013	0.000193	0.002180	6880.002139	46917.106320	3973.734883	24676.502498
42.035500	-0.002273	-0.000039	0.002669	0.001771	6876.682632	46953.451259	3981.207794	24697.101413
42.535500	-0.001382	0.000236	-0.000888	0.002532	6877.870707	46904.090741	3970.041445	24658.849021
43.035500	-0.002257	0.001039	0.003943	0.002899	6866.466693	46948.263276	3981.584655	24640.442114
43.536000	0.003336	0.000481	0.005893	-0.002006	6963.911821	47391.421629	3999.541956	24887.733722
44.039500	0.002268	-0.000555	0.000646	-0.000909	6943.621450	47173.522230	3982.915262	24832.210298
44.536500	-0.001021	0.000481	0.002749	-0.000263	6907.009194	47213.294855	3986.710434	24799.558138
45.034000	-0.002919	0.000426	-0.002743	0.005509	6836.579471	46622.612200	3957.681459	24510.003877
45.534000	-0.003349	0.000577	0.001924	0.005461	6833.097905	46642.608651	3969.739860	24512.370985
46.034500	-0.001258	0.000413	0.001774	0.000096	6901.494420	47169.739793	3983.235696	24781.456516
46.537500	0.001535	0.000282	0.006205	-0.000018	6928.475980	47168.066545	3995.128053	24787.211638
47.035000	-0.002890	0.000172	-0.000137	0.004721	6844.017815	46676.403718	3966.349952	24549.296339
47.535500	-0.003728	-0.000014	-0.000468	0.004538	6838.051695	46676.095585	3965.972110	24558.445963
48.046500	0.000960	0.000048	0.003190	0.000166	6921.411461	47125.397776	3986.743639	24777.917351
48.536000	-0.000511	0.000272	-0.001983	-0.000171	6910.882421	47182.508892	3974.185385	24794.906829
49.036500	-0.004473	0.000071	-0.001953	0.006010	6817.925014	46536.501053	3958.417675	24485.059699
49.534000	-0.002062	-0.000152	-0.001662	0.004702	6851.754734	46645.665526	3962.495807	24550.240718
50.039500	0.001060	0.000018	0.002435	-0.000712	6930.512646	47211.791658	3987.063781	24822.238629
50.534500	-0.000952	-0.001182	0.001447	-0.000829	6912.899521	47101.526071	3984.791838	24828.175674
51.034500	-0.022853	-0.019632	-0.005297	0.151984	5578.429753	32695.345270	3636.762948	18313.928687
51.535000	-0.034350	-0.025765	0.004395	0.034174	6325.776070	41433.889640	3904.253103	23127.579920
52.035500	-0.034463	-0.030480	0.000196	-0.087890	7441.608398	53390.157790	4232.072167	29702.945086
52.535500	-0.015148	-0.034621	0.004852	-0.149357	8373.335940	60515.332939	4458.891865	33783.005760
53.035500	-0.020021	-0.019187	-0.001536	-0.097931	7705.924693	55932.644158	4258.715226	30330.631714
53.536000	-0.019684	-0.016501	-0.002527	-0.096296	7691.541200	56061.135883	4250.237186	30227.424446
54.033500	-0.008440	-0.011310	0.004831	-0.090138	7748.173415	55942.883124	4254.106067	29842.202031
54.536500	-0.004547	-0.008156	0.002760	-0.083853	7721.446457	55561.732143	4227.401245	29454.625171
55.038000	-0.001580	-0.009113	0.001162	-0.083604	7751.822674	55415.665645	4221.570132	29439.400857
55.534000	0.001794	-0.006855	0.001143	-0.082530	7777.669026	55559.128254	4218.127636	29373.774672
56.034500	0.007969	-0.004076	0.006797	-0.084781	7873.534961	56172.518513	4243.204552	29511.469407
56.536000	0.012163	-0.002710	0.011499	-0.085166	7926.427400	56387.827537	4259.586243	29535.131372
57.035000	0.013887	-0.000104	0.016264	-0.059830	7659.601057	53660.188038	4194.510534	28023.881742
57.535500	0.009458	0.000742	0.010195	-0.033675	7334.842909	50786.234921	4098.562256	26553.504769
58.047000	0.013625	0.002531	0.012251	-0.015447	7193.056215	49007.405559	4053.029132	25579.960349
58.536000	0.013759	0.004688	0.015917	0.024798	6812.887674	45135.532974	3956.084745	23569.776854
59.036500	0.017476	0.005369	0.014875	0.001368	7066.312271	47546.894432	4014.445397	24717.326634
59.534000	0.018669	0.008456	0.021775	0.002679	7065.176469	47729.778027	4029.491299	24651.470633
60.034500	0.015897	0.008840	0.022161	0.019357	6882.058963	46078.914745	3986.169473	23830.781678
60.535000	0.021318	0.011493	0.027435	0.029660	6837.362941	45324.916183	3973.121729	23339.292192
61.035000	0.022885	0.011634	0.025601	0.019273	6947.698734	46366.034880	3995.403800	23834.830800
61.535000	0.021765	0.013535	0.022134	0.020109	6929.428427	46472.738198	3984.139092	23794.501765
62.038500	0.025897	0.017666	0.025562	0.012878	7036.672140	47627.869873	4012.247766	24145.850565
62.545500	0.023484	0.018801	0.022535	0.012179	7020.321747	47817.205895	4006.050379	24180.149490
63.087500	0.027991	0.019277	0.026459	0.011514	7069.874966	47935.295727	4018.298648	24212.782487
63.561000	0.025019	0.020219	0.025387	0.013848	7019.039795	47791.173127	4009.192115	24098.361678
64.036500	0.028030	0.019933	0.028740	0.012824	7057.640988	47867.570753	4020.906723	24148.487617
64.537000	0.028010	0.020205	0.029629	0.014943	7037.138309	47676.682590	4017.602919	24044.912040
65.038000	0.024408	0.020145	0.024908	0.020911	6946.615799	47059.380364	3989.283720	23755.860549
65.538000	0.027955	0.020966	0.028915	0.022092	6968.806173	47022.818188	3996.704111	23699.145869
66.036500	0.028720	0.019877	0.032452	0.018535	7009.669779	47274.351464	4015.544066	23870.485909
66.535500	0.031032	0.020762	0.027181	0.019492	7022.556541	47266.959041	3998.988826	23824.249877
67.035500	0.029952	0.020308	0.027075	0.018822	7018.653224	47289.039723	4000.476526	23856.587274
67.536000	0.027299	0.020407	0.028903	0.023602	6948.488380	46813.093188	3992.702478	23626.845188
68.037000	0.032361	0.020683	0.034570	0.018922	7040.697299	47317.228390	4020.187859	23851.787732
68.536500	0.032993	0.021022	0.031545	0.018973	7046.259603	47346.686114	4011.948591	23849.311253
69.037500	0.030334	0.020648	0.034671	0.022613	6986.325817	46937.645133	4010.575174	23674.173958
69.534500	0.030061	0.021576	0.034501	0.022579	6984.060835	47035.299533	4010.214080	23675.801530
70.038000	0.032051	0.020708	0.037371	0.016682	7059.201554	47549.402738	4033.813298	23960.263981
70.546000	0.033252	0.021668	0.035171	0.016461	7072.896688	47671.041509	4028.445907	23971.011397
71.035000	0.030070	0.022033	0.033360	0.020905	6999.978904	47252.404303	4011.634388	23756.154315
71.536500	0.033541	0.021866	0.039646	0.015322	7086.690342	47809.040632	4043.739738	24026.421990
72.035500	0.034326	0.021783	0.035150	0.015020	7097.233562	47831.710699	4032.294871	24041.156082
72.535500	0.034207	0.021851	0.033551	0.014480	7101.323940	47894.803932	4029.424131	24067.528039
73.036000	0.032360	0.021844	0.034444	0.018630	7043.478846	47466.034952	4020.630838	23865.872023
73.536500	0.033234	0.021482	0.035366	0.019025	7048.074870	47388.453761	4022.050767	23846.812694
74.034000	0.037025	0.021209	0.034661	0.013472	7138.632262	47932.666368	4035.174924	24116.761848
74.534500	0.034073	0.021679	0.034909	0.013262	7111.849620	48003.207030	4036.423404	24127.035312
75.034500	0.035692	0.021700	0.038630	0.017269	7088.676463	47591.113164	4035.644653	23931.809120
75.537500	0.036875	0.021925	0.039260	0.016415	7108.446909	47702.319206	4039.692196	23973.277552
76.035500	0.036147	0.021794	0.038081	0.013851	7126.338006	47954.036468	4043.485267	24098.255072
76.536000	0.035880	0.021529	0.036350	0.014269	7119.656205	47883.294975	4037.606438	24077.830417
77.035500	0.034911	0.021948	0.037800	0.018928	7065.114412	47446.166621	4028.885426	23851.476277
77.536000	0.037378	0.021655	0.039055	0.014909	7128.022390	47830.026556	4043.252503	24046.570025
78.039000	0.037883	0.021965	0.038692	0.015647	7125.753356	47785.736101	4040.239766	24010.632607
78.536500	0.037812	0.021812	0.037460	0.015312	7128.337122	47804.626917	4037.789541	24026.941845
79.034000	0.034670	0.021996	0.035535	0.020048	7052.034018	47336.389709	4019.754485	23797.454749
79.552500	0.036887	0.022688	0.041770	0.020897	7065.186796	47320.249688	4034.317369	23756.580045
80.035000	0.038119	0.021846	0.040442	0.016808	7116.731373	47653.660995	4041.852558	23954.187122
80.535000	0.040092	0.022399	0.042878	0.017542	7128.823202	47634.963906	4046.518213	23918.554995
81.035000	0.035794	0.021421	0.033804	0.021487	7049.015557	47130.738268	4011.267890	23728.201834
81.543000	0.039351	0.022143	0.040199	0.018257	7114.607698	47535.037865	4037.225669	23883.908306
82.036000	0.037989	0.022287	0.043515	0.018813	7095.969398	47492.740326	4044.778452	23857.043301
82.536000	0.039504	0.021527	0.042192	0.018837	7110.449286	47412.243489	4041.086201	23855.855566
83.053000	0.038146	0.021368	0.041564	0.019412	7091.682621	47337.106004	4037.799077	23828.083837
83.534000	0.039305	0.022121	0.040405	0.020461	7092.743026	47306.797528	4031.788924	23777.516947
84.036500	0.036944	0.021212	0.042182	0.020506	7069.502821	47209.417862	4036.502743	23775.388141
84.535000	0.038582	0.021949	0.044322	0.022314	7067.855445	47100.249194	4037.407567	23688.509061
85.035000	0.038076	0.021404	0.043083	0.022231	7063.787795	47053.296220	4034.260116	23692.501243
85.535000	0.039549	0.021616	0.044411	0.023084	7069.749962	46988.056133	4035.550666	23651.603649
86.035500	0.036356	0.020312	0.040807	0.023202	7037.969507	46843.958382	4025.457958	23645.988019
86.536000	0.039572	0.020961	0.040064	0.024106	7060.140562	46818.222174	4021.020024	23602.778971
87.036500	0.037227	0.020558	0.040604	0.024994	7029.168874	46687.794040	4020.084473	23560.438803
87.536500	0.038280	0.020517	0.041282	0.025179	7037.456005	46664.947037	4021.410036	23551.591096
88.034000	0.039993	0.020424	0.042715	0.026047	7045.544219	46568.187297	4022.931544	23510.291119
88.534000	0.037613	0.020162	0.040069	0.026527	7018.231028	46493.737855	4014.540210	23487.506666
89.037000	0.039156	0.019736	0.039011	0.027141	7027.088333	46389.453670	4010.076507	23458.365816
89.535000	0.035895	0.020297	0.041728	0.030599	6963.475495	46100.264648	4008.101279	23295.057334
90.037500	0.038535	0.019711	0.040936	0.028042	7012.583741	46296.793270	4012.806525	23415.673858
90.539000	0.036982	0.019478	0.041276	0.028487	6993.640639	46229.156773	4012.529298	23394.665879
91.036000	0.034699	0.019462	0.037550	0.033302	6927.019469	45749.716781	3989.942939	23168.303979
91.536000	0.035802	0.020265	0.038651	0.031539	6953.787782	46003.674062	3997.467232	23250.904000
92.036000	0.037972	0.020254	0.039506	0.031185	6977.512634	46037.762173	4000.659250	23267.527397
92.536500	0.039492	0.020976	0.040261	0.032063	6983.571543	46022.278059	4000.333617	23226.327643
93.033500	0.037529	0.020441	0.041800	0.034982	6937.740609	45680.573187	3996.690667	23089.926104
93.570500	0.036880	0.019873	0.042909	0.033360	6946.830677	45784.500185	4003.907231	23165.586014
94.038500	0.039582	0.020029	0.039503	0.032802	6977.445339	45855.164773	3996.385106	23191.713024
94.540000	0.037349	0.019607	0.042945	0.033294	6951.837235	45764.739301	4004.176506	23168.671143
95.035000	0.034572	0.019998	0.043745	0.038473	6877.995513	45294.753862	3992.627047	22928.021366
95.535500	0.037405	0.019672	0.041255	0.036419	6923.199948	45463.868047	3991.484587	23023.136042
96.035500	0.041308	0.021246	0.040426	0.035785	6965.612559	45680.828365	3990.974353	23052.586179
