sample name	sample
index	1334
start time	 05-03-2021  11:48:31 AM
880	-0.017544
Peak Time (s)	92.535
Peak Height 	-0.01754
calc peak height	90,93
Baseline Time (s)	11.037
Baseline Value 	-0.006391
subtract baseline	10,4
Abs	0.023935
Peak Time (s)	92.038
Peak Height 	0.02394
calc peak height	90,93
Baseline Time (s)	11.535
Baseline Value 	0.00473
subtract baseline	10,3
PK_550	0.007226
Peak Time (s)	92.038
Peak Height 	0.007226
calc peak height	90,93
Baseline Time (s)	10.537
Baseline Value 	3.6591E-4
subtract baseline	10,2
PK_880	0.021214
Peak Time (s)	90.036
Peak Height 	0.02121
calc peak height	90,93
Baseline Time (s)	11.535
Baseline Value 	0.001667
subtract baseline	10,1


Time (s)	A880-A510	A880-A775	A880-A975	A880	I510	I775	I975	I880	
0.036500	-0.001218	-0.000596	-0.005582	0.003012	6105.178547	42561.052064	3871.808831	22067.468180
0.536500	-0.000882	-0.000072	-0.000538	0.004829	6094.265406	42443.386784	3879.254991	21987.494107
1.037500	-0.001262	0.000084	-0.003140	0.006610	6078.422042	42296.109493	3869.154846	21909.468265
1.537500	-0.002018	-0.000251	-0.003283	0.003117	6098.507220	42582.943286	3876.867734	22062.853240
2.035000	-0.001301	-0.001266	-0.000396	0.001261	6117.509414	42659.619380	3887.887197	22144.844816
2.535000	0.000312	-0.000502	0.004665	0.001580	6127.113973	42700.409602	3899.030411	22130.759144
3.036000	-0.002067	-0.000588	-0.004039	0.004298	6089.466412	42444.732637	3872.400348	22010.844342
3.536000	-0.001126	-0.000225	0.005757	0.000596	6123.743378	42815.827173	3903.944460	22174.340977
4.036500	0.000898	0.000257	0.002737	0.001055	6135.381539	42817.924662	3895.720599	22153.998411
4.537000	-0.000227	-0.000675	-0.005414	0.000094	6134.154331	42820.597911	3878.929221	22196.605850
5.036500	-0.000309	-0.000491	-0.002686	0.005294	6095.064340	42363.205074	3873.221995	21967.088913
5.537000	-0.001682	-0.000306	-0.001753	0.000229	6122.344525	42842.043560	3887.130842	22190.630243
6.034500	0.000647	0.000722	-0.001266	0.000534	6137.391968	42908.436542	3887.553543	22177.065832
6.534500	0.003813	0.000208	-0.003616	0.000330	6162.610586	42880.019486	3882.555043	22186.154271
7.035500	0.000877	0.000169	0.005419	-0.000101	6143.846935	42915.938482	3904.796163	22205.275174
7.536000	-0.000514	0.000225	-0.002103	0.000330	6130.262180	42881.530026	3886.075379	22186.122689
8.035500	-0.001445	0.000091	-0.003922	0.000454	6122.426790	42857.775107	3881.556231	22180.629842
8.536000	0.000141	-0.000513	-0.005567	-0.000465	6141.061979	42886.710355	3879.869506	22221.423839
9.036500	-0.001376	-0.000515	-0.003307	-0.000411	6129.366554	42881.555331	3884.997074	22219.041272
9.536000	-0.002104	-0.000431	-0.008946	-0.000511	6124.696812	42898.522976	3872.173677	22223.485504
10.037000	0.001374	0.000499	0.001873	0.000440	6143.519357	42896.615022	3895.133884	22181.255791
10.537000	-0.000184	0.000000	0.002493	0.000113	6134.337340	42880.783975	3897.364118	22195.769996
11.037500	0.000155	0.000372	0.000501	0.000000	6137.703340	42925.369251	3892.942572	22200.783597
11.535000	0.000000	0.000186	0.000000	0.000049	6136.187242	42903.823753	3891.653071	22198.624560
12.035500	0.001354	0.000341	-0.001701	0.000339	6144.120214	42891.374414	3886.993424	22185.735582
12.535500	0.000989	0.000105	0.002187	-0.000271	6145.955590	42925.728451	3897.549631	22212.839912
13.036000	-0.000696	0.000001	0.000881	-0.000012	6131.459990	42892.368647	3893.863921	22201.325318
13.536500	0.000768	0.000620	0.002197	0.000617	6137.669100	42891.390656	3895.477540	22173.383332
14.036500	0.000688	0.000484	-0.002613	0.002725	6121.405963	42685.747766	3879.324190	22080.123820
14.540000	-0.000795	0.000897	-0.001024	0.003130	6107.428460	42686.486071	3882.069460	22062.267022
15.037000	-0.004557	-0.000755	-0.003314	0.005646	6061.403153	42307.341428	3870.967869	21951.653129
15.538000	0.000370	-0.000570	-0.002429	0.000311	6136.987115	42810.266165	3885.361473	22186.971864
16.035000	-0.002200	0.000118	-0.002797	0.000287	6118.067631	42875.576656	3884.558605	22188.026460
16.535500	0.000610	0.001542	-0.000611	0.001636	6128.911551	42882.479288	3886.510251	22128.259561
17.035500	-0.003435	-0.000279	-0.004944	0.004043	6081.295786	42495.998985	3870.906037	22022.053651
17.535500	-0.001173	-0.000324	-0.000685	0.001401	6117.427792	42733.014988	3886.887112	22138.676725
18.036000	-0.002517	0.000606	-0.001628	0.002045	6102.733076	42759.149032	3883.189835	22110.179842
18.536500	-0.001538	-0.000538	0.002997	0.001242	6115.899835	42728.011082	3895.893700	22145.725275
19.036500	0.000265	-0.000163	-0.000918	0.001372	6128.311337	42750.388050	3886.410772	22139.935568
19.536500	-0.000824	-0.000291	0.000082	0.001728	6117.586343	42706.101550	3887.914016	22124.182585
20.037000	0.000055	0.000238	-0.001924	0.001461	6126.093293	42778.941026	3883.858590	22136.013987
20.540000	-0.001924	0.000873	-0.000361	0.001938	6107.894875	42793.474980	3886.388377	22114.909477
21.037000	0.000842	0.000159	0.000288	0.001630	6130.679632	42756.263818	3888.625152	22128.524754
21.535500	-0.000983	0.000140	0.002906	0.001584	6117.473494	42758.727501	3894.872425	22130.565843
22.035500	-0.001277	0.000444	0.006395	0.001414	6116.554744	42802.144391	3903.516353	22138.069457
22.535500	-0.001663	0.000521	-0.002498	0.001638	6112.045581	42788.653321	3882.112735	22128.188180
23.036000	-0.001648	0.000249	0.002259	0.001486	6113.278124	42777.665486	3893.582924	22134.916704
23.536500	0.000212	0.000237	-0.001197	0.001819	6124.592511	42746.031848	3884.717661	22120.167001
24.036500	-0.001014	-0.000825	0.004152	0.001027	6121.380715	42721.396771	3899.123124	22155.247271
24.537000	0.000029	0.000109	-0.002035	0.001745	6123.782756	42741.087672	3882.938290	22123.428674
25.037000	-0.000906	0.000319	-0.001120	0.001847	6116.095690	42750.949638	3884.831185	22118.915437
25.535000	-0.003056	0.000476	-0.002684	0.001834	6100.313396	42766.637513	3881.226777	22119.515457
26.035500	-0.001305	-0.000262	-0.001078	0.001347	6116.846155	42743.577191	3886.095365	22141.044796
26.535000	-0.000597	0.000305	-0.001595	0.002128	6116.309085	42724.099702	3883.072334	22106.526068
27.035500	-0.002318	-0.000459	0.000231	0.002092	6103.854400	42657.473460	3887.410789	22108.101543
27.539000	0.000327	0.000129	0.002070	-0.000596	6143.430175	42957.813850	3898.039190	22227.258279
28.036000	0.000766	0.001191	-0.000484	0.001469	6131.315025	42865.652177	3887.196581	22135.662435
28.536500	0.002768	-0.000546	-0.001289	0.000192	6155.803781	42823.405945	3888.299158	22192.249177
29.037000	0.000233	0.000570	-0.000905	0.000751	6132.689321	42874.501545	3887.890726	22167.457775
29.534500	-0.001142	0.000993	-0.002129	0.001348	6118.047868	42858.576803	3883.645363	22141.006860
30.037500	-0.000437	0.001176	0.000144	0.000920	6126.459607	42914.683157	3889.950423	22159.987827
30.535000	-0.001499	-0.000719	-0.003553	-0.000616	6129.974030	42881.688688	3884.900609	22228.147460
31.035000	-0.001360	0.001484	-0.001879	0.004330	6094.421734	42630.538305	3877.307632	22009.422551
31.535500	-0.000863	0.000861	0.002213	0.000801	6124.173527	42896.663929	3895.083396	22165.230489
32.036000	-0.000044	-0.000128	-0.002548	-0.000441	6139.508330	42919.961082	3886.836624	22220.385786
32.536000	-0.000420	0.000037	-0.002831	0.000107	6132.622867	42884.710389	3884.900453	22196.035701
33.036500	-0.002727	0.000046	-0.004854	0.004426	6083.686019	42490.820102	3870.233978	22005.228712
33.537000	-0.003294	0.000250	-0.001660	0.000566	6107.915528	42862.138798	3886.560136	22175.679777
34.037000	0.000513	0.000236	0.000610	0.000938	6133.382374	42826.760754	3890.998207	22159.180644
34.539500	-0.001086	0.000168	-0.001613	0.001521	6117.185789	42767.072209	3884.443497	22133.373628
35.035000	-0.003143	0.000199	0.001845	0.004090	6083.092623	42535.263232	3886.515656	22019.985548
35.535000	-0.001190	-0.000605	0.001091	0.001510	6116.489871	42697.295102	3890.783862	22133.835880
36.035000	-0.000890	0.000393	-0.003304	0.002258	6113.179653	42720.221226	3878.805402	22100.784127
36.536000	-0.004148	0.000080	-0.002594	0.002096	6090.354381	42706.391390	3880.826918	22107.926351
37.036000	-0.000473	0.000906	0.000949	0.003110	6109.961236	42689.163953	3886.710327	22063.159548
37.536500	-0.002662	-0.000357	0.004150	0.002334	6099.534076	42644.669462	3896.036007	22097.405895
38.037000	-0.001416	-0.000440	-0.002336	0.002407	6108.187917	42630.466784	3880.703100	22094.196288
38.537000	-0.000688	-0.000809	-0.003621	0.001981	6116.718336	42635.609833	3878.710657	22112.986305
39.037000	-0.001533	0.000345	0.002198	0.003063	6102.483415	42642.265892	3889.740948	22065.238633
39.537000	-0.003036	0.000464	-0.003841	0.002745	6093.749087	42682.121171	3876.435651	22079.239299
40.034500	-0.000717	0.000691	0.000973	0.003379	6106.163406	42644.878844	3886.139690	22051.279234
40.535500	-0.001996	0.000248	-0.000874	0.002707	6101.698759	42665.953007	3883.402838	22080.955818
41.035500	-0.002911	-0.000301	0.001172	0.002015	6100.049702	42678.962689	3889.791884	22111.510188
41.536000	-0.001632	0.000426	0.001095	0.002818	6103.556616	42672.018181	3887.732428	22076.030508
42.036000	-0.000536	-0.000531	-0.002996	0.002568	6113.500314	42607.498199	3878.801494	22087.072988
42.536500	-0.000744	0.000859	0.001469	0.003073	6108.228679	42688.229852	3888.010792	22064.782789
43.036500	-0.000660	0.000188	0.000022	0.002770	6111.090861	42654.619723	3885.343140	22078.166112
43.537000	-0.001516	0.000390	-0.003241	0.002363	6107.770860	42710.275396	3878.708334	22096.121902
44.040000	0.002325	0.000686	0.003360	-0.001263	6163.394747	43070.617737	3902.667732	22256.956761
44.537500	-0.000645	0.000429	-0.002938	0.000624	6127.103646	42873.180393	3883.447319	22173.078736
45.035500	0.000222	0.000716	-0.001426	0.000715	6132.876530	42891.306445	3886.757665	22169.062823
45.535500	-0.000848	0.000516	0.003062	0.000935	6123.286250	42852.661557	3896.767420	22159.295101
46.036000	0.002104	0.000649	-0.001981	0.000698	6147.038722	42886.662454	3885.502488	22169.796730
46.535500	0.000070	0.001871	0.000300	0.001804	6123.652417	42897.324982	3888.246638	22120.846284
47.036500	-0.000409	-0.000217	-0.004070	0.001932	6119.155259	42694.226599	3877.788102	22115.184989
47.536500	-0.002505	0.000222	0.000722	0.002570	6098.954712	42676.046622	3887.443616	22087.002173
48.037000	-0.002297	0.000021	-0.004781	0.002483	6101.129771	42665.664962	3874.872882	22090.838899
48.536500	0.000445	0.000342	0.001536	0.000541	6135.834466	42872.839906	3894.102986	22176.768941
49.035000	-0.004224	0.000743	0.002643	0.006628	6056.682224	42354.078373	3882.463311	21908.642163
49.534500	0.000218	0.000361	0.002748	0.000993	6130.776671	42833.066421	3895.889569	22156.713673
50.035500	0.000095	0.000168	0.000316	-0.002252	6154.085553	43114.036695	3897.808009	22301.043441
50.535500	0.001180	0.000576	0.004790	0.011510	6060.480202	41899.111939	3876.126475	21696.322501
51.035500	0.000798	-0.000324	-0.002738	0.024343	5965.761186	40688.045774	3830.189964	21149.413615
51.536000	0.039221	-0.025647	0.043803	0.535619	3932.150063	13948.446415	3201.409258	8532.206171
52.036500	0.019994	-0.024541	-0.004836	0.022104	6120.861926	38827.838355	3830.502738	21243.679111
52.536500	0.014958	-0.066467	-0.014046	-0.247024	8816.322634	63459.887564	4614.896094	36977.707410
53.037000	0.016612	-0.098396	-0.014757	-0.293341	9507.268956	65496.759979	4807.748255	40811.449555
53.539500	0.016981	-0.097134	-0.012879	-0.292332	9497.523732	65533.067290	4811.617893	40723.462484
54.034500	0.013858	-0.077612	-0.010107	-0.268488	9100.342625	64913.837316	4719.812797	38703.542490
54.535000	0.006505	-0.046359	-0.014173	-0.224115	8404.154116	63071.049450	4524.917912	35227.326805
55.035500	-0.000600	-0.043522	-0.018760	-0.221937	8287.761242	63162.397012	4499.390270	35065.719744
55.536000	-0.003729	-0.053186	-0.022875	-0.237892	8449.244171	64040.236717	4544.330001	36268.856630
56.035500	-0.000726	-0.059774	-0.014721	-0.246990	8606.041943	64394.225527	4612.055546	36975.041602
56.536000	0.001306	-0.037303	-0.014423	-0.209589	8159.772551	62319.122155	4469.668046	34164.433898
57.036000	-0.001097	-0.019592	-0.017310	-0.152312	7484.469044	57152.895600	4263.132951	30303.028044
57.536500	-0.002258	-0.017386	-0.014085	-0.146069	7406.987599	56651.886068	4253.509972	29912.168308
58.039500	0.001089	-0.014506	-0.008851	-0.138320	7361.526388	56053.619881	4245.538103	29434.665923
58.537000	0.003652	-0.009366	-0.011093	-0.117173	7174.652555	54133.440540	4173.583633	28174.206486
59.035000	0.002378	-0.007153	-0.010222	-0.098175	6979.713237	52194.560889	4120.426807	27093.028652
59.535000	0.002813	-0.006729	-0.011662	-0.091028	6917.143361	51438.742465	4096.004066	26698.323285
60.035000	-0.000532	-0.004851	-0.005559	-0.071187	6708.324665	49475.840613	4057.930701	25636.179598
60.535500	-0.000522	-0.002491	-0.005908	-0.057502	6590.274632	48279.230344	4020.257953	24931.309781
61.036000	0.000522	-0.002730	-0.000659	-0.047392	6514.044901	47212.877536	4007.489846	24424.662520
61.536000	0.002648	-0.002681	-0.003338	-0.041212	6480.470672	46592.963347	3984.584705	24120.716034
62.036500	0.000016	-0.000928	-0.011204	-0.039559	6445.312754	46602.899637	3960.488939	24040.142277
62.536500	0.000304	0.000421	-0.007979	-0.048095	6518.081423	47607.044589	3990.337753	24459.509964
63.037500	-0.002307	-0.000075	-0.003272	-0.046324	6481.757663	47374.685669	3997.915771	24371.817476
63.685000	-0.000266	0.000475	-0.004953	-0.051018	6537.735858	47913.896146	4005.745196	24605.006289
64.044000	0.000241	0.000089	-0.003682	-0.051575	6546.656752	47931.551614	4010.522052	24632.843174
64.534500	0.001562	0.000658	-0.005265	-0.052525	6565.772734	48089.036943	4008.864848	24680.391291
65.035500	0.000257	-0.001087	-0.008487	-0.052264	6552.582061	47881.213600	3999.794396	24667.341625
65.535500	0.000266	-0.001920	-0.006758	-0.049013	6525.422432	47461.076878	3995.851737	24505.089275
66.036000	0.001348	-0.000336	-0.004395	-0.046442	6513.006780	47360.006181	3995.314237	24377.631998
66.536500	0.003913	0.001312	-0.004221	-0.042836	6504.366724	47160.480926	3986.481955	24200.170794
67.036500	-0.000353	0.000943	-0.005198	-0.040222	6447.717068	46858.152179	3977.315107	24072.408531
67.542500	0.000192	0.001247	-0.001861	-0.041871	6465.686378	47055.917650	3990.065260	24152.923302
68.037000	0.002207	0.001395	0.001730	-0.041559	6479.684287	47039.167737	3998.527962	24137.645228
68.535000	0.003020	0.001894	0.001365	-0.042151	6491.295125	47150.093113	3999.118273	24166.636457
69.038000	0.004176	0.002059	-0.000387	-0.042194	6501.217874	47171.229550	3994.695901	24168.735484
69.535500	0.003349	0.002258	-0.000885	-0.042816	6499.519606	47254.785900	3995.015888	24199.173892
70.035500	0.003165	0.002636	-0.005389	-0.040756	6480.976120	47083.696322	3978.187776	24098.474899
70.536000	0.004427	0.002869	-0.002988	-0.038818	6475.398647	46910.919818	3979.365920	24004.143644
71.036000	0.003732	0.002591	-0.005273	-0.036670	6452.073115	46666.321785	3968.133075	23900.080976
71.536500	0.002930	0.002936	-0.001938	-0.036105	6440.910806	46644.060852	3975.136635	23872.772456
72.036500	0.003783	0.003716	-0.003617	-0.035249	6440.885262	46636.483051	3968.724368	23831.512875
72.537000	0.005425	0.003646	0.004340	-0.034965	6451.970642	46600.873084	3988.251771	23817.830553
73.037500	0.003476	0.003663	-0.002339	-0.034096	6429.002530	46515.497111	3969.039776	23776.043748
73.537000	0.006485	0.003709	0.001682	-0.034467	6456.574768	46557.265838	3980.179753	23793.899065
74.035000	0.007022	0.004921	0.004862	-0.033864	6456.032609	46618.353630	3986.767308	23764.895264
74.535500	0.007592	0.004206	0.005265	-0.034579	6466.565404	46618.363060	3989.637893	23799.256276
75.036000	0.005445	0.004853	0.001677	-0.032066	6428.511657	46431.411107	3974.065164	23678.791030
75.536000	0.006802	0.004830	0.007365	-0.032731	6444.967883	46495.595967	3990.286818	23710.581955
76.039000	0.007280	0.005900	0.002478	-0.032164	6444.246025	46545.972232	3976.343561	23683.432801
76.536500	0.007648	0.005887	0.005985	-0.031927	6445.316015	46520.961695	3984.681550	23672.126394
77.039500	0.006992	0.006034	0.004854	-0.030852	6431.217906	46428.158910	3979.050960	23620.820249
77.534500	0.009580	0.007096	0.005971	-0.030143	6446.522174	46463.377688	3980.090052	23587.000807
78.037500	0.008401	0.006292	0.005847	-0.030122	6436.740536	46380.870539	3979.720696	23586.026345
78.535000	0.009924	0.006750	0.006591	-0.029153	6441.257358	46329.856275	3979.147960	23539.957592
79.035500	0.010094	0.006285	0.005628	-0.028756	6439.401230	46243.924335	3975.688715	23521.110696
79.536000	0.010307	0.006644	0.013916	-0.028594	6439.817645	46263.592494	3996.513056	23513.424642
80.035500	0.007810	0.005369	0.003641	-0.029383	6425.923593	46215.170491	3972.242760	23550.888472
80.536000	0.009810	0.005793	0.012374	-0.028848	6437.837947	46204.159437	3993.185582	23525.467996
81.036500	0.010811	0.005883	0.010276	-0.028033	6439.358541	46132.041182	3985.700502	23486.839504
81.537500	0.014278	0.006865	0.009849	-0.027400	6462.520087	46166.714887	3982.988059	23456.860370
82.037000	0.012348	0.006078	0.015709	-0.027603	6448.385515	46108.643138	3998.588141	23466.459125
82.537000	0.013804	0.005553	0.015072	-0.028112	6464.474784	46107.090833	3998.257929	23490.562735
83.035000	0.016690	0.005720	0.013302	-0.026853	6477.850739	45998.780313	3990.437834	23430.997615
83.535500	0.013983	0.006169	0.013978	-0.026818	6455.335604	46039.828789	3992.089702	23429.360029
84.035500	0.015316	0.006124	0.016613	-0.026553	6464.092462	46009.182792	3998.211349	23416.854461
84.536000	0.016276	0.006059	0.017661	-0.025972	6467.200550	45945.157455	3999.419256	23389.400412
85.038500	0.017187	0.004760	0.011732	-0.025825	6473.485700	45802.363570	3983.773575	23382.485567
85.536000	0.017521	0.005832	0.017995	-0.025473	6473.335301	45873.482702	3998.993336	23365.901725
86.036500	0.016772	0.005023	0.019831	-0.025875	6470.480629	45833.298820	4004.809043	23384.850446
86.539500	0.018347	0.004805	0.017801	-0.024926	6475.630719	45718.323525	3997.074448	23340.169161
87.037000	0.016716	0.005270	0.014501	-0.023782	6452.854114	45651.581414	3985.632663	23286.424045
87.537500	0.018918	0.005784	0.015733	-0.023150	6465.728178	45639.995112	3987.172348	23256.823654
88.038000	0.019332	0.005509	0.022134	-0.022884	6466.935918	45586.892314	4003.016607	23244.329213
88.535500	0.020194	0.004916	0.015223	-0.023120	6475.975837	45551.905551	3985.786829	23255.415549
89.038500	0.018848	0.005367	0.018076	-0.021371	6450.580880	45424.861011	3988.617822	23173.640462
89.535500	0.020203	0.006612	0.018652	-0.020794	6456.943553	45490.138597	3988.614294	23146.734330
90.036000	0.021214	0.006294	0.018502	-0.020234	6460.636044	45404.367553	3986.792027	23120.662700
90.536500	0.018833	0.006231	0.020773	-0.019934	6438.723198	45368.957447	3991.859261	23106.710312
91.039500	0.018769	0.005910	0.017896	-0.018924	6429.983139	45239.257987	3981.891129	23059.792262
91.537000	0.020650	0.006500	0.019986	-0.018668	6443.225049	45271.744994	3986.583981	23047.950152
92.037500	0.019315	0.007226	0.023935	-0.017881	6425.955609	45265.853661	3994.720465	23011.494627
92.535000	0.019366	0.005385	0.016760	-0.017544	6423.630299	45054.400793	3975.487503	22995.901340
93.035500	0.020731	0.005628	0.016506	-0.016511	6426.327408	44977.908245	3972.225390	22948.194155
93.535500	0.019812	0.006423	0.022200	-0.015850	6413.516389	44990.891944	3985.035207	22917.715443
94.052000	0.021784	0.006143	0.020852	-0.015553	6427.093239	44934.998763	3980.830175	22904.012813
94.536000	0.021280	0.007196	0.024818	-0.013057	6402.819163	44795.982921	3984.589060	22789.472247
95.039000	0.023102	0.007272	0.023322	-0.012991	6417.008480	44796.944634	3980.598926	22786.459163
95.536000	0.020369	0.006862	0.022788	-0.012537	6391.295778	44713.806189	3978.080706	22765.682474
96.037000	0.021967	0.007153	0.018725	-0.011275	6393.991355	44620.674270	3964.616646	22708.074733
96.537500	0.019598	0.006763	0.025709	-0.010147	6365.975280	44475.419046	3979.434741	22656.748670
