sample name	sample
index	107
start time	 02-15-2021  11:36:55 AM
880	-0.066994
Peak Time (s)	92.535
Peak Height 	-0.06699
calc peak height	90,93
Baseline Time (s)	9.537
Baseline Value 	-0.005265
subtract baseline	10,4
Abs	0.004749
Peak Time (s)	91.035
Peak Height 	0.004749
calc peak height	90,93
Baseline Time (s)	11.034
Baseline Value 	0.003765
subtract baseline	10,3
PK_550	0.003520
Peak Time (s)	91.535
Peak Height 	0.00352
calc peak height	90,93
Baseline Time (s)	8.537
Baseline Value 	-3.6631E-4
subtract baseline	10,2
PK_880	-0.000228
Peak Time (s)	92.535
Peak Height 	-2.2761E-4
calc peak height	90,93
Baseline Time (s)	9.537
Baseline Value 	-6.1169E-5
subtract baseline	10,1


Time (s)	A880-A510	A880-A775	A880-A975	A880	I510	I775	I975	I880	
0.034500	-0.003782	-0.000269	0.006846	0.001360	4220.135328	15661.948825	3233.458560	8838.055198
0.535000	-0.001243	-0.000884	-0.007499	0.003190	4222.127329	15591.111804	3223.076144	8813.431648
1.035500	0.001458	0.000924	0.005445	0.003703	4228.301310	15628.597627	3231.021263	8806.559185
1.536000	-0.001989	0.000462	0.001287	0.005706	4212.983801	15557.342482	3227.054866	8779.750547
2.037000	0.007329	0.001814	0.010216	0.001882	4250.247557	15707.403454	3235.327184	8831.028722
2.541500	0.001686	0.001712	0.009048	0.001763	4234.447079	15707.907034	3234.637394	8832.631418
3.036500	0.002636	0.001609	0.011684	-0.000641	4244.016212	15775.186198	3237.965762	8865.097922
3.539000	0.004611	0.000907	0.000752	0.000213	4247.229243	15729.647706	3230.241686	8853.542269
4.037000	0.004761	0.000036	0.000702	0.000728	4246.181686	15689.218662	3229.876616	8846.582484
4.534500	0.003785	0.000156	0.003589	0.000423	4244.258165	15701.582013	3231.945091	8850.703018
5.037500	0.003247	0.001098	0.008647	0.001479	4239.702311	15698.293397	3234.560603	8836.459568
5.535000	-0.000189	0.001044	0.009735	0.000813	4231.820823	15716.112343	3235.714339	8845.436863
6.035500	-0.001024	-0.001013	0.001189	-0.000814	4234.067178	15703.559439	3231.189407	8867.436000
6.536000	0.000736	0.000285	-0.001161	0.000758	4234.603062	15695.592993	3228.657365	8846.180004
7.036000	-0.002062	-0.000484	0.003723	-0.000236	4229.485680	15702.140105	3232.462004	8859.616959
7.537000	0.002371	0.000479	0.006533	0.000678	4239.488323	15703.592636	3233.699743	8847.261883
8.036500	0.001408	0.001427	0.000142	0.000929	4236.026075	15723.913772	3229.385851	8843.868490
8.536500	-0.000063	0.000000	-0.000835	-0.000215	4235.097492	15715.650987	3229.493437	8859.330594
9.037000	0.000352	0.001919	0.006778	0.000320	4234.758451	15756.108101	3234.094936	8852.102339
9.537500	0.000000	0.000633	0.004888	0.000000	4234.664724	15727.846246	3233.067498	8856.422038
10.034500	-0.001548	-0.000599	-0.003590	-0.001249	4233.816430	15728.350504	3228.386213	8873.342692
10.534500	-0.001189	-0.000071	-0.008088	-0.001318	4235.030445	15745.804334	3225.556270	8874.276515
11.034500	0.001112	0.001436	0.000000	0.000608	4236.099990	15733.569359	3229.501631	8848.210897
11.535500	0.000039	-0.000235	0.005663	0.000109	4234.464718	15699.347726	3233.502817	8854.947907
12.039000	0.000268	0.000193	0.016406	0.000383	4234.337788	15703.847338	3240.433046	8851.250033
12.536500	0.003992	0.000568	0.021745	0.002025	4240.269717	15666.950478	3242.920161	8829.097967
13.039000	0.004908	0.000903	-0.002101	-0.001319	4252.490651	15774.326713	3229.389156	8874.282649
13.537000	0.003621	0.002242	0.005473	-0.000047	4245.135116	15776.308844	3233.480198	8857.056107
14.042500	0.001416	0.001470	0.001890	0.002404	4231.860695	15682.177418	3229.562413	8824.004805
14.537500	0.000707	0.000433	-0.019246	0.002258	4230.263073	15656.260008	3216.346972	8825.956769
15.035000	0.004135	0.000486	-0.007698	0.005613	4230.471330	15560.726058	3221.429836	8781.001751
15.541000	0.004191	-0.000880	-0.020920	-0.002423	4253.607973	15754.456331	3218.201015	8889.282507
16.035000	-0.000960	0.000767	0.007267	-0.001603	4236.492491	15778.698571	3235.679481	8878.142234
16.538500	0.001778	0.000213	0.022022	-0.001489	4243.985183	15759.117131	3245.492999	8876.594919
17.035500	0.000923	0.000761	0.010516	0.002544	4230.065044	15657.487629	3235.088635	8822.114299
17.536500	0.005423	0.001400	0.006453	-0.000756	4252.355222	15772.418100	3234.587508	8866.661483
18.039000	0.003095	0.001656	0.020601	0.001863	4238.171983	15703.350532	3242.257189	8831.282513
18.537000	-0.000984	0.001311	0.003787	0.001178	4228.534469	15713.270946	3231.583550	8840.515792
19.037000	0.001826	0.001362	0.005949	0.003597	4229.642601	15644.356968	3231.416835	8807.978990
19.535000	0.002994	0.001347	-0.006198	0.001354	4239.333773	15709.159485	3225.059721	8838.137647
20.034500	0.002984	0.001864	0.006282	0.001752	4238.171785	15712.624140	3232.833907	8832.769942
20.535000	0.001569	-0.000167	-0.013128	0.000479	4237.765746	15690.548530	3221.243962	8849.940805
21.035500	-0.001885	-0.000622	0.018867	0.002401	4222.541718	15621.515404	3240.729519	8824.042076
21.536000	0.001657	-0.001417	0.009301	-0.000198	4239.948464	15673.866897	3236.094436	8859.102794
22.036000	-0.001828	0.001601	0.004106	0.001669	4224.763418	15707.380053	3231.471386	8833.891467
22.537000	-0.001081	-0.000379	-0.000186	0.000388	4230.496330	15687.027185	3229.522735	8851.171464
23.036000	0.002331	0.000088	-0.000807	0.002389	4234.499008	15642.448794	3227.837593	8824.202436
23.536500	0.001792	0.003267	0.011562	0.003229	4230.586550	15710.494571	3235.326358	8812.914047
24.034500	0.002752	0.001941	0.013930	0.001791	4237.401260	15713.771945	3237.842477	8832.253065
24.535500	0.000825	0.000633	0.019258	0.001112	4233.847903	15695.416314	3241.858536	8841.397274
25.035500	0.002324	0.002147	-0.001013	0.002309	4234.707165	15704.645445	3227.756826	8825.277639
25.536000	0.002592	0.001871	-0.002702	0.003083	4233.269281	15674.091386	3226.183470	8814.874283
26.035500	-0.004004	0.000833	-0.001041	0.000773	4221.159664	15711.109389	3228.724533	8845.972780
26.536000	0.002814	0.000515	0.001851	0.001302	4238.969830	15686.422273	3230.248140	8838.834466
27.036000	-0.000131	-0.001819	0.000012	-0.001197	4237.696772	15691.226006	3230.675197	8872.628398
27.536500	0.005444	-0.000102	0.026264	-0.002379	4257.104709	15775.967075	3249.012131	8888.691874
28.037000	0.003966	0.000991	0.009539	-0.000687	4247.960291	15758.409186	3236.574236	8865.716380
28.537500	0.003382	0.001131	-0.005554	-0.000947	4247.031906	15770.133037	3226.934421	8869.243423
29.038000	0.004323	0.000023	0.016787	0.000629	4245.207796	15691.702505	3240.522678	8847.917764
29.535000	0.004892	0.001685	0.003855	0.000209	4248.048386	15752.507507	3232.257642	8853.597887
30.035500	0.006585	0.002163	0.004890	-0.000182	4254.051316	15777.971747	3233.188080	8858.889521
30.535500	0.002191	0.000979	0.006548	-0.000662	4242.801357	15757.345372	3234.588403	8865.387839
31.036000	0.001921	0.001578	0.006102	0.002972	4231.679860	15668.786691	3231.921646	8816.363094
31.539000	0.003195	0.000894	0.011200	0.002295	4237.224526	15668.557844	3235.702771	8825.458391
32.036000	0.002014	0.001177	0.014871	0.000222	4239.769308	15737.278260	3239.514020	8853.421373
32.536500	0.001784	0.000088	0.009869	-0.001796	4244.882984	15764.441071	3237.527741	8880.758077
33.037000	0.003923	0.000678	0.015440	0.001817	4240.666912	15676.201820	3238.829256	8831.903888
33.535000	0.002006	0.003246	0.015759	0.002038	4234.574454	15744.664659	3238.894927	8828.929725
34.035000	0.000286	0.000068	0.010258	0.000193	4234.930393	15705.743774	3236.468750	8853.818469
34.535500	-0.001430	0.000131	0.006239	0.000733	4228.531702	15691.818870	3233.471488	8846.514563
35.035500	0.001966	0.001229	0.010466	0.002329	4233.631791	15677.331186	3235.196979	8825.006129
35.538500	-0.002258	0.001806	0.013730	0.002301	4221.773861	15694.933553	3237.371096	8825.380273
36.036500	-0.001524	-0.001142	-0.012802	0.000439	4229.096984	15663.363526	3221.473112	8850.489355
36.536000	0.005407	0.000898	-0.002201	0.001953	4244.523093	15678.651404	3227.224439	8830.073965
37.036500	0.000018	0.000093	0.016882	0.002129	4228.679087	15650.129611	3239.583443	8827.700242
37.536500	0.000008	0.000602	0.006454	0.001637	4230.043057	15679.213176	3233.021141	8834.323123
38.034500	0.001560	0.000461	0.005404	0.001436	4235.017945	15680.991216	3232.467564	8837.035704
38.535000	0.002506	-0.000513	0.001278	0.001157	4238.505193	15660.769379	3229.971963	8840.795421
39.035000	0.000687	0.001405	0.003606	0.004539	4223.763885	15618.298530	3229.292088	8795.356436
39.535500	0.001968	0.002730	0.007767	0.003041	4231.618693	15700.310190	3232.961788	8815.438536
40.036000	0.001185	0.000706	0.000065	0.001713	4233.165177	15680.024211	3228.831447	8833.295029
40.536000	0.005561	0.000410	0.003472	0.002142	4244.421559	15658.964935	3230.753417	8827.523729
41.036500	0.001431	0.001858	0.004758	0.004242	4226.701119	15640.038139	3230.227329	8799.332045
41.536500	0.006161	0.000282	0.013065	0.002048	4246.411880	15657.972917	3237.098137	8828.786451
42.038500	-0.002399	0.000960	0.003231	0.002459	4220.930360	15665.709289	3230.392478	8823.252490
42.537000	0.001418	0.002098	0.007687	0.002950	4230.317817	15684.546033	3232.969156	8816.658907
43.034000	0.000288	0.002100	0.008851	0.004664	4222.288104	15634.815146	3232.610318	8793.682030
43.535000	0.004855	0.000877	0.003122	0.002468	4241.467181	15663.067424	3230.315842	8823.134153
44.038000	0.004975	0.002224	-0.000334	-0.000926	4251.553965	15801.584813	3230.276543	8868.965420
44.537500	0.002070	0.000809	0.002663	-0.001160	4243.880685	15766.943628	3232.372974	8872.134595
45.039000	0.003214	-0.000266	0.008024	0.003580	4233.625516	15597.700792	3232.777412	8808.199573
45.536000	0.005471	0.000069	0.010051	-0.000631	4252.133280	15729.815615	3236.876716	8864.964845
46.038000	0.005645	0.001576	-0.009071	0.000638	4248.981218	15736.768948	3223.694256	8847.806194
46.536500	0.006513	0.002369	-0.002653	0.000715	4251.255489	15757.706861	3227.726926	8846.757012
47.036500	0.003332	0.002423	-0.003363	0.006025	4227.031711	15604.739655	3223.896587	8775.495072
47.537500	0.004036	0.000924	0.008679	0.001981	4240.521256	15678.592005	3234.252339	8829.696452
48.034500	0.003684	0.000066	0.003020	0.002697	4237.475225	15632.873994	3230.102392	8820.064153
48.535000	0.005155	0.002261	0.015633	0.000821	4247.045839	15751.435088	3239.622743	8845.329386
49.038000	0.003131	0.001789	0.010910	0.005301	4228.512235	15607.348689	3233.538725	8785.159434
49.538500	-0.001588	0.000697	0.015113	-0.000326	4231.082067	15739.244277	3240.041829	8860.834505
50.037500	0.002737	0.002034	0.011191	-0.001415	4246.524926	15810.386244	3238.152773	8875.597054
50.536000	0.006029	0.002306	0.004856	-0.003254	4261.337135	15872.584194	3235.179696	8900.599500
51.036500	0.004648	0.001978	0.001843	-0.001236	4251.502828	15803.457538	3231.888441	8873.158175
51.537000	-0.054923	-0.036440	0.022746	0.275910	3576.479368	9213.154773	3106.021684	6094.445323
52.034000	-0.042090	-0.026261	0.010507	0.072403	3948.580003	13135.234176	3192.646021	7954.468519
52.534500	0.004289	-0.010316	0.015483	-0.162744	4813.692601	21035.123601	3372.176360	11526.625945
53.034500	0.000354	-0.010255	0.009723	-0.111157	4596.049506	19022.231510	3319.888295	10569.701165
53.535000	-0.007844	-0.012017	0.009219	-0.067815	4417.465966	17445.948170	3284.317986	9849.087568
54.035000	-0.014120	-0.009546	-0.008749	-0.092375	4478.406302	18370.889166	3289.438652	10248.575301
54.535500	-0.006965	-0.004210	-0.005661	-0.110529	4567.113050	19222.783463	3306.479612	10558.731631
55.036000	-0.008831	-0.006340	0.001510	-0.110949	4561.903324	19159.173778	3312.774515	10566.062009
55.536500	0.009562	-0.004301	-0.005291	-0.104325	4604.805276	18989.981113	3301.716734	10451.290068
56.036500	0.000816	-0.004922	-0.002344	-0.074945	4469.943572	17925.524577	3280.917182	9962.753297
56.537000	0.005295	-0.003333	-0.002663	-0.088990	4533.986610	18471.029900	3291.559560	10192.162452
57.037000	-0.002416	-0.004563	-0.011449	-0.083008	4486.383247	18216.928550	3280.122887	10093.544317
57.534500	0.000647	-0.002831	0.008394	-0.106785	4581.132402	19134.935383	3315.058026	10493.716656
58.037500	0.000417	-0.004682	0.008374	-0.081525	4491.013510	18161.068914	3294.384994	10069.311515
58.535000	0.002530	-0.005485	-0.001193	-0.077921	4485.899637	18008.414620	3284.081916	10010.739149
59.038000	0.002116	-0.003719	0.017313	-0.068152	4451.470049	17735.178245	3290.881940	9854.423271
59.535500	0.001740	-0.007473	0.008094	-0.061598	4428.497144	17390.546741	3278.704523	9751.493860
60.038500	-0.004662	-0.005799	-0.003063	-0.065631	4420.725145	17580.344686	3273.347874	9814.644498
60.536500	-0.001697	-0.004929	-0.001566	-0.068084	4438.560905	17692.029077	3276.307351	9853.344609
61.036500	-0.002580	-0.006156	-0.010684	-0.060428	4410.551747	17395.418681	3263.924523	9733.278956
61.536500	0.003568	-0.005136	0.004056	-0.067470	4454.047144	17664.335237	3280.098081	9843.637980
62.039500	0.000355	-0.006415	-0.007865	-0.067568	4443.656497	17624.623349	3271.218169	9845.183524
62.538000	0.000312	-0.004915	-0.011979	-0.093903	4533.740457	18589.800248	3288.109250	10274.187061
63.035000	-0.003202	-0.002463	-0.005208	-0.095461	4526.853166	18734.041335	3294.666818	10300.401575
63.535500	-0.004098	-0.002425	-0.005441	-0.095032	4522.200619	18719.921019	3294.139990	10293.166553
64.038000	-0.001726	-0.002077	0.001968	-0.095778	4533.166924	18759.468971	3300.673666	10305.745672
64.536000	-0.002339	-0.001565	-0.017909	-0.095771	4530.978673	18777.757805	3284.956685	10305.620384
65.036500	-0.001772	-0.000009	-0.004234	-0.094426	4528.239271	18785.391600	3294.618137	10282.975898
65.536500	0.000138	-0.000190	-0.001294	-0.094085	4533.773018	18766.474069	3296.689315	10277.250683
66.036500	0.000812	0.000384	-0.015541	-0.093342	4533.526272	18760.347829	3284.909726	10264.779163
66.537000	-0.001602	-0.001422	-0.007642	-0.094669	4529.693411	18743.015966	3292.111485	10287.055073
67.037500	-0.005784	-0.002341	0.000619	-0.087981	4491.885273	18470.435517	3293.354853	10175.436840
67.535500	0.000492	-0.000328	-0.009422	-0.094052	4534.906793	18760.288301	3290.225803	10276.694884
68.038000	-0.000140	-0.000660	-0.010468	-0.094386	4533.849057	18760.330178	3289.666820	10282.295805
68.538500	0.001151	0.000112	0.003929	-0.095078	4540.869158	18813.414080	3301.694426	10293.939176
69.035500	-0.001624	0.000095	-0.005108	-0.088336	4507.476654	18569.895185	3289.127668	10181.319047
69.536000	-0.004089	-0.000370	-0.013460	-0.094790	4521.385182	18785.486578	3287.646130	10289.096734
70.036500	-0.002585	0.000300	-0.007705	-0.094181	4524.521483	18787.704349	3291.677148	10278.851271
70.536500	-0.004479	0.001139	0.000663	-0.094417	4518.713964	18826.718966	3298.524200	10282.822786
71.036500	-0.007649	0.001809	0.003857	-0.087647	4484.352905	18606.596578	3295.661946	10169.911601
71.534500	-0.006419	0.001821	-0.010867	-0.093948	4510.311760	18834.460776	3289.012490	10274.940971
72.034500	-0.002472	0.002302	-0.013182	-0.093971	4524.183825	18852.831092	3287.225236	10275.337555
72.535000	-0.003150	0.003575	-0.011270	-0.093142	4518.904038	18868.985286	3288.069279	10261.431971
73.038000	-0.007082	0.001917	-0.012370	-0.088497	4489.201060	18640.949626	3283.618883	10183.988284
73.535500	-0.002089	0.003327	-0.000366	-0.093231	4522.931272	18863.215225	3296.748668	10262.923822
74.036000	-0.002776	0.002509	-0.003298	-0.093698	4522.161043	18850.401485	3294.783424	10270.753838
74.536000	-0.001728	0.004670	-0.008956	-0.092372	4521.185572	18880.856556	3289.274932	10248.537700
75.036500	-0.006472	0.002992	-0.007008	-0.088964	4492.899876	18696.423017	3288.133813	10191.738647
75.536500	-0.002490	0.002922	-0.011163	-0.093490	4522.429776	18857.869642	3288.423676	10267.253687
76.037000	-0.003564	0.002127	-0.007334	-0.094205	4521.173516	18854.969230	3291.989027	10279.267529
76.537000	-0.006396	0.002219	0.001398	-0.093117	4507.504668	18818.737726	3298.069877	10260.998841
77.037500	-0.001980	0.003283	0.009030	-0.092336	4520.176800	18829.034095	3303.613227	10247.927186
77.535500	-0.007520	0.003528	0.007901	-0.092369	4501.024651	18839.107550	3302.720659	10248.479494
78.041000	-0.003958	0.003316	-0.007620	-0.091424	4510.094709	18797.087198	3289.577946	10232.685841
78.536000	-0.006632	0.002773	-0.012282	-0.091063	4499.579651	18764.330237	3285.667063	10226.663820
79.036500	-0.006706	0.002856	-0.012098	-0.090107	4496.027826	18732.767370	3285.070434	10210.735165
79.536500	-0.001743	0.003810	-0.013056	-0.088779	4508.600103	18719.258868	3283.308054	10188.665578
80.036000	-0.007053	0.001815	-0.005634	-0.090043	4494.614052	18692.921594	3290.052546	10209.673259
80.537000	-0.008126	0.001878	-0.009421	-0.088959	4487.207627	18656.128611	3286.253622	10191.648676
81.037000	-0.011586	0.001136	-0.011953	-0.081943	4451.769019	18379.717348	3278.930678	10076.129950
81.535000	-0.008342	0.000807	-0.008947	-0.087273	4480.711206	18557.368209	3285.315816	10163.728228
82.035000	-0.006345	0.003008	0.000846	-0.084802	4479.098316	18547.725971	3291.025744	10122.986273
82.538000	-0.010970	0.000443	-0.008080	-0.085485	4465.732638	18480.676276	3284.604165	10134.218411
83.035500	-0.008681	0.001900	-0.022191	-0.076156	4442.165844	18203.333659	3266.995270	9982.231345
83.536000	-0.004049	0.000828	-0.013609	-0.082891	4480.405417	18402.323199	3278.393626	10091.629806
84.036000	-0.006083	0.000012	-0.003328	-0.082069	4470.705451	18344.534149	3285.636629	10078.188460
84.536500	-0.006553	0.002028	-0.006563	-0.079865	4461.679119	18337.910718	3281.452650	10042.274565
85.036000	-0.009529	0.001316	-0.007988	-0.072374	4426.876102	18051.717836	3274.707021	9921.549395
85.537000	-0.005430	0.002052	-0.007179	-0.078328	4460.288123	18284.726218	3279.811455	10017.334986
86.037000	-0.007584	0.002447	0.007497	-0.077199	4449.291729	18258.980195	3290.277496	9999.071383
86.534500	-0.006839	0.002603	0.001097	-0.076263	4448.652235	18231.664563	3284.569307	9983.959358
87.035000	-0.006302	0.001605	0.008750	-0.071011	4433.014954	18014.665061	3286.427103	9899.811839
87.535500	-0.006611	0.001138	-0.011336	-0.075646	4447.356153	18159.026542	3274.649924	9974.019996
88.036000	-0.006821	0.001544	-0.019334	-0.074803	4443.853686	18143.834593	3268.097692	9960.471623
88.535500	-0.005212	0.002030	-0.005892	-0.072311	4440.920356	18074.255809	3276.232816	9920.547529
89.036000	-0.007279	0.001484	-0.004978	-0.069667	4425.375271	17964.227638	3274.933624	9878.434260
89.536500	-0.006556	0.001211	0.000101	-0.073145	4439.229253	18074.750710	3281.410201	9933.882361
90.036500	-0.003059	0.001989	-0.007983	-0.071760	4446.245006	18053.742576	3274.251338	9911.747411
90.537000	-0.004217	0.001831	-0.004796	-0.070463	4438.090882	18003.551194	3275.667360	9891.079521
91.035000	-0.002251	0.001258	0.004749	-0.068009	4436.477894	17899.648421	3281.036869	9852.158439
91.535000	-0.002182	0.003520	0.003226	-0.068311	4437.702334	17987.588951	3280.105896	9856.928506
92.038000	-0.004387	0.000407	-0.012003	-0.070313	4437.033047	17949.433691	3270.188252	9888.695602
92.535500	-0.000228	0.002307	-0.004638	-0.066994	4439.817559	17900.811442	3273.190695	9836.127301
93.035500	-0.008103	0.001536	0.000604	-0.065995	4410.698491	17840.375363	3276.368426	9820.375219
93.536000	-0.005369	0.001070	0.003299	-0.067803	4425.524880	17886.153139	3279.775013	9848.898392
94.036500	-0.002484	0.002472	0.006536	-0.065478	4427.364159	17854.663295	3280.469692	9812.241355
94.537000	-0.004680	0.001716	-0.005979	-0.065465	4420.124734	17828.437661	3271.058133	9812.038584
95.037500	-0.007049	0.000984	-0.008399	-0.063549	4406.183744	17738.585752	3267.862964	9781.974680
95.534000	-0.002327	0.001899	0.006077	-0.063796	4422.361356	17777.910681	3278.841494	9785.833303
96.034500	-0.003260	0.002901	0.003211	-0.062962	4416.585853	17783.636943	3276.046942	9772.779452
96.535000	-0.004183	0.001274	0.002261	-0.063293	4414.658479	17739.736011	3275.582841	9777.969055
