sample name	sample
index	1272
start time	 04-29-2021  02:16:02 PM
880	0.030613
Peak Time (s)	92.535
Peak Height 	0.03061
calc peak height	90,93
Baseline Time (s)	11.036
Baseline Value 	-0.005227
subtract baseline	10,4
Abs	0.032109
Peak Time (s)	90.037
Peak Height 	0.03211
calc peak height	90,93
Baseline Time (s)	10.035
Baseline Value 	0.001773
subtract baseline	10,3
PK_550	0.019735
Peak Time (s)	91.035
Peak Height 	0.01974
calc peak height	90,93
Baseline Time (s)	8.537
Baseline Value 	7.0625E-4
subtract baseline	10,2
PK_880	0.027139
Peak Time (s)	92.035
Peak Height 	0.02714
calc peak height	90,93
Baseline Time (s)	10.035
Baseline Value 	0.00398
subtract baseline	10,1


Time (s)	A880-A510	A880-A775	A880-A975	A880	I510	I775	I975	I880	
0.037500	-0.001709	-0.000497	0.003946	0.001716	6189.380777	43744.119645	3925.455062	22665.451720
0.535500	-0.004155	0.000139	-0.001490	0.003771	6156.149492	43611.167000	3908.651737	22572.432848
1.039000	-0.003697	-0.000383	-0.000847	0.006890	6136.670259	43272.075849	3903.161801	22432.111745
1.541500	-0.001260	-0.000305	0.001199	0.001073	6197.491125	43822.448168	3920.705112	22694.620936
2.036500	-0.000040	0.001374	-0.002001	0.001901	6200.411757	43902.646395	3911.677557	22657.061507
2.537000	-0.000208	-0.000420	0.002011	0.000538	6209.329390	43862.096903	3923.745046	22718.978270
3.037000	-0.000250	-0.000379	0.006177	0.000049	6212.664065	43911.943514	3934.313268	22741.216067
3.738000	-0.001042	-0.000713	-0.000511	0.000369	6204.361815	43850.324327	3918.442568	22726.646727
4.038000	-0.000943	-0.000156	-0.004230	0.000591	6203.443015	43881.894427	3909.630340	22716.538672
4.537500	-0.001808	0.000422	0.000913	0.000628	6196.727814	43932.853008	3921.064019	22714.869468
5.035000	-0.001261	-0.000149	-0.000312	0.000165	6204.249114	43922.732293	3919.350474	22735.949547
5.538000	-0.001516	0.000113	0.000080	-0.000026	6203.772421	43965.414540	3920.661234	22744.635000
6.036000	0.000921	-0.000640	0.003709	-0.000272	6223.831265	43917.600836	3929.422819	22755.835160
6.536000	-0.002594	-0.001776	-0.002591	-0.001831	6209.196876	43957.477428	3918.713048	22827.021961
7.036500	-0.002797	-0.000154	-0.003340	-0.000013	6194.140935	43939.010212	3912.961721	22744.052218
7.536000	-0.003383	0.000415	0.001936	0.000432	6186.485145	43950.633190	3923.813419	22723.773962
8.036500	-0.001186	-0.000609	-0.003608	-0.000420	6209.177261	43934.449150	3913.271724	22762.591692
8.537000	0.000607	0.000000	-0.002356	0.000652	6214.560757	43890.809383	3913.672857	22713.762500
9.037000	-0.000947	-0.000010	-0.003574	0.000130	6206.853779	43939.044380	3912.119486	22737.525022
9.535000	-0.001858	-0.000835	-0.000504	-0.000493	6204.707723	43920.080816	3920.397519	22765.916444
10.035000	0.000000	-0.000369	0.000000	-0.000716	6220.260812	43985.084878	3922.035564	22776.103037
10.536000	0.001388	0.000964	0.001321	0.000602	6220.786617	43986.416375	3922.041416	22716.061412
11.036000	0.000860	0.001415	0.001232	0.000000	6221.339893	44085.915723	3923.199954	22743.448258
11.536500	-0.001035	0.000406	0.004999	-0.000724	6212.573055	44059.020632	3933.390420	22776.458890
12.036500	-0.001502	-0.000175	-0.001346	-0.001163	6212.363118	44045.484298	3920.009383	22796.475954
12.536500	0.000063	0.000001	0.002408	-0.000661	6220.320695	44014.795034	3927.356219	22773.594434
13.037000	-0.001474	-0.000139	0.001963	-0.000926	6210.796623	44026.567555	3926.945775	22785.660586
13.540000	-0.000167	0.000292	-0.002808	-0.000441	6216.948865	44021.468763	3915.109535	22763.566544
14.035000	-0.003426	0.000287	0.001102	0.001595	6177.556889	43829.056016	3919.312001	22670.919264
14.535500	-0.002701	-0.000141	-0.001465	0.000449	6191.425051	43896.712545	3916.123529	22723.029560
15.035500	0.000629	0.000158	0.002339	-0.001096	6227.828310	44070.724909	3928.185682	22793.447045
15.536000	-0.002055	0.001082	0.001938	-0.000487	6203.195676	44100.579701	3925.895941	22765.663464
16.036000	-0.001175	0.000597	0.001499	0.000145	6205.038167	43994.901708	3923.472845	22736.834312
16.539000	0.000595	0.000462	-0.002296	-0.001079	6227.444011	44097.857197	3917.685007	22792.636884
17.039500	-0.000098	-0.000101	-0.000241	-0.004223	6245.897425	44342.890256	3929.427329	22936.740838
17.537000	-0.000477	0.000100	0.002148	0.000003	6211.310767	43961.459745	3925.262956	22743.325979
18.040000	-0.003542	0.000165	-0.000035	0.000335	6186.031872	43936.280438	3919.591123	22728.215849
18.535000	-0.002965	0.000381	0.005832	0.000603	6188.321657	43931.353528	3932.263659	22716.017763
19.035000	-0.001598	0.000841	-0.000471	0.001090	6194.857803	43928.781336	3916.914003	22693.875175
19.535000	-0.001736	0.000693	0.003442	0.000334	6199.450318	43986.159787	3927.443149	22728.235370
20.035500	-0.000233	0.000634	-0.002045	0.001178	6204.355836	43900.938155	3913.193057	22689.851015
20.535500	-0.002446	-0.000504	0.000615	0.000130	6195.689495	43892.516030	3921.513384	22737.533087
21.036000	-0.001754	0.000198	0.002204	0.000674	6196.787894	43907.396807	3923.872101	22712.764758
21.536500	-0.001462	0.000354	-0.001083	0.000286	6201.847666	43958.697359	3917.344278	22730.408368
22.036500	0.000058	0.001006	-0.003962	0.000737	6209.820707	43977.617874	3909.901733	22709.905381
22.540000	-0.002821	0.000618	0.001109	0.000845	6187.589572	43930.850790	3921.016165	22704.981874
23.037000	-0.000267	0.000317	-0.002442	0.000618	6208.281190	43923.850215	3913.556698	22715.302927
23.538000	-0.002267	0.000942	-0.001452	0.000638	6193.239033	43980.905557	3915.729162	22714.402526
24.037500	0.000067	0.000884	-0.001656	0.000715	6210.053273	43968.227756	3915.097743	22710.890400
24.535500	-0.001969	0.000702	-0.001608	0.000431	6196.997139	43977.839598	3915.842376	22723.827387
25.036000	-0.001492	0.000384	0.000527	0.000688	6198.629298	43923.582825	3920.059268	22712.120066
25.536000	-0.002749	-0.000797	0.004362	-0.000646	6199.207624	43937.979303	3931.759588	22772.887686
26.036500	-0.002028	0.000057	0.000402	-0.000030	6199.983485	43960.482485	3921.393852	22744.798339
26.536500	-0.001500	-0.000016	-0.004650	0.000246	6201.862340	43927.580137	3909.462196	22732.234984
27.039500	0.000696	0.000773	0.002610	-0.001838	6233.908118	44199.289016	3930.486320	22827.365777
27.536500	-0.000194	0.000552	0.000401	-0.001505	6224.722939	44146.793419	3924.721549	22812.134964
28.037500	0.001820	0.000577	0.000876	-0.001015	6236.173990	44102.716631	3924.686605	22789.735156
28.534500	-0.000017	0.001030	0.003281	-0.000788	6220.670754	44124.092975	3929.622894	22779.364589
29.035500	-0.000091	-0.000067	0.000102	-0.001295	6223.914419	44068.247841	3923.570894	22802.507721
29.535500	-0.004539	0.000381	-0.000406	-0.000809	6187.118117	44064.651202	3921.331194	22780.347323
30.036000	-0.000899	-0.000083	0.002144	-0.001117	6216.526423	44049.886222	3927.788991	22794.386642
30.536500	-0.003209	0.000677	-0.004169	0.001584	6179.242854	43866.819538	3907.557355	22671.435836
31.036500	-0.003580	-0.000547	-0.006822	-0.000022	6188.390187	43902.829190	3905.233582	22744.446817
31.539500	0.000746	0.000620	-0.000308	-0.000648	6225.343657	44072.001475	3921.186787	22772.982171
32.037000	-0.000659	0.000237	0.001928	-0.001083	6218.071622	44076.979141	3927.223691	22792.830543
32.537000	-0.000174	-0.000699	-0.000667	-0.001744	6226.661479	44050.918780	3922.848863	22823.041961
33.035000	-0.000282	0.000091	-0.005218	-0.002609	6232.350665	44207.733297	3914.566475	22862.645603
33.535000	-0.003134	-0.000822	-0.000884	-0.000606	6196.044346	43931.982958	3919.796827	22771.092116
34.035500	-0.002818	-0.000347	0.002333	0.000555	6189.760036	43867.251927	3924.431307	22718.170934
34.536000	0.000106	-0.000120	0.000610	0.000720	6210.310740	43873.132145	3920.173774	22710.691477
35.036000	-0.002424	-0.000110	-0.007324	0.000119	6195.931003	43930.650472	3903.810279	22738.014495
35.536500	-0.004169	-0.000137	-0.003313	0.000362	6181.183470	43905.246383	3912.184175	22726.966118
36.039000	-0.000460	-0.000076	-0.002563	0.000315	6209.110807	43915.424245	3913.965645	22729.116524
36.536500	-0.000217	-0.000163	-0.005365	0.000568	6209.034570	43883.373124	3907.157806	22717.600006
37.037000	-0.000920	-0.000333	-0.001528	0.000024	6207.845160	43918.582801	3916.935641	22742.358199
37.537500	-0.002754	-0.000170	-0.004857	0.000468	6190.888821	43892.209784	3908.510412	22722.161703
38.035000	-0.000758	0.000742	-0.000884	0.000960	6202.069707	43931.692349	3916.279503	22699.754702
38.535500	-0.003966	0.000597	-0.002335	0.000739	6179.893069	43938.857776	3913.526040	22709.813906
39.035500	-0.002086	0.000244	-0.004616	0.000034	6199.076889	43972.059485	3910.010214	22741.900820
39.536000	-0.000955	0.000423	0.002268	0.000642	6202.975265	43931.562985	3924.088478	22714.214251
40.036000	-0.001191	-0.000767	0.001400	0.000042	6205.684479	43876.059381	3923.482605	22741.533747
40.539000	-0.002417	-0.000820	-0.003595	0.000003	6196.843084	43874.667312	3912.354953	22743.291297
41.036500	-0.003604	0.001543	0.001644	0.001217	6179.035289	43983.045379	3921.382353	22688.078183
41.537000	-0.002944	-0.000207	-0.001372	0.000398	6189.997542	43895.221030	3916.446821	22725.329556
42.034500	0.000043	-0.000021	0.002522	0.000473	6211.681133	43905.648742	3925.044772	22721.900061
42.534500	-0.001660	-0.000263	-0.003628	0.000089	6201.838574	43919.087809	3912.090033	22739.382112
43.035000	-0.001454	0.000068	-0.000569	0.000385	6201.173981	43922.368112	3918.276300	22725.921663
43.535500	0.000252	0.000023	0.001789	-0.003758	6245.032629	44310.376002	3932.987188	22915.352428
44.035500	-0.001697	-0.000528	0.005382	-0.001627	6214.379675	44056.120312	3936.328553	22817.710802
44.538500	-0.000269	0.000434	0.003271	0.001292	6203.243751	43871.507969	3924.886680	22684.700310
45.039000	-0.000911	0.000503	0.002930	-0.000715	6213.429698	44067.292115	3928.660369	22776.034963
45.536500	-0.000692	-0.000315	-0.003746	-0.001088	6217.864749	44025.267717	3914.459112	22793.088634
46.037000	0.000961	0.000885	0.002762	-0.000337	6224.624073	44067.669974	3927.422338	22758.806076
46.538500	0.000702	0.000595	0.007123	0.001688	6207.536752	43849.351041	3932.732631	22666.734232
47.040000	-0.001429	-0.000179	0.003403	0.000536	6200.233887	43884.899704	3926.897765	22719.062046
47.535000	-0.003298	0.000524	0.003290	0.001738	6177.443991	43837.906135	3923.921986	22664.440796
48.035000	-0.000314	-0.000427	-0.002621	-0.001293	6222.230777	44034.064917	3917.437817	22802.446628
48.535500	-0.002781	-0.000013	0.001308	0.001326	6184.324810	43826.226119	3920.381733	22683.139758
49.036000	-0.001764	-0.000858	-0.003546	-0.002460	6220.110166	44103.661279	3917.980809	22855.833095
49.539000	-0.000365	0.000638	0.005271	-0.001787	6225.556361	44181.678429	3936.438841	22825.024094
50.036000	-0.002817	-0.000091	0.003985	0.002285	6176.954353	43728.811149	3924.256243	22639.632553
50.536500	0.007404	-0.008075	0.007062	0.042615	5961.912663	39440.085478	3843.581519	20894.603019
51.037000	0.018367	-0.020239	-0.000369	0.344663	4498.841786	20671.955007	3384.535451	11907.388006
51.537500	-0.006331	-0.020151	-0.011330	-0.069145	6720.422671	48843.675995	4059.618787	26157.416898
52.034500	-0.023252	-0.047915	-0.018663	-0.196517	7807.554173	60663.459425	4415.176188	34062.959907
52.535000	-0.009435	-0.048863	-0.006667	-0.214862	8179.674077	63020.539370	4521.717493	35404.860683
53.035000	-0.001853	-0.041418	-0.004120	-0.207799	8185.917725	63073.245432	4505.382693	34881.504597
53.535500	-0.002540	-0.023638	-0.003223	-0.151964	7548.949692	58032.740489	4319.710257	31030.593215
54.038000	-0.005837	-0.015092	-0.003470	-0.093174	6938.497349	52019.820675	4144.709583	27476.987620
54.536000	-0.010693	-0.014660	-0.007610	-0.091035	6875.041283	51827.528485	4127.458391	27356.547975
55.036500	-0.004992	-0.009944	-0.012913	-0.110522	7108.429468	54626.217298	4166.784883	28476.046428
55.537000	-0.000839	-0.006749	-0.005734	-0.119080	7231.446829	56042.587093	4211.947755	28983.773223
56.037000	0.001109	-0.005656	-0.010780	-0.120110	7260.789669	56302.499336	4200.266595	29045.555677
56.537500	-0.004465	-0.004261	-0.011877	-0.099221	7006.929586	53962.535516	4138.193862	27820.673415
57.037000	0.001361	-0.003865	0.000641	-0.086079	6939.436405	52488.436804	4136.477391	27079.718635
57.534500	0.001442	-0.001316	0.001812	-0.061279	6719.619487	50016.510708	4073.272250	25741.125283
58.035500	0.005967	0.000667	0.002169	-0.054186	6697.490726	49466.463129	4055.873880	25372.108564
58.535500	0.004452	-0.001451	0.007509	-0.038814	6555.191222	47631.993291	4030.455700	24592.751052
59.036000	0.005902	0.002833	0.007186	-0.013992	6367.168741	45570.242139	3969.275312	23391.153485
59.536000	0.008740	0.001907	0.010135	0.005899	6236.218853	43577.588017	3930.003215	22476.592572
60.036500	0.005606	-0.000139	0.005825	-0.005731	6300.821343	44483.078439	3946.784833	23006.231389
60.536500	0.004640	0.001681	0.005043	0.002836	6228.421359	43843.520225	3925.404350	22614.713372
61.040000	0.007555	0.002065	0.006396	0.011260	6187.303893	43094.157634	3909.532824	22237.160340
61.538500	0.006853	-0.000261	0.009713	-0.001223	6275.869976	44043.139689	3945.350616	22799.233201
62.035000	0.008314	0.003630	0.007061	-0.003257	6302.608545	44606.922951	3943.924611	22892.333407
62.538500	0.007642	0.006480	0.010989	-0.005891	6317.715278	45135.773027	3959.166457	23013.594525
63.038000	0.009008	0.006594	0.011568	-0.011615	6372.882483	45706.087927	3974.022715	23279.627867
63.536000	0.009478	0.007146	0.007738	-0.015475	6407.013051	46142.224136	3974.094995	23460.997568
64.036000	0.007508	0.006610	0.005345	-0.020229	6429.140676	46563.392829	3979.717770	23686.659372
64.536500	0.006167	0.008005	0.008640	-0.015757	6383.095753	46255.737121	3976.910290	23474.329635
65.036500	0.008532	0.009046	0.009448	-0.021688	6448.999711	46955.951417	3993.081301	23756.396582
65.537000	0.009306	0.008753	0.008640	-0.020769	6447.831844	46833.369243	3988.911661	23712.416514
66.037500	0.008949	0.008992	0.011828	-0.018892	6429.971084	46668.313968	3992.076998	23622.956006
66.537500	0.005843	0.009640	0.007820	-0.010942	6342.903954	45940.109365	3963.579517	23248.165519
67.034000	0.009134	0.009201	0.011441	-0.015627	6405.495866	46362.082868	3983.290918	23468.198992
67.538000	0.010763	0.009463	0.011982	-0.012274	6391.869855	46054.580769	3976.576171	23310.501122
68.035500	0.011106	0.010401	0.014300	-0.010364	6379.531675	45958.293004	3977.547785	23221.200432
68.535000	0.005059	0.009416	0.009799	-0.003635	6280.590014	45201.884793	3951.134030	22909.733131
69.036500	0.007727	0.010599	0.007984	-0.007016	6327.071065	45647.729396	3954.776532	23065.613077
69.536500	0.008925	0.010853	0.012211	-0.003846	6311.846443	45362.272347	3957.242233	22919.400319
70.036500	0.010086	0.011262	0.009838	-0.002189	6308.020253	45240.704017	3947.871246	22843.385885
70.537500	0.004202	0.012234	0.010146	0.005719	6203.570686	44571.368722	3930.438689	22484.687331
71.040500	0.009458	0.012541	0.013534	0.002753	6265.439209	44885.856125	3944.993293	22618.445387
71.535000	0.007784	0.012613	0.011427	0.004608	6238.738783	44714.229276	3935.891513	22534.659434
72.038000	0.008673	0.012960	0.012498	0.006710	6229.614623	44546.040055	3933.536927	22440.175671
72.535500	0.009028	0.013390	0.016077	0.014709	6172.681708	43828.084049	3923.506497	22084.720712
73.035500	0.013026	0.013221	0.015719	0.009771	6239.340281	44278.983058	3933.903425	22303.379021
73.536000	0.010455	0.014264	0.011523	0.011267	6208.825275	44235.910263	3920.998056	22236.845126
74.037000	0.010683	0.014431	0.012753	0.010730	6214.546478	44302.802907	3924.986537	22260.711879
74.536500	0.010533	0.015221	0.013772	0.017166	6165.656518	43769.227376	3912.811978	21976.817707
75.037500	0.014290	0.016058	0.013918	0.011282	6237.477632	44405.192613	3926.373038	22236.200587
75.537500	0.014731	0.015170	0.017954	0.010812	6244.344863	44365.386737	3936.632014	22257.073417
76.035000	0.014464	0.016859	0.012713	0.012357	6230.701757	44379.136244	3921.223453	22188.561988
76.538000	0.011966	0.015940	0.012065	0.018422	6166.970783	43718.858929	3906.217745	21921.927481
77.034500	0.017375	0.016800	0.017990	0.013063	6247.312335	44306.282760	3931.575366	22157.325211
77.535500	0.017919	0.017389	0.014197	0.013614	6247.256059	44309.864255	3921.734116	22132.968267
78.036000	0.015027	0.016339	0.018208	0.013763	6224.368878	44195.950577	3930.479555	22126.408703
78.536000	0.014921	0.016968	0.016722	0.019973	6177.328178	43669.843496	3913.131673	21854.318597
79.036500	0.019455	0.017285	0.020692	0.014893	6249.206358	44178.489276	3933.562627	22076.608058
79.536500	0.021552	0.017394	0.021752	0.014841	6265.484220	44193.706310	3936.102553	22078.868705
80.037500	0.018497	0.017213	0.022315	0.014883	6242.045443	44172.557037	3937.294985	22077.031954
80.537500	0.020915	0.018207	0.021671	0.015502	6255.638796	44208.198535	3934.406739	22049.815902
81.037500	0.022076	0.017608	0.020174	0.015365	6265.485752	44164.384542	3931.306762	22055.854862
81.535000	0.019710	0.016940	0.012923	0.015364	6247.571136	44101.198639	3914.941770	22055.875736
82.035500	0.020691	0.017416	0.020034	0.015975	6250.359502	44088.407843	3929.599828	22029.018187
82.535500	0.020050	0.017934	0.022405	0.017326	6235.338938	44009.649147	3931.920674	21969.819963
83.036000	0.017738	0.016990	0.020859	0.017595	6215.969540	43895.251627	3927.797322	21958.051761
83.536000	0.019928	0.016962	0.018999	0.019646	6217.011465	43699.932884	3918.967296	21868.564721
84.036500	0.020722	0.016242	0.024944	0.018251	6233.430734	43763.190583	3935.603973	21929.354780
84.534500	0.017432	0.017499	0.016863	0.023952	6166.491224	43348.173765	3904.594280	21682.029963
85.036500	0.020558	0.017109	0.020126	0.020587	6214.683339	43625.586494	3919.384506	21827.631963
85.537500	0.021913	0.017901	0.026781	0.021607	6217.191856	43604.262226	3932.138859	21783.374635
86.035000	0.020474	0.017371	0.023528	0.021449	6207.612989	43569.538881	3925.112387	21790.231968
86.535000	0.018955	0.017667	0.021972	0.027997	6147.967353	42989.503427	3906.954649	21508.478456
87.035500	0.022065	0.017778	0.027579	0.022618	6210.764261	43498.307229	3931.651847	21739.597850
87.536000	0.022364	0.017269	0.024860	0.024052	6202.299358	43317.609983	3922.244126	21677.725754
88.036500	0.024473	0.018692	0.021961	0.024258	6216.506560	43430.694609	3915.264303	21668.824207
88.536500	0.021830	0.018526	0.025339	0.029734	6156.312392	42908.758151	3910.579043	21434.439113
89.036500	0.021013	0.018282	0.014968	0.024062	6192.168155	43410.798794	3900.164471	21677.274850
89.537000	0.021704	0.018699	0.021619	0.025789	6184.484547	43289.002442	3911.080704	21602.999941
90.037000	0.025810	0.019284	0.032109	0.025878	6214.383776	43335.090200	3934.548287	21599.166193
90.534500	0.020464	0.018657	0.026645	0.029566	6147.528310	42936.289483	3913.869696	21441.595353
91.035000	0.023440	0.019735	0.025443	0.025260	6201.315784	43434.554098	3920.834559	21625.728533
91.535500	0.021954	0.018854	0.025011	0.026796	6178.882123	43209.986005	3916.411361	21559.816914
92.035500	0.027139	0.019577	0.029243	0.026437	6220.148507	43310.333192	3926.756509	21575.191185
92.535500	0.020434	0.018728	0.022708	0.030613	6139.646476	42846.599752	3902.789674	21397.095217
93.078000	0.023505	0.019502	0.024088	0.025627	6199.060634	43378.710612	3916.962460	21609.955157
93.536500	0.023697	0.019320	0.020270	0.027773	6184.555350	43162.794424	3903.677664	21518.048431
94.037000	0.021495	0.019644	0.024897	0.025805	6182.816469	43375.329893	3918.380736	21602.321024
94.537000	0.020734	0.019771	0.022733	0.030772	6140.674666	42927.751891	3902.491394	21390.334958
95.037500	0.022643	0.020287	0.023806	0.026408	6186.854226	43379.056647	3914.582552	21576.444734
95.535000	0.023049	0.019343	0.017995	0.027145	6184.405049	43223.052908	3900.042529	21544.910189
