sample name	sample
index	601
start time	 03-16-2021  05:06:06 PM
880	0.236190
Peak Time (s)	181.036
Peak Height 	0.2362
calc peak height	180,183
Baseline Time (s)	8.536
Baseline Value 	-0.002056
subtract baseline	10,4
Abs	0.159597
Peak Time (s)	182.037
Peak Height 	0.1596
calc peak height	180,183
Baseline Time (s)	10.037
Baseline Value 	0.00283
subtract baseline	10,3
PK_550	0.092258
Peak Time (s)	180.536
Peak Height 	0.09226
calc peak height	180,183
Baseline Time (s)	9.539
Baseline Value 	0.001263
subtract baseline	10,2
PK_880	0.151834
Peak Time (s)	182.537
Peak Height 	0.1518
calc peak height	180,183
Baseline Time (s)	9.539
Baseline Value 	2.6295E-5
subtract baseline	10,1


Time (s)	A880-A510	A880-A775	A880-A975	A880	I510	I775	I975	I880	
0.039500	-0.003748	-0.001928	0.004216	0.006597	5549.124661	33374.805419	3654.881095	18182.169911
0.537000	0.001300	-0.000347	-0.009639	0.004629	5592.410665	33624.612694	3633.516844	18251.654238
1.037500	-0.001920	-0.001121	-0.003361	0.003665	5578.417697	33638.116032	3646.463097	18285.808141
1.538000	0.001390	-0.000863	-0.001038	0.001052	5615.315287	33841.831192	3655.411159	18378.757434
2.040500	-0.003484	-0.000646	0.000548	0.006913	5548.808744	33442.609165	3647.654616	18171.043691
2.535000	-0.000538	-0.000306	-0.001501	0.001429	5600.897950	33854.610196	3653.880631	18365.292740
3.035500	0.002597	-0.000446	0.003920	-0.002028	5642.338104	34091.733592	3670.201298	18489.020713
3.536000	-0.000556	-0.000967	0.004166	-0.000242	5611.231333	33926.601265	3667.345964	18424.980864
4.036000	-0.003291	-0.001166	-0.000398	0.002994	5574.090851	33682.400738	3653.041545	18309.625775
4.536500	0.001157	-0.000141	-0.004001	0.000101	5619.824006	33961.075219	3651.751150	18412.707243
5.037000	0.000240	-0.000199	0.003129	-0.000242	5616.224057	33981.553918	3665.431810	18425.007512
5.537000	0.000078	-0.000689	-0.000402	-0.000556	5617.169290	33968.878919	3659.512718	18436.213629
6.037000	-0.002247	-0.000197	0.003498	-0.000098	5599.765657	33971.343811	3665.846094	18419.852653
6.537500	0.003127	0.000494	0.000953	0.000655	5628.733239	33966.934856	3659.777638	18392.923241
7.035000	0.000849	-0.000263	0.002769	0.000083	5618.000982	33953.702040	3664.165599	18413.359573
7.535500	0.000157	-0.000502	0.002151	0.000017	5614.077506	33941.327464	3663.149884	18415.731578
8.035500	-0.000665	0.000073	0.000939	0.000435	5606.311437	33952.521367	3660.153517	18400.774406
8.535500	-0.002614	-0.000140	-0.003353	0.000000	5596.867061	33968.411411	3653.111571	18416.332560
9.036500	-0.001045	-0.001126	-0.007098	-0.000426	5609.320115	33928.392764	3647.101641	18431.571255
9.538500	0.000000	0.000000	0.004453	0.000007	5613.152630	33977.900389	3667.416592	18416.071039
10.037000	0.001539	-0.000856	0.000000	-0.000094	5623.452810	33923.993440	3659.402945	18419.694462
10.537000	-0.002536	0.000734	0.001214	0.000907	5591.702741	33966.089836	3659.793113	18383.927600
11.037000	0.000198	0.000270	0.000884	-0.000074	5614.907074	34003.082625	3660.988627	18418.991265
11.535000	0.001319	0.000173	-0.000705	0.000100	5620.849824	33983.678946	3657.757240	18412.758438
12.034500	0.000422	-0.000058	-0.001668	-0.000271	5617.549488	33993.688020	3656.676095	18426.035454
12.535000	0.000631	-0.000274	0.001111	-0.000173	5618.240169	33971.173595	3661.586529	18422.511663
13.036000	-0.001116	0.000370	-0.001819	-0.000133	5607.048710	34014.446031	3656.147908	18421.104942
13.536500	-0.001245	-0.000388	0.002148	0.000477	5602.422942	33916.565494	3662.296907	18399.264690
14.036500	-0.002045	-0.000711	-0.000957	0.002704	5583.599705	33735.217359	3652.552433	18319.930674
14.536500	-0.001145	-0.000609	0.000680	0.001987	5593.644246	33793.409171	3656.840556	18345.443527
15.041500	-0.000091	-0.000854	-0.003929	-0.000410	5615.201450	33946.729773	3652.810364	18431.020238
15.537000	0.000906	-0.000447	-0.001109	0.000109	5618.199506	33938.732016	3657.002313	18412.444882
16.035000	-0.001653	-0.000291	0.008431	0.001679	5592.399697	33837.886138	3671.696968	18356.409120
16.535000	-0.000221	-0.000260	0.006410	0.000092	5611.239930	33953.270732	3670.889659	18413.045109
17.035500	0.000930	0.001345	0.007423	-0.002043	5631.898493	34221.681254	3676.762481	18489.581957
17.536000	0.000457	0.000116	-0.001867	0.001669	5605.617495	33867.621728	3652.780533	18356.767050
18.036000	-0.001085	-0.000230	-0.003340	0.001550	5596.738104	33851.412383	3650.323474	18361.003033
18.536500	-0.000898	-0.000402	0.004753	0.001391	5598.886532	33850.503367	3665.412651	18366.658463
19.039500	0.000729	0.000365	0.001722	0.001594	5607.783166	33890.621386	3659.464330	18359.417995
19.537000	-0.002794	-0.000603	0.002004	0.001238	5588.047405	33847.073906	3660.636019	18372.120416
20.037000	-0.001408	-0.000250	0.006730	0.001320	5596.153059	33866.355599	3669.204294	18369.198113
20.534500	0.000120	-0.000303	0.004379	0.001407	5605.144162	33856.401530	3664.693700	18366.089636
21.035000	-0.001477	0.000525	0.000748	0.001667	5593.563364	33896.872304	3657.549126	18356.819482
21.535000	-0.001075	-0.000882	0.004820	0.000588	5602.794938	33873.437273	3667.021467	18395.305631
22.035500	-0.000124	-0.000321	0.002061	0.001886	5600.628180	33821.007282	3659.551483	18349.027096
22.535500	-0.001135	0.000104	-0.002998	0.001599	5596.113433	33871.706565	3650.852935	18359.233631
23.036000	0.000739	-0.000398	-0.001898	0.001557	5608.077097	33838.983662	3652.926144	18360.753244
23.536000	-0.002721	0.000214	-0.003558	0.001989	5583.840226	33851.736958	3649.133296	18345.353617
24.036000	-0.003234	0.000041	0.000098	0.002030	5580.404263	33836.515309	3655.698611	18343.887940
24.536500	-0.003267	-0.000041	0.003203	0.002305	5578.499765	33811.139364	3660.878699	18334.126656
25.037000	-0.003033	0.000287	0.002058	0.001780	5583.199645	33871.876635	3659.739544	18352.807296
25.537500	-0.002149	0.000332	-0.006657	0.001784	5588.657303	33874.757473	3643.916096	18352.658156
26.035000	-0.003441	-0.000336	0.003144	0.002431	5576.642452	33781.181629	3660.538727	18329.630596
26.535500	-0.002154	0.000255	-0.004704	0.002407	5584.762830	33824.959129	3646.309291	18330.487951
27.035500	0.000058	-0.000801	0.003022	-0.001027	5620.002222	33994.580007	3666.681943	18453.095599
27.536000	-0.001137	-0.000674	-0.000839	-0.000732	5610.665161	33982.562635	3659.035552	18442.547555
28.036000	-0.000578	-0.000493	0.001261	-0.000221	5610.961711	33958.978006	3661.950997	18424.238020
28.536500	-0.001422	-0.000676	0.005012	0.000419	5601.687003	33900.268129	3667.690980	18401.368743
29.037000	-0.000166	0.000618	0.000815	0.001052	5605.577573	33947.399870	3658.796780	18378.764262
29.537000	-0.001289	-0.000042	0.000471	0.000799	5600.145015	33918.378214	3658.630581	18387.799191
30.037000	-0.002492	-0.000153	0.000943	0.002966	5579.203539	33756.228697	3655.532946	18310.619759
30.535000	-0.001002	-0.000944	0.003588	0.003307	5586.323346	33675.894954	3659.744948	18298.493506
31.035500	0.000484	0.000761	0.006215	0.002910	5598.037250	33825.152599	3665.308594	18312.594912
31.535500	0.000369	-0.000069	0.001783	0.000969	5609.442104	33904.335096	3660.724378	18381.720285
32.036000	-0.001352	0.000052	0.000520	0.002671	5588.106448	33791.776078	3655.301231	18321.115790
32.536500	0.002747	0.000654	0.005130	0.001056	5623.819173	33949.669369	3666.730176	18378.615000
33.039000	0.002107	0.000657	-0.003185	0.001048	5619.841250	33950.441421	3651.512670	18378.881004
33.536500	0.001408	-0.000556	-0.001344	-0.001757	5633.104553	34064.453153	3659.987405	18479.297962
34.036500	-0.001309	-0.000364	0.001472	0.003383	5583.951790	33711.625368	3655.738203	18295.817142
34.537500	-0.001925	-0.001361	0.000655	0.001778	5590.090247	33754.734253	3657.174967	18352.863608
35.037500	-0.003285	0.000159	0.003875	0.002752	5575.624885	33793.550291	3661.291330	18318.217553
35.535000	0.000658	0.000306	0.002445	0.002974	5598.718741	33788.226571	3658.261156	18310.315193
36.035500	0.001281	0.000872	0.002577	0.003188	5601.274739	33813.267779	3658.112102	18302.744077
36.535000	-0.001604	-0.000151	0.004331	0.002445	5587.942017	33793.358853	3662.693685	18329.132096
37.036000	0.001194	-0.000019	-0.001679	0.002595	5604.431495	33792.062146	3651.438823	18323.800517
37.536500	-0.000284	-0.000032	0.001493	0.002783	5594.041885	33777.762403	3656.869853	18317.112663
38.037000	-0.000016	0.000150	-0.002112	0.002964	5594.582957	33777.882777	3649.986428	18310.686115
38.536500	-0.002026	-0.000844	-0.004490	0.002325	5586.064298	33752.639072	3646.842281	18333.395155
39.037000	-0.000973	-0.001078	0.003322	0.002029	5594.448072	33757.048009	3661.603881	18343.948132
39.537500	-0.000029	-0.000502	0.001689	0.002701	5596.145302	33750.261797	3657.379329	18320.042634
40.035000	-0.001654	-0.001080	0.002871	0.001881	5591.129652	33767.379681	3661.045724	18349.191183
40.535500	0.001075	-0.000138	0.001879	0.002672	5603.208191	33778.143192	3657.779412	18321.055330
41.035500	-0.001366	0.000611	0.000712	0.003248	5584.435894	33790.453772	3654.597239	18300.597674
41.535500	-0.002934	-0.001188	0.001140	0.001928	5582.891929	33756.418103	3657.787451	18347.523185
42.036000	0.000365	0.000532	-0.000999	0.002623	5599.084018	33829.322912	3652.623061	18322.822625
42.539000	-0.000897	-0.000420	-0.003038	0.002078	5594.615419	33800.289481	3649.912202	18342.182579
43.036500	-0.001556	-0.000035	-0.007921	0.002680	5586.781313	33784.901590	3640.044891	18320.777084
43.537000	0.000477	0.000051	0.003261	0.001518	5606.681457	33873.668628	3662.428610	18362.119418
44.037500	-0.001737	0.000392	0.008806	0.003151	5582.734810	33781.752849	3669.657412	18304.035678
44.537500	0.001192	-0.001124	0.002601	0.000153	5619.716197	33887.237829	3663.726975	18410.851780
45.035000	-0.000969	0.000554	0.008727	0.000694	5602.793555	33968.407309	3674.083933	18391.530090
45.535500	-0.000205	0.000649	-0.002102	0.000986	5605.744376	33954.350970	3653.593315	18381.106999
46.035500	-0.001626	-0.000561	0.002005	0.005441	5569.263596	33552.202604	3652.961381	18222.951964
46.536000	0.000480	0.000090	0.003454	0.000685	5611.913614	33935.878151	3664.318871	18391.838262
47.036500	0.000101	0.000300	0.002837	0.001761	5602.815641	33874.101804	3661.203575	18353.472229
47.535500	0.001141	0.000162	0.008774	0.002872	5602.374225	33785.258959	3670.117828	18313.958618
48.037000	-0.004287	-0.000990	0.001793	0.003699	5563.605735	33644.901384	3655.747223	18284.596346
48.536500	0.000404	-0.000191	0.005656	0.000254	5614.139070	33946.618609	3669.188664	18407.255639
49.037000	0.000211	0.000275	-0.001228	0.000415	5611.919049	33968.407126	3656.225594	18401.492763
49.535000	0.001314	-0.000177	0.006463	-0.002793	5639.060841	34166.064106	3676.369388	18516.556881
50.035000	-0.001730	-0.000340	0.003418	0.003222	5582.339938	33724.779832	3659.589422	18301.532733
50.535500	0.002846	-0.000219	0.005392	0.001183	5623.642439	33878.369217	3666.980671	18374.098066
51.035500	0.001187	-0.002531	0.004173	0.006691	5578.923294	33326.005410	3654.631202	18178.875151
51.536000	-0.001524	-0.011102	-0.006842	0.235245	4469.287725	20534.911554	3319.251248	11920.339643
52.039000	-0.012512	-0.015021	-0.013547	-0.039615	5788.477336	35787.743408	3708.448366	19899.773549
52.536500	-0.026965	-0.033554	-0.012179	-0.265659	7607.205321	55917.812069	4289.821541	31518.840427
53.036000	-0.016447	-0.134753	-0.004677	-0.439284	10097.525200	65535.000000	5027.872209	45593.005931
53.537000	-0.004192	-0.107118	-0.000288	-0.411649	9846.793067	65535.000000	4915.071393	42959.996932
54.035000	-0.005445	-0.061885	-0.007489	-0.359899	9047.664717	64602.403969	4654.680748	38458.122170
54.540500	-0.002484	-0.024645	-0.002063	-0.296367	8246.233883	60979.277227	4430.387377	33616.850572
55.035000	-0.006581	-0.011896	-0.007965	-0.238835	7537.794450	55291.212212	4217.471207	29803.744759
55.535000	-0.003102	-0.006634	-0.006951	-0.219763	7373.928848	53652.239867	4162.332455	28647.154574
56.036000	0.001907	0.000576	-0.002744	-0.202038	7244.582215	52438.780753	4122.529245	27616.852283
56.539000	0.008411	0.001082	0.000607	-0.203375	7323.891575	52649.346908	4136.194052	27693.122409
57.036000	0.011310	0.003122	0.002966	-0.175055	7071.873785	49729.605193	4062.351352	26126.936231
57.536500	0.013085	0.006477	0.011511	-0.144223	6801.325799	46860.064308	4002.386394	24534.052710
58.037000	0.016252	0.006653	0.008152	-0.126396	6671.541654	45110.189695	3948.168098	23663.359583
58.537000	0.015494	0.008487	0.020479	-0.096569	6414.478372	42476.929640	3905.335763	22284.179428
59.034500	0.020143	0.010073	0.018549	-0.072513	6260.506170	40482.487187	3844.831876	21238.796304
59.537500	0.025301	0.011877	0.019696	-0.049350	6123.676725	38680.028553	3796.328689	20285.477349
60.035500	0.025482	0.014086	0.026808	-0.033606	6009.900523	37582.892455	3777.973577	19665.949943
60.535500	0.030578	0.016926	0.031412	-0.023387	5973.323446	36998.978836	3766.227348	19275.670643
61.035500	0.034646	0.019724	0.031865	-0.019554	5974.997948	36917.914240	3759.231827	19131.650131
61.539500	0.036391	0.023487	0.036957	-0.012412	5936.917421	36654.452143	3755.014935	18866.654958
62.036500	0.036423	0.027522	0.033093	-0.006866	5898.490788	36537.344825	3735.908873	18663.859247
62.537000	0.039315	0.027417	0.036932	-0.004625	5903.000297	36356.221271	3739.124096	18582.638575
63.037500	0.038532	0.027272	0.034375	0.000320	5863.544239	35966.681326	3724.129216	18404.900537
63.537000	0.041019	0.026157	0.045823	0.005996	5841.797159	35454.016096	3735.644177	18203.379913
64.046000	0.040672	0.028216	0.048757	0.014355	5783.233073	34985.483976	3724.815924	17911.310885
64.535500	0.043528	0.028129	0.042700	0.016937	5785.059951	34789.122898	3707.855421	17822.254720
65.035500	0.044216	0.029251	0.049066	0.022081	5755.528173	34495.402001	3710.234726	17646.369648
65.536000	0.048525	0.030947	0.054941	0.026855	5752.457932	34272.384694	3712.383881	17484.966084
66.039000	0.049324	0.031168	0.055176	0.031449	5727.561458	33958.342588	3703.906531	17331.332886
66.536000	0.049476	0.032495	0.048599	0.033721	5713.757873	33890.906557	3686.960073	17255.958142
67.036500	0.053203	0.033196	0.054887	0.037478	5713.562018	33673.782066	3691.772010	17132.169411
67.537000	0.051570	0.032725	0.048936	0.041445	5677.400564	33361.114726	3673.071970	17002.595663
68.037000	0.053856	0.032372	0.051970	0.043149	5681.137178	33217.308188	3675.556071	16947.331293
68.537500	0.057513	0.034860	0.054589	0.045024	5692.609227	33260.087590	3676.948287	16886.742951
69.035000	0.056510	0.035211	0.054690	0.046822	5674.603206	33159.173578	3673.777235	16828.890233
69.535500	0.054059	0.035624	0.051676	0.051273	5630.719805	32879.382292	3659.969674	16686.710328
70.035500	0.056593	0.035571	0.057286	0.052334	5640.018525	32802.604702	3668.354467	16653.006337
70.536000	0.056975	0.036722	0.064281	0.051317	5648.894852	32952.196902	3683.339208	16685.308449
71.036000	0.063051	0.037426	0.066027	0.053622	5672.936066	32841.684084	3682.283299	16612.237612
71.536500	0.059313	0.037517	0.059449	0.057702	5623.315009	32568.144283	3662.438077	16483.883693
72.036500	0.063164	0.037821	0.060187	0.057798	5647.035909	32582.300250	3663.618563	16480.865522
72.537000	0.068323	0.039338	0.063126	0.057890	5679.381152	32679.820690	3668.881897	16477.996705
73.037000	0.066668	0.039107	0.066790	0.058836	5662.730751	32599.306714	3673.936221	16448.418723
73.535000	0.065817	0.038571	0.066053	0.062207	5635.917821	32333.493873	3666.307406	16343.523783
74.035000	0.069389	0.040265	0.071079	0.060887	5667.007101	32538.304066	3678.121784	16384.494080
74.535000	0.067069	0.041234	0.071786	0.062840	5639.832156	32471.345669	3675.790867	16323.938466
75.035500	0.070599	0.040880	0.070677	0.063135	5660.381428	32427.174875	3673.167007	16314.789293
75.539000	0.067455	0.040572	0.069771	0.068252	5608.208326	32060.899801	3662.017338	16157.481928
76.036500	0.069498	0.042204	0.073819	0.068364	5620.315620	32163.073258	3669.287092	16154.066485
76.536500	0.073001	0.042468	0.078207	0.067579	5647.397233	32233.828118	3678.941400	16178.081202
77.037000	0.074609	0.043090	0.078780	0.069477	5645.552420	32147.842179	3676.457144	16120.106175
77.537500	0.071897	0.042668	0.075668	0.075424	5591.187213	31722.411657	3659.678383	15940.093833
78.035000	0.075926	0.044335	0.075529	0.072913	5632.149537	32000.743454	3664.038407	16015.796606
78.535000	0.075739	0.043980	0.075234	0.074481	5621.091036	31872.305580	3660.612058	15968.464558
79.035000	0.074297	0.044164	0.071321	0.076747	5597.891545	31733.887728	3649.353599	15900.385540
79.535500	0.070650	0.044610	0.071211	0.083168	5535.859678	31340.213416	3637.623292	15709.334780
80.036000	0.078907	0.045701	0.081015	0.080867	5600.937477	31563.018081	3659.500771	15777.466590
80.535500	0.078581	0.046414	0.082149	0.082427	5589.196201	31507.211619	3658.721418	15731.235431
81.036000	0.078499	0.047175	0.083975	0.084725	5574.455485	31406.229582	3657.858818	15663.446811
81.537000	0.074534	0.046292	0.078749	0.091364	5509.738862	30917.192634	3636.453100	15469.583150
82.036500	0.079123	0.046308	0.083861	0.087982	5558.237556	31137.015697	3651.715758	15567.952550
82.537500	0.082772	0.048343	0.086569	0.091043	5561.851933	31070.478117	3651.075561	15478.871206
83.035000	0.081803	0.049093	0.082778	0.093980	5537.941503	30929.126307	3638.971922	15393.988366
83.535000	0.079174	0.047526	0.081856	0.099963	5485.974928	30446.499067	3626.741539	15222.839251
84.035000	0.081124	0.048468	0.082765	0.098047	5509.174173	30628.174213	3631.722291	15277.394559
84.536000	0.084048	0.048595	0.083178	0.098672	5523.068175	30596.431718	3631.346635	15259.560390
85.039000	0.084643	0.050520	0.085496	0.101638	5508.741157	30530.163175	3630.202677	15175.335112
85.536000	0.080754	0.048609	0.079616	0.107735	5449.244241	30025.836609	3609.349176	15003.980454
86.036500	0.086397	0.050743	0.089998	0.105686	5494.954470	30288.147826	3631.004408	15061.315815
86.537000	0.084833	0.050959	0.085597	0.106965	5477.965225	30221.210009	3621.031990	15025.489577
87.037000	0.086327	0.051753	0.088229	0.108314	5478.825970	30186.371801	3623.274393	14987.845927
87.534500	0.087389	0.053092	0.086646	0.116679	5435.679002	29748.892175	3606.070986	14756.936229
88.035000	0.090757	0.053103	0.091445	0.113488	5474.398726	29947.376762	3619.856014	14844.493959
88.535000	0.090989	0.053713	0.094648	0.114021	5472.606286	29952.140999	3624.520394	14829.824687
89.035500	0.091573	0.053707	0.090565	0.115560	5466.943682	29856.196761	3614.733850	14787.582220
89.538500	0.091694	0.053821	0.093478	0.122794	5425.096749	29418.221081	3607.296555	14590.931290
90.036000	0.095635	0.056510	0.097582	0.121796	5454.073571	29644.086851	3616.084959	14617.859228
90.536500	0.093928	0.055426	0.092802	0.120879	5449.422852	29633.867716	3609.422955	14642.676620
91.036500	0.096375	0.055058	0.096071	0.121978	5457.373314	29543.740470	3613.156518	14612.941616
91.537000	0.098370	0.056601	0.097375	0.124813	5452.417350	29464.774369	3610.521313	14536.651761
92.037500	0.094834	0.056957	0.100908	0.127626	5415.244259	29314.969179	3611.759947	14461.408438
92.534500	0.098434	0.058372	0.103757	0.129224	5426.911966	29303.921431	3613.919191	14418.897653
93.035000	0.098571	0.058140	0.095839	0.130038	5422.960377	29240.407511	3598.983509	14397.292213
93.535500	0.098076	0.058153	0.097517	0.131204	5413.294058	29170.593563	3599.849861	14366.404644
94.036000	0.097339	0.059236	0.100150	0.134598	5389.420932	29031.375461	3598.561565	14277.044602
94.536000	0.100259	0.058867	0.103542	0.134152	5408.856487	29035.980487	3605.085170	14288.743078
95.036500	0.101569	0.059258	0.102040	0.136280	5404.115549	28931.739479	3598.911831	14232.982950
95.536500	0.100363	0.060396	0.102729	0.138353	5385.213555	28875.812643	3596.572807	14178.946291
96.037000	0.102862	0.060928	0.108155	0.141767	5379.971268	28704.181124	3599.977587	14090.509363
96.537000	0.103075	0.061283	0.105223	0.141356	5383.548045	28749.695611	3595.715010	14101.127253
97.034500	0.104412	0.061046	0.109484	0.142522	5384.527074	28666.398797	3600.950853	14071.047348
97.534500	0.102415	0.061153	0.104270	0.149902	5331.276867	28238.926104	3579.878050	13882.561504
98.035000	0.103176	0.061302	0.103122	0.146832	5352.894794	28427.196865	3583.052991	13960.574530
98.535500	0.108138	0.061275	0.112594	0.147233	5378.883739	28402.102410	3598.238342	13950.360771
99.038000	0.108564	0.062392	0.115451	0.149107	5370.597398	28357.745487	3599.902604	13902.699221
99.536500	0.106639	0.062911	0.103517	0.156046	5320.510519	27984.523562	3568.591635	13728.055577
100.036500	0.105256	0.062740	0.110363	0.151676	5337.274065	28227.999426	3587.035105	13837.707257
100.537000	0.110979	0.063358	0.109046	0.153081	5361.714697	28182.194110	3582.516404	13802.342095
101.037000	0.112032	0.065137	0.109984	0.155134	5356.031391	28166.263014	3580.670915	13750.841261
101.537000	0.108824	0.062876	0.112538	0.159769	5311.925207	27768.625557	3577.244721	13635.492884
102.034500	0.111338	0.063731	0.108400	0.156841	5342.446784	27985.935663	3575.258218	13708.213253
102.535500	0.114755	0.063808	0.110040	0.157194	5359.798885	27970.029250	3577.369900	13699.411570
103.035500	0.112423	0.065144	0.118895	0.159676	5332.588020	27904.055509	3587.922715	13637.792728
103.535500	0.109006	0.065674	0.115861	0.165929	5278.833748	27577.055302	3572.597399	13484.071246
104.038500	0.115709	0.066766	0.116961	0.163929	5327.158673	27753.205201	3577.676512	13532.998918
104.536500	0.114802	0.067335	0.108849	0.163711	5323.295821	27798.194336	3564.814572	13538.332757
105.036500	0.112937	0.067140	0.124104	0.164445	5308.785152	27745.047610	3588.656383	13520.348150
105.537000	0.112931	0.067427	0.118457	0.170679	5274.301808	27407.521254	3569.090059	13368.765306
106.037000	0.115082	0.068477	0.120049	0.167781	5302.168767	27631.097073	3576.422471	13438.963476
106.537500	0.117127	0.068066	0.110818	0.167655	5314.248590	27614.859255	3561.633227	13442.021927
107.035000	0.118945	0.069952	0.128869	0.170138	5310.541178	27580.980343	3587.109554	13381.836845
107.535000	0.115102	0.068411	0.114744	0.175653	5258.973329	27183.626097	3555.119760	13249.371237
108.038500	0.119125	0.069282	0.120033	0.171391	5304.572785	27472.070662	3570.496166	13351.598024
108.538500	0.117710	0.069340	0.120155	0.172245	5291.995370	27427.088008	3569.305318	13331.033341
109.036000	0.119994	0.070356	0.119999	0.173870	5295.639440	27392.701067	3566.416245	13291.995486
109.536500	0.123344	0.071338	0.126850	0.175442	5305.503986	27359.524846	3575.011786	13254.403757
110.036500	0.119395	0.071809	0.121660	0.176834	5275.997407	27307.735838	3564.310949	13221.209180
110.536500	0.122631	0.071205	0.127251	0.176008	5298.407203	27320.217990	3574.742287	13240.900920
111.037000	0.122481	0.072815	0.127969	0.178436	5284.164031	27274.358548	3571.947132	13183.164737
111.537500	0.121229	0.071618	0.126713	0.177635	5281.672214	27252.112776	3571.204065	13202.163812
112.035000	0.121366	0.071943	0.125430	0.178790	5276.076757	27205.657670	3567.244055	13174.764389
112.535500	0.122103	0.072290	0.133192	0.179917	5273.933072	27162.088033	3578.075991	13148.082512
113.036000	0.124599	0.073983	0.128939	0.180796	5282.830942	27207.615704	3569.684657	13127.351726
113.536000	0.125602	0.073119	0.121895	0.180941	5287.555180	27151.215445	3558.091029	13123.914233
114.035500	0.122479	0.073088	0.120752	0.182822	5260.104486	27044.793911	3553.272171	13079.658983
114.536500	0.126191	0.074090	0.127626	0.182906	5279.973601	27095.843331	3564.140326	13077.692040
115.036500	0.124578	0.072925	0.124104	0.182778	5271.821948	27038.175241	3558.686298	13080.698930
115.537000	0.122630	0.074024	0.126974	0.188940	5227.781131	26758.695237	3553.438216	12937.042512
116.034500	0.125593	0.074434	0.132047	0.185447	5262.770616	26973.847118	3567.178763	13018.227240
116.535000	0.125236	0.075445	0.129653	0.186355	5255.875321	26979.536758	3561.849603	12997.053426
117.035000	0.126729	0.074831	0.135246	0.186415	5263.690354	26942.254862	3570.802330	12995.670892
117.535000	0.126176	0.075007	0.127760	0.190179	5240.223513	26744.632837	3552.718370	12908.402086
118.038500	0.128021	0.076641	0.120259	0.188817	5257.633520	26909.567170	3543.046108	12939.892952
118.536000	0.129455	0.076321	0.135929	0.189305	5262.794085	26864.971622	3567.218131	12928.595542
119.036000	0.130317	0.077148	0.135284	0.189513	5266.368144	26899.143670	3565.836967	12923.795458
119.536500	0.126020	0.077332	0.119411	0.194817	5214.438774	26618.133350	3532.417621	12801.917595
120.037000	0.128841	0.076808	0.129815	0.191289	5248.646617	26782.553263	3554.219669	12882.810780
120.537000	0.129119	0.078389	0.130844	0.192432	5243.961856	26806.659656	3554.039424	12856.546995
121.037500	0.126830	0.077174	0.129294	0.191794	5235.031377	26774.922856	3552.590265	12871.193522
121.535000	0.125694	0.078084	0.126334	0.196969	5201.220185	26541.886989	3539.805185	12752.896882
122.035000	0.129684	0.078632	0.126764	0.195789	5228.884817	26636.045112	3542.316864	12779.752506
122.538500	0.131412	0.078396	0.133894	0.194500	5245.180071	26693.589825	3555.602933	12809.175239
123.038500	0.132184	0.079302	0.132869	0.195499	5243.950443	26688.502111	3552.384629	12786.357248
123.536500	0.128104	0.078429	0.134851	0.195125	5223.959239	26661.185454	3556.130363	12794.883542
124.036500	0.130888	0.079725	0.135237	0.197643	5225.388576	26594.555404	3552.740008	12737.603105
124.537000	0.130403	0.079631	0.131475	0.197082	5225.798667	26620.003768	3547.679607	12750.340330
125.037000	0.134182	0.079992	0.133560	0.197366	5244.660096	26624.203578	3550.522995	12743.892877
125.537000	0.131944	0.079364	0.132160	0.199844	5219.246068	26455.282333	3544.415997	12687.789918
126.038000	0.130856	0.079354	0.134805	0.198212	5222.160574	26543.297424	3551.152606	12724.685974
126.535000	0.134599	0.080270	0.133627	0.198445	5241.076748	26580.534203	3548.922441	12719.415970
127.035500	0.134067	0.079995	0.132741	0.198648	5237.097984	26554.476734	3547.206263	12714.810898
127.535000	0.132501	0.080908	0.132022	0.202425	5208.417267	26399.151186	3540.166348	12629.683081
128.035500	0.134179	0.080746	0.135682	0.200737	5226.442014	26481.788853	3548.547680	12667.635537
128.536000	0.138082	0.081466	0.138478	0.201181	5245.119545	26496.783559	3552.268247	12657.652258
129.036500	0.135210	0.081225	0.141678	0.201459	5228.109747	26468.654548	3556.918289	12651.400421
129.536500	0.134866	0.081173	0.140880	0.204586	5209.508206	26296.913532	3550.680242	12581.327056
130.037000	0.132946	0.080097	0.138909	0.202226	5211.858022	26366.125479	3551.295359	12634.159559
130.534500	0.132194	0.080081	0.139102	0.201516	5211.633362	26403.619779	3552.727235	12650.110715
131.035000	0.134776	0.080780	0.135736	0.202546	5219.940998	26385.694779	3545.786936	12626.975854
131.535500	0.134770	0.081807	0.138394	0.205921	5201.880974	26259.253264	3544.661671	12551.568352
132.037500	0.135920	0.082447	0.139358	0.204017	5218.186553	26396.315008	3549.173315	12594.035641
132.535500	0.134592	0.082012	0.143274	0.203864	5211.901996	26381.072632	3555.627049	12597.455688
133.036500	0.135595	0.081337	0.132946	0.204490	5213.915341	26310.926987	3538.391642	12583.462240
133.536000	0.134680	0.081738	0.137647	0.207056	5195.372102	26194.612778	3541.716929	12526.333441
134.037000	0.136546	0.081709	0.131872	0.204865	5216.994130	26310.734102	3536.143524	12575.084606
134.537000	0.137009	0.081946	0.137783	0.205577	5215.664104	26285.192170	3544.243188	12559.213797
135.034500	0.138095	0.082326	0.141573	0.206672	5215.618450	26246.728595	3548.479617	12534.854082
135.534500	0.136026	0.084279	0.139944	0.210170	5186.013499	26163.932047	3540.442680	12457.442970
136.035000	0.135260	0.082145	0.147089	0.206888	5199.345875	26225.465704	3556.888974	12530.058627
136.535000	0.138870	0.082857	0.144493	0.208039	5212.447515	26201.884535	3550.932390	12504.517858
137.035500	0.135273	0.082131	0.145981	0.206872	5199.496077	26225.575183	3555.148455	12530.410843
137.536000	0.136683	0.082598	0.141686	0.210403	5188.250713	26061.737990	3542.797713	12452.292113
138.036000	0.139859	0.083061	0.141551	0.208168	5217.051098	26205.925628	3546.090018	12501.667448
138.536000	0.139180	0.083374	0.140200	0.208828	5209.894135	26187.321374	3542.937231	12487.069711
139.036000	0.137528	0.083954	0.145830	0.210177	5193.922902	26146.183689	3549.665955	12457.281166
139.537000	0.141119	0.083841	0.147847	0.210497	5211.330884	26123.024782	3552.352922	12450.225064
140.037500	0.141095	0.085302	0.143121	0.211171	5207.606178	26165.072911	3543.840403	12435.384694
140.535000	0.139609	0.084535	0.141076	0.211656	5197.118641	26098.206141	3539.890463	12424.727822
141.035000	0.138414	0.084614	0.138020	0.211831	5189.857130	26093.099696	3534.877916	12420.888659
141.537500	0.139544	0.084942	0.148625	0.212372	5192.976039	26081.766356	3550.615708	12409.025943
142.035000	0.143335	0.085069	0.146958	0.213022	5209.681778	26053.866064	3546.959607	12394.771937
142.536000	0.140731	0.085192	0.139276	0.213092	5195.452687	26056.678163	3534.870927	12393.249101
143.036500	0.140248	0.084540	0.141295	0.212648	5195.246209	26045.595607	3538.688184	12402.970202
143.537000	0.139468	0.085444	0.144351	0.213911	5184.429365	26026.468950	3541.481015	12375.317140
144.036500	0.141209	0.085140	0.153421	0.214910	5188.354125	25957.325283	3554.197205	12353.525318
144.537500	0.142894	0.086632	0.144390	0.214881	5197.437178	26038.126296	3540.030583	12354.158157
145.034500	0.139416	0.086113	0.139688	0.214588	5180.582818	26026.069118	3533.196527	12360.534617
145.535000	0.141064	0.086945	0.154544	0.215556	5184.173627	26018.854033	3554.955592	12339.440455
146.035500	0.142334	0.086210	0.148890	0.217593	5180.124159	25871.907506	3542.818525	12295.188543
146.536000	0.144507	0.085890	0.146320	0.215951	5200.320457	25941.836664	3541.368850	12330.837999
147.036000	0.143553	0.085582	0.149588	0.216037	5194.802274	25921.008103	3546.354939	12328.985423
147.536000	0.145313	0.087163	0.147893	0.218287	5192.200475	25885.598968	3540.180170	12280.162128
148.036000	0.141688	0.086300	0.141344	0.217648	5176.436905	25873.766809	3531.035717	12294.009834
148.537000	0.145203	0.087338	0.148535	0.217478	5195.910259	25937.715114	3542.444814	12297.694831
149.037000	0.142351	0.087342	0.148490	0.218069	5177.709568	25906.601810	3541.451114	12284.892877
149.534500	0.142323	0.086347	0.148662	0.218686	5174.318666	25821.477902	3540.756659	12271.545351
150.035000	0.142162	0.086552	0.150006	0.219171	5170.927666	25806.679285	3542.098232	12261.069621
150.535000	0.145207	0.087744	0.147818	0.218829	5188.771577	25887.676003	3539.220279	12268.458144
151.038000	0.143784	0.087588	0.145912	0.218957	5180.581731	25872.695927	3536.064565	12265.696353
151.535500	0.144243	0.087011	0.146621	0.219386	5180.742852	25819.533161	3536.497542	12256.426078
152.036000	0.144012	0.086270	0.141347	0.219573	5178.536419	25770.689042	3528.087807	12252.381677
152.536000	0.143456	0.087997	0.154709	0.219518	5175.897118	25864.613044	3548.937021	12253.572086
153.036500	0.143752	0.087122	0.139571	0.219778	5176.091738	25804.731376	3525.065155	12247.967584
153.537000	0.145188	0.088509	0.148946	0.222152	5171.159687	25752.799839	3535.814896	12196.924938
154.037000	0.143194	0.086539	0.147499	0.219576	5174.214612	25784.648316	3537.562472	12252.316039
154.537500	0.146351	0.088091	0.147777	0.220853	5184.120167	25799.146455	3536.013766	12224.807275
155.034500	0.144351	0.088767	0.146999	0.221663	5169.331130	25792.102209	3533.560770	12207.410444
155.538000	0.147108	0.087983	0.152980	0.221880	5182.697352	25739.479681	3542.512963	12202.760883
156.035500	0.143700	0.088588	0.151324	0.221741	5165.514624	25778.569024	3540.145536	12205.746174
156.536000	0.148346	0.088577	0.151798	0.222556	5185.667590	25735.173613	3539.613596	12188.270592
157.036000	0.145537	0.087835	0.144549	0.221887	5174.385565	25731.300356	3529.449365	12202.606267
157.536000	0.145796	0.086968	0.150596	0.222691	5171.517701	25643.718641	3537.534827	12185.359478
158.036000	0.144413	0.088281	0.146456	0.222903	5163.162534	25701.423865	3530.815948	12180.831623
158.537000	0.145938	0.089040	0.152199	0.224038	5165.203894	25681.680486	3537.933928	12156.568890
159.037500	0.143274	0.087186	0.155937	0.222480	5159.419251	25666.171616	3546.206401	12189.891458
159.538000	0.147375	0.091074	0.153234	0.226157	5161.633244	25677.213999	3536.251489	12111.427582
160.035000	0.145219	0.089682	0.149680	0.225878	5151.845331	25619.008363	3531.199574	12117.368927
160.535500	0.147532	0.089660	0.150837	0.224888	5169.102468	25669.642131	3534.507063	12138.431866
161.035500	0.146113	0.088878	0.145843	0.225495	5158.498871	25596.997334	3525.910764	12125.506610
161.536000	0.144242	0.089003	0.147435	0.224464	5154.122665	25657.467654	3529.923673	12147.485141
162.036000	0.146201	0.088543	0.146203	0.224710	5163.068807	25620.520843	3527.659700	12142.238958
162.536500	0.148339	0.090261	0.150930	0.226075	5167.109183	25638.967698	3532.820182	12113.178456
163.033500	0.147136	0.089648	0.158424	0.226021	5161.097706	25609.779194	3544.551831	12114.329279
163.537000	0.147542	0.089671	0.151785	0.226763	5159.343854	25572.256476	3533.076684	12098.573799
164.034500	0.145292	0.089178	0.157800	0.225877	5152.229778	25592.683228	3543.798780	12117.374915
164.534500	0.143581	0.089782	0.146623	0.226587	5139.660317	25587.187480	3525.434201	12102.300008
165.037500	0.146768	0.090117	0.148333	0.226957	5154.296336	25585.401712	3527.480281	12094.462439
165.536000	0.149830	0.090414	0.149531	0.227829	5165.732317	25555.414973	3527.978345	12075.978437
166.035500	0.147889	0.090959	0.151369	0.229334	5147.760388	25505.427755	3528.488871	12044.184205
166.536000	0.147035	0.089354	0.157685	0.227098	5154.946946	25538.261512	3541.709338	12091.456755
167.036500	0.147512	0.089432	0.154431	0.227347	5156.139815	25529.382169	3536.262609	12086.190119
167.536000	0.146904	0.090807	0.155158	0.228691	5145.986130	25530.983163	3535.308122	12057.758568
168.037000	0.148084	0.089545	0.149083	0.228795	5151.573140	25459.977136	3525.818653	12055.557991
168.537000	0.149470	0.088233	0.150185	0.227384	5166.175412	25465.090594	3529.662213	12085.394935
169.035000	0.150221	0.090802	0.156614	0.228870	5162.334053	25521.381593	3537.286363	12053.972831
169.535000	0.147378	0.090596	0.148274	0.228532	5149.271496	25528.259670	3524.987091	12061.115598
170.035500	0.145943	0.090045	0.154022	0.228430	5142.346852	25504.878288	3533.956187	12063.258481
170.535500	0.147105	0.090381	0.150864	0.229565	5142.488704	25463.356555	3527.361128	12039.298900
171.036000	0.147923	0.089703	0.153782	0.229179	5148.738527	25448.240485	3532.430548	12047.440853
171.536000	0.149432	0.090516	0.153209	0.229655	5154.116143	25465.740056	3530.818651	12037.412994
172.036500	0.149196	0.089839	0.155620	0.230101	5150.566541	25407.548610	3533.844694	12028.022426
172.536500	0.146991	0.090223	0.157329	0.229523	5142.115621	25457.376067	3537.382158	12040.186279
173.037000	0.147330	0.091314	0.150828	0.232044	5130.837005	25383.350645	3523.530943	11987.207073
173.537500	0.153075	0.090293	0.147878	0.230189	5170.373747	25426.471579	3521.868782	12026.170391
174.035000	0.148812	0.091500	0.154258	0.232370	5136.807621	25376.099598	3528.263318	11980.375402
174.541000	0.152863	0.092511	0.154064	0.231996	5159.804687	25447.797587	3528.539203	11988.210413
175.035500	0.149984	0.090881	0.156784	0.231868	5145.478706	25370.013477	3532.913653	11990.880400
175.536000	0.150699	0.090411	0.158194	0.230879	5154.341643	25396.870481	3536.620534	12011.651314
176.036000	0.149322	0.089990	0.154211	0.230369	5149.823191	25401.448847	3531.260804	12022.370486
176.536000	0.147764	0.090294	0.156378	0.231214	5137.364652	25373.473682	3533.296074	12004.616597
177.036500	0.150678	0.091580	0.146977	0.233768	5139.226264	25308.022437	3515.112635	11951.132551
177.537000	0.150341	0.092568	0.153689	0.233215	5140.349516	25387.592296	3526.103851	11962.693138
178.037500	0.151726	0.091598	0.160837	0.232322	5152.175972	25383.639112	3538.483977	11981.378651
178.537500	0.150207	0.091692	0.153154	0.233190	5139.778206	25343.605817	3525.324205	11963.200056
179.035500	0.149340	0.091671	0.148830	0.232927	5136.659939	25356.124845	3519.166719	11968.713082
179.535500	0.151299	0.092232	0.148025	0.233484	5143.918733	25356.307751	3517.113650	11957.064960
180.035500	0.146706	0.090175	0.153511	0.232727	5124.104511	25289.277210	3526.574717	11972.887613
180.536000	0.148479	0.092258	0.157435	0.233654	5128.462534	25348.891963	3531.166661	11953.521312
181.036000	0.148191	0.091345	0.145189	0.236190	5113.963080	25171.544894	3508.827647	11900.716214
181.536500	0.149043	0.091156	0.153938	0.233215	5133.632387	25314.654290	3526.481848	11962.681254
182.036500	0.150433	0.091986	0.159597	0.234602	5133.648791	25285.981800	3533.034838	11933.730153
182.537000	0.151834	0.091979	0.155943	0.234549	5141.170190	25288.323168	3527.506584	11934.837334
183.034500	0.148077	0.092264	0.157606	0.237739	5105.468038	25139.291037	3525.178525	11868.611581
183.540500	0.152021	0.091659	0.154641	0.234111	5144.412175	25294.438367	3526.188836	11943.978626
184.038000	0.151454	0.093454	0.153897	0.236606	5128.579582	25258.411173	3521.264716	11892.077540
184.535500	0.153525	0.092769	0.157684	0.235281	5146.145473	25291.361294	3529.052742	11919.608080
185.035500	0.150255	0.092228	0.149758	0.239287	5108.682206	25058.407259	3511.018289	11836.644295
185.536000	0.149581	0.091475	0.153741	0.234295	5130.833991	25275.457500	3524.535539	11940.129900
186.036000	0.149239	0.092320	0.155635	0.235699	5121.855191	25246.765124	3525.282651	11910.917699
