sample name	sample
index	779
start time	 03-31-2021  01:43:02 PM


Wavelength (nm)	Absorbance
494.344910	-0.467576
494.563924	-0.467576
494.782919	-0.467576
495.001897	-0.614633
495.220856	-0.348675
495.439797	-0.233847
495.658719	-0.172045
495.877624	-0.152997
496.096510	-0.084219
496.315378	0.027572
496.534227	0.022672
496.753059	0.033178
496.971872	-0.071865
497.190667	0.000496
497.409444	0.003160
497.628203	0.001492
497.846943	0.001952
498.065665	0.002327
498.284369	0.002698
498.503055	0.001679
498.721723	0.003122
498.940372	0.003176
499.159003	0.002119
499.377616	0.001444
499.596210	0.001446
499.814787	0.002973
500.033345	0.003433
500.251885	0.002634
500.470406	0.003815
500.688910	0.003585
500.907395	0.003869
501.125862	0.004282
501.344311	0.004470
501.562742	0.005024
501.781154	0.004154
501.999548	0.003865
502.217924	0.004698
502.436282	0.003783
502.654621	0.002625
502.872942	0.002657
503.091245	0.002243
503.309530	0.002649
503.527797	0.002208
503.746045	0.002051
503.964275	0.002413
504.182487	0.002511
504.400681	0.002790
504.618856	0.002683
504.837013	0.001978
505.055152	0.003387
505.273273	0.003262
505.491376	0.003214
505.709460	0.003822
505.927526	0.003002
506.145574	0.002512
506.363604	0.002741
506.581615	0.003631
506.799608	0.004597
507.017583	0.003438
507.235540	0.002409
507.453478	0.003160
507.671399	0.002333
507.889301	0.002119
508.107185	0.002103
508.325050	0.002530
508.542898	0.001815
508.760727	0.000839
508.978538	0.001121
509.196330	0.001928
509.414105	0.001354
509.631861	0.001117
509.849599	0.001834
510.067319	0.001910
510.285021	0.001542
510.502704	0.001513
510.720369	0.001711
510.938016	0.001488
511.155645	0.001430
511.373255	0.001009
511.590848	0.000477
511.808422	0.000319
512.025977	0.000560
512.243515	0.000651
512.461034	0.001272
512.678536	0.001230
512.896018	0.001634
513.113483	0.001546
513.330930	0.001717
513.548358	0.002134
513.765768	0.001590
513.983160	0.001161
514.200533	0.000809
514.417889	0.000187
514.635226	0.000398
514.852545	0.000077
515.069845	-0.000503
515.287128	0.000346
515.504392	0.000968
515.721638	0.001936
515.938866	0.001739
516.156075	0.001831
516.373267	0.002697
516.590440	0.002788
516.807594	0.002988
517.024731	0.003424
517.241850	0.002769
517.458950	0.002180
517.676032	0.001727
517.893095	0.002091
518.110141	0.002358
518.327168	0.001510
518.544177	0.000986
518.761168	0.000757
518.978141	0.001009
519.195095	0.001108
519.412031	0.001453
519.628949	0.001450
519.845849	0.001455
520.062731	0.001029
520.279594	0.001535
520.496439	0.001599
520.713266	0.001783
520.930074	0.000989
521.146865	0.000874
521.363637	0.000730
521.580391	0.000898
521.797127	0.001097
522.013844	0.001543
522.230543	0.001598
522.447224	0.001658
522.663887	0.002171
522.880532	0.002393
523.097158	0.002094
523.313766	0.002272
523.530356	0.001933
523.746928	0.001819
523.963481	0.002115
524.180017	0.001832
524.396534	0.002301
524.613032	0.001842
524.829513	0.002253
525.045975	0.002789
525.262420	0.002454
525.478845	0.002190
525.695253	0.001729
525.911643	0.000896
526.128014	0.000889
526.344367	0.000397
526.560702	0.000325
526.777018	0.000576
526.993316	0.000378
527.209597	0.000353
527.425858	0.001215
527.642102	0.001505
527.858328	0.001825
528.074535	0.002046
528.290724	0.002826
528.506894	0.002780
528.723047	0.002357
528.939181	0.002280
529.155297	0.002174
529.371395	0.001669
529.587475	0.001801
529.803536	0.001774
530.019579	0.001354
530.235604	0.000884
530.451611	0.001078
530.667600	0.001161
530.883570	0.001668
531.099522	0.001941
531.315456	0.002380
531.531372	0.002482
531.747269	0.002644
531.963148	0.003024
532.179009	0.003817
532.394852	0.003466
532.610676	0.003457
532.826482	0.003105
533.042271	0.003625
533.258040	0.003023
533.473792	0.002657
533.689525	0.002835
533.905240	0.002647
534.120937	0.001968
534.336616	0.002595
534.552277	0.002888
534.767919	0.002679
534.983543	0.002295
535.199149	0.002372
535.414736	0.003056
535.630306	0.003283
535.845857	0.003502
536.061390	0.003980
536.276904	0.003516
536.492401	0.003179
536.707879	0.003875
536.923339	0.003708
537.138781	0.003974
537.354204	0.003960
537.569610	0.003868
537.784997	0.003552
538.000366	0.003687
538.215716	0.003870
538.431049	0.004115
538.646363	0.003988
538.861659	0.004167
539.076937	0.004196
539.292196	0.003487
539.507438	0.003260
539.722661	0.003321
539.937866	0.003143
540.153052	0.003539
540.368221	0.003838
540.583371	0.003534
540.798503	0.003928
541.013617	0.004144
541.228712	0.004486
541.443789	0.004724
541.658848	0.005013
541.873889	0.004661
542.088912	0.004228
542.303916	0.004234
542.518902	0.004359
542.733870	0.004099
542.948820	0.003950
543.163752	0.004457
543.378665	0.004377
543.593560	0.004667
543.808437	0.004980
544.023295	0.005289
544.238136	0.005344
544.452958	0.005233
544.667762	0.005294
544.882548	0.005308
545.097315	0.004989
545.312064	0.004680
545.526795	0.004815
545.741508	0.004943
545.956203	0.004708
546.170879	0.004724
546.385537	0.004793
546.600177	0.004891
546.814799	0.005163
547.029402	0.005346
547.243988	0.005464
547.458555	0.005344
547.673103	0.005386
547.887634	0.005939
548.102146	0.006005
548.316640	0.006147
548.531116	0.006227
548.745574	0.005675
548.960013	0.005602
549.174435	0.005834
549.388838	0.005884
549.603222	0.005659
549.817589	0.005047
550.031937	0.004719
550.246267	0.004739
550.460579	0.004899
550.674873	0.005132
550.889148	0.005122
551.103405	0.004999
551.317644	0.004684
551.531865	0.004914
551.746068	0.005030
551.960252	0.005306
552.174418	0.005716
552.388566	0.005646
552.602696	0.006358
552.816807	0.006578
553.030900	0.006677
553.244975	0.006998
553.459032	0.007038
553.673070	0.007057
553.887091	0.006755
554.101093	0.006174
554.315077	0.006273
554.529042	0.006122
554.742990	0.006121
554.956919	0.006563
555.170830	0.006545
555.384722	0.006241
555.598597	0.006422
555.812453	0.006498
556.026291	0.006850
556.240111	0.006773
556.453913	0.006716
556.667696	0.006328
556.881461	0.006081
557.095208	0.006013
557.308937	0.006651
557.522647	0.006682
557.736339	0.007087
557.950013	0.007408
558.163669	0.007279
558.377307	0.007340
558.590926	0.007718
558.804527	0.008077
559.018110	0.007967
559.231675	0.007587
559.445221	0.007668
559.658749	0.007618
559.872259	0.007528
560.085751	0.007804
560.299225	0.007542
560.512680	0.007487
560.726117	0.006866
560.939536	0.007359
561.152937	0.007241
561.366319	0.007287
561.579683	0.007195
561.793029	0.006977
562.006357	0.006926
562.219667	0.007020
562.432958	0.007024
562.646231	0.007156
562.859486	0.006925
563.072723	0.007236
563.285941	0.007092
563.499141	0.007308
563.712323	0.007480
563.925487	0.007353
564.138632	0.007505
564.351760	0.007502
564.564869	0.007845
564.777960	0.008091
564.991032	0.007905
565.204087	0.008252
565.417123	0.008213
565.630141	0.008429
565.843140	0.008694
566.056122	0.008581
566.269085	0.008835
566.482030	0.009011
566.694957	0.009259
566.907866	0.009488
567.120756	0.009314
567.333628	0.009369
567.546482	0.009215
567.759318	0.009154
567.972135	0.009347
568.184935	0.009251
568.397716	0.009388
568.610478	0.008916
568.823223	0.009247
569.035949	0.009442
569.248657	0.008904
569.461347	0.008815
569.674019	0.008958
569.886672	0.008969
570.099308	0.008992
570.311925	0.008800
570.524523	0.009090
570.737104	0.008963
570.949666	0.008841
571.162210	0.009286
571.374736	0.009774
571.587244	0.009683
571.799733	0.009701
572.012205	0.009583
572.224658	0.009753
572.437092	0.009625
572.649509	0.009435
572.861907	0.009466
573.074287	0.009953
573.286649	0.009923
573.498993	0.010178
573.711318	0.010342
573.923625	0.010493
574.135914	0.010264
574.348185	0.010461
574.560438	0.010568
574.772672	0.010787
574.984888	0.010638
575.197086	0.010591
575.409266	0.010502
575.621427	0.010240
575.833570	0.010339
576.045695	0.010595
576.257802	0.010904
576.469890	0.011115
576.681961	0.011032
576.894013	0.010907
577.106046	0.010849
577.318062	0.010690
577.530059	0.010927
577.742039	0.010998
577.954000	0.011035
578.165942	0.010713
578.377867	0.010581
578.589773	0.010357
578.801661	0.010165
579.013531	0.010121
579.225382	0.010250
579.437216	0.010443
579.649031	0.010714
579.860828	0.010750
580.072606	0.010873
580.284367	0.011140
580.496109	0.011502
580.707833	0.011652
580.919539	0.011596
581.131227	0.011606
581.342896	0.011577
581.554547	0.011257
581.766180	0.011233
581.977795	0.011341
582.189391	0.011076
582.400969	0.011099
582.612529	0.011347
582.824071	0.011578
583.035595	0.011728
583.247100	0.011949
583.458587	0.012105
583.670056	0.012183
583.881506	0.011948
584.092939	0.011908
584.304353	0.011830
584.515749	0.011980
584.727127	0.011946
584.938486	0.012246
585.149828	0.011912
585.361151	0.011681
585.572456	0.011534
585.783742	0.011725
585.995011	0.011677
586.206261	0.011859
586.417493	0.011456
586.628706	0.011508
586.839902	0.011405
587.051079	0.011562
587.262238	0.011916
587.473379	0.012085
587.684502	0.012386
587.895606	0.012572
588.106692	0.012674
588.317760	0.013059
588.528810	0.012908
588.739841	0.012853
588.950855	0.012615
589.161850	0.012599
589.372827	0.012541
589.583785	0.012366
589.794726	0.012315
590.005648	0.012116
590.216552	0.012022
590.427437	0.011992
590.638305	0.012070
590.849154	0.012433
591.059985	0.012701
591.270798	0.012926
591.481592	0.012868
591.692369	0.012982
591.903127	0.013236
592.113867	0.013319
592.324588	0.013364
592.535292	0.013224
592.745977	0.013115
592.956644	0.012774
593.167293	0.012486
593.377923	0.012426
593.588536	0.012322
593.799130	0.012257
594.009706	0.012304
594.220263	0.012421
594.430803	0.012528
594.641324	0.012509
594.851827	0.012541
595.062312	0.012709
595.272778	0.012812
595.483227	0.013053
595.693657	0.013266
595.904069	0.013223
596.114462	0.013421
596.324838	0.013326
596.535195	0.013311
596.745534	0.013491
596.955855	0.013454
597.166157	0.013612
597.376441	0.013468
597.586707	0.013336
597.796955	0.013473
598.007185	0.013363
598.217396	0.013386
598.427589	0.013326
598.637764	0.013674
598.847921	0.014146
599.058060	0.014281
599.268180	0.014468
599.478282	0.014292
599.688366	0.014354
599.898431	0.014168
600.108479	0.014359
600.318508	0.014795
600.528519	0.014556
600.738511	0.014602
600.948486	0.014460
601.158442	0.014452
601.368380	0.014695
601.578300	0.014792
601.788202	0.014937
601.998085	0.015103
602.207950	0.014761
602.417797	0.014706
602.627626	0.014581
602.837436	0.014754
603.047228	0.014842
603.257002	0.015020
603.466758	0.014628
603.676496	0.014915
603.886215	0.014781
604.095916	0.014819
604.305599	0.014980
604.515264	0.014881
604.724910	0.014495
604.934538	0.014333
605.144148	0.014332
605.353740	0.014605
605.563314	0.014747
605.772869	0.014773
605.982406	0.014830
606.191925	0.014779
606.401425	0.014834
606.610908	0.015217
606.820372	0.015530
607.029818	0.015458
607.239246	0.015565
607.448655	0.015474
607.658047	0.015492
607.867420	0.015615
608.076775	0.015753
608.286111	0.015564
608.495430	0.015369
608.704730	0.015170
608.914012	0.015045
609.123275	0.015393
609.332521	0.015470
609.541748	0.015635
609.750957	0.015718
609.960148	0.015656
610.169321	0.015957
610.378475	0.016200
610.587611	0.016572
610.796729	0.016640
611.005829	0.016526
611.214910	0.016303
611.423974	0.016343
611.633019	0.016318
611.842045	0.016107
612.051054	0.016043
612.260044	0.015951
612.469017	0.015677
612.677970	0.015760
612.886906	0.015475
613.095824	0.015626
613.304723	0.015718
613.513604	0.015578
613.722467	0.015763
613.931311	0.015745
614.140138	0.015544
614.348946	0.015590
614.557736	0.015644
614.766507	0.015906
614.975261	0.016014
615.183996	0.015824
615.392713	0.015849
615.601412	0.015806
615.810092	0.015581
616.018754	0.015901
616.227399	0.015957
616.436024	0.015808
616.644632	0.015543
616.853222	0.015452
617.061793	0.015564
617.270346	0.015901
617.478880	0.016084
617.687397	0.016309
617.895895	0.016523
618.104375	0.016791
618.312837	0.016932
618.521281	0.017143
618.729706	0.017138
618.938113	0.017070
619.146502	0.017178
619.354873	0.017175
619.563226	0.017177
619.771560	0.017092
619.979876	0.016772
620.188174	0.016817
620.396453	0.016969
620.604715	0.017049
620.812958	0.017237
621.021183	0.017027
621.229390	0.017112
621.437578	0.017359
621.645748	0.017369
621.853900	0.017631
622.062034	0.017830
622.270150	0.017800
622.478247	0.017804
622.686326	0.017734
622.894387	0.017855
623.102430	0.017880
623.310454	0.017983
623.518461	0.018030
623.726449	0.018110
623.934418	0.018088
624.142370	0.018010
624.350303	0.018212
624.558218	0.018540
624.766115	0.018324
624.973994	0.018275
625.181855	0.018168
625.389697	0.017948
625.597521	0.017730
625.805327	0.017971
626.013114	0.017887
626.220883	0.017793
626.428634	0.017649
626.636367	0.017777
626.844082	0.017659
627.051778	0.017334
627.259457	0.017525
627.467117	0.017644
627.674758	0.017466
627.882382	0.017684
628.089987	0.017704
628.297574	0.017626
628.505143	0.017716
628.712694	0.017879
628.920226	0.018005
629.127740	0.018175
629.335236	0.018457
629.542714	0.018418
629.750174	0.018293
629.957615	0.018333
630.165038	0.018227
630.372443	0.018357
630.579829	0.018529
630.787198	0.018708
630.994548	0.018632
631.201880	0.018379
631.409194	0.018408
631.616489	0.018596
631.823766	0.018664
632.031025	0.018797
632.238266	0.018923
632.445489	0.018888
632.652693	0.019142
632.859879	0.019267
633.067047	0.019507
633.274197	0.019535
633.481329	0.019506
633.688442	0.019317
633.895537	0.019525
634.102614	0.019365
634.309672	0.019284
634.516713	0.019339
634.723735	0.019189
634.930739	0.019192
635.137724	0.019395
635.344692	0.019473
635.551641	0.019579
635.758572	0.019437
635.965485	0.019419
636.172379	0.019605
636.379256	0.019493
636.586114	0.019532
636.792954	0.019671
636.999775	0.019363
637.206579	0.019443
637.413364	0.019512
637.620131	0.019510
637.826880	0.019646
638.033610	0.019671
638.240323	0.019542
638.447017	0.019536
638.653692	0.019304
638.860350	0.019641
639.066990	0.019772
639.273611	0.019954
639.480214	0.019967
639.686798	0.019887
639.893365	0.019945
640.099913	0.020133
640.306443	0.020382
640.512955	0.020473
640.719449	0.020529
640.925924	0.020342
641.132381	0.020590
641.338820	0.020675
641.545241	0.021066
641.751644	0.020937
641.958028	0.020999
642.164394	0.020691
642.370742	0.020611
642.577071	0.020554
642.783383	0.020676
642.989676	0.020437
643.195951	0.020513
643.402207	0.020352
643.608446	0.020609
643.814666	0.020671
644.020868	0.021069
644.227052	0.021353
644.433218	0.021242
644.639365	0.021251
644.845494	0.021338
645.051605	0.021479
645.257698	0.021531
645.463772	0.021397
645.669828	0.021447
645.875866	0.021467
646.081886	0.021296
646.287888	0.021494
646.493871	0.021641
646.699836	0.021597
646.905783	0.021627
647.111712	0.021607
647.317622	0.021841
647.523514	0.021591
647.729388	0.021469
647.935244	0.021619
648.141082	0.021658
648.346901	0.021705
648.552702	0.021921
648.758485	0.021989
648.964250	0.021979
649.169996	0.021879
649.375724	0.022403
649.581434	0.022593
649.787126	0.022693
649.992800	0.022804
650.198455	0.022802
650.404092	0.022817
650.609711	0.022913
650.815311	0.023078
651.020894	0.023169
651.226458	0.022771
651.432004	0.022781
651.637532	0.022763
651.843041	0.022710
652.048532	0.022618
652.254006	0.022547
652.459460	0.022323
652.664897	0.022321
652.870315	0.022236
653.075716	0.022260
653.281097	0.022240
653.486461	0.022259
653.691807	0.022309
653.897134	0.022279
654.102443	0.022387
654.307734	0.022447
654.513006	0.022509
654.718261	0.022621
654.923497	0.023121
655.128715	0.023364
655.333915	0.023547
655.539096	0.023761
655.744259	0.023937
655.949404	0.023892
656.154531	0.024113
656.359640	0.024194
656.564730	0.024276
656.769802	0.024059
656.974856	0.023960
657.179892	0.023821
657.384909	0.023670
657.589908	0.023808
657.794889	0.023872
657.999852	0.023819
658.204797	0.023886
658.409723	0.024030
658.614631	0.024131
658.819521	0.024266
659.024393	0.024458
659.229246	0.024624
659.434081	0.024649
659.638898	0.024756
659.843697	0.024923
660.048478	0.024966
660.253240	0.025041
660.457984	0.024896
660.662710	0.024820
660.867417	0.024824
661.072107	0.024673
661.276778	0.024563
661.481431	0.024441
661.686066	0.024264
661.890682	0.024155
662.095281	0.024110
662.299861	0.024403
662.504422	0.024499
662.708966	0.024730
662.913491	0.024931
663.117999	0.025016
663.322488	0.025347
663.526958	0.025593
663.731411	0.025780
663.935845	0.025900
664.140261	0.025996
664.344659	0.026240
664.549038	0.026234
664.753400	0.026237
664.957743	0.026492
665.162068	0.026454
665.366375	0.026561
665.570663	0.026496
665.774933	0.026534
665.979185	0.026488
666.183419	0.026373
666.387635	0.026337
666.591832	0.026507
666.796011	0.026364
667.000172	0.026326
667.204315	0.026343
667.408439	0.026502
667.612545	0.026440
667.816634	0.026382
668.020703	0.026401
668.224755	0.026256
668.428788	0.026090
668.632803	0.026247
668.836800	0.026333
669.040779	0.026212
669.244739	0.026079
669.448681	0.026104
669.652605	0.026137
669.856511	0.026101
670.060399	0.026237
670.264268	0.026289
670.468119	0.026107
670.671952	0.026127
670.875767	0.026257
671.079563	0.026549
671.283341	0.026826
671.487101	0.027039
671.690843	0.027237
671.894567	0.027348
672.098272	0.027497
672.301959	0.027848
672.505628	0.027784
672.709278	0.027607
672.912911	0.027608
673.116525	0.027374
673.320121	0.027320
673.523699	0.027336
673.727258	0.027474
673.930799	0.027538
674.134322	0.027485
674.337827	0.027814
674.541314	0.028147
674.744782	0.028090
674.948232	0.028251
675.151664	0.028186
675.355078	0.028065
675.558474	0.028008
675.761851	0.028008
675.965210	0.027976
676.168551	0.027805
676.371873	0.027759
676.575178	0.027879
676.778464	0.027854
676.981732	0.028171
677.184981	0.028337
677.388213	0.028527
677.591426	0.028552
677.794621	0.028651
677.997798	0.028844
678.200956	0.028898
678.404097	0.029074
678.607219	0.029301
678.810323	0.029137
679.013408	0.029133
679.216476	0.029006
679.419525	0.029190
679.622556	0.029351
679.825569	0.029276
680.028563	0.029398
680.231540	0.029237
680.434498	0.029188
680.637438	0.029275
680.840359	0.029249
681.043263	0.029276
681.246148	0.029007
681.449015	0.028837
681.651864	0.028791
681.854694	0.028778
682.057506	0.028906
682.260301	0.028954
682.463076	0.029153
682.665834	0.029292
682.868573	0.029367
683.071295	0.029658
683.273998	0.029931
683.476682	0.030193
683.679349	0.030260
683.881997	0.030420
684.084627	0.030524
684.287239	0.030386
684.489833	0.030437
684.692408	0.030522
684.894965	0.030707
685.097504	0.030715
685.300025	0.030768
685.502527	0.030648
685.705012	0.030451
685.907478	0.030421
686.109925	0.030554
686.312355	0.030583
686.514766	0.030564
686.717159	0.030411
686.919534	0.030469
687.121891	0.030477
687.324230	0.030736
687.526550	0.030880
687.728852	0.030870
687.931136	0.030662
688.133401	0.030761
688.335649	0.030902
688.537878	0.031087
688.740089	0.031114
688.942281	0.031063
689.144456	0.031016
689.346612	0.031016
689.548750	0.031017
689.750870	0.031230
689.952971	0.031099
690.155055	0.031140
690.357120	0.030846
690.559167	0.030762
690.761195	0.030771
690.963206	0.030730
691.165198	0.030646
691.367172	0.030881
691.569128	0.031020
691.771065	0.031171
691.972984	0.031187
692.174885	0.031522
692.376768	0.031420
692.578633	0.031399
692.780479	0.031628
692.982308	0.031978
693.184118	0.032010
693.385909	0.032046
693.587683	0.032070
693.789438	0.032074
693.991175	0.032024
694.192894	0.032373
694.394595	0.032821
694.596277	0.032808
694.797941	0.032714
694.999587	0.032652
695.201215	0.032784
695.402824	0.033053
695.604416	0.033076
695.805989	0.033035
696.007543	0.033025
696.209080	0.032781
696.410598	0.032922
696.612099	0.032868
696.813580	0.032876
697.015044	0.032746
697.216490	0.032771
697.417917	0.032748
697.619326	0.033087
697.820717	0.033018
698.022089	0.033056
698.223444	0.032899
698.424780	0.033060
698.626098	0.033095
698.827397	0.033096
699.028679	0.032995
699.229942	0.033181
699.431187	0.033151
699.632414	0.033205
699.833622	0.033144
700.034813	0.033361
700.235985	0.033425
700.437139	0.033474
700.638274	0.033547
700.839392	0.033570
701.040491	0.033486
701.241572	0.033377
701.442635	0.033415
701.643679	0.033701
701.844706	0.033892
702.045714	0.034032
702.246704	0.034270
702.447675	0.034295
702.648629	0.034419
702.849564	0.034703
703.050481	0.034735
703.251380	0.034859
703.452260	0.034765
703.653122	0.034630
703.853966	0.034472
704.054792	0.034251
704.255600	0.034172
704.456389	0.034015
704.657160	0.033673
704.857913	0.033640
705.058648	0.033523
705.259365	0.033489
705.460063	0.033478
705.660743	0.033552
705.861405	0.033623
706.062048	0.033883
706.262674	0.033974
706.463281	0.034171
706.663870	0.034209
706.864441	0.034299
707.064993	0.034394
707.265527	0.034155
707.466043	0.034181
707.666541	0.034281
707.867021	0.034293
708.067482	0.034325
708.267925	0.034411
708.468350	0.034407
708.668757	0.034642
708.869145	0.034787
709.069516	0.034995
709.269868	0.035043
709.470201	0.035002
709.670517	0.034981
709.870814	0.035034
710.071093	0.035018
710.271354	0.035247
710.471597	0.035229
710.671821	0.035193
710.872028	0.035271
711.072216	0.035180
711.272385	0.035243
711.472537	0.035378
711.672670	0.035333
711.872785	0.035382
712.072882	0.035386
712.272961	0.035166
712.473021	0.035048
712.673063	0.035048
712.873087	0.035177
713.073093	0.035213
713.273081	0.035094
713.473050	0.035058
713.673001	0.035226
713.872934	0.035140
714.072849	0.035115
714.272745	0.035199
714.472623	0.035125
714.672483	0.035032
714.872325	0.034940
715.072148	0.034816
715.271954	0.034773
715.471741	0.034514
715.671509	0.034541
715.871260	0.034630
716.070992	0.034560
716.270707	0.034520
716.470403	0.034414
716.670080	0.034599
716.869740	0.034798
717.069381	0.035005
717.269004	0.035000
717.468609	0.034777
717.668195	0.034790
717.867764	0.035054
718.067314	0.035220
718.266846	0.035394
718.466360	0.035226
718.665855	0.035081
718.865332	0.034916
719.064791	0.034894
719.264232	0.035106
719.463655	0.035073
719.663059	0.034838
719.862445	0.034803
720.061813	0.034882
720.261163	0.034792
720.460494	0.034899
720.659807	0.035096
720.859102	0.035250
721.058379	0.035280
721.257638	0.035212
721.456878	0.035314
721.656100	0.035335
721.855304	0.035257
722.054490	0.035544
722.253657	0.035504
722.452806	0.035298
722.651937	0.035139
722.851050	0.035134
723.050145	0.035238
723.249221	0.035195
723.448279	0.035155
723.647319	0.035213
723.846340	0.035024
724.045344	0.034886
724.244329	0.034874
724.443296	0.034895
724.642245	0.034932
724.841175	0.034969
725.040088	0.034778
725.238982	0.034839
725.437857	0.034816
725.636715	0.034849
725.835554	0.034866
726.034376	0.035056
726.233179	0.034873
726.431963	0.034703
726.630730	0.034655
726.829478	0.034770
727.028208	0.034727
727.226920	0.034536
727.425614	0.034444
727.624289	0.034493
727.822946	0.034293
728.021585	0.034554
728.220206	0.034597
728.418808	0.034603
728.617392	0.034804
728.815958	0.034679
729.014506	0.034997
729.213036	0.035048
729.411547	0.035063
729.610040	0.035233
729.808515	0.035243
730.006972	0.035287
730.205410	0.035323
730.403831	0.035221
730.602233	0.035371
730.800616	0.035251
730.998982	0.035244
731.197329	0.035276
731.395658	0.035219
731.593969	0.035152
731.792262	0.035168
731.990536	0.035260
732.188793	0.035360
732.387031	0.035158
732.585250	0.035119
732.783452	0.035289
732.981635	0.035215
733.179800	0.035189
733.377947	0.035177
733.576076	0.035136
733.774186	0.034900
733.972278	0.034793
734.170352	0.034789
734.368408	0.034548
734.566446	0.034383
734.764465	0.034430
734.962466	0.034449
735.160449	0.034519
735.358413	0.034578
735.556360	0.034704
735.754288	0.034683
735.952198	0.034814
736.150090	0.034870
736.347963	0.034722
736.545818	0.034804
736.743655	0.034799
736.941474	0.034519
737.139275	0.034362
737.337057	0.034202
737.534821	0.034136
737.732567	0.034040
737.930295	0.034107
738.128005	0.034125
738.325696	0.033942
738.523369	0.033724
738.721024	0.033896
738.918660	0.033968
739.116279	0.034132
739.313879	0.034090
739.511461	0.034090
739.709024	0.034164
739.906570	0.034441
740.104097	0.034472
740.301606	0.034681
740.499097	0.034899
740.696569	0.035012
740.894024	0.035019
741.091460	0.035288
741.288878	0.035408
741.486277	0.035378
741.683659	0.035418
741.881022	0.035624
742.078367	0.035625
742.275694	0.035554
742.473002	0.035593
742.670293	0.035749
742.867565	0.035735
743.064819	0.035889
743.262054	0.035999
743.459272	0.035909
743.656471	0.035761
743.853652	0.035914
744.050815	0.035846
744.247959	0.035743
744.445085	0.035488
744.642194	0.035317
744.839283	0.034932
745.036355	0.034838
745.233408	0.034698
745.430444	0.034848
745.627461	0.034680
745.824459	0.034728
746.021440	0.034880
746.218402	0.035077
746.415346	0.035011
746.612272	0.035094
746.809180	0.035246
747.006069	0.035350
747.202940	0.035218
747.399793	0.035217
747.596628	0.035307
747.793444	0.035210
747.990243	0.035126
748.187023	0.035083
748.383784	0.035201
748.580528	0.035015
748.777253	0.034846
748.973960	0.034965
749.170649	0.034954
749.367320	0.034958
749.563973	0.034888
749.760607	0.034777
749.957223	0.035000
750.153821	0.035093
750.350400	0.035189
750.546962	0.035280
750.743505	0.035361
750.940030	0.035467
751.136536	0.035302
751.333025	0.035348
751.529495	0.035327
751.725947	0.035340
751.922381	0.035157
752.118796	0.035123
752.315194	0.035270
752.511573	0.035180
752.707934	0.035090
752.904276	0.035182
753.100601	0.035278
753.296907	0.035517
753.493195	0.035553
753.689465	0.035664
753.885716	0.035894
754.081949	0.035780
754.278164	0.035863
754.474361	0.035999
754.670540	0.035981
754.866700	0.035911
755.062843	0.035974
755.258967	0.035875
755.455072	0.035918
755.651160	0.035840
755.847229	0.035944
756.043280	0.036042
756.239313	0.035994
756.435328	0.036215
756.631324	0.036403
756.827302	0.036260
757.023262	0.036407
757.219204	0.036392
757.415127	0.036209
757.611033	0.036147
757.806920	0.036133
758.002788	0.036117
758.198639	0.036127
758.394471	0.035930
758.590286	0.036032
758.786081	0.035900
758.981859	0.035813
759.177619	0.035851
759.373360	0.035796
759.569083	0.035720
759.764788	0.035628
759.960474	0.035419
760.156143	0.035250
760.351793	0.035095
760.547425	0.035068
760.743038	0.035196
760.938634	0.035018
761.134211	0.035315
761.329770	0.035240
761.525311	0.035430
761.720833	0.035440
761.916338	0.035685
762.111824	0.035719
762.307292	0.035858
762.502741	0.035727
762.698173	0.035997
762.893586	0.035533
763.088981	0.035392
763.284358	0.035237
763.479716	0.035204
763.675057	0.035084
763.870379	0.035175
764.065683	0.035108
764.260968	0.035061
764.456236	0.035006
764.651485	0.035071
764.846716	0.035140
765.041929	0.035183
765.237123	0.035028
765.432299	0.034993
765.627457	0.034914
765.822597	0.034857
766.017719	0.034864
766.212822	0.034816
766.407907	0.034856
766.602974	0.035014
766.798023	0.034843
766.993054	0.034773
767.188066	0.034690
767.383060	0.034576
767.578036	0.034485
767.772993	0.034499
767.967933	0.034623
768.162854	0.034763
768.357757	0.034591
768.552642	0.034673
768.747508	0.034944
768.942356	0.035247
769.137186	0.035204
769.331998	0.035351
769.526792	0.035562
769.721567	0.035451
769.916324	0.035432
770.111063	0.035545
770.305784	0.035696
770.500486	0.035761
770.695171	0.035608
770.889837	0.035703
771.084484	0.035541
771.279114	0.035469
771.473725	0.035381
771.668318	0.035198
771.862893	0.034911
772.057450	0.034514
772.251988	0.034351
772.446509	0.034267
772.641011	0.034268
772.835494	0.034229
773.029960	0.034029
773.224407	0.034081
773.418836	0.034078
773.613247	0.034211
773.807640	0.034316
774.002014	0.034313
774.196370	0.034339
774.390708	0.034328
774.585028	0.034236
774.779330	0.034178
774.973613	0.034056
775.167878	0.034060
775.362125	0.034050
775.556354	0.034226
775.750564	0.034351
775.944756	0.034288
776.138930	0.034469
776.333086	0.034748
776.527223	0.035048
776.721343	0.035047
776.915444	0.035187
777.109526	0.035143
777.303591	0.035210
777.497637	0.035145
777.691666	0.035167
777.885676	0.035000
778.079667	0.034845
778.273641	0.034703
778.467596	0.034872
778.661533	0.034912
778.855452	0.035045
779.049352	0.034976
779.243235	0.034917
779.437099	0.035038
779.630945	0.035133
779.824773	0.035304
780.018582	0.035355
780.212373	0.035489
780.406146	0.035495
780.599901	0.035625
780.793638	0.035766
780.987356	0.036081
781.181056	0.036254
781.374738	0.036367
781.568402	0.036121
781.762047	0.036171
781.955674	0.036124
782.149283	0.036042
782.342874	0.035953
782.536447	0.035966
782.730001	0.035732
782.923537	0.035681
783.117055	0.035767
783.310555	0.036014
783.504036	0.036040
783.697499	0.036070
783.890944	0.035956
784.084371	0.036003
784.277780	0.035879
784.471170	0.036013
784.664542	0.035978
784.857896	0.035800
785.051231	0.035789
785.244549	0.035738
785.437848	0.035777
785.631129	0.036011
785.824392	0.035913
786.017636	0.036122
786.210863	0.036106
786.404071	0.036068
786.597260	0.035991
786.790432	0.035954
786.983585	0.035867
787.176721	0.035587
787.369838	0.035601
787.562936	0.035674
787.756017	0.035616
787.949079	0.035581
788.142123	0.035491
788.335149	0.035627
788.528156	0.035740
788.721146	0.035753
788.914117	0.035789
789.107070	0.035710
789.300005	0.035678
789.492921	0.035516
789.685819	0.035369
789.878699	0.035371
790.071561	0.035229
790.264405	0.034973
790.457230	0.035086
790.650037	0.035226
790.842826	0.035343
791.035597	0.035336
791.228349	0.035310
791.421084	0.035303
791.613800	0.035546
791.806497	0.035730
791.999177	0.035962
792.191838	0.035990
792.384481	0.036011
792.577106	0.036036
792.769713	0.035968
792.962301	0.035968
793.154871	0.035999
793.347423	0.035813
793.539957	0.035728
793.732473	0.035686
793.924970	0.035828
794.117449	0.035839
794.309910	0.035712
794.502353	0.036004
794.694777	0.036364
794.887183	0.036571
795.079571	0.036570
795.271941	0.036558
795.464293	0.036697
795.656626	0.036840
795.848941	0.036934
796.041238	0.037180
796.233516	0.037234
796.425777	0.037274
796.618019	0.037391
796.810243	0.037592
797.002449	0.037668
797.194636	0.037930
797.386805	0.037816
797.578956	0.037847
797.771089	0.037840
797.963204	0.037552
798.155300	0.037334
798.347378	0.037242
798.539438	0.037104
798.731480	0.037241
798.923503	0.036913
799.115509	0.036836
799.307496	0.036792
799.499465	0.036690
799.691415	0.036699
799.883348	0.037007
800.075262	0.037086
800.267158	0.037227
800.459035	0.037270
800.650895	0.037538
800.842736	0.037621
801.034559	0.037756
801.226364	0.037882
801.418150	0.038271
801.609919	0.038121
801.801669	0.038155
801.993401	0.038128
802.185114	0.038186
802.376810	0.037839
802.568487	0.037796
802.760146	0.037739
802.951787	0.037771
803.143409	0.037707
803.335014	0.037799
803.526600	0.037985
803.718168	0.038132
803.909717	0.037941
804.101249	0.038208
804.292762	0.038529
804.484257	0.038642
804.675734	0.038560
804.867192	0.038537
805.058632	0.038533
805.250054	0.038396
805.441458	0.038411
805.632844	0.038554
805.824211	0.038563
806.015561	0.038358
806.206891	0.038421
806.398204	0.038452
806.589499	0.038259
806.780775	0.038322
806.972033	0.038400
807.163273	0.038356
807.354495	0.038263
807.545698	0.038119
807.736883	0.038139
807.928050	0.038090
808.119199	0.038264
808.310329	0.038532
808.501441	0.038421
808.692535	0.038466
808.883611	0.038640
809.074669	0.038892
809.265708	0.039203
809.456729	0.039243
809.647732	0.039377
809.838717	0.039441
810.029683	0.039526
810.220632	0.039527
810.411562	0.039439
810.602474	0.039306
810.793367	0.039301
810.984242	0.039427
811.175100	0.039541
811.365938	0.039584
811.556759	0.039611
811.747562	0.039431
811.938346	0.039522
812.129112	0.039604
812.319860	0.039744
812.510589	0.039949
812.701300	0.039809
812.891994	0.039574
813.082668	0.039499
813.273325	0.039447
813.463964	0.039589
813.654584	0.039680
813.845186	0.039841
814.035769	0.039869
814.226335	0.039903
814.416882	0.039873
814.607411	0.040107
814.797922	0.040083
814.988415	0.039894
815.178889	0.039856
815.369345	0.039863
815.559783	0.039780
815.750203	0.039815
815.940605	0.039535
816.130988	0.039602
816.321353	0.039686
816.511700	0.039704
816.702028	0.039862
816.892339	0.039944
817.082631	0.040018
817.272905	0.039858
817.463161	0.039739
817.653398	0.039828
817.843617	0.039793
818.033819	0.039566
818.224001	0.039610
818.414166	0.039912
818.604312	0.039773
818.794440	0.039611
818.984550	0.039540
819.174642	0.039417
819.364716	0.039260
819.554771	0.039202
819.744808	0.039380
819.934827	0.039328
820.124827	0.039064
820.314810	0.039289
820.504774	0.039354
820.694720	0.039536
820.884647	0.039685
821.074557	0.039781
821.264448	0.039822
821.454321	0.039747
821.644176	0.039706
821.834012	0.039750
822.023831	0.039618
822.213631	0.039552
822.403413	0.039463
822.593176	0.039346
822.782922	0.039333
822.972649	0.039394
823.162358	0.039463
823.352049	0.039508
823.541721	0.039656
823.731376	0.039721
823.921012	0.039841
824.110629	0.039966
824.300229	0.040013
824.489811	0.040099
824.679374	0.040023
824.868919	0.039925
825.058445	0.039850
825.247954	0.039756
825.437444	0.039573
825.626916	0.039553
825.816370	0.039556
826.005806	0.039801
826.195223	0.039843
826.384622	0.039923
826.574003	0.040283
826.763366	0.040637
826.952711	0.040547
827.142037	0.040665
827.331345	0.040607
827.520635	0.040574
827.709906	0.040372
827.899160	0.040390
828.088395	0.040424
828.277612	0.040065
828.466810	0.039645
828.655991	0.039704
828.845153	0.039626
829.034297	0.039743
829.223423	0.039840
829.412531	0.040255
829.601620	0.040397
829.790691	0.040434
829.979744	0.040769
830.168779	0.041247
830.357795	0.041277
830.546793	0.041560
830.735773	0.041499
830.924735	0.041303
831.113679	0.041097
831.302604	0.040891
831.491511	0.040798
831.680400	0.040847
831.869271	0.040747
832.058123	0.040877
832.246957	0.040998
832.435773	0.040966
832.624571	0.041230
832.813351	0.041312
833.002112	0.041454
833.190855	0.041544
833.379580	0.041405
833.568287	0.041537
833.756975	0.041610
833.945645	0.041533
834.134297	0.041797
834.322931	0.041654
834.511547	0.041470
834.700144	0.041273
834.888723	0.041246
835.077284	0.041344
835.265826	0.041211
835.454351	0.040957
835.642857	0.040660
835.831345	0.040531
836.019815	0.040543
836.208266	0.040705
836.396699	0.040755
836.585114	0.040757
836.773511	0.040668
836.961890	0.040725
837.150250	0.040779
837.338592	0.041064
837.526916	0.041285
837.715222	0.041721
837.903510	0.041530
838.091779	0.041326
838.280030	0.041398
838.468263	0.041193
838.656477	0.041281
838.844674	0.041374
839.032852	0.041286
839.221012	0.041091
839.409153	0.040719
839.597277	0.040926
839.785382	0.041504
839.973469	0.041634
840.161538	0.041883
840.349589	0.041491
840.537621	0.041479
840.725635	0.041658
840.913631	0.041733
841.101609	0.041827
841.289568	0.041743
841.477509	0.041668
841.665432	0.041333
841.853337	0.041349
842.041224	0.041797
842.229092	0.041828
842.416942	0.041749
842.604774	0.041468
842.792588	0.041445
842.980383	0.041446
843.168160	0.041096
843.355919	0.041378
843.543660	0.041539
843.731382	0.041411
843.919087	0.041550
844.106773	0.041598
844.294441	0.041881
844.482090	0.041843
844.669722	0.042151
844.857335	0.042444
845.044930	0.042246
845.232507	0.042110
845.420065	0.042101
845.607605	0.042044
845.795127	0.042125
845.982631	0.042194
846.170117	0.042434
846.357584	0.042350
846.545033	0.042432
846.732464	0.042821
846.919877	0.042886
847.107272	0.043077
847.294648	0.043092
847.482006	0.043159
847.669346	0.043161
847.856667	0.042958
848.043971	0.043008
848.231256	0.043046
848.418523	0.042797
848.605771	0.042724
848.793002	0.042611
848.980214	0.042700
849.167408	0.042590
849.354584	0.042633
849.541742	0.042893
849.728881	0.042761
849.916002	0.042521
850.103105	0.042676
850.290190	0.042697
850.477256	0.042608
850.664304	0.042720
850.851334	0.042729
851.038346	0.042868
851.225340	0.042527
851.412315	0.042589
851.599272	0.042932
851.786211	0.042871
851.973132	0.042976
852.160034	0.043018
852.346918	0.042830
852.533784	0.042886
852.720632	0.042847
852.907462	0.043056
853.094273	0.043110
853.281066	0.042904
853.467841	0.042969
853.654598	0.042839
853.841336	0.042762
854.028056	0.042831
854.214758	0.042697
854.401442	0.042492
854.588107	0.042435
854.774755	0.042298
854.961384	0.042306
855.147995	0.042300
855.334587	0.042328
855.521162	0.042518
855.707718	0.042622
855.894256	0.042898
856.080775	0.042997
856.267277	0.042987
856.453760	0.043314
856.640225	0.043534
856.826672	0.043557
857.013101	0.043720
857.199511	0.043679
857.385903	0.043533
857.572277	0.043510
857.758633	0.043491
857.944970	0.043526
858.131290	0.043384
858.317591	0.043324
858.503873	0.043608
858.690138	0.043655
858.876384	0.043847
859.062612	0.043838
859.248822	0.043903
859.435014	0.043762
859.621188	0.043956
859.807343	0.043767
859.993480	0.043431
860.179599	0.042969
860.365699	0.042838
860.551781	0.042771
860.737846	0.042717
860.923891	0.042264
861.109919	0.042543
861.295929	0.042541
861.481920	0.042585
861.667893	0.042728
861.853848	0.042706
862.039784	0.042627
862.225702	0.042198
862.411603	0.042087
862.597484	0.042411
862.783348	0.042067
862.969193	0.041721
863.155021	0.041535
863.340830	0.041507
863.526620	0.041383
863.712393	0.041403
863.898147	0.041891
864.083883	0.042107
864.269601	0.041921
864.455301	0.042006
864.640982	0.042299
864.826645	0.042132
865.012290	0.042041
865.197917	0.042349
865.383526	0.042328
865.569116	0.042081
865.754688	0.042282
865.940242	0.042326
866.125777	0.042312
866.311295	0.042252
866.496794	0.042471
866.682275	0.042632
866.867737	0.042511
867.053182	0.042465
867.238608	0.042511
867.424016	0.042010
867.609406	0.041967
867.794778	0.042061
867.980131	0.041811
868.165466	0.041922
868.350783	0.041723
868.536082	0.041753
868.721362	0.041980
868.906625	0.041684
869.091869	0.042047
869.277094	0.041950
869.462302	0.041847
869.647491	0.042226
869.832662	0.042198
870.017815	0.042381
870.202950	0.042619
870.388066	0.042679
870.573165	0.043041
870.758245	0.043112
870.943306	0.043340
871.128350	0.043537
871.313375	0.043311
871.498382	0.043370
871.683371	0.043368
871.868342	0.043059
872.053294	0.042852
872.238229	0.042884
872.423144	0.042718
872.608042	0.042401
872.792922	0.042254
872.977783	0.042255
873.162626	0.042214
873.347451	0.042126
873.532258	0.042074
873.717046	0.042133
873.901816	0.041777
874.086568	0.041854
874.271302	0.042047
874.456017	0.042320
874.640715	0.042348
874.825394	0.042349
875.010055	0.042431
875.194697	0.042800
875.379322	0.042665
875.563928	0.042979
875.748516	0.042798
875.933085	0.042677
876.117637	0.042444
876.302170	0.042385
876.486685	0.042392
876.671182	0.042097
876.855661	0.041780
877.040121	0.041822
877.224563	0.041360
877.408987	0.041367
877.593393	0.041203
877.777780	0.041083
877.962150	0.040842
878.146501	0.040821
878.330833	0.040859
878.515148	0.040844
878.699444	0.040804
878.883722	0.041131
879.067982	0.040727
879.252224	0.040914
879.436447	0.040950
879.620653	0.041336
879.804840	0.041321
879.989008	0.041424
880.173159	0.041203
880.357291	0.041230
880.541405	0.041078
880.725501	0.041224
880.909579	0.041342
881.093638	0.041292
881.277680	0.040965
881.461703	0.040713
881.645707	0.040820
881.829694	0.040871
882.013662	0.040404
882.197612	0.040295
882.381544	0.040190
882.565458	0.040345
882.749353	0.040203
882.933230	0.040062
883.117089	0.040147
883.300930	0.039923
883.484753	0.039869
883.668557	0.040369
883.852343	0.040338
884.036111	0.040516
884.219861	0.039992
884.403592	0.040085
884.587305	0.040312
884.771000	0.040287
884.954677	0.040228
885.138335	0.040199
885.321976	0.039773
885.505598	0.039953
885.689201	0.039757
885.872787	0.040065
886.056354	0.040120
886.239904	0.039796
886.423434	0.039703
886.606947	0.039667
886.790442	0.039676
886.973918	0.039899
887.157376	0.039655
887.340816	0.039852
887.524237	0.039620
887.707641	0.039672
887.891026	0.039811
888.074393	0.039842
888.257741	0.039771
888.441072	0.039767
888.624384	0.039437
888.807678	0.039384
888.990954	0.039157
889.174211	0.039114
889.357451	0.038641
889.540672	0.038617
889.723875	0.038421
889.907059	0.038310
890.090226	0.038154
890.273374	0.037876
890.456504	0.037613
890.639616	0.037459
890.822709	0.036973
891.005785	0.037047
891.188842	0.036622
891.371881	0.036165
891.554901	0.035963
891.737904	0.035974
891.920888	0.036092
892.103854	0.036176
892.286802	0.036250
892.469731	0.036276
892.652643	0.035949
892.835536	0.036182
893.018410	0.036296
893.201267	0.036216
893.384106	0.036237
893.566926	0.036297
893.749728	0.036398
893.932511	0.036226
894.115277	0.036223
894.298024	0.036194
894.480753	0.036301
894.663464	0.036363
894.846157	0.036427
895.028831	0.036178
895.211487	0.035877
895.394125	0.035470
895.576745	0.035345
895.759346	0.035617
895.941930	0.035515
896.124495	0.035105
896.307041	0.035189
896.489570	0.035288
896.672080	0.035319
896.854573	0.035458
897.037046	0.035527
897.219502	0.035817
897.401940	0.035733
897.584359	0.035884
897.766760	0.035980
897.949143	0.036000
898.131507	0.035994
898.313854	0.035891
898.496182	0.035814
898.678492	0.035502
898.860783	0.035100
899.043057	0.034545
899.225312	0.034518
899.407549	0.034213
899.589768	0.034132
899.771968	0.033942
899.954151	0.033977
900.136315	0.034060
900.318461	0.034362
900.500588	0.034355
900.682698	0.034712
900.864789	0.034671
901.046862	0.034704
901.228917	0.034450
901.410953	0.034049
901.592971	0.033731
901.774972	0.033495
901.956953	0.033376
902.138917	0.033054
902.320862	0.032912
902.502790	0.032896
902.684699	0.033058
902.866589	0.032885
903.048462	0.033153
903.230316	0.033242
903.412152	0.033037
903.593970	0.033093
903.775770	0.033288
903.957551	0.032845
904.139314	0.032266
904.321059	0.032056
904.502786	0.032014
904.684494	0.031808
904.866185	0.031540
905.047857	0.031637
905.229510	0.031423
905.411146	0.031406
905.592763	0.031650
905.774363	0.031946
905.955943	0.031734
906.137506	0.032015
906.319051	0.032024
906.500577	0.032135
906.682085	0.032021
906.863575	0.031564
907.045046	0.031392
907.226500	0.031251
907.407935	0.031210
907.589352	0.031128
907.770750	0.030621
907.952131	0.030417
908.133493	0.030219
908.314837	0.029785
908.496163	0.029779
908.677470	0.029339
908.858760	0.029272
909.040031	0.029027
909.221284	0.028915
909.402518	0.028822
909.583735	0.028685
909.764933	0.028097
909.946113	0.028365
910.127275	0.028657
910.308418	0.028460
910.489544	0.028451
910.670651	0.028171
910.851740	0.027985
911.032810	0.028024
911.213863	0.027725
911.394897	0.028098
911.575913	0.027725
911.756911	0.026928
911.937890	0.027352
912.118851	0.027455
912.299794	0.027468
912.480719	0.027942
912.661626	0.027591
912.842514	0.027786
913.023384	0.027654
913.204236	0.027547
913.385070	0.027639
913.565886	0.027510
913.746683	0.027117
913.927462	0.027071
914.108223	0.026502
914.288965	0.026419
914.469690	0.026325
914.650396	0.026114
914.831084	0.026154
915.011754	0.026226
915.192405	0.025937
915.373038	0.026141
915.553653	0.026024
915.734250	0.025667
915.914829	0.026114
916.095389	0.026052
916.275931	0.025608
916.456455	0.025810
916.636961	0.026142
916.817448	0.026164
916.997917	0.025825
917.178368	0.025675
917.358801	0.026054
917.539216	0.025724
917.719612	0.025550
917.899990	0.026176
918.080350	0.025914
918.260692	0.025620
918.441015	0.025273
918.621320	0.025170
918.801607	0.025462
918.981876	0.025126
919.162127	0.024744
919.342359	0.024482
919.522573	0.024118
919.702769	0.023662
919.882947	0.023048
920.063106	0.023011
920.243247	0.022676
920.423370	0.022331
920.603475	0.022338
920.783562	0.022172
920.963630	0.022316
921.143680	0.022088
921.323712	0.021953
921.503725	0.021921
921.683721	0.021793
921.863698	0.021965
922.043657	0.021503
922.223598	0.020729
922.403520	0.020566
922.583424	0.020027
922.763311	0.019837
922.943178	0.019858
923.123028	0.019780
923.302859	0.019510
923.482673	0.018768
923.662467	0.018593
923.842244	0.018759
924.022003	0.018594
924.201743	0.018388
924.381465	0.018094
924.561169	0.018238
924.740854	0.017891
924.920522	0.017721
925.100171	0.017564
925.279802	0.017535
925.459414	0.017453
925.639009	0.017535
925.818585	0.017423
925.998143	0.017278
926.177683	0.016320
926.357205	0.016529
926.536708	0.016692
926.716193	0.016600
926.895660	0.016293
927.075109	0.015875
927.254539	0.014885
927.433951	0.014831
927.613345	0.014598
927.792721	0.014744
927.972079	0.014710
928.151418	0.014268
928.330739	0.014328
928.510042	0.013783
928.689327	0.013504
928.868593	0.013712
929.047841	0.013555
929.227071	0.013728
929.406283	0.013509
929.585476	0.012904
929.764652	0.012399
929.943809	0.012503
930.122948	0.013019
930.302068	0.012806
930.481171	0.012350
930.660255	0.011825
930.839321	0.011196
931.018369	0.011583
931.197398	0.011452
931.376409	0.011709
931.555402	0.011224
931.734377	0.011011
931.913334	0.011108
932.092272	0.011693
932.271192	0.011763
932.450094	0.012335
932.628978	0.011069
932.807844	0.010493
932.986691	0.010524
933.165520	0.010002
933.344331	0.009354
933.523123	0.009275
933.701898	0.008756
933.880654	0.008743
934.059392	0.007574
934.238111	0.008136
934.416813	0.008000
934.595496	0.007148
934.774161	0.007026
934.952808	0.007100
935.131437	0.006877
935.310047	0.006638
935.488639	0.005721
935.667213	0.006277
935.845769	0.005817
936.024306	0.006551
936.202825	0.006394
936.381326	0.006309
936.559809	0.006724
936.738274	0.006301
936.916720	0.006271
937.095148	0.006347
937.273558	0.005527
937.451950	0.005143
937.630323	0.004514
937.808678	0.004582
937.987015	0.004027
938.165334	0.003331
938.343635	0.003204
938.521917	0.002680
938.700181	0.002936
938.878427	0.002831
939.056655	0.003375
939.234864	0.003162
939.413055	0.002073
939.591228	0.002032
939.769383	0.001711
939.947519	0.001415
940.125638	0.002080
940.303738	0.001497
940.481820	0.001355
940.659883	-0.000281
940.837929	-0.000731
941.015956	-0.000633
941.193965	-0.000847
941.371955	-0.001430
941.549928	-0.002161
941.727882	-0.003686
941.905818	-0.004146
942.083736	-0.004109
942.261636	-0.004003
942.439517	-0.004372
942.617380	-0.003697
942.795225	-0.003965
942.973052	-0.003653
943.150860	-0.003117
943.328651	-0.003049
943.506423	-0.003298
943.684176	-0.004190
943.861912	-0.003729
944.039629	-0.003144
944.217328	-0.003932
944.395009	-0.004287
944.572672	-0.004948
944.750317	-0.005276
944.927943	-0.005228
945.105551	-0.005761
945.283141	-0.005606
945.460712	-0.006113
945.638265	-0.006834
945.815801	-0.006592
945.993317	-0.006476
946.170816	-0.006403
946.348297	-0.006356
946.525759	-0.006886
946.703203	-0.006574
946.880629	-0.006905
947.058036	-0.006653
947.235425	-0.006457
947.412797	-0.006382
947.590149	-0.006067
947.767484	-0.005914
947.944800	-0.006203
948.122099	-0.007628
948.299379	-0.007458
948.476640	-0.006254
948.653884	-0.006149
948.831109	-0.006716
949.008316	-0.007509
949.185505	-0.007991
949.362676	-0.008902
949.539828	-0.008620
949.716962	-0.008721
949.894078	-0.009196
950.071176	-0.011612
950.248256	-0.013022
950.425317	-0.014590
950.602360	-0.015035
950.779385	-0.014807
950.956391	-0.014154
951.133380	-0.014881
951.310350	-0.011900
951.487302	-0.011212
951.664235	-0.010701
951.841151	-0.009774
952.018048	-0.008164
952.194927	-0.007860
952.371788	-0.009398
952.548631	-0.010697
952.725455	-0.011602
952.902261	-0.013163
953.079049	-0.013442
953.255819	-0.012726
953.432570	-0.013544
953.609303	-0.013379
953.786018	-0.013274
953.962715	-0.013311
954.139394	-0.012969
954.316054	-0.013096
954.492696	-0.014222
954.669320	-0.015103
954.845926	-0.014945
955.022513	-0.013870
955.199083	-0.014888
955.375634	-0.014956
955.552166	-0.013691
955.728681	-0.014001
955.905177	-0.013809
956.081655	-0.012407
956.258115	-0.011482
956.434557	-0.010903
956.610980	-0.012156
956.787385	-0.011392
956.963772	-0.010535
957.140141	-0.009652
957.316492	-0.009260
957.492824	-0.007853
957.669138	-0.007870
957.845434	-0.007513
958.021712	-0.007727
958.197971	-0.006887
958.374212	-0.007643
958.550435	-0.007228
958.726640	-0.008672
958.902826	-0.006755
959.078995	-0.006756
959.255145	-0.006358
959.431277	-0.007976
959.607390	-0.008295
959.783486	-0.006650
959.959563	-0.005951
960.135622	-0.007153
960.311662	-0.006702
960.487685	-0.007852
960.663689	-0.008390
960.839675	-0.008780
961.015643	-0.006818
961.191593	-0.005291
961.367524	-0.005527
961.543437	-0.004610
961.719332	-0.005417
961.895209	-0.006178
962.071067	-0.006946
962.246907	-0.006054
962.422730	-0.005153
962.598533	-0.006167
962.774319	-0.007157
962.950086	-0.007227
963.125835	-0.006619
963.301566	-0.004268
963.477279	-0.003529
963.652973	-0.002955
963.828650	-0.003311
964.004308	-0.002926
964.179947	-0.003672
964.355569	-0.002324
964.531172	-0.002554
964.706757	-0.004255
964.882324	-0.005422
965.057873	-0.003191
965.233403	-0.002079
965.408916	-0.003452
965.584410	-0.004205
965.759885	-0.002934
965.935343	-0.005308
966.110782	-0.005340
966.286203	-0.004765
966.461606	-0.005458
966.636991	-0.008082
966.812357	-0.009511
966.987705	-0.009488
967.163035	-0.008293
967.338347	-0.007659
967.513641	-0.006046
967.688916	-0.005428
967.864173	-0.004081
968.039412	-0.002959
968.214632	-0.001050
968.389835	0.000723
968.565019	0.001996
968.740185	0.001755
968.915333	0.001833
969.090462	0.002130
969.265573	0.001987
969.440667	0.001584
969.615741	0.002015
969.790798	0.003234
969.965836	0.002758
970.140856	0.001829
970.315858	0.003660
970.490842	0.003835
970.665808	0.004302
970.840755	0.003095
971.015684	0.001383
971.190595	0.000992
971.365487	0.000405
971.540362	0.000014
971.715218	0.002005
971.890056	-0.000079
972.064875	-0.001741
972.239677	-0.004364
972.414460	-0.004721
972.589225	-0.005013
972.763972	-0.004205
972.938700	-0.005727
973.113411	-0.007692
973.288103	-0.008902
973.462777	-0.008760
973.637432	-0.004468
973.812070	-0.002052
973.986689	-0.000093
974.161290	0.001320
974.335873	0.000501
974.510437	0.001066
974.684984	0.003981
974.859512	0.004495
975.034022	0.005546
975.208513	0.003923
975.382987	0.002069
975.557442	-0.000727
975.731879	0.001075
975.906298	0.002561
976.080698	0.001819
976.255080	0.000743
976.429445	0.000352
976.603790	0.000415
976.778118	-0.002786
976.952427	-0.002622
977.126719	-0.002079
977.300992	-0.003970
977.475246	-0.005909
977.649483	-0.005838
977.823701	-0.008040
977.997901	-0.007240
978.172083	-0.009835
978.346247	-0.009656
978.520392	-0.007122
978.694519	-0.004744
978.868628	-0.004183
979.042719	-0.003156
979.216791	-0.003852
979.390845	-0.002392
979.564882	-0.003250
979.738899	-0.001762
979.912899	0.000130
980.086880	-0.001815
980.260843	-0.002875
980.434788	-0.004104
980.608715	-0.004243
980.782623	-0.004021
980.956514	-0.003903
981.130386	-0.002770
981.304240	-0.003111
981.478075	-0.004502
981.651892	-0.005889
981.825692	-0.003907
981.999472	-0.002378
982.173235	-0.001980
982.346980	-0.002348
982.520706	-0.000680
982.694414	-0.000121
982.868104	-0.002311
983.041775	-0.003101
983.215428	-0.002690
983.389064	-0.004473
983.562680	-0.005670
983.736279	-0.006390
983.909860	-0.005725
984.083422	-0.006640
984.256966	-0.007421
984.430491	-0.006100
984.603999	-0.004327
984.777488	-0.004004
984.950959	-0.004771
985.124412	-0.004484
985.297847	-0.006048
985.471263	-0.004957
985.644661	-0.005186
985.818041	-0.005828
985.991403	-0.006396
986.164747	-0.006706
986.338072	-0.006812
986.511379	-0.005869
986.684668	-0.007049
986.857938	-0.004758
987.031191	-0.006434
987.204425	-0.006917
987.377641	-0.006314
987.550839	-0.003451
987.724018	-0.004419
987.897179	-0.003367
988.070322	-0.004434
988.243447	-0.001558
988.416554	-0.003191
988.589642	-0.003072
988.762712	-0.003647
988.935764	-0.004492
989.108798	-0.005676
989.281813	-0.004170
989.454811	-0.005294
989.627790	-0.005352
989.800751	-0.006050
989.973693	-0.004757
990.146617	-0.003220
990.319524	-0.001428
990.492412	-0.001854
990.665281	-0.001779
990.838133	-0.001453
991.010966	-0.000794
991.183781	-0.000971
991.356578	-0.000761
991.529356	-0.002471
991.702117	-0.003301
991.874859	-0.003109
992.047583	-0.002114
992.220288	-0.002905
992.392976	-0.004711
992.565645	-0.004764
992.738296	-0.004846
992.910929	-0.006898
993.083543	-0.006364
993.256139	-0.006242
993.428718	-0.007753
993.601277	-0.009369
993.773819	-0.010146
993.946342	-0.010322
994.118848	-0.010733
994.291335	-0.011616
994.463803	-0.011250
994.636254	-0.012454
994.808686	-0.011640
994.981100	-0.011742
995.153496	-0.009976
995.325874	-0.009345
995.498233	-0.007593
995.670574	-0.007691
995.842897	-0.008244
996.015202	-0.007481
996.187488	-0.005525
996.359757	-0.005089
996.532007	-0.005281
996.704239	-0.005160
996.876452	-0.005748
997.048648	-0.007039
997.220825	-0.006809
997.392984	-0.005578
997.565124	-0.006809
997.737247	-0.007374
997.909351	-0.008336
998.081437	-0.007180
998.253505	-0.008457
998.425554	-0.008484
998.597586	-0.007701
998.769599	-0.007818
998.941594	-0.006540
999.113571	-0.007411
999.285529	-0.007668
999.457469	-0.007896
999.629391	-0.008826
999.801295	-0.005979
999.973181	-0.005303
1000.145048	-0.006045
1000.316897	-0.005817
1000.488728	-0.006563
1000.660541	-0.005177
1000.832335	-0.004296
1001.004111	-0.005224
1001.175869	-0.003878
1001.347609	-0.007301
1001.519331	-0.008170
1001.691034	-0.009277
1001.862719	-0.010709
1002.034386	-0.011127
1002.206035	-0.011200
1002.377665	-0.011364
1002.549277	-0.011389
1002.720871	-0.014131
1002.892447	-0.014271
1003.064004	-0.012603
1003.235544	-0.012396
1003.407065	-0.011333
1003.578568	-0.011747
1003.750052	-0.010922
1003.921519	-0.012295
1004.092967	-0.012575
1004.264397	-0.011105
1004.435809	-0.010010
1004.607202	-0.012039
1004.778577	-0.011653
1004.949934	-0.012470
1005.121273	-0.012415
1005.292594	-0.012724
1005.463896	-0.013460
1005.635180	-0.011971
1005.806446	-0.011941
1005.977694	-0.012873
1006.148923	-0.011946
1006.320135	-0.010293
1006.491328	-0.009047
1006.662503	-0.008288
1006.833659	-0.008749
1007.004798	-0.006626
1007.175918	-0.006015
1007.347020	-0.005758
1007.518103	-0.005438
1007.689169	-0.005267
1007.860216	-0.006232
1008.031245	-0.006714
1008.202256	-0.006299
1008.373248	-0.004693
1008.544223	-0.005773
1008.715179	-0.005647
1008.886117	-0.005249
1009.057036	-0.004413
1009.227938	-0.003477
1009.398821	-0.003539
1009.569686	-0.005397
1009.740533	-0.006742
1009.911361	-0.007396
1010.082172	-0.007312
1010.252964	-0.008384
1010.423738	-0.008488
1010.594493	-0.009328
1010.765231	-0.010137
1010.935950	-0.011144
1011.106651	-0.011420
1011.277334	-0.011321
1011.447998	-0.013622
1011.618645	-0.013114
1011.789273	-0.014511
1011.959882	-0.014770
1012.130474	-0.013795
1012.301048	-0.014957
1012.471603	-0.014745
1012.642140	-0.013902
1012.812658	-0.013078
1012.983159	-0.013315
1013.153641	-0.013022
1013.324105	-0.011706
1013.494551	-0.012618
1013.664979	-0.013042
1013.835388	-0.010253
1014.005779	-0.009683
1014.176152	-0.008519
1014.346507	-0.008629
1014.516843	-0.007410
1014.687162	-0.007224
1014.857462	-0.007421
1015.027744	-0.006841
1015.198007	-0.006951
1015.368252	-0.009545
1015.538480	-0.009969
1015.708689	-0.011707
1015.878879	-0.012879
1016.049052	-0.012333
1016.219206	-0.013051
1016.389342	-0.013705
1016.559460	-0.012363
1016.729559	-0.012110
1016.899641	-0.012405
1017.069704	-0.010403
1017.239749	-0.010117
1017.409775	-0.009748
1017.579784	-0.009448
1017.749774	-0.008549
1017.919746	-0.008573
1018.089700	-0.010454
1018.259635	-0.010527
1018.429553	-0.010107
1018.599452	-0.012753
1018.769333	-0.010659
1018.939195	-0.009478
1019.109040	-0.010957
1019.278866	-0.013143
1019.448674	-0.012816
1019.618464	-0.013434
1019.788235	-0.012770
1019.957989	-0.014177
1020.127724	-0.013958
1020.297441	-0.015429
1020.467139	-0.017187
1020.636820	-0.017436
1020.806482	-0.016137
1020.976126	-0.017199
1021.145752	-0.015996
1021.315359	-0.016856
1021.484948	-0.015164
1021.654519	-0.014440
1021.824072	-0.014802
1021.993607	-0.013110
1022.163123	-0.013517
1022.332621	-0.014635
1022.502101	-0.014484
1022.671563	-0.014306
1022.841007	-0.013569
1023.010432	-0.014466
1023.179839	-0.014693
1023.349228	-0.013708
1023.518598	-0.014040
1023.687951	-0.012143
1023.857285	-0.010767
1024.026601	-0.010463
1024.195899	-0.012059
1024.365178	-0.013806
1024.534439	-0.013337
1024.703682	-0.013036
1024.872907	-0.013205
1025.042114	-0.013328
1025.211302	-0.015936
1025.380472	-0.017275
1025.549624	-0.016995
1025.718758	-0.015686
1025.887873	-0.014046
1026.056970	-0.014435
1026.226049	-0.013802
1026.395110	-0.013564
1026.564153	-0.014180
1026.733177	-0.010834
1026.902183	-0.009956
1027.071171	-0.009618
1027.240141	-0.011214
1027.409092	-0.012515
1027.578026	-0.013581
1027.746940	-0.014114
1027.915837	-0.015181
1028.084716	-0.016140
1028.253576	-0.018429
1028.422418	-0.019413
1028.591242	-0.018171
1028.760048	-0.018364
1028.928835	-0.018498
1029.097604	-0.018820
1029.266355	-0.020024
1029.435088	-0.019411
1029.603803	-0.019748
1029.772499	-0.019602
1029.941177	-0.018568
1030.109837	-0.019351
1030.278478	-0.016613
1030.447102	-0.015732
1030.615707	-0.013475
1030.784294	-0.013630
1030.952863	-0.014237
1031.121413	-0.013024
1031.289945	-0.012406
1031.458460	-0.012451
1031.626955	-0.012952
1031.795433	-0.014026
1031.963892	-0.014161
1032.132334	-0.013729
1032.300756	-0.012954
1032.469161	-0.011288
1032.637548	-0.012030
1032.805916	-0.012107
1032.974266	-0.011049
1033.142598	-0.012016
1033.310911	-0.011773
1033.479207	-0.011234
1033.647484	-0.011816
1033.815743	-0.012155
1033.983983	-0.013604
1034.152206	-0.012617
1034.320410	-0.013837
1034.488596	-0.014282
1034.656764	-0.013276
1034.824914	-0.014545
1034.993045	-0.016485
1035.161158	-0.017841
1035.329253	-0.017682
1035.497330	-0.018102
1035.665388	-0.019851
1035.833428	-0.017888
1036.001450	-0.020161
1036.169454	-0.019991
1036.337440	-0.020168
1036.505407	-0.019107
1036.673356	-0.017370
1036.841287	-0.017059
1037.009200	-0.016486
1037.177094	-0.015046
1037.344970	-0.016658
1037.512828	-0.016493
1037.680668	-0.015879
1037.848489	-0.015329
1038.016293	-0.016525
1038.184078	-0.016771
1038.351845	-0.016610
1038.519593	-0.015905
1038.687324	-0.016028
1038.855036	-0.013987
1039.022730	-0.012393
1039.190406	-0.014104
1039.358063	-0.012441
1039.525702	-0.011723
1039.693323	-0.010814
1039.860926	-0.011656
1040.028511	-0.012719
1040.196077	-0.012957
1040.363625	-0.014412
1040.531155	-0.014257
1040.698667	-0.014206
1040.866161	-0.017217
1041.033636	-0.015509
1041.201093	-0.016556
1041.368532	-0.015410
1041.535952	-0.013822
1041.703355	-0.013409
1041.870739	-0.015495
1042.038105	-0.015644
1042.205452	-0.015912
1042.372782	-0.014098
1042.540093	-0.016346
1042.707386	-0.016876
1042.874661	-0.018169
1043.041918	-0.020090
1043.209156	-0.019028
1043.376376	-0.018125
1043.543578	-0.019851
1043.710762	-0.020026
1043.877927	-0.019864
1044.045074	-0.018728
1044.212203	-0.018173
1044.379314	-0.017247
1044.546407	-0.018234
1044.713481	-0.018525
1044.880537	-0.016672
1045.047575	-0.015703
1045.214595	-0.015702
1045.381596	-0.015688
1045.548579	-0.013984
1045.715544	-0.014597
1045.882491	-0.014720
1046.049420	-0.013107
1046.216330	-0.013539
1046.383222	-0.013563
1046.550096	-0.013259
1046.716951	-0.011425
1046.883789	-0.011775
1047.050608	-0.013311
1047.217409	-0.013968
1047.384192	-0.015405
1047.550956	-0.015870
1047.717703	-0.015157
1047.884431	-0.016988
1048.051140	-0.016990
1048.217832	-0.017491
1048.384505	-0.018481
1048.551161	-0.018753
1048.717798	-0.019369
1048.884416	-0.019183
1049.051017	-0.018759
1049.217599	-0.019500
1049.384163	-0.018000
1049.550709	-0.018677
1049.717237	-0.019325
1049.883746	-0.018213
1050.050237	-0.018420
1050.216710	-0.015636
1050.383165	-0.013286
1050.549601	-0.013612
1050.716019	-0.014224
1050.882420	-0.013864
1051.048801	-0.012944
1051.215165	-0.013920
1051.381510	-0.014430
1051.547837	-0.014305
1051.714146	-0.015760
1051.880437	-0.016936
1052.046709	-0.016397
1052.212964	-0.015056
1052.379200	-0.015144
1052.545417	-0.017417
1052.711617	-0.016028
1052.877798	-0.017252
1053.043961	-0.016925
1053.210106	-0.016939
1053.376233	-0.017237
1053.542341	-0.015781
1053.708432	-0.018014
1053.874504	-0.017414
1054.040557	-0.016037
1054.206593	-0.016062
1054.372610	-0.015215
1054.538609	-0.015643
1054.704590	-0.016207
1054.870553	-0.016580
1055.036497	-0.016930
1055.202424	-0.016926
1055.368331	-0.017493
1055.534221	-0.015387
1055.700093	-0.015254
1055.865946	-0.014323
1056.031781	-0.015866
1056.197598	-0.015560
1056.363397	-0.015780
1056.529177	-0.016354
1056.694939	-0.013847
1056.860683	-0.013455
1057.026409	-0.015150
1057.192116	-0.012641
1057.357806	-0.013096
1057.523477	-0.011730
1057.689130	-0.010447
1057.854764	-0.008838
1058.020381	-0.009308
1058.185979	-0.011395
1058.351559	-0.011083
1058.517120	-0.011214
1058.682664	-0.013689
1058.848189	-0.014209
1059.013696	-0.013335
1059.179185	-0.013281
1059.344656	-0.012172
1059.510108	-0.011661
1059.675542	-0.009833
1059.840958	-0.010591
1060.006356	-0.010106
1060.171735	-0.011533
1060.337096	-0.011449
1060.502439	-0.012835
1060.667764	-0.013082
1060.833071	-0.014395
1060.998359	-0.015560
1061.163629	-0.016961
1061.328881	-0.016313
1061.494115	-0.015951
1061.659330	-0.013508
1061.824527	-0.012397
1061.989706	-0.011521
1062.154867	-0.011723
1062.320010	-0.011712
1062.485134	-0.010054
1062.650240	-0.008398
1062.815328	-0.010182
1062.980398	-0.010513
1063.145449	-0.013064
1063.310482	-0.013901
1063.475497	-0.013991
1063.640494	-0.013727
1063.805473	-0.014882
1063.970433	-0.014949
1064.135375	-0.016035
1064.300299	-0.015795
1064.465204	-0.016437
1064.630092	-0.014487
1064.794961	-0.015804
1064.959812	-0.016487
1065.124645	-0.015802
1065.289459	-0.013902
1065.454256	-0.014420
1065.619034	-0.015697
1065.783793	-0.016180
1065.948535	-0.014218
1066.113258	-0.014015
1066.277964	-0.012146
1066.442651	-0.012366
1066.607319	-0.013618
1066.771970	-0.015456
1066.936602	-0.014489
1067.101216	-0.012116
1067.265812	-0.011471
1067.430389	-0.012559
1067.594949	-0.012192
1067.759490	-0.011708
1067.924013	-0.010106
1068.088518	-0.010525
1068.253004	-0.009523
1068.417472	-0.011066
1068.581922	-0.013273
1068.746354	-0.012205
1068.910768	-0.013261
1069.075163	-0.013884
1069.239540	-0.015687
1069.403899	-0.016419
1069.568240	-0.017376
1069.732562	-0.015438
1069.896866	-0.016201
1070.061152	-0.016397
1070.225420	-0.016385
1070.389670	-0.015490
1070.553901	-0.018146
1070.718114	-0.017635
1070.882309	-0.018587
1071.046486	-0.018089
1071.210644	-0.019282
1071.374784	-0.019166
1071.538906	-0.017100
1071.703010	-0.016170
1071.867096	-0.014103
1072.031163	-0.013215
1072.195212	-0.012119
1072.359243	-0.010429
1072.523256	-0.010062
1072.687250	-0.012340
1072.851226	-0.012296
1073.015184	-0.013181
1073.179124	-0.013971
1073.343045	-0.016522
1073.506949	-0.015610
1073.670834	-0.014950
1073.834701	-0.016734
1073.998549	-0.015598
1074.162380	-0.013912
1074.326192	-0.013075
1074.489986	-0.012424
1074.653761	-0.014594
1074.817519	-0.013090
1074.981258	-0.012726
1075.144979	-0.013833
1075.308682	-0.013449
1075.472367	-0.014045
1075.636033	-0.016849
1075.799681	-0.016549
1075.963311	-0.018207
1076.126923	-0.016939
1076.290516	-0.017403
1076.454092	-0.017856
1076.617649	-0.015692
1076.781187	-0.015115
1076.944708	-0.013760
1077.108210	-0.011818
1077.271695	-0.012791
1077.435160	-0.010651
1077.598608	-0.012313
1077.762038	-0.012303
1077.925449	-0.012052
1078.088842	-0.013704
1078.252217	-0.013593
1078.415573	-0.014191
1078.578912	-0.012708
1078.742232	-0.012846
1078.905534	-0.014787
1079.068817	-0.012170
1079.232083	-0.012076
1079.395330	-0.011086
1079.558559	-0.010951
1079.721770	-0.013806
1079.884962	-0.014466
1080.048136	-0.015026
1080.211293	-0.014903
1080.374430	-0.014761
1080.537550	-0.014915
1080.700651	-0.016559
1080.863735	-0.018853
1081.026800	-0.020170
1081.189846	-0.017083
1081.352875	-0.015429
1081.515885	-0.015693
1081.678877	-0.014036
1081.841851	-0.012816
1082.004807	-0.013745
1082.167744	-0.010938
1082.330663	-0.008415
1082.493564	-0.007655
1082.656447	-0.007172
1082.819312	-0.010069
1082.982158	-0.009065
1083.144986	-0.009263
1083.307796	-0.009490
1083.470587	-0.009383
1083.633361	-0.013352
1083.796116	-0.015271
1083.958853	-0.014259
1084.121571	-0.014550
1084.284272	-0.013380
1084.446954	-0.015245
1084.609618	-0.017287
1084.772264	-0.018724
1084.934892	-0.017619
1085.097501	-0.016753
1085.260092	-0.015369
1085.422665	-0.016277
1085.585220	-0.017878
1085.747756	-0.018339
1085.910274	-0.017460
1086.072774	-0.017727
1086.235256	-0.015774
1086.397720	-0.018795
1086.560165	-0.017426
1086.722592	-0.017954
1086.885001	-0.018008
1087.047392	-0.016872
1087.209764	-0.015210
1087.372119	-0.015282
1087.534455	-0.011979
1087.696772	-0.013297
1087.859072	-0.010207
1088.021353	-0.010256
1088.183616	-0.008346
1088.345861	-0.007956
1088.508088	-0.006723
1088.670296	-0.009659
1088.832486	-0.008318
1088.994658	-0.012580
1089.156812	-0.013099
1089.318948	-0.014393
1089.481065	-0.013126
1089.643164	-0.014211
1089.805245	-0.014333
1089.967308	-0.015535
1090.129352	-0.012663
1090.291378	-0.013397
1090.453386	-0.010625
1090.615376	-0.009670
1090.777347	-0.007473
1090.939301	-0.009525
1091.101236	-0.009350
1091.263153	-0.007882
1091.425051	-0.007283
1091.586932	-0.008632
1091.748794	-0.008453
1091.910638	-0.009300
1092.072463	-0.010366
1092.234271	-0.012749
1092.396060	-0.011083
1092.557831	-0.013805
1092.719584	-0.016637
1092.881319	-0.016086
1093.043035	-0.016796
1093.204733	-0.018847
1093.366413	-0.017242
1093.528075	-0.016663
1093.689718	-0.015078
1093.851343	-0.015566
1094.012950	-0.014988
1094.174539	-0.012445
1094.336110	-0.011767
1094.497662	-0.011175
1094.659196	-0.008938
1094.820712	-0.009598
1094.982210	-0.010573
1095.143689	-0.011849
1095.305151	-0.011840
1095.466594	-0.012981
1095.628018	-0.014336
1095.789425	-0.017704
1095.950813	-0.018150
1096.112183	-0.017467
1096.273535	-0.017135
1096.434869	-0.015938
1096.596184	-0.017123
1096.757482	-0.019059
1096.918761	-0.014856
1097.080021	-0.013934
1097.241264	-0.012586
1097.402488	-0.009721
1097.563694	-0.011459
1097.724882	-0.013592
1097.886052	-0.012091
1098.047203	-0.013404
1098.208336	-0.012717
1098.369451	-0.015660
1098.530548	-0.014499
1098.691627	-0.013261
1098.852687	-0.014193
1099.013729	-0.014343
1099.174753	-0.013138
1099.335758	-0.015776
1099.496746	-0.012130
1099.657715	-0.011837
1099.818666	-0.008339
1099.979599	-0.009476
1100.140513	-0.011452
1100.301409	-0.014733
1100.462287	-0.014423
1100.623147	-0.014063
1100.783989	-0.013819
1100.944812	-0.011695
1101.105617	-0.010514
1101.266404	-0.010790
1101.427173	-0.010935
1101.587923	-0.011254
1101.748656	-0.007555
1101.909370	-0.010197
1102.070066	-0.010187
1102.230743	-0.008156
1102.391403	-0.009732
1102.552044	-0.012430
1102.712667	-0.013542
1102.873271	-0.014309
1103.033858	-0.013284
1103.194426	-0.015977
1103.354976	-0.016779
1103.515508	-0.015389
1103.676021	-0.015888
1103.836517	-0.015699
1103.996994	-0.011780
1104.157453	-0.010522
1104.317893	-0.008217
1104.478316	-0.007838
1104.638720	-0.007407
1104.799106	-0.002609
1104.959474	-0.002373
1105.119823	-0.003635
1105.280155	-0.006679
1105.440468	-0.005791
1105.600763	-0.005867
1105.761039	-0.008741
1105.921298	-0.008208
1106.081538	-0.004880
1106.241760	-0.004765
1106.401964	-0.008172
1106.562149	-0.005359
1106.722316	-0.003547
1106.882465	-0.005632
1107.042596	-0.008523
1107.202709	-0.007887
1107.362803	-0.009144
1107.522879	-0.011011
1107.682937	-0.013754
1107.842977	-0.009361
1108.002999	-0.009583
1108.163002	-0.011426
1108.322987	-0.010363
1108.482954	-0.010125
1108.642902	-0.009992
1108.802833	-0.009233
1108.962745	-0.009319
1109.122639	-0.006107
1109.282515	-0.007824
1109.442372	-0.010174
1109.602211	-0.008989
1109.762032	-0.010667
1109.921835	-0.009631
1110.081620	-0.011020
1110.241386	-0.010886
1110.401134	-0.010259
1110.560864	-0.011817
1110.720576	-0.013930
1110.880269	-0.010876
1111.039945	-0.009982
1111.199602	-0.009035
1111.359240	-0.010642
1111.518861	-0.010280
1111.678463	-0.008024
1111.838047	-0.009966
1111.997613	-0.012157
1112.157161	-0.008707
1112.316690	-0.012592
1112.476202	-0.010312
1112.635695	-0.010296
1112.795169	-0.011622
1112.954626	-0.010686
1113.114064	-0.012994
1113.273484	-0.011580
1113.432886	-0.010889
1113.592270	-0.013543
1113.751635	-0.012854
1113.910983	-0.016140
1114.070312	-0.017452
1114.229622	-0.017834
1114.388915	-0.018718
1114.548189	-0.015358
1114.707445	-0.014779
1114.866683	-0.014215
1115.025903	-0.016542
1115.185104	-0.013271
1115.344287	-0.008703
1115.503452	-0.004543
1115.662599	-0.002858
1115.821727	0.001015
1115.980838	-0.000938
1116.139930	-0.006422
1116.299004	-0.004837
1116.458059	0.000687
1116.617097	-0.005197
1116.776116	-0.010466
1116.935117	-0.013133
1117.094099	-0.009977
1117.253064	-0.013260
1117.412010	-0.014326
1117.570938	-0.010989
1117.729848	-0.014103
1117.888740	-0.014980
1118.047613	-0.010585
1118.206468	-0.009842
1118.365305	-0.012503
1118.524124	-0.012918
1118.682924	-0.014564
1118.841707	-0.013708
1119.000471	-0.015322
1119.159216	-0.011755
1119.317944	-0.012526
1119.476653	-0.012316
1119.635344	-0.013377
1119.794017	-0.012179
1119.952672	-0.013535
1120.111308	-0.011870
1120.269927	-0.013484
1120.428527	-0.011077
1120.587108	-0.011684
1120.745672	-0.012269
1120.904217	-0.010627
1121.062744	-0.010147
1121.221253	-0.011834
1121.379744	-0.009535
1121.538216	-0.008808
1121.696671	-0.010063
1121.855107	-0.011687
1122.013524	-0.012170
1122.171924	-0.012249
1122.330305	-0.011608
1122.488668	-0.010692
1122.647013	-0.007837
1122.805340	-0.010111
1122.963648	-0.015449
1123.121938	-0.013314
1123.280210	-0.011383
1123.438464	-0.011010
1123.596700	-0.014792
1123.754917	-0.016592
1123.913116	-0.014745
1124.071297	-0.017984
1124.229459	-0.017484
1124.387604	-0.013604
1124.545730	-0.015339
1124.703838	-0.013719
1124.861928	-0.014344
1125.019999	-0.013455
1125.178052	-0.012647
1125.336088	-0.014806
1125.494104	-0.012555
1125.652103	-0.014697
1125.810083	-0.013977
1125.968045	-0.015603
1126.125989	-0.018658
1126.283915	-0.017653
1126.441823	-0.011504
1126.599712	-0.013943
1126.757583	-0.013722
1126.915436	-0.015061
1127.073270	-0.013205
1127.231087	-0.012947
1127.388885	-0.010078
1127.546665	-0.006459
1127.704426	-0.005743
1127.862170	-0.011214
1128.019895	-0.009911
1128.177602	-0.007736
1128.335291	-0.004249
1128.492961	-0.003288
1128.650614	-0.005305
1128.808248	-0.003224
1128.965864	-0.004226
1129.123461	-0.003815
1129.281041	0.003883
1129.438602	0.000422
1129.596145	-0.002016
1129.753670	-0.002762
1129.911176	-0.000446
1130.068665	0.003983
1130.226135	0.000441
1130.383587	0.000625
1130.541020	-0.004304
1130.698436	-0.006732
1130.855833	-0.002438
1131.013212	-0.001988
1131.170573	-0.003653
1131.327915	-0.006420
1131.485239	-0.006177
1131.642545	-0.007686
1131.799833	-0.012212
1131.957103	-0.007147
1132.114354	-0.014591
1132.271588	-0.013491
1132.428803	-0.013026
1132.585999	-0.012964
1132.743178	-0.013598
1132.900338	-0.014691
1133.057480	-0.011901
1133.214604	-0.009497
1133.371710	-0.008537
1133.528797	-0.003606
1133.685866	-0.005311
1133.842917	-0.004238
1133.999950	-0.003421
1134.156964	-0.003333
1134.313960	-0.005496
1134.470938	-0.002808
1134.627898	-0.003358
1134.784840	-0.007975
1134.941763	-0.006939
1135.098668	-0.006861
1135.255555	-0.005673
1135.412424	-0.001674
1135.569274	-0.001502
1135.726107	0.003286
1135.882921	0.004533
1136.039716	0.005229
1136.196494	0.007134
1136.353253	0.007852
1136.509995	0.008421
1136.666717	0.003712
1136.823422	0.002074
1136.980109	0.005633
1137.136777	0.001864
1137.293427	-0.000667
1137.450059	0.002063
1137.606672	0.000558
1137.763267	0.004016
1137.919844	0.003181
1138.076403	0.010863
1138.232944	0.007032
1138.389466	0.002724
1138.545971	0.003970
1138.702457	0.006159
1138.858924	0.005448
1139.015374	0.009499
1139.171805	0.006581
1139.328218	0.007884
1139.484613	0.005383
1139.640990	0.005826
1139.797348	0.009892
1139.953688	0.008681
1140.110010	0.003621
1140.266314	0.005275
1140.422600	0.000413
1140.578867	-0.004207
1140.735116	-0.008354
1140.891347	-0.006540
1141.047559	-0.004802
1141.203754	-0.006426
1141.359930	-0.006686
1141.516088	-0.007674
1141.672228	-0.009667
1141.828349	-0.007625
1141.984452	-0.007973
1142.140537	-0.011411
1142.296604	-0.019532
1142.452653	-0.019411
1142.608683	-0.014043
1142.764695	-0.015878
1142.920689	-0.010744
1143.076665	-0.016830
1143.232622	-0.020698
1143.388562	-0.020624
1143.544483	-0.019161
1143.700385	-0.016338
1143.856270	-0.020190
1144.012136	-0.028936
1144.167985	-0.029642
1144.323814	-0.030105
1144.479626	-0.026480
1144.635420	-0.027387
1144.791195	-0.030543
1144.946952	-0.029372
1145.102691	-0.030233
1145.258411	-0.027634
1145.414113	-0.024099
1145.569798	-0.024871
1145.725463	-0.024122
1145.881111	-0.024143
1146.036741	-0.018887
1146.192352	-0.011097
1146.347945	-0.005359
1146.503519	-0.002632
1146.659076	-0.004765
1146.814614	-0.006883
1146.970134	-0.005454
1147.125636	-0.009304
1147.281120	-0.007135
1147.436585	-0.003557
1147.592032	-0.010236
1147.747461	-0.015524
1147.902872	-0.020840
1148.058265	-0.020299
1148.213639	-0.020857
1148.368995	-0.016227
1148.524333	-0.014799
1148.679653	-0.016515
1148.834954	-0.021579
1148.990237	-0.013508
1149.145502	-0.012982
1149.300749	-0.006885
1149.455977	-0.007495
1149.611188	-0.006171
1149.766380	-0.010852
1149.921553	-0.005780
1150.076709	-0.004479
1150.231846	-0.001810
1150.386966	-0.005212
1150.542066	-0.003508
1150.697149	-0.009094
1150.852214	-0.009862
1151.007260	-0.017314
1151.162288	-0.015560
1151.317298	-0.020883
1151.472289	-0.020802
1151.627263	-0.023572
1151.782218	-0.025563
1151.937155	-0.025483
1152.092073	-0.021291
1152.246974	-0.018519
1152.401856	-0.009277
1152.556720	-0.008871
1152.711566	-0.009978
1152.866393	-0.007241
1153.021203	-0.010215
1153.175994	-0.001817
1153.330767	0.001174
1153.485521	0.001444
1153.640258	0.001342
1153.794976	0.000995
1153.949676	0.002270
1154.104358	0.002770
1154.259021	-0.001115
1154.413667	-0.000402
1154.568294	-0.001823
1154.722903	0.002517
1154.877493	0.007601
1155.032066	0.007152
1155.186620	0.003922
1155.341156	0.007711
1155.495674	0.004308
1155.650173	0.002835
1155.804654	0.006692
1155.959118	-0.001612
1156.113562	-0.009881
1156.267989	-0.019194
1156.422397	-0.024542
1156.576788	-0.026719
1156.731160	-0.030163
1156.885513	-0.024236
1157.039849	-0.019949
1157.194166	-0.019679
1157.348465	-0.016200
1157.502746	-0.013208
1157.657009	-0.012291
1157.811253	-0.011439
1157.965479	-0.010491
1158.119687	-0.004531
1158.273877	-0.011553
1158.428048	-0.012552
1158.582201	-0.018032
1158.736337	-0.018922
1158.890453	-0.020879
1159.044552	-0.016847
1159.198632	-0.016742
1159.352694	-0.021037
1159.506738	-0.029538
1159.660764	-0.026689
1159.814771	-0.029209
1159.968761	-0.023009
1160.122732	-0.019392
1160.276685	-0.018598
1160.430619	-0.018118
1160.584535	-0.013868
1160.738434	0.000257
1160.892313	0.002176
1161.046175	-0.001308
1161.200019	0.001374
1161.353844	0.000438
1161.507651	0.001750
1161.661440	-0.001172
1161.815210	0.007160
1161.968962	0.006800
1162.122697	0.002788
1162.276412	0.004793
1162.430110	0.006552
1162.583789	0.005843
1162.737451	0.011875
1162.891094	0.002731
1163.044718	0.004149
1163.198325	-0.009059
1163.351913	-0.000744
1163.505483	-0.006670
1163.659035	-0.014779
1163.812569	-0.008480
1163.966084	-0.005438
1164.119581	-0.010419
1164.273060	-0.008459
1164.426521	-0.011814
1164.579964	-0.005124
1164.733388	-0.010650
1164.886794	-0.002712
1165.040182	0.004120
1165.193551	-0.003810
1165.346903	-0.009149
1165.500236	-0.004742
1165.653551	-0.005361
1165.806848	0.003921
1165.960126	0.007466
1166.113386	0.008848
1166.266628	0.001906
1166.419852	0.009119
1166.573058	0.013970
1166.726245	0.014150
1166.879414	0.002266
1167.032565	0.004317
1167.185698	-0.006229
1167.338812	-0.007246
1167.491909	-0.010802
1167.644987	-0.011124
1167.798046	-0.016807
1167.951088	-0.019289
1168.104111	-0.021685
1168.257117	-0.015095
1168.410103	-0.011287
1168.563072	-0.009133
1168.716023	-0.019879
1168.868955	-0.018938
1169.021869	-0.018415
1169.174765	-0.027615
1169.327642	-0.016433
1169.480501	-0.015423
1169.633343	-0.007899
1169.786165	-0.019908
1169.938970	-0.018620
1170.091757	-0.017987
1170.244525	-0.022521
1170.397275	-0.018656
1170.550007	-0.011949
1170.702720	-0.015512
1170.855415	-0.006382
1171.008092	-0.018537
1171.160751	-0.013779
1171.313392	-0.015865
1171.466014	0.049388
1171.618619	-0.040492
1171.771205	-0.040492
1171.923772	-0.040492
