sample name	sample
index	1388
start time	 05-10-2021  10:23:58 AM
880	-0.025977
Peak Time (s)	92.536
Peak Height 	-0.02598
calc peak height	90,93
Baseline Time (s)	9.536
Baseline Value 	-0.004414
subtract baseline	10,4
Abs	-0.013064
Peak Time (s)	90.035
Peak Height 	-0.01306
calc peak height	90,93
Baseline Time (s)	10.537
Baseline Value 	0.003647
subtract baseline	10,3
PK_550	0.002239
Peak Time (s)	90.035
Peak Height 	0.002239
calc peak height	90,93
Baseline Time (s)	9.035
Baseline Value 	4.734E-4
subtract baseline	10,2
PK_880	-0.009437
Peak Time (s)	92.037
Peak Height 	-0.009437
calc peak height	90,93
Baseline Time (s)	10.537
Baseline Value 	0.00152
subtract baseline	10,1


Time (s)	A880-A510	A880-A775	A880-A975	A880	I510	I775	I975	I880	
0.035500	0.000748	0.000042	-0.001976	0.002505	6413.518069	45327.986462	3861.520849	23287.967030
0.536000	-0.005319	-0.000970	-0.004888	0.006818	6329.365396	44811.547620	3844.262599	23086.122678
1.036500	-0.003396	-0.000004	-0.002914	0.004454	6363.875717	45133.772311	3854.591446	23196.506792
1.536500	-0.001913	-0.000611	-0.000470	0.000776	6405.882240	45433.225310	3869.344180	23369.489685
2.039500	-0.000795	-0.000194	0.000743	0.000075	6420.805766	45542.765959	3874.001193	23402.620726
2.537500	-0.003196	0.000122	-0.000571	0.004576	6364.508096	45134.133599	3859.918351	23190.778659
3.037500	0.000206	-0.000530	-0.001417	-0.001378	6441.028448	45652.355296	3872.277579	23471.441594
3.535000	0.001128	0.000572	-0.001651	0.001055	6428.564870	45521.771485	3865.808145	23356.325135
4.035500	-0.000359	0.000865	0.000448	0.001213	6415.032339	45534.941147	3870.512720	23348.853920
4.535500	-0.000749	-0.000278	-0.000376	0.001288	6411.221119	45415.657661	3868.330788	23345.312891
5.035500	-0.001355	-0.000441	0.001980	0.000031	6416.562124	45522.823067	3877.128591	23404.710099
5.536000	-0.000704	-0.000223	-0.000809	0.000038	6421.852978	45543.562877	3870.312713	23404.365435
6.036000	0.001140	-0.000095	-0.000384	-0.000015	6437.488629	45561.243118	3871.475985	23406.876475
6.537500	0.001444	-0.000107	0.002999	0.000152	6438.620280	45543.729192	3879.325843	23398.981393
7.037000	0.000550	0.000270	0.005143	0.000115	6431.549041	45584.361631	3884.683095	23400.724744
7.537000	-0.000005	0.000187	0.000792	0.000282	6425.595570	45559.826092	3873.615020	23392.827349
8.035000	-0.000214	0.000737	-0.003351	0.000607	6421.210076	45581.941619	3862.784357	23377.470828
8.535000	0.002001	0.000207	-0.001674	0.000590	6439.603410	45531.536277	3866.876001	23378.260682
9.035000	-0.000805	0.000000	0.000539	-0.000097	6422.135150	45578.698267	3873.923663	23410.775975
9.536000	0.000161	-0.000058	0.006220	0.000000	6429.287122	45563.404364	3887.623035	23406.163356
10.036000	-0.002581	-0.000846	-0.003438	-0.000950	6414.557672	45579.358037	3866.336246	23451.182324
10.536500	0.000000	0.000580	0.000000	0.000205	6426.270835	45605.913392	3871.873744	23396.452093
11.036000	0.001165	0.000695	-0.003099	0.000365	6434.560140	45601.560998	3863.973863	23388.897795
11.539500	-0.000826	-0.000106	0.000018	-0.000175	6422.603839	45575.939782	3872.843327	23414.456642
12.037000	0.000241	-0.000196	0.001796	-0.000524	6434.267593	45601.368334	3878.035361	23430.964473
12.537500	-0.002053	0.000006	-0.004586	0.001531	6398.561982	45419.703185	3857.588105	23333.870581
13.035000	0.000318	0.000437	0.002869	-0.001960	6446.777171	45805.062582	3884.193759	23499.095978
13.535000	0.001303	0.000304	-0.003815	-0.001188	6448.541744	45715.768966	3865.997324	23462.434971
14.040500	0.000137	0.000407	0.000285	-0.001648	6442.694304	45771.319609	3877.087192	23484.260634
14.536000	-0.001256	-0.000498	0.002225	0.002344	6398.427937	45291.110038	3872.083890	23295.566512
15.036000	-0.000360	0.000057	0.000579	-0.000475	6428.906875	45621.351161	3874.942012	23428.630544
15.536000	0.002482	-0.000438	-0.001927	-0.001720	6462.744846	45695.194703	3871.869768	23487.711484
16.042000	0.000382	-0.000307	-0.003750	-0.002190	6449.218739	45754.451959	3868.584812	23510.062265
16.536500	-0.001071	-0.000411	-0.000771	0.001287	6408.594714	45402.849085	3867.377060	23345.381233
17.037500	-0.001823	-0.001067	-0.006767	-0.002268	6431.629281	45687.172777	3861.479226	23513.734538
17.537500	0.002208	0.000307	0.004444	-0.001283	6456.839252	45725.470568	3886.406107	23466.970349
18.035000	-0.001509	-0.000687	0.000741	-0.002925	6439.650150	45789.401294	3881.334431	23545.043147
18.535500	0.000484	-0.000489	0.000797	0.000638	6426.696785	45458.677355	3872.759857	23376.005357
19.035500	0.000836	-0.000174	0.001690	0.000572	6430.136256	45495.958573	3875.099484	23379.135427
19.536000	-0.001361	-0.000156	-0.001023	0.000244	6414.765040	45529.903971	3869.292487	23394.609957
20.036000	0.000277	-0.000083	0.000639	0.000412	6426.853559	45520.568198	3872.926504	23386.695170
20.536500	-0.002022	-0.000088	-0.004789	0.000821	6404.621040	45480.075799	3858.807288	23367.378537
21.037000	-0.001610	0.000012	0.000456	0.000572	6410.029981	45514.177020	3872.089897	23379.106732
21.537000	0.000541	0.000287	-0.000319	0.000751	6426.226022	45523.606673	3869.771840	23370.647337
22.037500	-0.000046	0.000388	0.005511	0.001198	6417.722876	45489.676052	3882.922970	23349.541657
22.535000	0.000405	0.000132	0.002619	0.000776	6424.910028	45506.008298	3876.869231	23369.487578
23.038000	-0.001023	0.000210	0.003016	0.000665	6414.083796	45524.468519	3878.109673	23374.704011
23.535500	-0.000538	0.000528	0.004700	0.000841	6416.619882	45538.454655	3881.807776	23366.420496
24.035500	0.000335	-0.000099	0.000961	0.000101	6429.889856	45549.504234	3874.467549	23401.375783
24.536000	0.000273	0.000345	-0.002367	0.001691	6416.298826	45437.272025	3862.541677	23326.328946
25.036500	-0.000430	0.000237	0.000342	0.000983	6416.338254	45495.951048	3870.814150	23359.699944
25.539500	0.000736	0.000165	0.000652	0.000854	6426.984787	45501.461738	3871.880130	23365.776078
26.037000	-0.000889	0.000301	-0.001473	0.001196	6410.830645	45481.408359	3865.896417	23349.671482
26.537500	-0.001321	0.000092	0.001712	0.001842	6402.002589	45397.739252	3872.057071	23319.215508
27.038000	0.000617	-0.000166	0.007367	0.000432	6429.486189	45510.519445	3889.389546	23385.737587
27.534500	-0.003072	-0.000236	0.002772	0.000269	6400.551117	45519.618149	3878.483539	23393.462349
28.035500	-0.000248	0.001065	0.001844	-0.001290	6436.561875	45800.994114	3880.030127	23467.303013
28.537500	-0.001242	0.000003	-0.001206	0.001748	6403.413991	45398.149906	3865.207453	23323.614921
29.036000	0.000135	-0.000016	0.000703	-0.001209	6439.054037	45686.449432	3877.037083	23463.449835
29.536500	-0.000302	-0.000079	-0.000477	-0.001747	6439.885334	45733.180133	3875.469063	23489.005521
30.036500	0.001671	0.000251	0.000831	-0.001043	6450.387199	45696.357614	3876.944817	23455.565791
30.536000	0.000294	0.000540	0.002064	-0.000668	6435.896392	45687.888688	3879.046050	23437.805257
31.034000	0.000301	0.000522	0.005341	-0.001086	6439.403454	45727.207867	3888.132132	23457.589435
31.553500	-0.000043	-0.000955	0.005649	-0.002045	6444.484322	45676.179045	3891.267792	23503.123416
32.037500	-0.001138	0.000255	0.001358	0.002235	6400.282385	45375.218234	3870.239761	23300.684337
32.535500	0.000965	-0.000249	0.005862	-0.001004	6444.217764	45643.359004	3889.219594	23453.731354
33.040500	-0.000398	0.000018	0.000847	-0.001596	6437.847828	45727.904936	3878.336275	23481.820434
33.538500	-0.000804	-0.000597	0.000499	-0.001864	6436.703479	45693.714358	3878.141157	23494.560905
34.036000	-0.000247	0.000705	0.000039	0.000464	6422.109705	45592.744224	3871.338120	23384.213215
34.536500	0.000305	0.000209	0.001759	-0.001421	6442.213411	45729.512815	3880.144030	23473.524316
35.039000	0.000880	0.000492	0.004818	-0.000926	6442.868962	45708.621026	3886.447885	23450.037092
35.537000	0.000185	0.000250	0.000124	0.000599	6424.546727	45534.811544	3871.218296	23377.829446
36.037000	0.000536	0.000109	-0.004713	0.001003	6424.115144	45481.479991	3858.550338	23358.763021
36.537500	-0.001288	-0.000731	-0.000185	0.000577	6412.631237	45440.897246	3870.518349	23378.858716
37.035000	-0.001106	0.000296	-0.002244	0.001039	6410.332805	45496.233160	3864.413003	23357.068490
37.535000	-0.002225	-0.000413	-0.004822	0.000725	6403.739494	45457.500234	3858.956204	23371.875888
38.035000	0.001162	0.000688	-0.001545	0.001566	6424.637145	45483.037735	3864.827356	23332.211634
38.536000	-0.000414	-0.000232	0.001424	0.000574	6419.833853	45490.068943	3874.444775	23379.029844
39.036500	0.000812	0.000378	0.004123	0.001201	6424.757207	45488.462731	3879.509015	23349.423167
39.536500	-0.000372	-0.000051	-0.000345	0.001397	6413.423847	45427.245592	3868.142436	23340.180350
40.036500	-0.000265	0.000894	0.000752	0.001495	6413.496132	45510.247677	3870.567563	23335.564990
40.536500	-0.002002	-0.000263	-0.006257	0.001943	6395.606616	45353.138065	3852.600588	23314.433892
41.037000	-0.001078	0.000894	0.000381	0.001804	6404.295685	45479.901940	3868.914198	23320.983948
41.535000	0.000065	0.000302	-0.000963	0.001464	6416.458465	45455.196073	3866.481255	23337.011870
42.035000	0.001290	0.001091	0.001123	0.001483	6426.368417	45530.636362	3871.497175	23336.097722
42.535500	-0.001570	-0.000251	-0.000878	0.001558	6402.287083	45391.882435	3866.460444	23332.564782
43.036000	-0.001635	-0.000611	0.000862	0.000772	6408.188873	45433.607051	3872.592763	23369.681536
43.536000	-0.001212	0.000110	0.001738	0.000953	6410.170548	45486.500083	3874.285272	23361.122667
44.036500	0.001715	0.000202	0.004839	0.001516	6429.600668	45440.328553	3880.492575	23334.566194
44.539500	-0.001396	-0.000367	0.000082	0.001824	6401.536421	45354.647707	3868.141230	23320.041433
45.037000	-0.002573	0.000087	0.000341	0.000944	6399.101177	45485.091826	3870.905056	23361.530861
45.537000	-0.000210	0.000472	0.001160	-0.002170	6444.138858	45829.245496	3880.510081	23509.083198
46.037500	-0.002254	0.000652	0.000127	0.002913	6385.649281	45347.717170	3865.613320	23268.783803
46.535000	-0.000300	0.000379	0.001381	0.002097	6408.270891	45400.802372	3870.631047	23307.168579
47.035500	0.000421	0.000540	0.006261	-0.000832	6438.304511	45704.073276	3889.781745	23445.588408
47.535500	0.001750	0.000288	0.007368	-0.001415	6454.123466	45736.599889	3893.968134	23473.205704
48.035500	-0.003026	-0.000419	-0.000662	0.001956	6387.159500	45336.683540	3866.020615	23313.829304
48.536000	0.000095	-0.000394	0.002684	0.001746	6414.381432	45359.552479	3874.657623	23323.706397
49.063500	0.003342	0.000842	0.008186	-0.000430	6459.173010	45694.191132	3893.556552	23426.540483
49.536500	-0.000957	0.000016	0.001183	0.001580	6407.127876	45415.888888	3871.407320	23331.564359
50.037000	-0.002924	-0.000589	0.002197	0.000668	6398.496664	45445.949382	3876.101979	23374.595511
50.560000	0.000290	0.000493	0.003905	0.002566	6409.254663	45366.113231	3875.636089	23285.096800
51.034500	0.002520	0.000451	0.000037	-0.000974	6456.867019	45709.248534	3874.837421	23452.318620
51.535000	0.000701	-0.000250	0.004207	-0.001976	6450.077804	45738.814420	3887.530545	23499.846551
52.035500	-0.002400	-0.000149	-0.001431	0.002564	6387.307528	45303.684914	3862.693744	23285.232131
52.535500	0.001240	0.001039	0.001190	0.003173	6412.076281	45360.163378	3867.558131	23256.593295
53.036000	0.000283	-0.000882	0.002174	-0.013570	6543.911816	46832.865370	3911.398969	24058.327731
53.536000	0.012196	-0.011273	0.020655	0.308013	4660.776505	23377.162863	3360.723454	12968.376630
54.036500	0.009718	-0.014860	-0.005723	-0.002621	6531.067891	44384.557395	3864.851025	23530.565550
54.536500	-0.017994	-0.026900	-0.003206	-0.062031	6809.755870	49160.824910	4025.708521	26561.000586
55.037000	-0.016674	-0.034531	0.002418	-0.141075	7614.586054	57421.606289	4286.262887	31292.527348
55.534500	0.000414	-0.046863	0.013183	-0.193730	8444.516869	62722.430759	4517.551469	34957.646999
56.035000	-0.002593	-0.019303	0.011621	-0.075404	7080.956887	51447.335795	4106.913843	27302.184670
56.535000	-0.012376	-0.022862	0.004474	-0.061495	6856.358119	49535.036125	4045.784700	26531.771123
57.035500	-0.014504	-0.020802	-0.002444	-0.077494	6986.365295	51513.293294	4071.784705	27420.098565
57.535500	-0.015527	-0.012694	-0.005363	-0.072202	6926.663283	51829.417799	4048.253705	27122.658402
58.036000	-0.018500	-0.011892	-0.012768	-0.100664	7173.067235	55237.233193	4109.508698	28766.109257
58.539000	-0.013227	-0.012867	-0.010826	-0.110697	7328.121630	56339.433018	4145.690510	29371.576561
59.036500	-0.007222	-0.013555	-0.011919	-0.135771	7660.312934	59423.650585	4221.220021	30947.391670
59.536500	-0.007311	-0.013962	-0.011588	-0.134718	7647.666001	59234.017271	4218.883545	30879.332685
60.034000	-0.007448	-0.012543	-0.014996	-0.122402	7512.063418	57839.126690	4168.974922	30095.863210
60.534500	-0.004019	-0.011999	-0.007693	-0.119766	7520.591168	57575.318520	4183.599327	29931.043753
61.037500	-0.003525	-0.009724	-0.003716	-0.103202	7350.931931	55806.960357	4144.511229	28917.927065
61.538000	-0.004268	-0.004885	-0.008612	-0.065908	6973.538416	52000.275766	4021.454741	26773.542274
62.035500	-0.011734	-0.006716	-0.015721	-0.082691	7062.945035	53718.660278	4048.623956	27715.821514
62.536000	-0.008710	-0.005670	-0.009169	-0.055621	6836.041364	50765.210838	3991.707350	26213.696187
63.036000	-0.005508	-0.005084	-0.008157	-0.069777	6998.561524	52416.546316	4033.522006	26987.513421
63.536500	-0.007950	-0.007442	-0.006813	-0.085276	7125.174437	53936.533328	4081.699268	27864.197286
64.037000	-0.012314	-0.004317	-0.015516	-0.052013	6770.402137	50517.590700	3965.050536	26020.507326
64.537500	-0.010735	0.001847	-0.019511	-0.020754	6511.454613	47846.292316	3875.403014	24411.921689
65.037000	-0.012786	0.003704	-0.015035	-0.041766	6674.830577	50274.249218	3939.481185	25480.361733
65.535000	-0.012078	0.004431	-0.017388	-0.040812	6672.668365	50249.602019	3930.953639	25430.734775
66.061000	-0.010892	0.005536	-0.019714	-0.040078	6676.648314	50290.066000	3923.123113	25392.648577
66.536000	-0.009782	0.005752	-0.019777	-0.037131	6660.499705	49993.208539	3915.468821	25240.225195
67.036000	-0.012227	0.006799	-0.022905	-0.033759	6609.802829	49742.039992	3899.125982	25067.129470
67.536000	-0.010357	0.007515	-0.016345	-0.030451	6597.375318	49463.452121	3907.271107	24898.580672
68.039500	-0.010144	0.007730	-0.011071	-0.027617	6574.835331	49183.791372	3913.423101	24755.240649
68.536500	-0.012649	0.007928	-0.016804	-0.020515	6493.349924	48454.389287	3881.445254	24400.064571
69.037000	-0.010441	0.006603	-0.018229	-0.023029	6533.175014	48579.295891	3884.123734	24525.157986
69.534500	-0.010472	0.006910	-0.017280	-0.021021	6515.923954	48400.838756	3881.519497	24425.211009
70.037000	-0.012039	0.006994	-0.015663	-0.018990	6485.677927	48197.489425	3880.502800	24324.565258
70.534500	-0.014145	0.006613	-0.017573	-0.012512	6414.538551	47488.345488	3860.127068	24006.774678
71.035000	-0.013002	0.006110	-0.016642	-0.015725	6450.460077	47767.114782	3870.142985	24163.778646
71.535500	-0.013829	0.005942	-0.018104	-0.015193	6439.210316	47694.960711	3865.311666	24137.700974
72.036000	-0.013648	0.005254	-0.018816	-0.015207	6440.832692	47625.665542	3863.625387	24138.421914
72.536500	-0.014201	0.004134	-0.018445	-0.011521	6405.949287	47133.783554	3855.651419	23958.532690
73.036000	-0.012392	0.004742	-0.012220	-0.015162	6450.852034	47568.354767	3879.559279	24136.211980
73.537000	-0.011625	0.004860	-0.013727	-0.015303	6458.382673	47594.913618	3876.216709	24143.091119
74.037500	-0.016322	0.003837	-0.024534	-0.011340	6387.152187	47085.176247	3840.740232	23949.740692
74.534500	-0.016381	0.003372	-0.019339	-0.012772	6398.355159	47183.609473	3856.508303	24019.421748
75.035000	-0.011980	0.003926	-0.012913	-0.017518	6473.877411	47726.864414	3883.643263	24251.951075
75.535500	-0.009067	0.004471	-0.013389	-0.018085	6503.018466	47841.609268	3883.863926	24279.862740
76.035500	-0.013804	0.003581	-0.019549	-0.013582	6426.138618	47287.567855	3857.949422	24058.938063
76.535000	-0.013346	0.003362	-0.015529	-0.015646	6446.954251	47476.343186	3872.656850	24159.908657
77.036000	-0.010125	0.003643	-0.012690	-0.021000	6518.678623	48057.938105	3892.795979	24424.148981
77.539000	-0.008819	0.003640	-0.012599	-0.021799	6536.500548	48140.647586	3895.005108	24463.847559
78.037000	-0.013566	0.002474	-0.020501	-0.018435	6468.296824	47671.690458	3867.355646	24297.146739
78.536500	-0.012312	0.003006	-0.013729	-0.018716	6481.111401	47755.509565	3884.583548	24311.041791
79.037500	-0.010379	0.003041	-0.014921	-0.025106	6551.350654	48423.413094	3897.455936	24628.991684
79.535000	-0.010187	0.003527	-0.014431	-0.025699	6558.055875	48536.567520	3900.159204	24658.761035
80.034500	-0.013914	0.002570	-0.018488	-0.021267	6489.044866	47974.324388	3879.160023	24437.406237
80.535500	-0.011858	0.003313	-0.011757	-0.027622	6560.210083	48716.354395	3911.704531	24755.502949
81.036000	-0.010289	0.002751	-0.011949	-0.028972	6585.223804	48799.467059	3914.631990	24823.675008
81.535500	-0.011067	0.003270	-0.015351	-0.029254	6580.959558	48884.174528	3906.762010	24837.931932
82.039000	-0.014738	0.002172	-0.019589	-0.025080	6514.180181	48329.809529	3885.825108	24627.712625
82.536500	-0.015425	0.002310	-0.018026	-0.027206	6526.336785	48567.032022	3894.957925	24734.550411
83.036500	-0.012686	0.003272	-0.014690	-0.030866	6580.900762	49055.207159	3912.489066	24919.686986
83.542000	-0.010987	0.002785	-0.015193	-0.032048	6605.729448	49129.081463	3914.206362	24979.790429
84.037500	-0.015552	0.002836	-0.020912	-0.026730	6521.232941	48572.328385	3886.629336	24710.562343
84.535500	-0.011790	0.003119	-0.015818	-0.032279	6600.790826	49189.282561	3913.209358	24991.584865
85.035500	-0.011991	0.003100	-0.016278	-0.032796	6603.514615	49242.284211	3913.354367	25017.937537
85.535500	-0.013490	0.002240	-0.018846	-0.033166	6593.772355	49190.048112	3907.811223	25036.822094
86.035500	-0.014688	0.002158	-0.018794	-0.028701	6545.282258	48708.450628	3896.766749	24809.997437
86.536000	-0.012132	0.002177	-0.019316	-0.032566	6600.311663	49119.486961	3905.120883	25006.177638
87.036500	-0.011590	0.002128	-0.016783	-0.031975	6599.883884	49051.444004	3910.005704	24976.059231
87.536000	-0.012538	0.002630	-0.016616	-0.031771	6589.955701	49083.137737	3909.913885	24965.695668
88.036000	-0.015899	0.001994	-0.020498	-0.025959	6511.795186	48403.152420	3885.749075	24671.807035
88.537500	-0.010507	0.002514	-0.015711	-0.030170	6593.665139	48901.101633	3908.160302	24884.358194
89.037000	-0.012927	0.002088	-0.013623	-0.030183	6572.972484	48857.358247	3913.458114	24884.990880
89.535000	-0.012297	0.001699	-0.014521	-0.029754	6574.695999	48771.091770	3910.109761	24863.276787
90.035000	-0.010107	0.002239	-0.013064	-0.028381	6581.705082	48683.166126	3910.322093	24793.803924
90.535500	-0.011661	0.002187	-0.017593	-0.027943	6564.632189	48631.628762	3897.869015	24771.684341
91.035500	-0.014630	0.001835	-0.018712	-0.027309	6533.948256	48527.998013	3893.508543	24739.719224
91.539000	-0.013032	0.001401	-0.020483	-0.027430	6548.550924	48495.112181	3889.418999	24745.815788
92.036500	-0.009437	0.001435	-0.014469	-0.026431	6570.725388	48393.979008	3901.895212	24695.526182
92.536000	-0.013946	0.000665	-0.019326	-0.025977	6528.452702	48266.123451	3888.686691	24672.728072
93.036500	-0.013172	0.001161	-0.016547	-0.025108	6527.652038	48227.269400	3893.420116	24629.134416
93.537500	-0.011524	0.002483	-0.010492	-0.023116	6524.737977	48157.423940	3903.553398	24529.503584
94.037500	-0.013938	0.000809	-0.010639	-0.018935	6469.364097	47551.891104	3892.760605	24321.853730
94.535000	-0.014491	0.001293	-0.019406	-0.016880	6447.698540	47390.851837	3866.243980	24220.554931
95.038000	-0.014939	0.000656	-0.013400	-0.021445	6481.960090	47794.615755	3892.138654	24446.266127
95.535500	-0.012996	0.001404	-0.014434	-0.020001	6486.136043	47722.838976	3886.011293	24374.591419
96.135000	-0.013815	0.000346	-0.015356	-0.019935	6478.738807	47607.047043	3883.577971	24371.345662
96.568000	-0.014582	0.000330	-0.013594	-0.013850	6421.933860	46983.954029	3872.995169	24071.998291
97.069000	-0.013144	0.001274	-0.016737	-0.017207	6461.586959	47422.245825	3873.516815	24236.601291
97.539000	-0.013888	0.000479	-0.012670	-0.016815	6452.153305	47300.858295	3882.511165	24217.316842
98.037000	-0.013175	0.000095	-0.013161	-0.016443	6454.991128	47223.825436	3880.394302	24199.068821
98.537500	-0.016063	0.000341	-0.017840	-0.010094	6379.130824	46605.793805	3853.686243	23889.346071
99.035000	-0.013676	0.000152	-0.016537	-0.014588	6435.485610	47040.825952	3867.638675	24108.085361
99.535000	-0.014009	0.000252	-0.017127	-0.013899	6427.050105	46981.026591	3864.545532	24074.391054
