sample name	sample
index	1181
start time	 04-26-2021  11:44:38 AM
880	-0.046676
Peak Time (s)	91.036
Peak Height 	-0.04668
calc peak height	90,93
Baseline Time (s)	11.036
Baseline Value 	-0.006256
subtract baseline	10,4
Abs	-0.020101
Peak Time (s)	90.535
Peak Height 	-0.0201
calc peak height	90,93
Baseline Time (s)	11.54
Baseline Value 	0.003329
subtract baseline	10,3
PK_550	0.000844
Peak Time (s)	92.036
Peak Height 	8.4403E-4
calc peak height	90,93
Baseline Time (s)	9.536
Baseline Value 	8.01E-4
subtract baseline	10,2
PK_880	-0.018943
Peak Time (s)	92.036
Peak Height 	-0.01894
calc peak height	90,93
Baseline Time (s)	11.54
Baseline Value 	0.003284
subtract baseline	10,1


Time (s)	A880-A510	A880-A775	A880-A975	A880	I510	I775	I975	I880	
0.035000	-0.000919	-0.000718	0.002833	0.003103	6160.782572	43727.685336	3858.113211	22615.066606
0.536000	-0.004118	-0.001199	-0.002790	0.004686	6125.091586	43534.334221	3841.879095	22543.334867
1.036500	-0.006156	-0.001003	-0.003086	0.007304	6090.711456	43308.456036	3835.389142	22425.234019
1.536500	-0.001394	-0.000686	0.000811	0.002159	6164.304456	43819.500094	3855.666222	22657.978336
2.036500	-0.001306	0.000442	0.002543	0.002245	6164.325306	43917.753327	3859.403538	22654.065837
2.537000	-0.000562	-0.000212	0.004690	0.001629	6174.556956	43914.162090	3865.708064	22682.112955
3.040000	0.000290	0.000031	0.001487	0.000429	6190.063750	44050.633701	3861.134073	22736.878741
3.534500	0.000498	0.000500	0.004227	0.001152	6186.159099	44026.546534	3865.742027	22703.856468
4.035000	-0.001251	0.000066	-0.000167	0.001003	6174.080511	43999.602481	3856.069455	22710.655290
4.535000	-0.000150	0.000282	0.001569	0.000484	6186.316168	44069.236342	3861.196576	22734.372269
5.035500	-0.000863	-0.000661	-0.003575	0.000130	6183.600284	44013.416716	3850.340299	22750.559351
5.536000	-0.001235	-0.000855	0.002647	0.000355	6179.092652	43973.827161	3863.951537	22740.277670
6.036000	-0.000608	0.000425	-0.000022	0.000969	6179.189839	44036.821003	3856.476595	22712.224236
6.536500	-0.002376	-0.000730	-0.002182	-0.000548	6177.294432	44071.149168	3855.019174	22781.577379
7.039500	-0.000082	0.000739	0.007652	0.000554	6186.301346	44105.809927	3874.993998	22731.152228
7.537000	-0.002353	-0.000491	0.003013	0.000031	6173.104743	44038.930705	3865.529024	22755.083869
8.037500	-0.001123	-0.000235	0.002239	-0.000310	6184.961487	44095.416932	3864.538027	22770.660911
8.535000	-0.003104	0.000236	-0.001775	0.000398	6164.696907	44073.006163	3853.800749	22738.316441
9.035000	-0.000139	-0.000015	-0.002329	0.000215	6188.434901	44066.581148	3852.962266	22746.677051
9.535500	-0.000205	0.000000	0.004811	-0.000285	6191.717549	44115.347026	3870.377937	22769.522568
10.035500	0.000655	-0.000017	-0.001105	-0.000297	6198.336108	44114.874628	3856.893065	22770.086279
10.535500	0.000061	0.000364	0.002498	0.000373	6188.755365	44087.513165	3863.569116	22739.456831
11.036000	0.000711	0.000266	0.004515	0.000000	6196.508539	44113.518192	3869.044626	22756.489537
11.539500	0.000000	-0.000130	0.000000	-0.000397	6194.125075	44113.697307	3859.629538	22774.656973
12.036500	-0.002022	-0.000374	-0.002403	-0.000356	6178.519811	44086.706579	3854.084604	22772.794018
12.537000	0.000553	0.000775	-0.000127	0.000639	6190.465441	44101.279023	3856.987276	22727.288762
13.034500	0.000972	-0.000374	0.002206	-0.000573	6202.838404	44107.184583	3865.063271	22782.707901
13.534000	-0.000579	-0.000333	-0.000642	0.000144	6185.643274	44043.160746	3856.942124	22749.924740
14.035000	-0.002039	0.000667	0.002845	0.003474	6149.616410	43823.120884	3857.299000	22598.236733
14.535500	-0.001844	0.000429	-0.000685	0.002970	6154.843231	43848.181813	3850.453066	22621.115970
15.041000	-0.003554	-0.001192	-0.002535	0.004711	6129.091694	43532.565904	3842.391652	22542.187650
15.536000	-0.002385	0.000708	0.002983	0.000162	6171.877981	44140.112419	3865.161699	22749.087924
16.036500	-0.002044	-0.000084	0.001871	-0.000065	6176.158482	44086.522063	3863.137859	22759.457108
16.539500	0.000095	-0.000221	-0.001750	-0.000271	6193.887766	44093.096127	3855.371179	22768.895236
17.037000	-0.005537	-0.000048	0.000573	0.005218	6110.635118	43592.163940	3848.223952	22519.248105
17.534500	-0.000183	0.000326	0.004748	-0.001001	6197.321703	44214.354365	3871.882609	22802.323326
18.037500	-0.001267	0.000139	-0.002575	0.001154	6172.827315	43992.221043	3850.287780	22703.791373
18.535000	-0.003562	0.000376	0.004452	0.003017	6141.648556	43838.773456	3861.993057	22618.971071
19.035500	-0.000583	0.000110	0.006344	0.002546	6167.494710	43858.096899	3867.398474	22640.377497
19.535500	-0.002476	0.000649	0.005468	0.001948	6157.773152	43965.401887	3866.761048	22667.611025
20.036000	-0.000831	-0.000284	0.004114	0.001971	6169.957326	43875.121765	3863.611633	22666.552457
20.536000	-0.001398	0.000088	0.002058	0.001927	6166.015174	43914.320752	3859.024199	22668.528694
21.039500	0.001105	0.000106	0.001008	0.002762	6178.586809	43837.349893	3854.749004	22630.573528
21.537000	0.001934	0.001217	0.006123	0.002895	6183.844016	43929.529364	3866.091088	22624.511951
22.034500	-0.002330	-0.000685	0.003697	0.001036	6165.713931	43925.501600	3864.792498	22709.146178
22.535000	0.000742	0.000510	-0.000388	0.002095	6180.885240	43938.409384	3853.099925	22660.910141
23.037000	-0.002137	0.000282	-0.004395	0.002093	6159.228083	43917.026063	3844.086640	22660.993826
23.535000	-0.001975	0.000768	0.002747	0.002269	6159.121657	43946.335106	3859.813088	22652.989252
24.035500	-0.001495	0.000116	0.000746	0.001785	6166.362120	43930.380590	3856.366530	22675.009927
24.536000	0.001476	-0.000364	0.003411	0.001753	6189.012486	43888.072157	3862.501104	22676.453134
25.035000	-0.003578	0.000499	0.000181	0.002396	6146.166712	43908.894236	3853.703457	22647.186309
25.536500	-0.001958	0.000430	0.002315	0.001971	6161.480318	43942.473219	3859.509782	22666.541145
26.036500	-0.003281	0.000300	0.003281	0.001929	6151.879515	43934.202194	3861.804704	22668.458244
26.537000	-0.000523	0.000916	0.000081	0.004319	6154.635222	43767.019584	3849.138847	22559.913471
27.039500	-0.003140	-0.000480	0.003424	0.002371	6149.629108	43819.015575	3861.124674	22648.350009
27.534500	0.001557	0.000295	0.006170	-0.001151	6211.693140	44225.623306	3875.510686	22809.202075
28.038500	-0.000316	-0.000257	-0.001721	0.000356	6186.025893	44030.205758	3854.015939	22740.200783
28.535000	-0.003778	0.000188	-0.001027	0.005697	6120.113635	43569.490229	3843.560931	22497.645040
29.036000	0.003248	0.000902	0.002218	0.001231	6206.430349	44057.181306	3860.972453	22700.273442
29.536000	-0.001181	-0.000072	0.003849	0.000416	6179.041366	44042.089297	3866.561488	22737.476263
30.039000	-0.000203	0.000876	0.004099	0.001172	6180.717350	44060.322741	3865.403329	22702.954709
30.539500	0.000667	0.000292	0.003246	0.000623	6191.451831	44056.962109	3864.707221	22728.020776
31.036500	-0.002489	-0.000798	-0.005983	0.002241	6155.474918	43801.335169	3840.208447	22654.265935
31.537000	-0.001898	0.000612	-0.000780	0.002814	6155.604615	43880.126988	3850.590484	22628.186752
32.034000	0.000533	0.000183	0.000391	0.000195	6193.675508	44087.174252	3859.171755	22747.578987
32.535000	-0.005656	-0.000063	0.001524	0.005788	6105.543231	43537.447219	3849.081078	22493.498608
33.038000	-0.001598	0.000518	0.001606	0.000975	6171.675209	44045.059509	3860.161857	22711.933356
33.535500	-0.000129	-0.000228	-0.002020	0.000457	6186.680210	44023.471878	3853.112164	22735.600461
34.038500	0.002925	0.000966	0.003090	-0.000946	6220.569417	44269.994383	3867.943410	22799.796194
34.536000	-0.005023	0.000538	0.003191	0.005823	6109.960939	43590.409905	3852.762122	22491.928365
35.036500	0.001636	0.000485	0.005603	0.002518	6184.439339	43896.015256	3865.762236	22641.633063
35.536500	-0.001299	-0.000598	0.002979	0.001781	6167.866212	43863.510249	3861.453457	22675.214776
36.036500	-0.002722	-0.000397	0.000185	0.001987	6155.632284	43863.024247	3854.638629	22665.826431
36.537000	-0.003252	0.000013	-0.000549	0.003184	6142.722399	43788.892971	3850.278468	22611.411839
37.034500	-0.001522	-0.001262	0.004576	0.001219	6170.420234	43853.827453	3866.387337	22700.826804
37.535000	-0.003081	-0.000677	0.002313	0.001843	6154.021519	43850.180442	3859.796029	22672.362319
38.035000	-0.001981	0.000283	0.004388	0.002228	6159.375518	43904.384261	3863.647559	22654.828087
38.536000	0.000052	0.000363	-0.000693	0.002232	6174.642779	43911.561113	3852.100579	22654.670401
39.035500	-0.001376	-0.000511	0.004473	0.002011	6165.551673	43849.965932	3864.338020	22664.717569
39.536500	-0.001094	-0.000058	-0.000646	0.002288	6165.591645	43866.565020	3852.078873	22652.122480
40.042000	-0.001357	-0.000486	0.008118	0.001854	6166.878340	43867.188260	3873.069929	22671.890535
40.534000	-0.000760	0.000397	0.003599	0.002875	6163.695595	43854.178029	3860.374102	22625.436388
41.037000	-0.000357	0.000508	0.003357	0.002970	6166.005786	43855.581396	3859.607229	22621.102283
41.535000	-0.000894	0.000074	0.000228	0.002324	6166.826362	43875.697159	3853.974229	22650.501285
42.035000	-0.003213	-0.000510	0.003937	0.001964	6152.131498	43854.537816	3863.223205	22666.870740
42.535000	-0.001515	-0.000097	-0.001414	0.002469	6161.071957	43845.853134	3849.939993	22643.898736
43.035500	-0.001744	0.000031	0.003233	0.002763	6157.142355	43830.160370	3859.794222	22630.504887
43.535500	-0.001649	0.000300	0.003876	0.002639	6158.788595	43867.169968	3861.541505	22636.134326
44.036000	-0.002060	0.000475	0.007011	0.002463	6157.033113	43900.328409	3869.120504	22644.173102
44.539000	-0.003535	0.000453	0.003657	0.004613	6129.965878	43695.977429	3856.557362	22546.638831
45.036500	-0.005107	0.000440	-0.002288	0.006056	6107.622388	43559.427688	3839.941116	22481.437749
45.537000	-0.000453	0.000172	0.003414	0.000286	6185.524200	44077.580043	3865.863143	22743.429247
46.037000	0.000553	0.000139	0.008204	0.000279	6193.189279	44075.081533	3876.907102	22743.728459
46.534500	-0.003309	0.000112	0.000443	0.006003	6121.321029	43533.706348	3846.168180	22483.823294
47.035000	-0.003666	0.000254	-0.003680	0.006817	6112.643917	43470.859046	3835.150817	22447.117194
47.537000	0.001204	0.000527	0.005908	0.000501	6196.448508	44090.864623	3871.095751	22733.597362
48.035000	-0.003093	-0.000349	-0.001771	0.002432	6149.522929	43825.552085	3849.218340	22645.546433
48.536000	-0.001458	-0.000138	-0.002060	0.004455	6146.622208	43655.270576	3844.026461	22553.765085
49.036000	-0.002623	0.000370	-0.002226	0.006152	6125.300188	43543.918909	3839.864188	22477.083787
49.535500	-0.002327	0.000194	0.004414	0.000471	6169.988602	44062.111236	3867.730786	22734.955745
50.036500	-0.001237	-0.000038	0.003967	-0.000121	6182.670170	44096.210865	3868.064216	22762.032403
50.536000	-0.001119	0.001005	0.007047	0.004782	6146.717122	43731.928835	3863.888879	22538.992637
51.037000	-0.001669	-0.000170	-0.006184	0.007072	6125.560966	43407.572873	3829.049224	22435.665802
51.535000	0.000060	-0.009038	0.004854	0.033773	5945.363549	40223.880532	3795.127925	21270.304530
52.035000	0.007301	-0.027913	-0.021442	0.423465	4162.888275	17481.891904	3225.899323	10384.753371
52.535500	-0.003396	-0.023032	-0.026551	-0.042341	6499.801432	45959.919871	3895.280993	24790.616397
53.035500	0.005255	-0.070590	-0.009321	-0.242514	8721.853921	64081.873643	4560.435789	37612.295371
53.536000	-0.025344	-0.048996	-0.026778	-0.208058	7912.073010	62297.134747	4370.149615	34964.183521
54.039000	-0.016313	-0.075918	-0.025810	-0.256707	8623.857939	65343.217177	4551.533395	38765.766225
54.536500	-0.006955	-0.039807	-0.015688	-0.204143	8081.893170	63022.648980	4395.114453	34676.351225
55.037000	-0.006370	-0.020168	-0.010470	-0.141420	7391.197794	57346.506250	4206.156750	30402.110319
55.537000	-0.013258	-0.013978	-0.018546	-0.123192	7138.883850	55858.700036	4127.717148	29271.418985
56.034500	-0.012748	-0.013058	-0.017448	-0.117699	7090.530762	55304.232112	4115.068728	28939.855929
56.535000	-0.013221	-0.008932	-0.022382	-0.086119	6792.459453	52095.425210	4014.788450	27113.089061
57.035000	-0.012321	-0.007378	-0.017080	-0.071378	6670.384706	50624.680226	3990.205293	26304.762278
57.535500	-0.012231	-0.008074	-0.018979	-0.086789	6807.353285	52268.571040	4025.559536	27150.435997
58.035500	-0.010857	-0.006312	-0.018621	-0.052823	6524.917428	48741.774085	3939.618758	25325.557708
58.536000	-0.018356	-0.004825	-0.022248	-0.030113	6281.402833	46556.509899	3876.768634	24182.654664
59.036500	-0.013826	-0.003925	-0.019731	-0.018025	6223.087371	45446.887475	3854.858087	23598.285195
59.536000	-0.009246	-0.003525	-0.015050	-0.006794	6172.589067	44399.364251	3840.136234	23069.669568
60.036500	-0.010653	-0.003839	-0.025590	-0.006509	6159.875729	44342.227610	3816.291342	23056.453165
60.537500	-0.011311	-0.002433	-0.016449	-0.001751	6119.480169	44023.735186	3825.874351	22836.747538
61.037000	-0.013741	-0.003385	-0.021746	-0.003157	6111.900666	44066.728860	3817.361075	22901.413215
61.535000	-0.013313	-0.003780	-0.019939	-0.003957	6120.990289	44105.132560	3823.055304	22938.301931
62.035500	-0.016110	-0.002800	-0.022303	-0.002674	6090.878703	44076.393309	3815.098463	22879.160318
62.535500	-0.018091	-0.002829	-0.029259	-0.013499	6156.507259	45112.223773	3823.542763	23383.595453
63.041000	-0.020100	-0.004586	-0.029759	-0.023093	6213.873930	45880.488002	3843.690242	23841.305113
63.539000	-0.022560	-0.003566	-0.027291	-0.024526	6206.041406	46123.871361	3852.460536	23910.536971
64.079000	-0.018171	-0.002662	-0.023751	-0.029556	6278.511055	46718.197200	3872.011919	24155.391144
64.537000	-0.019466	-0.001944	-0.028432	-0.031961	6287.151210	47034.279299	3866.779828	24273.438269
65.042000	-0.021956	-0.002372	-0.023377	-0.030321	6255.097625	46824.710526	3874.638396	24192.843303
65.537500	-0.019017	-0.001765	-0.024102	-0.036481	6326.123411	47514.147340	3887.271633	24497.139203
66.035000	-0.019962	-0.001732	-0.026843	-0.038950	6338.158964	47771.753261	3886.636393	24620.303703
66.535500	-0.019931	-0.002391	-0.026908	-0.042107	6363.484106	48030.531945	3893.888417	24778.819440
67.035500	-0.022439	-0.002039	-0.028918	-0.038896	6318.182484	47734.463949	3881.670806	24617.587814
67.536000	-0.018627	-0.001337	-0.025613	-0.045288	6399.432263	48472.565620	3904.480239	24939.722701
68.036500	-0.016835	-0.001452	-0.026133	-0.047013	6427.873942	48641.716335	3907.351048	25027.455348
68.536500	-0.021500	-0.002345	-0.026991	-0.044048	6366.457210	48237.375595	3898.272402	24876.875545
69.037000	-0.020645	-0.002381	-0.027673	-0.043880	6371.937398	48216.014924	3896.264330	24868.341522
69.537000	-0.018053	-0.001633	-0.018461	-0.049693	6439.772090	48905.534026	3932.339021	25164.468821
70.037500	-0.017693	-0.002187	-0.022218	-0.050747	6451.315387	48958.593153	3925.757852	25218.618189
70.534500	-0.018386	-0.001767	-0.025107	-0.046716	6412.897845	48577.286990	3909.090964	25012.324733
71.035000	-0.017308	-0.001363	-0.019459	-0.049180	6441.662457	48879.854197	3928.653914	25138.176213
71.535500	-0.015525	-0.000955	-0.017593	-0.051572	6475.864816	49177.153439	3939.072617	25261.067521
72.035500	-0.014876	-0.001634	-0.019673	-0.052804	6491.376945	49235.996086	3936.987014	25324.565564
72.536000	-0.019718	-0.001711	-0.021954	-0.050027	6428.934544	48932.684257	3924.649647	25181.597601
73.038500	-0.016400	-0.001028	-0.019600	-0.049803	6454.164673	48981.323993	3929.830182	25170.129812
73.536000	-0.013671	-0.000964	-0.023095	-0.053896	6510.426226	49424.324197	3931.288740	25381.082125
74.036500	-0.015973	-0.000797	-0.018279	-0.054514	6496.453268	49508.455264	3944.631752	25413.097298
74.537000	-0.017333	-0.000765	-0.024622	-0.051757	6462.528684	49217.043637	3922.379959	25270.585424
75.037500	-0.017529	-0.000901	-0.020005	-0.050572	6451.226600	49076.481732	3930.715780	25209.611688
75.535000	-0.017858	-0.001030	-0.017567	-0.056221	6494.979612	49666.857830	3950.625983	25501.794753
76.035000	-0.016920	-0.001401	-0.023193	-0.056515	6505.192932	49658.568403	3937.458327	25517.109374
76.535500	-0.017147	-0.001162	-0.025295	-0.054266	6484.698701	49442.691565	3926.830442	25400.232295
77.035500	-0.018002	-0.001001	-0.030622	-0.051540	6455.266828	49168.735819	3907.440835	25259.396721
77.538000	-0.016486	-0.001581	-0.022252	-0.056990	6512.736614	49690.310367	3940.936059	25541.829784
78.036500	-0.016235	-0.000630	-0.015952	-0.056461	6510.433538	49735.731707	3955.243181	25514.274063
78.536500	-0.018947	-0.001802	-0.022503	-0.055100	6476.731984	49463.490482	3935.678733	25443.482525
79.037000	-0.020736	-0.001010	-0.029326	-0.052291	6439.071478	49247.835936	3912.334365	25298.084772
79.537000	-0.015456	-0.000099	-0.019908	-0.055856	6511.874981	49727.723386	3943.921529	25482.764394
80.034500	-0.018073	0.000054	-0.023000	-0.055198	6484.747912	49673.358670	3934.700199	25448.576497
80.537500	-0.018946	0.000103	-0.026990	-0.053688	6465.137055	49516.303404	3921.319471	25370.270338
81.035000	-0.018515	-0.000091	-0.028124	-0.054501	6475.356255	49582.795629	3920.544628	25412.401143
81.535500	-0.018548	-0.000081	-0.021540	-0.054157	6472.264175	49547.054503	3935.729066	25394.600633
82.035500	-0.019410	0.000180	-0.021146	-0.053371	6458.732682	49490.558462	3934.767298	25353.870257
82.536000	-0.018895	-0.000283	-0.017337	-0.053288	6462.271760	49432.164591	3943.928587	25349.597155
83.036500	-0.019562	-0.000223	-0.025493	-0.053130	6455.517674	49421.620643	3923.592377	25341.424759
83.537000	-0.018835	-0.000769	-0.025556	-0.052865	6459.300385	49334.931117	3922.801387	25327.763250
84.037000	-0.018044	0.000108	-0.022487	-0.052472	6462.560553	49386.638752	3929.298174	25307.463249
84.534500	-0.019192	-0.000418	-0.021474	-0.052851	6456.261370	49370.883695	3932.691542	25326.998631
85.034500	-0.019489	-0.000797	-0.026727	-0.052625	6451.985168	49306.263241	3919.388258	25315.344735
85.535000	-0.021042	-0.000809	-0.024475	-0.052233	6436.118088	49263.201268	3923.889005	25295.136959
86.035500	-0.017926	-0.000143	-0.025488	-0.051754	6457.647376	49283.068299	3920.277608	25270.417931
86.535500	-0.019634	0.000253	-0.021548	-0.050081	6430.068122	49146.972205	3925.767544	25184.401116
87.038500	-0.018857	-0.000422	-0.018069	-0.052002	6452.055476	49279.795595	3938.957818	25283.218442
87.536000	-0.020874	-0.000124	-0.024960	-0.052097	6436.375852	49321.703299	3922.383643	25288.097399
88.036000	-0.020816	-0.000040	-0.021507	-0.051683	6433.478787	49286.530428	3929.762946	25266.782540
88.537000	-0.019679	-0.000367	-0.025226	-0.050836	6435.841450	49161.431287	3918.696592	25223.193543
89.037500	-0.023524	0.000009	-0.027789	-0.047281	6376.114883	48824.133154	3904.046486	25041.145192
89.537500	-0.018186	0.000463	-0.022200	-0.050961	6449.030888	49263.106876	3926.319469	25229.573914
90.034500	-0.020888	0.000256	-0.022564	-0.051132	6428.412543	49259.311696	3925.851771	25238.392981
90.535000	-0.020238	-0.000391	-0.020101	-0.050373	6427.524871	49109.469665	3929.995555	25199.357265
91.036000	-0.022806	0.000418	-0.027004	-0.046676	6377.017723	48803.389664	3904.474524	25010.293719
91.536000	-0.019240	0.000266	-0.026909	-0.051410	6444.094885	49290.010189	3916.023672	25252.711005
92.036000	-0.018943	0.000844	-0.024178	-0.050534	6439.372623	49258.210345	3920.494742	25207.642790
92.536500	-0.020327	0.000624	-0.024463	-0.049729	6421.575007	49148.898304	3917.863669	25166.307101
93.037000	-0.023011	0.000460	-0.023976	-0.045987	6369.872965	48735.116322	3910.051837	24975.244373
93.537000	-0.017771	0.001027	-0.026065	-0.050163	6445.902592	49238.130361	3915.053642	25188.577419
94.036500	-0.019203	0.001270	-0.022351	-0.049823	6431.463170	49227.818098	3923.193723	25171.119526
94.534500	-0.021060	0.001357	-0.021913	-0.048635	6406.795160	49110.572114	3921.378824	25110.263104
95.035500	-0.019451	0.001090	-0.023189	-0.049930	6430.325144	49220.013135	3921.426610	25176.635562
95.535500	-0.017253	0.001635	-0.022758	-0.049088	6441.354247	49188.316783	3920.432755	25133.462999
96.035500	-0.018248	0.002320	-0.021685	-0.048784	6430.783606	49229.051120	3922.292427	25117.920731
96.538500	-0.019692	0.001371	-0.025451	-0.048185	6414.218878	49064.250785	3911.783714	25087.283371
97.036500	-0.021114	0.001883	-0.026808	-0.045718	6382.897477	48857.009648	3902.662774	24961.561960
