sample name	sample
index	585
start time	 03-16-2021  04:03:28 PM
880	0.041271
Peak Time (s)	182.035
Peak Height 	0.04127
calc peak height	180,183
Baseline Time (s)	10.535
Baseline Value 	-0.005476
subtract baseline	10,4
Abs	0.009225
Peak Time (s)	182.538
Peak Height 	0.009225
calc peak height	180,183
Baseline Time (s)	11.536
Baseline Value 	0.004293
subtract baseline	10,3
PK_550	0.013614
Peak Time (s)	182.538
Peak Height 	0.01361
calc peak height	180,183
Baseline Time (s)	11.035
Baseline Value 	8.1257E-4
subtract baseline	10,2
PK_880	0.014874
Peak Time (s)	182.538
Peak Height 	0.01487
calc peak height	180,183
Baseline Time (s)	8.537
Baseline Value 	0.001958
subtract baseline	10,1


Time (s)	A880-A510	A880-A775	A880-A975	A880	I510	I775	I975	I880	
0.034000	0.000008	-0.000505	-0.002925	0.001731	5592.219306	33825.882445	3636.642142	18359.965888
0.537000	0.001321	-0.000959	-0.009937	0.004655	5582.135338	33586.216612	3618.681088	18255.959556
1.035000	-0.003685	-0.000062	-0.004218	0.007430	5533.956316	33453.788549	3623.962083	18157.913556
1.535000	-0.000571	-0.000255	0.002073	0.001185	5592.015842	33882.637730	3646.845742	18379.468299
2.035000	0.000429	-0.000205	-0.007588	0.000494	5602.639944	33935.516844	3630.402219	18404.178361
2.536000	0.000722	0.000583	-0.004055	0.000826	5602.399671	33968.163466	3636.233108	18392.316759
3.036000	0.000430	-0.000559	-0.005650	0.000288	5603.946995	33925.012942	3634.302963	18411.572872
3.539000	0.002069	-0.000356	-0.003708	0.000424	5613.429317	33929.755976	3637.602257	18406.689133
4.036500	0.001309	-0.000045	-0.001174	0.000783	5606.368306	33926.371192	3641.592925	18393.849487
4.536500	0.001907	-0.000425	0.000676	0.000120	5614.328847	33946.552123	3646.230556	18417.589538
5.037500	0.001264	-0.000082	-0.002399	0.000554	5607.524315	33940.101399	3639.763670	18402.046758
5.537500	0.001699	-0.000107	-0.000914	0.000132	5612.935776	33968.441184	3643.271233	18417.139773
6.035000	-0.002858	0.000478	-0.002991	0.000803	5580.102526	33962.345174	3638.222400	18393.150353
6.535500	-0.001667	0.000489	-0.004514	0.000950	5586.628690	33952.599920	3635.168333	18387.897824
7.035500	-0.000816	-0.000329	-0.001623	-0.000244	5599.453198	33979.492246	3642.657545	18430.620828
7.536000	-0.001932	0.000269	-0.004889	0.000632	5586.954490	33959.541498	3635.063673	18399.244985
8.039000	0.001054	0.000596	0.004774	0.000670	5605.471592	33980.233829	3652.823223	18397.889947
8.536500	0.000000	-0.001471	-0.003742	-0.000857	5608.457493	33941.660791	3639.889364	18452.642587
9.036500	-0.000230	-0.000491	0.003332	-0.000249	5603.172468	33968.211806	3651.846789	18430.794874
9.537000	-0.000756	-0.000139	0.002139	-0.000404	5600.835053	34004.563996	3649.915663	18436.369658
10.037500	-0.000545	0.000930	0.000373	0.003250	5579.263373	33819.906810	3639.903634	18305.870358
10.535000	0.001039	0.000239	-0.001071	0.000000	5609.601891	34002.654229	3643.224877	18421.886768
11.035000	0.002702	0.000000	-0.000495	0.000440	5617.334215	33954.112968	3643.477472	18406.140010
11.535500	0.001641	0.000430	0.000000	0.000105	5612.738537	34008.817914	3645.007844	18418.108126
12.035500	0.000624	0.000425	0.002769	0.002727	5589.843007	33821.236458	3645.281853	18324.489996
12.536000	0.000502	0.000450	0.001376	0.000192	5605.003546	34004.064188	3647.393759	18415.007209
13.042000	0.000181	-0.000453	0.001897	-0.001149	5611.438651	34035.442025	3650.851730	18463.109199
13.536500	-0.000360	-0.000660	0.001919	-0.000985	5606.991149	34008.881965	3650.588996	18457.235867
14.037000	-0.002346	-0.000578	-0.008183	0.003106	5568.939971	33722.938804	3624.607703	18310.987946
14.537000	-0.001424	-0.000057	-0.005002	0.001595	5584.112170	33867.515855	3633.102044	18364.846496
15.037000	-0.002135	-0.000561	0.000110	-0.001174	5597.008221	34029.453701	3647.578962	18463.996760
15.537500	-0.001398	0.000127	-0.002582	-0.001028	5600.719684	34068.373634	3642.335303	18458.751059
16.035000	-0.002907	0.000433	0.002448	0.002210	5571.021993	33858.603517	3645.643463	18342.905236
16.535500	0.003608	0.000876	-0.001373	0.000702	5621.411500	33998.012820	3641.377065	18396.742912
17.036000	0.004601	-0.000208	0.008220	-0.003047	5651.633118	34189.439610	3666.297646	18531.448592
17.540000	-0.001291	-0.001637	0.002124	-0.000528	5598.253857	33906.268704	3650.118957	18440.829050
18.036500	0.001201	0.000125	-0.001856	0.001544	5600.891033	33884.129116	3638.942538	18366.653231
18.536500	-0.000339	0.000976	-0.003476	0.001872	5589.163146	33921.460671	3635.378031	18354.937394
19.037500	-0.000802	0.000265	-0.001736	0.001286	5589.935746	33912.546007	3639.635565	18375.860908
19.537500	0.000331	0.000580	-0.006378	0.001435	5596.112544	33924.427568	3630.892691	18370.558359
20.035000	0.000147	-0.000105	-0.002100	0.001609	5593.861050	33863.134366	3638.376722	18364.336661
20.535000	-0.000795	0.000504	-0.001995	0.001594	5588.053433	33907.640191	3638.597832	18364.881599
21.035500	-0.000401	-0.000970	-0.000381	0.000424	5597.864222	33885.976279	3643.716467	18406.703721
21.536000	0.001170	-0.000359	0.001866	0.001545	5600.695128	33849.573680	3645.795908	18366.623238
22.036000	-0.001482	-0.000212	-0.000746	0.001014	5587.383405	33897.928061	3641.956187	18385.605533
22.536500	0.001000	0.000621	-0.002072	0.002024	5596.611421	33885.231675	3637.666568	18349.514668
23.036000	-0.001532	-0.000346	-0.001469	0.000891	5587.843101	33897.165184	3640.852337	18389.999738
23.536500	-0.002345	0.000180	-0.001320	0.001634	5578.115071	33881.672445	3639.761415	18363.456171
24.037500	0.001822	-0.000199	0.000325	0.001066	5607.820223	33895.133138	3643.835552	18383.741432
24.537500	0.001628	-0.000226	-0.002520	0.000822	5608.134905	33910.608243	3639.050211	18392.454618
25.034500	-0.002340	0.000251	0.001541	0.000851	5583.033534	33942.655464	3646.478038	18391.418459
25.535500	-0.001406	-0.000123	-0.005109	0.000798	5589.211814	33919.703340	3634.360285	18393.321421
26.035500	-0.000269	-0.000280	0.000606	0.002161	5587.796064	33811.344187	3642.334030	18344.646632
26.535500	-0.001193	-0.000076	-0.002754	0.001079	5588.787049	33902.988932	3638.150567	18383.278882
27.039000	0.000490	0.000018	0.003417	-0.001649	5616.553166	34105.132596	3654.620082	18481.095066
27.536500	0.002222	0.000669	0.001711	-0.000808	5622.197687	34091.480026	3649.872456	18450.868519
28.036500	-0.000047	-0.000174	0.003915	-0.000515	5606.002782	34010.011826	3653.431713	18440.343457
28.537000	-0.002343	0.000659	0.003678	0.003450	5566.823609	33786.396932	3645.624459	18298.763420
29.034500	-0.000236	0.000118	-0.001994	-0.000266	5603.238379	34013.090510	3642.014112	18431.412217
29.535000	-0.000820	-0.000066	0.001705	-0.000341	5600.035032	34005.278460	3648.992660	18434.106720
30.035500	0.000917	0.000375	-0.001415	0.003283	5588.195680	33778.125486	3636.567761	18304.703802
30.535500	-0.000573	-0.000389	-0.007287	0.003844	5575.379671	33683.991826	3624.890956	18284.738627
31.036000	-0.002492	-0.000887	0.004082	0.001647	5577.114451	33804.634661	3649.715500	18362.969464
31.536000	0.001056	0.000696	0.004005	0.000020	5609.579608	34033.977061	3652.601871	18421.161071
32.037000	-0.001737	0.000254	0.003984	0.003839	5568.165790	33729.976183	3645.470964	18284.935746
32.537000	-0.003607	-0.000939	-0.001776	0.002594	5564.283965	33733.696638	3637.167988	18329.223992
33.036500	-0.001099	0.000711	0.005028	0.000081	5595.634073	34030.696831	3654.397767	18418.975081
33.537500	0.002248	0.000961	0.007997	-0.001464	5626.524879	34159.695195	3662.879783	18474.437113
34.087000	0.001075	0.000661	-0.002154	0.003096	5590.352606	33811.694782	3635.557898	18311.331495
34.538000	-0.001969	0.000410	0.002270	0.002784	5573.291719	33816.135964	3644.253365	18322.463374
35.034500	-0.000690	0.000711	-0.003836	0.002081	5585.659988	33887.602816	3634.340299	18347.488021
35.536000	0.000026	0.000190	0.002596	0.001756	5592.181163	33873.650153	3646.756557	18359.080702
36.269000	-0.001740	-0.000509	0.001226	0.002418	5576.991671	33776.679070	3643.002182	18335.468161
36.587000	-0.002708	-0.000021	-0.001344	0.002683	5569.322441	33792.610514	3637.794810	18326.057949
37.036500	0.001590	0.001459	0.001000	0.003222	5592.794915	33859.632962	3641.106361	18306.869788
37.536500	0.000299	0.000238	-0.003344	0.002051	5592.044302	33856.100173	3635.293960	18348.581150
38.037000	0.000419	0.000135	-0.000661	0.002995	5586.879636	33781.499466	3638.473411	18314.938435
38.537500	-0.000581	0.000329	0.003005	0.002186	5585.686916	33852.894742	3646.717258	18343.750830
39.037000	-0.001068	0.000883	0.000460	0.002657	5579.699550	33858.866202	3641.152115	18326.972067
39.535000	-0.000731	0.000927	0.001574	0.002498	5582.799733	33873.298734	3643.497078	18332.642779
40.035500	-0.000652	-0.000490	0.004622	0.002669	5582.220814	33760.240274	3648.820075	18326.550546
40.538000	-0.001272	0.000446	-0.003239	0.002436	5579.803852	33843.458902	3634.782452	18334.837521
41.038500	-0.000481	0.000266	-0.000270	0.001971	5587.653916	33863.735451	3641.070900	18351.403645
41.536500	-0.002936	0.000632	-0.003261	0.002196	5570.928858	33873.758936	3635.179677	18343.381893
42.036500	-0.000272	0.000108	0.001159	0.002446	5585.990383	33818.633412	3642.827273	18334.474085
42.536500	-0.000154	0.000468	-0.000124	0.004071	5576.576986	33728.694582	3637.487148	18276.687754
43.037000	-0.000966	0.000355	-0.003061	0.002025	5584.284161	33866.278969	3635.857521	18349.506128
43.534500	0.000673	0.000770	0.004231	0.001702	5596.586420	33918.959798	3649.891236	18361.030949
44.035000	-0.000375	0.000407	0.000779	0.003186	5580.723442	33787.257094	3640.766613	18308.147099
44.535000	0.001971	0.000919	0.000560	0.000385	5613.057815	34023.839555	3645.525807	18408.100033
45.035500	0.001586	-0.000250	0.000205	-0.001341	5621.547472	34063.794774	3648.066645	18470.028947
45.536000	0.001989	0.000545	0.005566	-0.000135	5616.463292	34034.316230	3655.810260	18426.738352
46.036000	-0.002360	-0.000027	0.001189	0.003134	5568.675734	33760.108382	3641.615613	18309.995466
46.536500	-0.003253	-0.000412	-0.004604	0.005309	5549.665585	33578.625352	3627.087828	18232.790104
47.036500	-0.000195	0.000250	-0.000783	0.000904	5596.141794	33938.779350	3642.090300	18389.531109
47.537000	-0.000311	0.000176	0.002445	0.002959	5582.540882	33786.980768	3644.253967	18316.216379
48.037000	0.002153	0.000291	0.004607	0.003900	5592.078097	33728.280908	3646.511467	18282.779536
48.534500	-0.002916	-0.000659	-0.001259	0.004058	5559.491494	33649.697152	3635.435353	18277.152564
49.035000	0.000596	-0.000283	0.003658	-0.000266	5608.484272	33984.315077	3652.487365	18431.412339
49.535000	0.000027	0.000356	-0.002318	-0.002695	5620.248079	34204.725932	3645.899294	18518.752678
50.036000	0.000329	0.000481	-0.001827	0.003087	5585.743637	33799.567949	3636.172102	18311.663617
50.539000	-0.001575	-0.000767	0.001873	0.014030	5506.535268	32944.062621	3623.046448	17927.179677
51.036000	0.000720	-0.001916	-0.000617	0.008773	5552.815720	33229.656287	3628.033742	18110.678246
51.536500	0.002848	-0.006910	0.011169	0.219037	4530.728074	21373.650636	3339.894001	12257.658838
52.037000	-0.003157	-0.011811	0.000131	-0.028828	5769.571093	35228.050623	3700.549604	19489.948519
52.537000	-0.019088	-0.031699	-0.014488	-0.285772	7921.800595	58704.625913	4341.589991	32909.590604
53.037500	0.008185	-0.027442	0.010048	-0.286541	8258.842031	59354.140741	4431.527824	32962.793553
53.534500	-0.001246	-0.018106	0.006383	-0.221635	7410.830588	52572.988778	4199.448252	28783.895186
54.035500	-0.017096	-0.015512	-0.010685	-0.196516	7001.918877	50062.005988	4073.839358	27327.015445
54.535500	-0.023527	-0.013692	-0.017886	-0.208839	7058.380238	51623.378392	4088.448736	28031.247076
55.035500	-0.009671	-0.008747	-0.011090	-0.234759	7460.253962	55212.556350	4185.927318	29579.270539
55.535500	-0.002281	-0.004107	-0.012294	-0.229052	7478.077962	55084.167732	4164.719265	29230.439607
56.036500	-0.001115	-0.001428	-0.012430	-0.210907	7301.338840	53258.275861	4110.220350	28151.384920
56.536500	-0.002390	0.000270	-0.009251	-0.189635	7077.070813	51038.601974	4058.490665	26942.389230
57.037000	-0.002000	-0.000152	-0.009513	-0.155493	6762.383046	47355.517575	3965.883459	25121.682165
57.537000	-0.003238	-0.000057	-0.007706	-0.124385	6482.897862	44291.226054	3892.595456	23582.859851
58.034500	-0.001617	-0.000994	-0.011005	-0.105742	6343.967372	42466.229649	3840.858266	22712.057170
58.534500	-0.005626	-0.000674	-0.008153	-0.077291	6093.669540	39984.279903	3783.716710	21453.227321
59.035500	0.000799	0.000433	-0.008064	-0.055119	5978.826658	38228.142086	3737.055328	20527.789649
59.535000	-0.002307	-0.000803	-0.001857	-0.034490	5813.397477	36493.305685	3707.838362	19708.189340
60.038500	-0.002766	-0.000434	-0.006514	-0.017806	5699.411882	35254.428328	3666.346326	19073.179376
60.536500	-0.009152	-0.001457	-0.007354	0.002636	5529.823645	33693.911453	3626.950858	18327.716262
61.036500	-0.004036	0.000453	-0.009696	0.009202	5520.953593	33365.480816	3611.024335	18095.624909
61.536500	-0.004928	0.002293	-0.003146	0.012612	5494.812025	33255.537570	3616.601045	17976.453371
62.037000	-0.006182	0.001870	-0.000031	-0.000428	5567.061906	34150.572521	3645.937164	18437.248283
62.537000	-0.003668	0.003630	0.001645	0.002039	5567.354602	34099.685699	3644.475302	18348.996714
63.035000	-0.005986	0.002869	-0.004320	0.000567	5562.096604	34150.781007	3636.221248	18401.574402
63.540000	-0.001191	0.002845	-0.002279	0.001553	5585.829608	34078.196782	3638.152375	18366.334887
64.036000	-0.006130	0.002107	-0.005000	0.007370	5519.357996	33611.107086	3622.663649	18160.038543
64.536000	-0.007878	0.002246	-0.007307	0.009283	5497.098352	33485.828921	3615.118681	18092.759697
65.036000	-0.002673	0.003184	-0.004379	0.005335	5553.090480	33831.970672	3627.449214	18231.890605
65.536000	-0.002876	0.005137	-0.005596	0.006885	5542.273142	33860.655742	3622.463039	18177.107284
66.037000	-0.006955	0.003254	-0.006981	0.009833	5499.361012	33518.125900	3614.721835	18073.494679
66.537000	-0.001381	0.003627	-0.009272	0.006318	5555.001550	33793.511345	3616.900599	18197.119232
67.037500	-0.003896	0.004076	-0.006280	0.006126	5540.671419	33839.190023	3622.599183	18203.914387
67.537500	0.000823	0.004325	-0.004029	0.006245	5569.123572	33848.415914	3626.437182	18199.703998
68.035000	-0.002475	0.004440	-0.011368	0.010567	5522.153032	33549.992615	3605.668511	18047.799478
68.535000	-0.001292	0.004324	-0.007765	0.006452	5554.724368	33833.577599	3619.352029	18192.399312
69.035500	-0.001817	0.004535	-0.009957	0.006720	5549.822259	33829.530134	3614.963602	18182.932155
69.538000	-0.000411	0.005076	-0.007036	0.007107	5556.122578	33840.530109	3619.484713	18169.288365
70.036000	-0.000291	0.004186	-0.007282	0.006460	5560.876363	33823.180118	3620.203577	18192.123563
70.536500	-0.001430	0.005305	-0.003251	0.012681	5515.629091	33461.979538	3616.290973	17974.042231
71.037000	-0.000023	0.004977	-0.001027	0.007372	5556.883715	33814.637546	3629.830687	18159.970500
71.537500	0.001717	0.005389	-0.003158	0.007980	5563.901692	33800.659632	3624.879457	18138.563019
72.034500	0.001392	0.005843	-0.004793	0.012680	5532.891762	33499.941712	3613.549456	17974.088974
72.537500	-0.000967	0.005513	0.000128	0.012111	5521.933955	33516.761810	3623.358396	17993.904290
73.035000	0.002468	0.005475	-0.003733	0.008629	5564.536146	33760.627673	3622.678366	18115.736665
73.535500	0.001778	0.006633	-0.006215	0.009347	5555.801028	33791.840642	3616.950037	18090.517128
74.038500	-0.003351	0.005014	-0.008996	0.012998	5502.018347	33419.206580	3605.565865	17963.016507
74.536000	0.001262	0.006557	0.000220	0.012560	5532.827876	33558.774783	3622.716839	17978.260106
75.036500	0.002100	0.006048	-0.003965	0.010101	5553.135590	33696.760704	3619.623783	18064.126642
75.536500	0.003763	0.006910	0.000962	0.010917	5558.371651	33700.005576	3627.011864	18035.558134
76.037000	-0.000187	0.005652	-0.005751	0.015015	5508.987310	33322.384125	3607.725488	17893.035971
76.537000	0.003667	0.006511	-0.000557	0.015115	5531.912634	33375.667705	3616.755366	17889.593515
77.034500	0.004211	0.007096	-0.000226	0.011977	5554.586815	33638.054252	3622.962308	17998.570907
77.535000	0.002763	0.006591	-0.001510	0.011772	5546.912003	33616.881816	3621.026877	18005.735540
78.035500	0.007245	0.007295	-0.002533	0.012798	5568.306307	33594.094836	3617.361239	17969.976712
78.535000	0.001374	0.007066	0.000550	0.017703	5502.144585	33233.314357	3614.119043	17800.285783
79.036000	0.004624	0.007964	0.001390	0.013742	5546.241184	33574.624323	3622.695649	17937.174121
79.536500	0.008561	0.008205	0.002551	0.014818	5563.940922	33515.702318	3622.848094	17899.871553
80.036500	0.005068	0.008167	0.005851	0.014840	5542.211283	33511.563207	3628.761092	17899.120139
80.536500	0.007639	0.008297	0.004687	0.015219	5555.741145	33493.949891	3625.971205	17885.986636
81.037000	0.003663	0.008129	-0.000882	0.015397	5530.155027	33469.568545	3615.673085	17879.816528
81.537500	0.006088	0.008737	-0.007201	0.016240	5539.869124	33453.001812	3603.027368	17850.689304
82.038000	0.005287	0.008699	0.003007	0.016420	5533.842924	33437.663671	3620.790807	17844.483759
82.537000	0.003592	0.007961	0.003604	0.019606	5504.054370	33162.999228	3616.165726	17734.968677
83.035500	0.005149	0.008714	0.001381	0.017449	5526.693817	33366.457324	3616.049499	17809.036027
83.538500	0.003976	0.008590	-0.000458	0.017371	5519.996749	33363.215748	3612.917367	17811.701774
84.035500	0.001490	0.008754	0.004637	0.022599	5473.315594	33010.017886	3612.681521	17632.787945
84.536000	0.004633	0.008343	0.002576	0.020795	5503.159682	33106.808297	3612.227800	17694.296270
85.036500	0.005920	0.009018	0.003782	0.018891	5522.586987	33286.733802	3617.758688	17759.478946
85.536500	0.008885	0.009152	0.003505	0.019207	5538.823394	33273.971827	3616.700368	17748.634517
86.037000	0.002430	0.008231	0.002138	0.024075	5470.098659	32871.684062	3605.664741	17582.666459
86.537500	0.006650	0.008456	0.000428	0.022173	5507.032860	33018.844531	3606.003525	17647.284339
87.034500	0.007008	0.009362	-0.000085	0.019946	5522.786992	33237.014213	3609.022425	17723.327238
87.535000	0.004791	0.009770	0.000700	0.020724	5504.543267	33211.139979	3609.034663	17696.717278
88.035500	0.002732	0.008234	-0.003722	0.024624	5468.623026	32834.109268	3594.488546	17564.090561
88.535500	0.004332	0.008888	-0.004609	0.022629	5490.233640	33017.188036	3596.406608	17631.769414
89.036000	0.004092	0.009288	-0.002446	0.020673	5500.617716	33181.073150	3603.591842	17698.465264
89.536000	0.006043	0.010073	0.005649	0.021264	5508.870904	33194.577952	3616.855068	17678.266996
90.036500	0.004085	0.009437	0.001525	0.026182	5467.394831	32809.603354	3600.901415	17511.413363
90.536500	0.003599	0.009041	0.000720	0.023204	5482.350077	32987.932388	3604.704402	17612.219413
91.037500	0.004305	0.009318	-0.002063	0.021232	5498.517906	33144.256729	3603.283646	17679.374445
91.535000	0.008884	0.009493	0.003931	0.022002	5521.690520	33102.797361	3612.489863	17653.124615
92.036000	0.005938	0.009663	0.006785	0.026672	5475.563283	32791.423011	3609.276517	17494.894677
92.535500	0.006854	0.009165	-0.001142	0.024380	5494.894439	32915.199572	3599.393662	17572.349408
93.038000	0.005931	0.009583	0.011238	0.022074	5503.269122	33104.064698	3625.423188	17650.657522
93.536000	0.008474	0.009371	0.005455	0.022908	5513.665599	33031.445024	3613.586879	17622.304455
94.036000	0.002170	0.010161	-0.004254	0.027688	5447.003073	32755.772597	3588.286132	17460.685303
94.536500	0.005446	0.009944	0.000875	0.022994	5494.757330	33065.191952	3605.345288	17619.358811
95.037000	0.007025	0.010046	-0.007993	0.023548	5500.966144	33033.830502	3588.975922	17600.553395
95.537000	0.006604	0.010838	0.010660	0.023615	5498.005491	33084.178954	3621.612834	17598.264856
96.037500	0.006706	0.009877	0.002466	0.023418	5499.820955	33031.110616	3607.398357	17604.958973
96.537500	0.006959	0.010104	0.002234	0.023739	5499.411260	33024.596976	3606.425246	17594.079289
97.035000	0.008075	0.009346	0.002510	0.023360	5508.480923	32998.309947	3607.577553	17606.921852
97.535500	0.005946	0.009162	0.005477	0.023325	5495.781814	32987.955753	3612.884988	17608.117737
98.036000	0.005564	0.010336	0.011187	0.029256	5457.872438	32660.162565	3612.493770	17408.089293
98.536000	0.003530	0.009030	0.000140	0.024404	5474.729762	32904.189489	3601.588279	17571.540537
99.036500	0.011615	0.010524	-0.001314	0.024373	5523.892803	33009.794056	3599.104625	17572.588397
99.536500	0.006187	0.010483	0.002158	0.024410	5490.684295	33004.358696	3605.112678	17571.323475
100.037000	0.009664	0.010249	0.004624	0.024728	5509.823548	32966.045744	3608.892599	17560.548174
100.537000	0.008382	0.010483	0.006759	0.024384	5504.127692	33006.178869	3613.280560	17572.217140
101.037000	0.006464	0.009795	0.001983	0.024671	5490.775058	32938.615927	3604.346700	17562.478143
101.535000	0.006105	0.010598	-0.000713	0.025154	5485.703182	32960.752750	3598.791609	17546.152758
102.035500	0.008134	0.010666	0.005172	0.025302	5497.062679	32955.237555	3608.846689	17541.136063
102.538500	0.008356	0.010716	0.004545	0.026062	5493.804043	32906.083070	3606.403521	17515.468503
103.036000	0.007193	0.010205	0.006118	0.025203	5491.969014	32930.203983	3610.693899	17544.486020
103.536000	0.006376	0.010561	0.001191	0.025364	5486.069645	32943.678427	3601.747558	17539.057971
104.036500	0.007921	0.010052	0.002350	0.025320	5495.658985	32911.476352	3603.852407	17540.515047
104.537000	0.009940	0.010718	0.002291	0.026680	5499.654350	32863.566956	3601.369716	17494.637067
105.037000	0.010721	0.011008	-0.003645	0.026218	5507.193635	32915.489851	3591.864324	17510.201775
105.534500	0.007545	0.011122	0.003536	0.025999	5489.288407	32938.502913	3604.741515	17517.592436
106.035000	0.005553	0.009938	-0.006677	0.030121	5452.651250	32573.679583	3579.994053	17379.132357
106.535000	0.008953	0.010461	0.002591	0.026843	5492.696751	32834.617499	3601.609470	17489.137575
107.038000	0.009673	0.010524	0.006684	0.025904	5502.738327	32903.792697	3610.455505	17520.801708
107.535500	0.008045	0.010303	0.002595	0.026005	5492.270949	32881.530281	3603.081092	17517.388221
108.036000	0.007576	0.009959	0.005899	0.025959	5489.717125	32860.955158	3608.970284	17518.944052
108.536000	0.007622	0.010545	0.003164	0.026608	5486.078439	32856.593334	3603.021360	17497.047367
109.036500	0.008567	0.010933	0.003233	0.026974	5489.573840	32858.141136	3602.503243	17484.727966
109.537000	0.008625	0.011467	0.002464	0.027005	5489.737827	32892.826047	3601.103299	17483.685100
110.037000	0.006410	0.010510	0.000825	0.031637	5448.730343	32509.234766	3590.230187	17328.539811
110.537500	0.009148	0.011308	0.004140	0.027462	5490.130624	32850.312808	3603.235861	17468.286886
111.035000	0.009812	0.011171	0.006538	0.027004	5496.918703	32872.524412	3608.254949	17483.723151
111.538000	0.009357	0.011251	0.007323	0.027081	5493.702559	32872.717114	3609.505598	17481.137660
112.035500	0.007342	0.009832	0.008750	0.026306	5486.210458	32828.255435	3613.402950	17507.238863
112.535500	0.006963	0.011008	-0.000718	0.027658	5475.797825	32816.166817	3594.436337	17461.718721
113.036000	0.008321	0.010168	0.001514	0.026389	5491.617472	32845.678668	3600.521094	17504.428763
113.536500	0.008790	0.011008	0.005677	0.027190	5489.617369	32848.407527	3606.412542	17477.467343
114.036500	0.011877	0.012053	0.001629	0.028122	5502.647860	32856.186709	3597.701668	17446.103506
114.537000	0.009822	0.012286	0.001475	0.028409	5488.484137	32852.468122	3596.936671	17436.486276
115.037000	0.008853	0.010973	0.008947	0.027623	5487.383563	32816.153926	3611.417342	17462.890662
115.535000	0.009900	0.012140	0.002409	0.028467	5488.604841	32838.359286	3598.459229	17434.529896
116.035000	0.007526	0.010087	0.004048	0.027020	5483.019364	32796.674221	3603.849015	17483.179145
116.538000	0.011088	0.010821	0.004696	0.027708	5500.379073	32799.843671	3603.780418	17460.034027
117.036000	0.008896	0.010298	0.005212	0.027375	5489.140133	32786.772007	3605.269926	17471.234309
117.536000	0.008986	0.011708	0.004460	0.028694	5481.734497	32793.017231	3601.640799	17426.927619
118.036000	0.005530	0.010418	0.006875	0.033058	5435.097366	32406.274371	3598.242852	17281.287478
118.536000	0.008155	0.011767	0.005524	0.028288	5479.175584	32825.015709	3604.215066	17440.545387
119.036500	0.007527	0.011046	0.004783	0.028007	5477.091536	32794.746143	3603.407844	17449.991007
119.536500	0.010108	0.011664	0.003394	0.028336	5490.650697	32814.583456	3600.403817	17438.926843
120.034500	0.009115	0.011332	0.013503	0.028275	5485.026731	32795.935531	3618.359070	17440.971330
120.537500	0.008187	0.011225	0.009829	0.028790	5476.353917	32753.160816	3610.912754	17423.703156
121.035000	0.011263	0.012148	0.007944	0.029077	5493.157781	32796.955308	3607.081073	17414.091189
121.535500	0.007928	0.012997	0.014432	0.029727	5469.179909	32810.648986	3617.427202	17392.323373
122.035500	0.011076	0.011563	0.011990	0.029388	5490.142976	32735.289301	3613.683569	17403.651920
122.536500	0.006739	0.010544	0.001522	0.028540	5469.165481	32723.546883	3596.789786	17432.089093
123.036000	0.009250	0.011626	0.006099	0.029547	5478.187020	32728.663875	3603.015800	17398.332523
123.536500	0.011356	0.011653	0.009170	0.029348	5492.078898	32744.241850	3608.764493	17405.011144
124.037000	0.007541	0.011332	0.001257	0.034821	5436.567415	32348.654163	3585.507055	17222.857180
124.537000	0.008948	0.012164	0.006385	0.029961	5473.888089	32737.177095	3602.791229	17384.477324
125.034500	0.006627	0.011626	0.010198	0.029142	5464.900000	32756.587586	3610.943481	17411.915609
125.537500	0.010886	0.010850	0.014023	0.028977	5491.479326	32714.536747	3618.035020	17417.418469
126.038000	0.008973	0.010925	0.000640	0.033848	5450.825410	32387.027595	3586.115029	17255.055092
126.538500	0.009880	0.011101	0.013666	0.030010	5479.194063	32660.855515	3615.556995	17382.836157
127.036000	0.012036	0.012282	0.007032	0.029882	5492.956738	32750.746938	3604.063224	17387.109802
127.536500	0.009502	0.012125	0.013001	0.029998	5476.993361	32731.956245	3614.394704	17383.232948
128.036500	0.008915	0.011627	0.011284	0.034346	5447.520725	32400.900498	3603.692749	17238.582399
128.536500	0.010569	0.011144	0.009303	0.029470	5486.593325	32700.919187	3608.782068	17400.921261
129.037000	0.013929	0.013029	0.004776	0.031361	5495.460561	32700.481654	3597.541184	17337.728540
129.537000	0.009472	0.011265	0.004387	0.029440	5480.164840	32711.240642	3600.210352	17401.909318
130.035000	0.009981	0.012328	-0.006682	0.031764	5469.275613	32624.822022	3577.201377	17324.303950
130.535500	0.012964	0.011672	0.005384	0.030565	5494.440573	32662.053308	3599.988328	17364.310310
131.035500	0.010702	0.012109	0.006970	0.030555	5480.855225	32692.634667	3602.775531	17364.616411
131.536000	0.009651	0.011844	0.001355	0.030120	5477.157990	32704.290623	3593.762624	17379.166772
132.036000	0.012078	0.012693	0.003554	0.031111	5485.795675	32694.586329	3595.855509	17346.079045
132.536000	0.010410	0.011889	0.004903	0.030788	5477.701928	32661.577285	3598.759162	17356.834160
133.036000	0.008952	0.012478	0.003502	0.030833	5468.684095	32698.890419	3596.245297	17355.335512
133.537000	0.010857	0.011232	0.005712	0.029908	5485.690286	32676.897976	3601.706917	17386.252532
134.037000	0.008042	0.012126	0.004082	0.035334	5436.491277	32367.677053	3589.472471	17205.890562
134.538000	0.010089	0.011431	0.008888	0.030608	5476.858773	32642.553808	3606.047317	17362.860512
135.035000	0.009263	0.010971	0.003514	0.030484	5472.648184	32619.542339	3596.874461	17367.013054
135.538000	0.011682	0.012745	0.004950	0.031167	5483.069267	32694.251628	3598.182070	17344.188296
136.035500	0.009499	0.012569	0.005338	0.035377	5444.863638	32394.849056	3591.561086	17204.461492
136.535500	0.011395	0.011758	0.007196	0.030924	5482.810416	32643.329247	3602.524881	17352.315179
137.036000	0.011469	0.011941	0.014141	0.031489	5479.853518	32617.135071	3613.771859	17333.470117
137.536000	0.012603	0.012214	0.006446	0.031230	5488.245593	32653.582696	3600.680752	17342.118207
138.036500	0.004189	0.010617	0.004528	0.034837	5416.726908	32299.074046	3591.095867	17222.320269
138.537000	0.012321	0.012350	0.009553	0.031278	5486.257100	32659.605701	3606.038986	17340.510334
139.037500	0.012020	0.011964	0.012418	0.031748	5481.611075	32600.946930	3610.260611	17324.828763
139.538000	0.010281	0.012879	0.016339	0.031399	5473.265839	32687.613202	3617.846220	17336.480283
140.038000	0.008520	0.011741	0.003085	0.035000	5441.300349	32364.249899	3588.332713	17216.931294
140.535500	0.010882	0.011289	0.008133	0.030748	5480.781112	32623.225569	3604.475097	17358.186135
141.035500	0.009589	0.012443	0.006717	0.031572	5468.077557	32645.835283	3600.555505	17330.715452
141.535500	0.012670	0.011644	0.009533	0.031357	5487.881403	32605.830333	3605.864145	17337.875030
142.036500	0.005586	0.010679	0.007092	0.035467	5421.227672	32260.653921	3594.436561	17201.502009
142.536500	0.009446	0.011580	0.002373	0.030877	5471.378782	32634.290565	3594.213040	17353.864542
143.036500	0.012639	0.013251	0.008503	0.032482	5480.915256	32638.802243	3602.086412	17300.405792
143.537000	0.009025	0.011962	0.004974	0.031748	5463.647941	32600.846661	3597.213985	17324.832612
144.037000	0.005835	0.010703	0.002237	0.035682	5421.425701	32247.737056	3585.709610	17194.400577
144.535000	0.011967	0.011971	0.001490	0.031508	5482.738378	32617.881524	3591.597304	17332.843388
145.035000	0.008877	0.013511	0.003986	0.032533	5458.083808	32653.167392	3594.139038	17298.716371
145.535000	0.011783	0.012332	0.009669	0.032010	5478.608128	32608.239432	3604.956549	17316.119639
146.036000	0.006527	0.011439	0.005883	0.037096	5417.192582	32201.965798	3589.539949	17147.819790
146.536000	0.012319	0.011602	0.007568	0.031717	5483.601247	32578.339688	3601.788957	17325.882336
147.037000	0.012285	0.011845	0.011750	0.031552	5484.386842	32606.290389	3609.427310	17331.378521
147.536500	0.011272	0.011781	0.007056	0.031840	5476.562569	32582.156805	3600.678876	17321.771762
148.037000	0.007756	0.011994	0.010151	0.037539	5421.803923	32209.502327	3596.147558	17133.224580
148.537500	0.011037	0.012201	0.011114	0.032532	5471.003575	32563.586975	3606.577759	17298.752528
149.035000	0.008822	0.012750	0.004870	0.032228	5459.577722	32621.937431	3596.200146	17308.868494
149.538000	0.011984	0.013072	0.012740	0.032862	5474.705107	32600.608036	3608.862991	17287.796321
150.035500	0.005562	0.011810	0.005584	0.037341	5410.094367	32210.497732	3588.604019	17139.748195
150.536000	0.012417	0.012124	0.008483	0.032066	5482.088460	32590.202956	3602.779954	17314.256562
151.036000	0.010535	0.012566	0.007475	0.032871	5465.967865	32565.386182	3599.613567	17287.498523
151.536500	0.011569	0.012149	0.011466	0.032797	5472.601395	32541.940000	3606.731857	17289.935324
152.036000	0.005396	0.011010	0.001448	0.037968	5405.457581	32114.294197	3580.466261	17119.135265
152.540000	0.011679	0.012680	0.013805	0.033061	5471.673355	32560.168994	3610.390885	17281.161557
153.037000	0.010428	0.013382	0.009704	0.033602	5460.961059	32571.183398	3602.228029	17263.229321
153.537500	0.010194	0.011717	0.007796	0.031646	5471.254668	32591.007692	3602.311585	17328.223063
154.035000	0.007942	0.011625	0.000990	0.037756	5421.620518	32169.979918	3580.049499	17126.106178
154.538000	0.008849	0.012905	0.008420	0.033217	5453.839128	32564.889230	3600.657083	17275.993346
155.035500	0.010335	0.012704	0.008353	0.032823	5465.056921	32578.140156	3601.228770	17289.094031
155.535500	0.011740	0.011865	0.012858	0.032173	5477.369804	32565.145305	3610.287051	17310.684762
156.036000	0.009395	0.012634	0.002389	0.038282	5427.077287	32202.527313	3581.531862	17108.833252
156.536500	0.011513	0.012631	0.012495	0.033074	5470.608554	32555.954975	3608.056216	17280.752401
157.036500	0.012353	0.011383	0.007969	0.032510	5479.027754	32509.245294	3601.102696	17299.467395
157.536500	0.011827	0.012412	0.011495	0.032880	5473.648557	32554.230566	3606.635684	17287.169501
158.034500	0.011271	0.012228	0.011242	0.032512	5472.523626	32566.793065	3606.837567	17299.406904
158.537500	0.010510	0.011918	0.008700	0.032391	5468.688344	32553.893082	3602.589794	17303.442278
159.038000	0.012049	0.012580	0.005711	0.032596	5476.682780	32585.059651	3597.019470	17296.609858
159.535000	0.011798	0.013706	0.004643	0.033732	5468.372426	32584.457907	3593.201455	17258.905955
160.035500	0.008546	0.012568	0.008965	0.039099	5417.285322	32143.056610	3591.397521	17082.064712
160.535500	0.013614	0.012999	0.007004	0.033528	5480.489306	32550.068805	3597.647875	17265.658484
161.036000	0.011091	0.013522	0.006663	0.033540	5465.289981	32585.005488	3597.034721	17265.290596
161.536500	0.011215	0.012829	0.016798	0.033337	5467.245765	32551.548876	3615.211171	17272.019815
162.036500	0.007770	0.012279	0.007000	0.039653	5409.490645	32086.308284	3587.065831	17063.927055
162.537000	0.011009	0.012292	0.011128	0.032923	5468.489277	32543.151928	3605.915391	17285.763803
163.037500	0.012590	0.011968	0.007613	0.033069	5477.099738	32511.062318	3599.508752	17280.922177
163.535500	0.011718	0.012038	0.010303	0.033418	5469.770241	32492.019268	3603.598676	17269.327809
164.035500	0.004145	0.010786	0.005725	0.038828	5393.159175	32041.460324	3586.296771	17090.946438
164.535500	0.012492	0.012547	0.005605	0.033327	5474.959709	32532.951269	3595.567832	17272.347454
165.035500	0.010951	0.011341	0.009950	0.032189	5472.540177	32528.295230	3605.134540	17310.144605
165.536000	0.012124	0.013276	0.012247	0.033892	5469.369736	32544.129279	3606.179777	17253.620217
166.036000	0.007634	0.011947	0.002151	0.039015	5412.424617	32106.916770	3579.883231	17084.813992
166.536500	0.011724	0.013462	0.010512	0.033731	5467.935112	32567.832288	3603.415951	17258.945900
167.037500	0.011500	0.014110	0.006109	0.034657	5461.058542	32548.820548	3594.136938	17228.258940
167.537000	0.009769	0.012367	0.008010	0.033275	5458.980769	32524.217131	3599.841977	17274.082174
168.037500	0.007284	0.012254	0.008352	0.038815	5411.548803	32141.008323	3590.830723	17091.352225
168.535000	0.011252	0.012783	0.006712	0.033522	5466.366246	32535.798213	3597.151930	17265.890195
169.035500	0.010827	0.012355	0.009357	0.033603	5463.333308	32500.974288	3601.618266	17263.172863
169.536000	0.010717	0.012839	0.012978	0.033682	5462.206597	32528.636614	3607.836155	17260.575129
170.036000	0.010509	0.013245	-0.001182	0.039510	5426.407209	32161.004151	3573.413195	17068.615995
170.536500	0.013134	0.013436	0.003690	0.034214	5473.489215	32533.083839	3590.725685	17242.937141
171.036500	0.012594	0.013253	0.013467	0.034192	5470.386710	32522.093330	3607.798818	17243.673095
171.536000	0.011788	0.012070	0.006127	0.033155	5471.767627	32512.142337	3596.771832	17278.047854
172.037000	0.007964	0.012333	0.003897	0.039512	5411.450777	32099.430888	3582.006170	17068.541666
172.537500	0.013690	0.012437	0.009084	0.034025	5477.961124	32477.845136	3600.405538	17249.184647
173.037500	0.012030	0.013578	0.010749	0.034593	5464.611900	32516.903461	3602.322774	17230.406062
173.535500	0.012368	0.013012	0.007620	0.034068	5469.770883	32514.147063	3597.780714	17247.778407
174.035500	0.012814	0.013026	0.010670	0.034197	5471.673751	32506.292313	3602.878228	17243.517005
174.535500	0.011818	0.012890	0.011372	0.034313	5465.013985	32489.114150	3603.904013	17239.666446
175.036000	0.011240	0.012743	0.009599	0.034063	5463.055781	32496.077188	3601.237635	17247.938827
175.536500	0.011349	0.012955	0.011234	0.033945	5464.412586	32518.643799	3604.307780	17251.858903
176.036500	0.011311	0.013518	0.008648	0.034540	5460.630715	32516.472940	3598.749539	17232.160786
176.536500	0.012001	0.013415	0.012091	0.034475	5465.142546	32513.837668	3604.881566	17234.304241
177.033500	0.010984	0.013753	0.007928	0.034562	5458.547012	32530.954874	3597.457044	17231.402453
177.534500	0.010050	0.012132	0.009199	0.033313	5460.427794	32505.585246	3601.849671	17272.810844
178.034500	0.002823	0.012058	0.008029	0.039715	5380.349984	32067.329705	3588.726633	17061.917128
178.535000	0.012440	0.013657	0.013698	0.034999	5464.629588	32494.584905	3606.783998	17216.957949
179.035500	0.013491	0.012813	0.010974	0.034813	5472.040114	32449.810352	3602.332689	17223.128805
179.535500	0.009781	0.011879	0.005406	0.033891	5455.376818	32448.929956	3594.246779	17253.631650
180.036000	0.007472	0.012465	0.009018	0.040588	5402.284817	32035.985925	3588.925813	17033.383996
180.536500	0.014053	0.013152	0.006942	0.034657	5476.350211	32483.500481	3595.580226	17228.286161
181.036500	0.012996	0.013249	0.008809	0.035010	5467.894597	32466.062764	3598.210250	17216.595536
181.537000	0.011210	0.013084	0.008584	0.034553	5459.946951	32485.922123	3598.613482	17231.698930
182.034500	0.006309	0.012558	-0.000320	0.041271	5391.533736	31996.415652	3571.900018	17011.097622
182.538000	0.014874	0.013614	0.009225	0.035241	5477.765418	32475.201019	3598.531131	17208.959270
183.035000	0.012184	0.012761	0.016266	0.034708	5464.841402	32453.368135	3611.831625	17226.578303
183.576500	0.013720	0.013360	0.007613	0.035580	5468.818930	32434.840658	3595.144839	17197.781398
184.036000	0.006966	0.012368	0.014691	0.040201	5401.594729	32055.530432	3599.413492	17046.031457
184.536500	0.010836	0.013780	0.015674	0.035005	5455.027846	32502.586103	3610.258872	17216.767237
185.035500	0.014834	0.013513	0.011043	0.035213	5477.695801	32470.223847	3601.751242	17209.880637
185.536500	0.011840	0.013965	0.010758	0.035204	5459.821009	32501.591523	3601.268964	17210.184003
186.037000	0.009313	0.013799	0.002328	0.041736	5406.331715	32048.492759	3575.576173	16995.956689
