sample name	sample
index	559
start time	 03-16-2021  02:11:09 PM


Wavelength (nm)	Absorbance
494.344910	-0.246625
494.563924	-0.246625
494.782919	-0.246625
495.001897	-0.042889
495.220856	-0.178562
495.439797	-0.143949
495.658719	-0.124017
495.877624	-0.104355
496.096510	-0.103509
496.315378	-0.090248
496.534227	-0.094779
496.753059	-0.101138
496.971872	-0.044885
497.190667	-0.007040
497.409444	-0.006576
497.628203	-0.003757
497.846943	-0.002606
498.065665	-0.004354
498.284369	-0.004644
498.503055	-0.002372
498.721723	-0.003167
498.940372	-0.002766
499.159003	-0.001517
499.377616	-0.000983
499.596210	-0.001571
499.814787	-0.001811
500.033345	-0.000421
500.251885	-0.000190
500.470406	-0.001318
500.688910	-0.001261
500.907395	-0.001824
501.125862	-0.002073
501.344311	-0.001405
501.562742	-0.001149
501.781154	-0.000341
501.999548	-0.000825
502.217924	-0.000058
502.436282	0.000209
502.654621	0.000143
502.872942	-0.000106
503.091245	-0.001159
503.309530	-0.002186
503.527797	-0.001462
503.746045	-0.001520
503.964275	-0.001959
504.182487	-0.001818
504.400681	-0.000789
504.618856	0.000724
504.837013	0.002077
505.055152	0.002747
505.273273	0.003057
505.491376	0.002746
505.709460	0.003019
505.927526	0.002984
506.145574	0.002057
506.363604	0.001853
506.581615	0.001282
506.799608	-0.000201
507.017583	-0.000778
507.235540	-0.001101
507.453478	-0.001079
507.671399	-0.002305
507.889301	-0.002786
508.107185	-0.002459
508.325050	-0.003181
508.542898	-0.002905
508.760727	-0.002723
508.978538	-0.001996
509.196330	-0.001540
509.414105	-0.001844
509.631861	-0.001926
509.849599	-0.001188
510.067319	-0.001903
510.285021	-0.001730
510.502704	-0.001631
510.720369	-0.001360
510.938016	-0.001010
511.155645	-0.001738
511.373255	-0.001738
511.590848	-0.000534
511.808422	0.000123
512.025977	0.000746
512.243515	0.000511
512.461034	-0.000755
512.678536	-0.000444
512.896018	-0.001319
513.113483	-0.000488
513.330930	0.000130
513.548358	-0.000325
513.765768	-0.000694
513.983160	-0.000784
514.200533	-0.000735
514.417889	-0.000088
514.635226	-0.000383
514.852545	-0.000095
515.069845	-0.000242
515.287128	-0.000538
515.504392	-0.000630
515.721638	-0.001543
515.938866	-0.001475
516.156075	-0.001340
516.373267	-0.001065
516.590440	-0.001373
516.807594	-0.001617
517.024731	-0.001982
517.241850	-0.002005
517.458950	-0.000959
517.676032	0.000277
517.893095	0.000270
518.110141	-0.000184
518.327168	-0.000542
518.544177	-0.000101
518.761168	0.000543
518.978141	0.000335
519.195095	0.000250
519.412031	-0.000623
519.628949	-0.000806
519.845849	-0.001114
520.062731	-0.000992
520.279594	-0.000937
520.496439	-0.001052
520.713266	-0.001119
520.930074	-0.000342
521.146865	-0.000253
521.363637	-0.000205
521.580391	-0.000536
521.797127	0.000061
522.013844	0.000070
522.230543	0.000115
522.447224	0.000296
522.663887	-0.000596
522.880532	-0.001047
523.097158	-0.001663
523.313766	-0.002463
523.530356	-0.002093
523.746928	-0.002641
523.963481	-0.002580
524.180017	-0.002807
524.396534	-0.003011
524.613032	-0.002258
524.829513	-0.002024
525.045975	-0.001854
525.262420	-0.001548
525.478845	-0.000770
525.695253	-0.000493
525.911643	-0.000349
526.128014	0.000048
526.344367	0.000615
526.560702	0.000183
526.777018	-0.000045
526.993316	0.000345
527.209597	0.000304
527.425858	-0.000115
527.642102	0.000434
527.858328	0.000356
528.074535	0.000464
528.290724	0.000268
528.506894	0.000813
528.723047	0.000248
528.939181	0.000067
529.155297	0.000087
529.371395	-0.000725
529.587475	-0.001299
529.803536	-0.001604
530.019579	-0.001699
530.235604	-0.002794
530.451611	-0.002816
530.667600	-0.002110
530.883570	-0.001613
531.099522	-0.001590
531.315456	-0.001628
531.531372	-0.001921
531.747269	-0.002131
531.963148	-0.002370
532.179009	-0.000716
532.394852	-0.000728
532.610676	-0.000868
532.826482	-0.001647
533.042271	-0.001262
533.258040	-0.000482
533.473792	0.000466
533.689525	0.000879
533.905240	0.001325
534.120937	0.000672
534.336616	0.000059
534.552277	-0.000462
534.767919	-0.000125
534.983543	-0.000685
535.199149	-0.001231
535.414736	-0.001385
535.630306	-0.001049
535.845857	-0.001272
536.061390	-0.001837
536.276904	-0.001858
536.492401	-0.001802
536.707879	-0.001386
536.923339	-0.001169
537.138781	-0.000972
537.354204	-0.001198
537.569610	-0.001529
537.784997	-0.001361
538.000366	-0.001072
538.215716	-0.000814
538.431049	-0.000278
538.646363	-0.001033
538.861659	-0.000614
539.076937	-0.000559
539.292196	-0.000431
539.507438	-0.000198
539.722661	-0.000375
539.937866	0.000194
540.153052	-0.000268
540.368221	0.000029
540.583371	0.000812
540.798503	0.000753
541.013617	0.000919
541.228712	0.000579
541.443789	0.000731
541.658848	0.000573
541.873889	0.000223
542.088912	0.000767
542.303916	0.000948
542.518902	0.000721
542.733870	0.000218
542.948820	-0.000200
543.163752	-0.000261
543.378665	-0.000367
543.593560	0.000159
543.808437	0.000142
544.023295	0.000220
544.238136	-0.000393
544.452958	-0.000311
544.667762	0.000034
544.882548	0.000224
545.097315	0.000421
545.312064	-0.000194
545.526795	-0.000645
545.741508	-0.000490
545.956203	-0.000480
546.170879	-0.000363
546.385537	-0.000367
546.600177	-0.000451
546.814799	-0.000165
547.029402	-0.000009
547.243988	-0.000029
547.458555	0.000233
547.673103	-0.000501
547.887634	-0.001131
548.102146	-0.000833
548.316640	-0.001171
548.531116	-0.001122
548.745574	-0.001086
548.960013	-0.001478
549.174435	-0.000682
549.388838	-0.000915
549.603222	-0.000322
549.817589	-0.000130
550.031937	-0.000446
550.246267	-0.000191
550.460579	0.000191
550.674873	-0.000261
550.889148	-0.000246
551.103405	-0.000678
551.317644	-0.000925
551.531865	-0.000700
551.746068	-0.000410
551.960252	-0.000097
552.174418	-0.000401
552.388566	-0.000764
552.602696	-0.000581
552.816807	-0.000574
553.030900	-0.000880
553.244975	-0.000390
553.459032	-0.000492
553.673070	-0.000501
553.887091	-0.000587
554.101093	-0.000381
554.315077	-0.000666
554.529042	-0.000473
554.742990	-0.000304
554.956919	0.000221
555.170830	0.000086
555.384722	0.000282
555.598597	0.000396
555.812453	0.000253
556.026291	0.000359
556.240111	0.000819
556.453913	0.000635
556.667696	0.000568
556.881461	0.000613
557.095208	0.000219
557.308937	0.000094
557.522647	-0.000340
557.736339	-0.000430
557.950013	-0.000590
558.163669	-0.000688
558.377307	-0.000712
558.590926	-0.000904
558.804527	-0.001097
559.018110	-0.000877
559.231675	-0.001027
559.445221	-0.000434
559.658749	-0.000398
559.872259	-0.000443
560.085751	-0.000005
560.299225	0.000367
560.512680	0.000685
560.726117	0.000303
560.939536	0.000223
561.152937	0.000544
561.366319	0.000190
561.579683	0.000348
561.793029	0.000633
562.006357	0.000187
562.219667	-0.000116
562.432958	0.000081
562.646231	0.000258
562.859486	0.000382
563.072723	-0.000212
563.285941	0.000112
563.499141	-0.000009
563.712323	-0.000077
563.925487	0.000144
564.138632	0.000108
564.351760	-0.000272
564.564869	-0.000097
564.777960	-0.000159
564.991032	-0.000325
565.204087	-0.000871
565.417123	-0.000832
565.630141	-0.001249
565.843140	-0.002066
566.056122	-0.001717
566.269085	-0.001821
566.482030	-0.001759
566.694957	-0.001638
566.907866	-0.001314
567.120756	-0.001114
567.333628	-0.001077
567.546482	-0.000825
567.759318	-0.000184
567.972135	-0.000781
568.184935	-0.000827
568.397716	-0.001032
568.610478	-0.000970
568.823223	-0.000904
569.035949	-0.000628
569.248657	-0.001043
569.461347	-0.001222
569.674019	-0.001341
569.886672	-0.001122
570.099308	-0.000896
570.311925	-0.000554
570.524523	-0.000813
570.737104	-0.000741
570.949666	-0.001013
571.162210	-0.000801
571.374736	-0.000410
571.587244	-0.000044
571.799733	0.000214
572.012205	0.000161
572.224658	-0.000146
572.437092	0.000347
572.649509	0.000487
572.861907	0.000746
573.074287	0.000512
573.286649	0.000747
573.498993	0.000570
573.711318	0.000329
573.923625	0.000440
574.135914	0.000734
574.348185	0.000461
574.560438	0.000141
574.772672	-0.000188
574.984888	0.000052
575.197086	-0.000357
575.409266	-0.000518
575.621427	-0.000816
575.833570	-0.000644
576.045695	-0.000674
576.257802	-0.000807
576.469890	-0.000837
576.681961	-0.000729
576.894013	-0.000804
577.106046	-0.000445
577.318062	-0.000438
577.530059	-0.000431
577.742039	-0.000366
577.954000	-0.000658
578.165942	-0.000807
578.377867	-0.000827
578.589773	-0.000707
578.801661	-0.000266
579.013531	-0.000579
579.225382	-0.000195
579.437216	0.000155
579.649031	-0.000282
579.860828	0.000031
580.072606	0.000694
580.284367	0.000678
580.496109	0.000391
580.707833	0.000181
580.919539	0.000299
581.131227	-0.000061
581.342896	0.000140
581.554547	0.000416
581.766180	0.000291
581.977795	-0.000196
582.189391	-0.000024
582.400969	0.000175
582.612529	-0.000006
582.824071	-0.000190
583.035595	-0.000399
583.247100	-0.000837
583.458587	-0.000899
583.670056	-0.000709
583.881506	-0.000484
584.092939	-0.000439
584.304353	-0.000560
584.515749	-0.000365
584.727127	-0.000052
584.938486	-0.000101
585.149828	-0.000048
585.361151	-0.000150
585.572456	-0.000019
585.783742	-0.000549
585.995011	-0.000851
586.206261	-0.000627
586.417493	-0.000773
586.628706	-0.000949
586.839902	-0.000885
587.051079	-0.000364
587.262238	-0.000151
587.473379	-0.000558
587.684502	-0.000411
587.895606	-0.000145
588.106692	-0.000304
588.317760	-0.000284
588.528810	-0.000218
588.739841	-0.000265
588.950855	-0.000610
589.161850	-0.000646
589.372827	-0.000725
589.583785	-0.000299
589.794726	-0.000134
590.005648	0.000124
590.216552	-0.000003
590.427437	-0.000212
590.638305	0.000164
590.849154	-0.000140
591.059985	-0.000168
591.270798	0.000152
591.481592	0.000251
591.692369	-0.000051
591.903127	-0.000210
592.113867	-0.000008
592.324588	-0.000072
592.535292	-0.000093
592.745977	-0.000131
592.956644	-0.000185
593.167293	-0.000540
593.377923	-0.000847
593.588536	-0.000351
593.799130	-0.000405
594.009706	-0.000718
594.220263	-0.000418
594.430803	-0.000561
594.641324	-0.000200
594.851827	-0.000363
595.062312	-0.000113
595.272778	0.000212
595.483227	-0.000452
595.693657	-0.000245
595.904069	-0.000007
596.114462	-0.000293
596.324838	-0.000182
596.535195	-0.000160
596.745534	-0.000066
596.955855	-0.000274
597.166157	-0.000409
597.376441	-0.000042
597.586707	-0.000008
597.796955	-0.000089
598.007185	0.000077
598.217396	-0.000088
598.427589	-0.000285
598.637764	-0.000152
598.847921	0.000008
599.058060	-0.000209
599.268180	0.000018
599.478282	-0.000390
599.688366	-0.000058
599.898431	-0.000040
600.108479	0.000110
600.318508	0.000096
600.528519	0.000241
600.738511	0.000281
600.948486	0.000411
601.158442	0.000296
601.368380	0.000808
601.578300	0.000743
601.788202	0.000626
601.998085	0.000620
602.207950	0.000407
602.417797	0.000116
602.627626	0.000442
602.837436	0.000200
603.047228	0.000005
603.257002	-0.000273
603.466758	-0.000273
603.676496	-0.000247
603.886215	-0.000363
604.095916	-0.000006
604.305599	0.000079
604.515264	0.000082
604.724910	0.000488
604.934538	0.000367
605.144148	0.000292
605.353740	0.000196
605.563314	0.000767
605.772869	0.000532
605.982406	0.000613
606.191925	0.000693
606.401425	0.000558
606.610908	0.000265
606.820372	0.000382
607.029818	0.000660
607.239246	0.000765
607.448655	0.000464
607.658047	0.000694
607.867420	0.000670
608.076775	0.000835
608.286111	0.000577
608.495430	0.000712
608.704730	0.000695
608.914012	0.000527
609.123275	0.000564
609.332521	0.000476
609.541748	0.000413
609.750957	0.000585
609.960148	0.000258
610.169321	0.000591
610.378475	0.000289
610.587611	0.000185
610.796729	0.000205
611.005829	0.000036
611.214910	-0.000090
611.423974	0.000309
611.633019	0.000088
611.842045	-0.000034
612.051054	-0.000352
612.260044	-0.000112
612.469017	-0.000005
612.677970	-0.000089
612.886906	-0.000068
613.095824	-0.000048
613.304723	-0.000203
613.513604	0.000018
613.722467	0.000497
613.931311	0.000626
614.140138	0.000722
614.348946	0.000459
614.557736	0.000683
614.766507	0.000469
614.975261	0.000328
615.183996	0.000427
615.392713	0.000360
615.601412	-0.000058
615.810092	-0.000064
616.018754	0.000175
616.227399	0.000569
616.436024	0.000409
616.644632	0.000733
616.853222	0.000979
617.061793	0.000821
617.270346	0.000936
617.478880	0.001090
617.687397	0.001228
617.895895	0.000989
618.104375	0.001256
618.312837	0.001274
618.521281	0.001341
618.729706	0.001200
618.938113	0.001156
619.146502	0.000839
619.354873	0.000817
619.563226	0.000499
619.771560	0.000494
619.979876	0.000285
620.188174	-0.000034
620.396453	-0.000186
620.604715	-0.000185
620.812958	0.000013
621.021183	-0.000029
621.229390	0.000308
621.437578	0.000458
621.645748	0.000475
621.853900	0.000521
622.062034	0.001049
622.270150	0.001110
622.478247	0.001329
622.686326	0.001274
622.894387	0.001657
623.102430	0.001295
623.310454	0.001297
623.518461	0.001218
623.726449	0.001210
623.934418	0.001010
624.142370	0.000964
624.350303	0.000976
624.558218	0.000802
624.766115	0.000445
624.973994	0.000665
625.181855	0.000583
625.389697	0.000950
625.597521	0.000667
625.805327	0.000707
626.013114	0.000978
626.220883	0.000769
626.428634	0.000781
626.636367	0.000753
626.844082	0.000360
627.051778	0.000508
627.259457	0.000265
627.467117	0.000534
627.674758	0.000587
627.882382	0.000282
628.089987	0.000485
628.297574	0.000747
628.505143	0.000982
628.712694	0.001263
628.920226	0.001129
629.127740	0.001198
629.335236	0.000844
629.542714	0.000790
629.750174	0.000928
629.957615	0.000863
630.165038	0.000658
630.372443	0.000817
630.579829	0.000744
630.787198	0.000907
630.994548	0.001067
631.201880	0.001413
631.409194	0.001504
631.616489	0.001398
631.823766	0.001369
632.031025	0.001339
632.238266	0.001076
632.445489	0.001119
632.652693	0.001194
632.859879	0.000881
633.067047	0.000825
633.274197	0.000653
633.481329	0.000710
633.688442	0.000489
633.895537	0.000493
634.102614	0.000507
634.309672	0.000456
634.516713	0.000326
634.723735	0.000402
634.930739	0.000201
635.137724	0.000361
635.344692	0.000370
635.551641	0.000545
635.758572	0.000771
635.965485	0.000851
636.172379	0.001138
636.379256	0.001070
636.586114	0.000977
636.792954	0.001120
636.999775	0.001131
637.206579	0.000954
637.413364	0.001013
637.620131	0.000767
637.826880	0.000772
638.033610	0.000664
638.240323	0.000782
638.447017	0.000854
638.653692	0.000899
638.860350	0.001070
639.066990	0.001152
639.273611	0.001185
639.480214	0.001104
639.686798	0.000896
639.893365	0.001131
640.099913	0.001045
640.306443	0.001181
640.512955	0.001065
640.719449	0.000711
640.925924	0.000725
641.132381	0.000787
641.338820	0.000713
641.545241	0.000914
641.751644	0.000695
641.958028	0.000878
642.164394	0.000710
642.370742	0.000972
642.577071	0.001066
642.783383	0.001153
642.989676	0.001125
643.195951	0.001293
643.402207	0.001203
643.608446	0.001057
643.814666	0.000993
644.020868	0.001059
644.227052	0.000722
644.433218	0.000646
644.639365	0.000785
644.845494	0.000650
645.051605	0.000973
645.257698	0.001069
645.463772	0.001157
645.669828	0.001116
645.875866	0.001126
646.081886	0.001140
646.287888	0.001244
646.493871	0.000894
646.699836	0.000927
646.905783	0.000766
647.111712	0.000806
647.317622	0.000780
647.523514	0.000939
647.729388	0.001016
647.935244	0.001060
648.141082	0.001113
648.346901	0.001335
648.552702	0.001311
648.758485	0.001328
648.964250	0.001287
649.169996	0.001165
649.375724	0.001018
649.581434	0.000846
649.787126	0.001121
649.992800	0.001183
650.198455	0.001328
650.404092	0.001382
650.609711	0.001602
650.815311	0.001664
651.020894	0.001784
651.226458	0.001914
651.432004	0.001946
651.637532	0.001756
651.843041	0.001906
652.048532	0.001759
652.254006	0.001942
652.459460	0.001505
652.664897	0.001456
652.870315	0.001496
653.075716	0.001357
653.281097	0.001310
653.486461	0.001381
653.691807	0.001083
653.897134	0.001064
654.102443	0.000822
654.307734	0.001003
654.513006	0.000781
654.718261	0.000960
654.923497	0.001067
655.128715	0.001208
655.333915	0.001314
655.539096	0.001342
655.744259	0.001474
655.949404	0.001583
656.154531	0.001731
656.359640	0.002055
656.564730	0.001807
656.769802	0.001667
656.974856	0.001889
657.179892	0.002015
657.384909	0.002219
657.589908	0.002196
657.794889	0.002176
657.999852	0.002181
658.204797	0.002077
658.409723	0.002258
658.614631	0.002616
658.819521	0.002428
659.024393	0.002297
659.229246	0.002305
659.434081	0.002065
659.638898	0.002169
659.843697	0.002086
660.048478	0.002192
660.253240	0.002223
660.457984	0.001911
660.662710	0.002045
660.867417	0.002079
661.072107	0.001859
661.276778	0.001987
661.481431	0.001842
661.686066	0.001847
661.890682	0.001799
662.095281	0.001641
662.299861	0.001799
662.504422	0.001498
662.708966	0.001513
662.913491	0.001549
663.117999	0.001523
663.322488	0.001571
663.526958	0.001512
663.731411	0.001592
663.935845	0.001687
664.140261	0.001751
664.344659	0.001936
664.549038	0.001841
664.753400	0.001908
664.957743	0.002003
665.162068	0.001894
665.366375	0.001890
665.570663	0.001868
665.774933	0.001898
665.979185	0.001698
666.183419	0.001543
666.387635	0.001476
666.591832	0.001730
666.796011	0.001840
667.000172	0.001797
667.204315	0.001836
667.408439	0.001796
667.612545	0.001874
667.816634	0.001953
668.020703	0.002169
668.224755	0.002208
668.428788	0.001839
668.632803	0.001781
668.836800	0.002011
669.040779	0.002064
669.244739	0.002118
669.448681	0.002007
669.652605	0.002006
669.856511	0.001885
670.060399	0.001832
670.264268	0.001890
670.468119	0.001794
670.671952	0.001784
670.875767	0.001693
671.079563	0.001585
671.283341	0.001669
671.487101	0.001663
671.690843	0.001710
671.894567	0.001770
672.098272	0.001937
672.301959	0.001929
672.505628	0.001764
672.709278	0.001743
672.912911	0.001801
673.116525	0.001628
673.320121	0.001489
673.523699	0.001640
673.727258	0.001902
673.930799	0.001789
674.134322	0.001823
674.337827	0.002129
674.541314	0.002202
674.744782	0.002010
674.948232	0.002174
675.151664	0.002457
675.355078	0.002530
675.558474	0.002260
675.761851	0.002291
675.965210	0.002402
676.168551	0.002206
676.371873	0.002376
676.575178	0.002507
676.778464	0.002505
676.981732	0.002376
677.184981	0.002179
677.388213	0.002255
677.591426	0.002290
677.794621	0.002202
677.997798	0.002259
678.200956	0.002266
678.404097	0.002307
678.607219	0.002229
678.810323	0.002235
679.013408	0.002278
679.216476	0.002416
679.419525	0.002537
679.622556	0.002720
679.825569	0.002827
680.028563	0.002656
680.231540	0.002807
680.434498	0.002849
680.637438	0.002891
680.840359	0.002966
681.043263	0.002919
681.246148	0.002856
681.449015	0.002728
681.651864	0.002697
681.854694	0.002755
682.057506	0.002655
682.260301	0.002736
682.463076	0.002766
682.665834	0.002826
682.868573	0.002771
683.071295	0.002600
683.273998	0.002754
683.476682	0.002627
683.679349	0.002574
683.881997	0.002452
684.084627	0.002344
684.287239	0.002288
684.489833	0.002344
684.692408	0.002447
684.894965	0.002546
685.097504	0.002412
685.300025	0.002572
685.502527	0.002753
685.705012	0.002995
685.907478	0.003112
686.109925	0.003319
686.312355	0.003165
686.514766	0.003240
686.717159	0.003422
686.919534	0.003611
687.121891	0.003575
687.324230	0.003419
687.526550	0.003499
687.728852	0.003542
687.931136	0.003506
688.133401	0.003503
688.335649	0.003406
688.537878	0.003325
688.740089	0.003184
688.942281	0.003361
689.144456	0.003349
689.346612	0.003185
689.548750	0.003244
689.750870	0.002993
689.952971	0.002927
690.155055	0.002885
690.357120	0.002902
690.559167	0.002896
690.761195	0.002722
690.963206	0.002694
691.165198	0.002834
691.367172	0.002636
691.569128	0.002812
691.771065	0.002813
691.972984	0.002788
692.174885	0.002610
692.376768	0.002738
692.578633	0.002803
692.780479	0.002936
692.982308	0.002793
693.184118	0.002839
693.385909	0.002788
693.587683	0.002911
693.789438	0.002992
693.991175	0.003079
694.192894	0.002946
694.394595	0.002906
694.596277	0.002957
694.797941	0.002848
694.999587	0.002724
695.201215	0.002692
695.402824	0.002649
695.604416	0.002613
695.805989	0.002896
696.007543	0.002907
696.209080	0.002786
696.410598	0.002809
696.612099	0.003043
696.813580	0.003303
697.015044	0.003353
697.216490	0.003395
697.417917	0.003253
697.619326	0.003249
697.820717	0.003335
698.022089	0.003469
698.223444	0.003345
698.424780	0.003221
698.626098	0.003102
698.827397	0.003048
699.028679	0.003008
699.229942	0.003366
699.431187	0.003079
699.632414	0.002953
699.833622	0.003121
700.034813	0.003138
700.235985	0.003178
700.437139	0.003067
700.638274	0.003213
700.839392	0.003163
701.040491	0.003039
701.241572	0.003025
701.442635	0.002925
701.643679	0.002684
701.844706	0.002843
702.045714	0.002801
702.246704	0.002927
702.447675	0.002770
702.648629	0.002866
702.849564	0.002619
703.050481	0.002518
703.251380	0.002592
703.452260	0.002557
703.653122	0.002146
703.853966	0.002286
704.054792	0.002152
704.255600	0.002266
704.456389	0.002158
704.657160	0.002320
704.857913	0.002509
705.058648	0.002709
705.259365	0.002879
705.460063	0.003231
705.660743	0.003082
705.861405	0.003112
706.062048	0.003144
706.262674	0.003298
706.463281	0.003517
706.663870	0.003480
706.864441	0.003473
707.064993	0.003394
707.265527	0.003357
707.466043	0.003302
707.666541	0.003284
707.867021	0.003283
708.067482	0.003234
708.267925	0.003081
708.468350	0.003158
708.668757	0.003013
708.869145	0.002947
709.069516	0.002889
709.269868	0.002982
709.470201	0.003041
709.670517	0.003177
709.870814	0.003148
710.071093	0.003054
710.271354	0.002942
710.471597	0.002889
710.671821	0.003079
710.872028	0.003247
711.072216	0.003357
711.272385	0.003458
711.472537	0.003234
711.672670	0.003223
711.872785	0.003250
712.072882	0.003248
712.272961	0.003324
712.473021	0.003232
712.673063	0.003123
712.873087	0.002778
713.073093	0.002849
713.273081	0.002845
713.473050	0.002690
713.673001	0.002518
713.872934	0.002436
714.072849	0.002326
714.272745	0.002292
714.472623	0.002166
714.672483	0.002379
714.872325	0.002287
715.072148	0.002157
715.271954	0.002184
715.471741	0.002371
715.671509	0.002490
715.871260	0.002574
716.070992	0.002440
716.270707	0.002456
716.470403	0.002380
716.670080	0.002290
716.869740	0.002234
717.069381	0.002289
717.269004	0.002197
717.468609	0.002080
717.668195	0.001875
717.867764	0.002018
718.067314	0.001996
718.266846	0.002027
718.466360	0.002149
718.665855	0.002320
718.865332	0.002363
719.064791	0.002390
719.264232	0.002397
719.463655	0.002537
719.663059	0.002622
719.862445	0.002637
720.061813	0.002645
720.261163	0.002594
720.460494	0.002513
720.659807	0.002431
720.859102	0.002544
721.058379	0.002586
721.257638	0.002515
721.456878	0.002351
721.656100	0.002271
721.855304	0.002222
722.054490	0.002394
722.253657	0.002299
722.452806	0.002291
722.651937	0.002041
722.851050	0.002246
723.050145	0.002499
723.249221	0.002352
723.448279	0.002302
723.647319	0.002288
723.846340	0.002033
724.045344	0.001950
724.244329	0.001849
724.443296	0.001780
724.642245	0.001469
724.841175	0.001259
725.040088	0.001365
725.238982	0.001401
725.437857	0.001390
725.636715	0.001310
725.835554	0.001427
726.034376	0.001473
726.233179	0.001425
726.431963	0.001563
726.630730	0.001539
726.829478	0.001522
727.028208	0.001586
727.226920	0.001585
727.425614	0.001724
727.624289	0.001701
727.822946	0.001768
728.021585	0.001764
728.220206	0.001675
728.418808	0.001509
728.617392	0.001525
728.815958	0.001536
729.014506	0.001432
729.213036	0.001256
729.411547	0.001362
729.610040	0.001218
729.808515	0.001485
730.006972	0.001462
730.205410	0.001517
730.403831	0.001334
730.602233	0.001336
730.800616	0.001420
730.998982	0.001407
731.197329	0.001202
731.395658	0.001226
731.593969	0.000979
731.792262	0.001052
731.990536	0.001070
732.188793	0.000934
732.387031	0.000826
732.585250	0.000726
732.783452	0.000642
732.981635	0.000973
733.179800	0.000994
733.377947	0.001181
733.576076	0.001038
733.774186	0.001097
733.972278	0.001336
734.170352	0.001152
734.368408	0.000973
734.566446	0.000954
734.764465	0.000553
734.962466	0.000352
735.160449	0.000161
735.358413	0.000139
735.556360	0.000037
735.754288	-0.000032
735.952198	0.000186
736.150090	0.000330
736.347963	0.000366
736.545818	0.000392
736.743655	0.000591
736.941474	0.000665
737.139275	0.000734
737.337057	0.000853
737.534821	0.000728
737.732567	0.000659
737.930295	0.000616
738.128005	0.000648
738.325696	0.000687
738.523369	0.000614
738.721024	0.000565
738.918660	0.000391
739.116279	0.000343
739.313879	0.000520
739.511461	0.000445
739.709024	0.000472
739.906570	0.000420
740.104097	0.000534
740.301606	0.000352
740.499097	0.000267
740.696569	0.000387
740.894024	0.000427
741.091460	0.000347
741.288878	0.000294
741.486277	0.000266
741.683659	0.000328
741.881022	0.000094
742.078367	0.000370
742.275694	0.000313
742.473002	0.000388
742.670293	0.000082
742.867565	0.000005
743.064819	-0.000051
743.262054	-0.000120
743.459272	-0.000182
743.656471	-0.000216
743.853652	-0.000461
744.050815	-0.000520
744.247959	-0.000771
744.445085	-0.000594
744.642194	-0.000629
744.839283	-0.000522
745.036355	-0.000569
745.233408	-0.000609
745.430444	-0.000530
745.627461	-0.000417
745.824459	-0.000157
746.021440	-0.000067
746.218402	0.000018
746.415346	0.000199
746.612272	0.000114
746.809180	0.000206
747.006069	0.000418
747.202940	0.000563
747.399793	0.000501
747.596628	0.000356
747.793444	0.000463
747.990243	0.000580
748.187023	0.000550
748.383784	0.000672
748.580528	0.000652
748.777253	0.000505
748.973960	0.000520
749.170649	0.000672
749.367320	0.000886
749.563973	0.000855
749.760607	0.000690
749.957223	0.000675
750.153821	0.000576
750.350400	0.000654
750.546962	0.000724
750.743505	0.000730
750.940030	0.000866
751.136536	0.000724
751.333025	0.000866
751.529495	0.000769
751.725947	0.000894
751.922381	0.001002
752.118796	0.000916
752.315194	0.001031
752.511573	0.001076
752.707934	0.000908
752.904276	0.000979
753.100601	0.000891
753.296907	0.001051
753.493195	0.001033
753.689465	0.001036
753.885716	0.001095
754.081949	0.001073
754.278164	0.000907
754.474361	0.000843
754.670540	0.000757
754.866700	0.000536
755.062843	0.000525
755.258967	0.000416
755.455072	0.000382
755.651160	0.000488
755.847229	0.000339
756.043280	0.000605
756.239313	0.000587
756.435328	0.000824
756.631324	0.000956
756.827302	0.000912
757.023262	0.001054
757.219204	0.001254
757.415127	0.001214
757.611033	0.001373
757.806920	0.001183
758.002788	0.001404
758.198639	0.001319
758.394471	0.001584
758.590286	0.001602
758.786081	0.001684
758.981859	0.001449
759.177619	0.001398
759.373360	0.001478
759.569083	0.001404
759.764788	0.001402
759.960474	0.001233
760.156143	0.001086
760.351793	0.001092
760.547425	0.001018
760.743038	0.001104
760.938634	0.001363
761.134211	0.001498
761.329770	0.001563
761.525311	0.001380
761.720833	0.001527
761.916338	0.001321
762.111824	0.001232
762.307292	0.001101
762.502741	0.000969
762.698173	0.000754
762.893586	0.000719
763.088981	0.000607
763.284358	0.000675
763.479716	0.000789
763.675057	0.001083
763.870379	0.001239
764.065683	0.001383
764.260968	0.001738
764.456236	0.001887
764.651485	0.001645
764.846716	0.001822
765.041929	0.001948
765.237123	0.001801
765.432299	0.001432
765.627457	0.001544
765.822597	0.001466
766.017719	0.001355
766.212822	0.001402
766.407907	0.001473
766.602974	0.001494
766.798023	0.001344
766.993054	0.001500
767.188066	0.001748
767.383060	0.001664
767.578036	0.001930
767.772993	0.001859
767.967933	0.001832
768.162854	0.001860
768.357757	0.001864
768.552642	0.001844
768.747508	0.001691
768.942356	0.001579
769.137186	0.001707
769.331998	0.001471
769.526792	0.001689
769.721567	0.001538
769.916324	0.001431
770.111063	0.001459
770.305784	0.001621
770.500486	0.001686
770.695171	0.001933
770.889837	0.001811
771.084484	0.001749
771.279114	0.001628
771.473725	0.001860
771.668318	0.001909
771.862893	0.001743
772.057450	0.001742
772.251988	0.001916
772.446509	0.001681
772.641011	0.001981
772.835494	0.002058
773.029960	0.002046
773.224407	0.001987
773.418836	0.002073
773.613247	0.002306
773.807640	0.002339
774.002014	0.002122
774.196370	0.002385
774.390708	0.002042
774.585028	0.002226
774.779330	0.002135
774.973613	0.002122
775.167878	0.001916
775.362125	0.001990
775.556354	0.002135
775.750564	0.002280
775.944756	0.002348
776.138930	0.002407
776.333086	0.002266
776.527223	0.002389
776.721343	0.002394
776.915444	0.002538
777.109526	0.002361
777.303591	0.002089
777.497637	0.002100
777.691666	0.002031
777.885676	0.002100
778.079667	0.002163
778.273641	0.002175
778.467596	0.002298
778.661533	0.002152
778.855452	0.002192
779.049352	0.002474
779.243235	0.002454
779.437099	0.002385
779.630945	0.002266
779.824773	0.002336
780.018582	0.002351
780.212373	0.002300
780.406146	0.002592
780.599901	0.002651
780.793638	0.002459
780.987356	0.002423
781.181056	0.002412
781.374738	0.002538
781.568402	0.002453
781.762047	0.002458
781.955674	0.002460
782.149283	0.002342
782.342874	0.002469
782.536447	0.002615
782.730001	0.002688
782.923537	0.002850
783.117055	0.002844
783.310555	0.002856
783.504036	0.003001
783.697499	0.002901
783.890944	0.003035
784.084371	0.003094
784.277780	0.003029
784.471170	0.003006
784.664542	0.003084
784.857896	0.003177
785.051231	0.003129
785.244549	0.002971
785.437848	0.003092
785.631129	0.003144
785.824392	0.003040
786.017636	0.003059
786.210863	0.003058
786.404071	0.003047
786.597260	0.003149
786.790432	0.003325
786.983585	0.003542
787.176721	0.003678
787.369838	0.003609
787.562936	0.003667
787.756017	0.003581
787.949079	0.003684
788.142123	0.003368
788.335149	0.003436
788.528156	0.003289
788.721146	0.003106
788.914117	0.002996
789.107070	0.002896
789.300005	0.002931
789.492921	0.002908
789.685819	0.002935
789.878699	0.003263
790.071561	0.002960
790.264405	0.002949
790.457230	0.002850
790.650037	0.002731
790.842826	0.002689
791.035597	0.002577
791.228349	0.002751
791.421084	0.002737
791.613800	0.002698
791.806497	0.002961
791.999177	0.002925
792.191838	0.003194
792.384481	0.003136
792.577106	0.003348
792.769713	0.003379
792.962301	0.003438
793.154871	0.003350
793.347423	0.003124
793.539957	0.003011
793.732473	0.003112
793.924970	0.003036
794.117449	0.003292
794.309910	0.003172
794.502353	0.003062
794.694777	0.003022
794.887183	0.003122
795.079571	0.003556
795.271941	0.003374
795.464293	0.003400
795.656626	0.003148
795.848941	0.003162
796.041238	0.003200
796.233516	0.003228
796.425777	0.003073
796.618019	0.002990
796.810243	0.002648
797.002449	0.002948
797.194636	0.003028
797.386805	0.003157
797.578956	0.003054
797.771089	0.003267
797.963204	0.003390
798.155300	0.003683
798.347378	0.003637
798.539438	0.003769
798.731480	0.003718
798.923503	0.003426
799.115509	0.003585
799.307496	0.003520
799.499465	0.003403
799.691415	0.003396
799.883348	0.003258
800.075262	0.003402
800.267158	0.003398
800.459035	0.003220
800.650895	0.003592
800.842736	0.003629
801.034559	0.003862
801.226364	0.003738
801.418150	0.003585
801.609919	0.003481
801.801669	0.003621
801.993401	0.003646
802.185114	0.003563
802.376810	0.003378
802.568487	0.003212
802.760146	0.003113
802.951787	0.003072
803.143409	0.003338
803.335014	0.003560
803.526600	0.003376
803.718168	0.003223
803.909717	0.003491
804.101249	0.003576
804.292762	0.003745
804.484257	0.003671
804.675734	0.003963
804.867192	0.003933
805.058632	0.003916
805.250054	0.004032
805.441458	0.004320
805.632844	0.004365
805.824211	0.004294
806.015561	0.004377
806.206891	0.004410
806.398204	0.004224
806.589499	0.004318
806.780775	0.004361
806.972033	0.004269
807.163273	0.004228
807.354495	0.003953
807.545698	0.004069
807.736883	0.004123
807.928050	0.004291
808.119199	0.004394
808.310329	0.004367
808.501441	0.004098
808.692535	0.004131
808.883611	0.004064
809.074669	0.004248
809.265708	0.004318
809.456729	0.004306
809.647732	0.004220
809.838717	0.004315
810.029683	0.004198
810.220632	0.004590
810.411562	0.004546
810.602474	0.004639
810.793367	0.004653
810.984242	0.004640
811.175100	0.004456
811.365938	0.004666
811.556759	0.004436
811.747562	0.004424
811.938346	0.004281
812.129112	0.004344
812.319860	0.004169
812.510589	0.004280
812.701300	0.004059
812.891994	0.004186
813.082668	0.003930
813.273325	0.004014
813.463964	0.003931
813.654584	0.003922
813.845186	0.004102
814.035769	0.004180
814.226335	0.003915
814.416882	0.004117
814.607411	0.004224
814.797922	0.004297
814.988415	0.004409
815.178889	0.004598
815.369345	0.004519
815.559783	0.004347
815.750203	0.004534
815.940605	0.004793
816.130988	0.004935
816.321353	0.004667
816.511700	0.004673
816.702028	0.004691
816.892339	0.004572
817.082631	0.004835
817.272905	0.004742
817.463161	0.004534
817.653398	0.004523
817.843617	0.004323
818.033819	0.004462
818.224001	0.004499
818.414166	0.004348
818.604312	0.004425
818.794440	0.004099
818.984550	0.003961
819.174642	0.003989
819.364716	0.003680
819.554771	0.003896
819.744808	0.003736
819.934827	0.003765
820.124827	0.003656
820.314810	0.003671
820.504774	0.003822
820.694720	0.004189
820.884647	0.004173
821.074557	0.004250
821.264448	0.004011
821.454321	0.004187
821.644176	0.004213
821.834012	0.004394
822.023831	0.004353
822.213631	0.004309
822.403413	0.004056
822.593176	0.004099
822.782922	0.004354
822.972649	0.004346
823.162358	0.004028
823.352049	0.003900
823.541721	0.004078
823.731376	0.004058
823.921012	0.004136
824.110629	0.004060
824.300229	0.003849
824.489811	0.003565
824.679374	0.003630
824.868919	0.003767
825.058445	0.003738
825.247954	0.003532
825.437444	0.003555
825.626916	0.003448
825.816370	0.003465
826.005806	0.003523
826.195223	0.003664
826.384622	0.003751
826.574003	0.003985
826.763366	0.003908
826.952711	0.004005
827.142037	0.004078
827.331345	0.004118
827.520635	0.004138
827.709906	0.004216
827.899160	0.004205
828.088395	0.004163
828.277612	0.003976
828.466810	0.004030
828.655991	0.003869
828.845153	0.003741
829.034297	0.003772
829.223423	0.004047
829.412531	0.003971
829.601620	0.004123
829.790691	0.004146
829.979744	0.004286
830.168779	0.004698
830.357795	0.004774
830.546793	0.004874
830.735773	0.004705
830.924735	0.004670
831.113679	0.004710
831.302604	0.004341
831.491511	0.004015
831.680400	0.003644
831.869271	0.003261
832.058123	0.002989
832.246957	0.002995
832.435773	0.003060
832.624571	0.002678
832.813351	0.002660
833.002112	0.003029
833.190855	0.003217
833.379580	0.003379
833.568287	0.003364
833.756975	0.003555
833.945645	0.003314
834.134297	0.003271
834.322931	0.003181
834.511547	0.003083
834.700144	0.002917
834.888723	0.002860
835.077284	0.002604
835.265826	0.002590
835.454351	0.002601
835.642857	0.002938
835.831345	0.003020
836.019815	0.003265
836.208266	0.003198
836.396699	0.003028
836.585114	0.003191
836.773511	0.003483
836.961890	0.003402
837.150250	0.003407
837.338592	0.002961
837.526916	0.002642
837.715222	0.002525
837.903510	0.002651
838.091779	0.002833
838.280030	0.002685
838.468263	0.002455
838.656477	0.002545
838.844674	0.002534
839.032852	0.002870
839.221012	0.003222
839.409153	0.003431
839.597277	0.003378
839.785382	0.003367
839.973469	0.003251
840.161538	0.003410
840.349589	0.003276
840.537621	0.003460
840.725635	0.003373
840.913631	0.003290
841.101609	0.003010
841.289568	0.003118
841.477509	0.003036
841.665432	0.003132
841.853337	0.003155
842.041224	0.003361
842.229092	0.003013
842.416942	0.002947
842.604774	0.002870
842.792588	0.003053
842.980383	0.003196
843.168160	0.003241
843.355919	0.003273
843.543660	0.003464
843.731382	0.003458
843.919087	0.003690
844.106773	0.003935
844.294441	0.003980
844.482090	0.004230
844.669722	0.004061
844.857335	0.004122
845.044930	0.004061
845.232507	0.004125
845.420065	0.003896
845.607605	0.003680
845.795127	0.003260
845.982631	0.003326
846.170117	0.003082
846.357584	0.003246
846.545033	0.003407
846.732464	0.003621
846.919877	0.003377
847.107272	0.003462
847.294648	0.003801
847.482006	0.004238
847.669346	0.004216
847.856667	0.004157
848.043971	0.004314
848.231256	0.004318
848.418523	0.004291
848.605771	0.004269
848.793002	0.004307
848.980214	0.003998
849.167408	0.004127
849.354584	0.004156
849.541742	0.004244
849.728881	0.003915
849.916002	0.003843
850.103105	0.003514
850.290190	0.003649
850.477256	0.003531
850.664304	0.003798
850.851334	0.003651
851.038346	0.003678
851.225340	0.003859
851.412315	0.003996
851.599272	0.003831
851.786211	0.004162
851.973132	0.004136
852.160034	0.004295
852.346918	0.004227
852.533784	0.004284
852.720632	0.004125
852.907462	0.004136
853.094273	0.004015
853.281066	0.003978
853.467841	0.004054
853.654598	0.004108
853.841336	0.004078
854.028056	0.004198
854.214758	0.003942
854.401442	0.004250
854.588107	0.003986
854.774755	0.004301
854.961384	0.004350
855.147995	0.004503
855.334587	0.004309
855.521162	0.004417
855.707718	0.004346
855.894256	0.004344
856.080775	0.004310
856.267277	0.004523
856.453760	0.004357
856.640225	0.004680
856.826672	0.004531
857.013101	0.004703
857.199511	0.004631
857.385903	0.004613
857.572277	0.004926
857.758633	0.004690
857.944970	0.004888
858.131290	0.005141
858.317591	0.005397
858.503873	0.005187
858.690138	0.005444
858.876384	0.005672
859.062612	0.005580
859.248822	0.005569
859.435014	0.005850
859.621188	0.005909
859.807343	0.005618
859.993480	0.005236
860.179599	0.005463
860.365699	0.005192
860.551781	0.005105
860.737846	0.005603
860.923891	0.005556
861.109919	0.005495
861.295929	0.005282
861.481920	0.005639
861.667893	0.006009
861.853848	0.006347
862.039784	0.006621
862.225702	0.006844
862.411603	0.006661
862.597484	0.006731
862.783348	0.006862
862.969193	0.006946
863.155021	0.006956
863.340830	0.006465
863.526620	0.006274
863.712393	0.006304
863.898147	0.006313
864.083883	0.006177
864.269601	0.006098
864.455301	0.006092
864.640982	0.006221
864.826645	0.006028
865.012290	0.006488
865.197917	0.006345
865.383526	0.006579
865.569116	0.006541
865.754688	0.006586
865.940242	0.006824
866.125777	0.007014
866.311295	0.006752
866.496794	0.006861
866.682275	0.006907
866.867737	0.006920
867.053182	0.006435
867.238608	0.006082
867.424016	0.006117
867.609406	0.005746
867.794778	0.005691
867.980131	0.006118
868.165466	0.006035
868.350783	0.005657
868.536082	0.005548
868.721362	0.005644
868.906625	0.005883
869.091869	0.005933
869.277094	0.005978
869.462302	0.005874
869.647491	0.005538
869.832662	0.005442
870.017815	0.005626
870.202950	0.005901
870.388066	0.006114
870.573165	0.006289
870.758245	0.006471
870.943306	0.006396
871.128350	0.006266
871.313375	0.006404
871.498382	0.006602
871.683371	0.006592
871.868342	0.006694
872.053294	0.006915
872.238229	0.006473
872.423144	0.006457
872.608042	0.006649
872.792922	0.006787
872.977783	0.006909
873.162626	0.006978
873.347451	0.006957
873.532258	0.006691
873.717046	0.006596
873.901816	0.007083
874.086568	0.006876
874.271302	0.006943
874.456017	0.006752
874.640715	0.006564
874.825394	0.006528
875.010055	0.006403
875.194697	0.006529
875.379322	0.006308
875.563928	0.006159
875.748516	0.006151
875.933085	0.006177
876.117637	0.006483
876.302170	0.006697
876.486685	0.006967
876.671182	0.007507
876.855661	0.007520
877.040121	0.007786
877.224563	0.007591
877.408987	0.007861
877.593393	0.007975
877.777780	0.008064
877.962150	0.007979
878.146501	0.007843
878.330833	0.007479
878.515148	0.007326
878.699444	0.007130
878.883722	0.007267
879.067982	0.007010
879.252224	0.007079
879.436447	0.006830
879.620653	0.006783
879.804840	0.006859
879.989008	0.006931
880.173159	0.007095
880.357291	0.007435
880.541405	0.007766
880.725501	0.007590
880.909579	0.007446
881.093638	0.007637
881.277680	0.007575
881.461703	0.007328
881.645707	0.007533
881.829694	0.007575
882.013662	0.007301
882.197612	0.007389
882.381544	0.007599
882.565458	0.007460
882.749353	0.007540
882.933230	0.007796
883.117089	0.007703
883.300930	0.007656
883.484753	0.007779
883.668557	0.007722
883.852343	0.007746
884.036111	0.007998
884.219861	0.008462
884.403592	0.008368
884.587305	0.008405
884.771000	0.008710
884.954677	0.008571
885.138335	0.008662
885.321976	0.008714
885.505598	0.008315
885.689201	0.008344
885.872787	0.008014
886.056354	0.008150
886.239904	0.008152
886.423434	0.008041
886.606947	0.008269
886.790442	0.008351
886.973918	0.008514
887.157376	0.008848
887.340816	0.008794
887.524237	0.008861
887.707641	0.008934
887.891026	0.008797
888.074393	0.008640
888.257741	0.008302
888.441072	0.008065
888.624384	0.008047
888.807678	0.007911
888.990954	0.007718
889.174211	0.007700
889.357451	0.007712
889.540672	0.008021
889.723875	0.008561
889.907059	0.008704
890.090226	0.008720
890.273374	0.008606
890.456504	0.008507
890.639616	0.008753
890.822709	0.009389
891.005785	0.009179
891.188842	0.009105
891.371881	0.008956
891.554901	0.008990
891.737904	0.009195
891.920888	0.009075
892.103854	0.009234
892.286802	0.009293
892.469731	0.008917
892.652643	0.009151
892.835536	0.008919
893.018410	0.008703
893.201267	0.008967
893.384106	0.008834
893.566926	0.008802
893.749728	0.008585
893.932511	0.008400
894.115277	0.007990
894.298024	0.007576
894.480753	0.007351
894.663464	0.007336
894.846157	0.007138
895.028831	0.007196
895.211487	0.007410
895.394125	0.007550
895.576745	0.007512
895.759346	0.007467
895.941930	0.007607
896.124495	0.008063
896.307041	0.008261
896.489570	0.008260
896.672080	0.008237
896.854573	0.008515
897.037046	0.008616
897.219502	0.008522
897.401940	0.008650
897.584359	0.008691
897.766760	0.008555
897.949143	0.008392
898.131507	0.008527
898.313854	0.008619
898.496182	0.008443
898.678492	0.008073
898.860783	0.008196
899.043057	0.008624
899.225312	0.008719
899.407549	0.008549
899.589768	0.008530
899.771968	0.008438
899.954151	0.008163
900.136315	0.007559
900.318461	0.007709
900.500588	0.007638
900.682698	0.007245
900.864789	0.007230
901.046862	0.007330
901.228917	0.007601
901.410953	0.006990
901.592971	0.007036
901.774972	0.007486
901.956953	0.007643
902.138917	0.007651
902.320862	0.007462
902.502790	0.007370
902.684699	0.007638
902.866589	0.007084
903.048462	0.007334
903.230316	0.007473
903.412152	0.007285
903.593970	0.007290
903.775770	0.007601
903.957551	0.007532
904.139314	0.007599
904.321059	0.007177
904.502786	0.007188
904.684494	0.007165
904.866185	0.007161
905.047857	0.007253
905.229510	0.007413
905.411146	0.007083
905.592763	0.007601
905.774363	0.007840
905.955943	0.007894
906.137506	0.008237
906.319051	0.008381
906.500577	0.008338
906.682085	0.008362
906.863575	0.008090
907.045046	0.008463
907.226500	0.008083
907.407935	0.007710
907.589352	0.008239
907.770750	0.008025
907.952131	0.008122
908.133493	0.007868
908.314837	0.007848
908.496163	0.007637
908.677470	0.007309
908.858760	0.007596
909.040031	0.007616
909.221284	0.007318
909.402518	0.007380
909.583735	0.007261
909.764933	0.007414
909.946113	0.007236
910.127275	0.007322
910.308418	0.007187
910.489544	0.007308
910.670651	0.007077
910.851740	0.006819
911.032810	0.006443
911.213863	0.006559
911.394897	0.006494
911.575913	0.006428
911.756911	0.006351
911.937890	0.006121
912.118851	0.005587
912.299794	0.005673
912.480719	0.005674
912.661626	0.005759
912.842514	0.005849
913.023384	0.005869
913.204236	0.006177
913.385070	0.006291
913.565886	0.006309
913.746683	0.006369
913.927462	0.006357
914.108223	0.006363
914.288965	0.006493
914.469690	0.006050
914.650396	0.005837
914.831084	0.006066
915.011754	0.005644
915.192405	0.005671
915.373038	0.005948
915.553653	0.005951
915.734250	0.005757
915.914829	0.006080
916.095389	0.006152
916.275931	0.006108
916.456455	0.005658
916.636961	0.005741
916.817448	0.005920
916.997917	0.005401
917.178368	0.005055
917.358801	0.004861
917.539216	0.004453
917.719612	0.004456
917.899990	0.004332
918.080350	0.004452
918.260692	0.004826
918.441015	0.004621
918.621320	0.004835
918.801607	0.005067
918.981876	0.005409
919.162127	0.005525
919.342359	0.005143
919.522573	0.005278
919.702769	0.005272
919.882947	0.004888
920.063106	0.004636
920.243247	0.004727
920.423370	0.004885
920.603475	0.004444
920.783562	0.004048
920.963630	0.004154
921.143680	0.003551
921.323712	0.003104
921.503725	0.002867
921.683721	0.002671
921.863698	0.002245
922.043657	0.001627
922.223598	0.001621
922.403520	0.001480
922.583424	0.001542
922.763311	0.001577
922.943178	0.001562
923.123028	0.001636
923.302859	0.001571
923.482673	0.001720
923.662467	0.001674
923.842244	0.001530
924.022003	0.001746
924.201743	0.001626
924.381465	0.002108
924.561169	0.002200
924.740854	0.001903
924.920522	0.002023
925.100171	0.001363
925.279802	0.001220
925.459414	0.000647
925.639009	0.000620
925.818585	0.000370
925.998143	0.000279
926.177683	-0.000286
926.357205	-0.000753
926.536708	-0.000600
926.716193	-0.000395
926.895660	-0.000132
927.075109	0.000296
927.254539	-0.000245
927.433951	-0.000009
927.613345	-0.000605
927.792721	-0.000235
927.972079	0.000012
928.151418	-0.000187
928.330739	-0.000409
928.510042	-0.000577
928.689327	-0.000745
928.868593	-0.000584
929.047841	-0.000946
929.227071	-0.001038
929.406283	-0.001661
929.585476	-0.001787
929.764652	-0.002307
929.943809	-0.002335
930.122948	-0.002353
930.302068	-0.002239
930.481171	-0.002961
930.660255	-0.003228
930.839321	-0.003237
931.018369	-0.003287
931.197398	-0.003313
931.376409	-0.003367
931.555402	-0.003740
931.734377	-0.003860
931.913334	-0.004360
932.092272	-0.004149
932.271192	-0.003850
932.450094	-0.004195
932.628978	-0.004536
932.807844	-0.004243
932.986691	-0.004480
933.165520	-0.004057
933.344331	-0.004154
933.523123	-0.003839
933.701898	-0.003800
933.880654	-0.004749
934.059392	-0.004881
934.238111	-0.004961
934.416813	-0.005222
934.595496	-0.005409
934.774161	-0.006129
934.952808	-0.006770
935.131437	-0.006899
935.310047	-0.007191
935.488639	-0.007158
935.667213	-0.007336
935.845769	-0.006965
936.024306	-0.007303
936.202825	-0.006109
936.381326	-0.006172
936.559809	-0.005975
936.738274	-0.007056
936.916720	-0.007030
937.095148	-0.006977
937.273558	-0.007219
937.451950	-0.006882
937.630323	-0.006564
937.808678	-0.007600
937.987015	-0.008254
938.165334	-0.007423
938.343635	-0.006783
938.521917	-0.006951
938.700181	-0.007033
938.878427	-0.006939
939.056655	-0.007698
939.234864	-0.008375
939.413055	-0.008809
939.591228	-0.008793
939.769383	-0.010413
939.947519	-0.010720
940.125638	-0.009871
940.303738	-0.009836
940.481820	-0.009373
940.659883	-0.009744
940.837929	-0.010105
941.015956	-0.010044
941.193965	-0.009126
941.371955	-0.009075
941.549928	-0.009132
941.727882	-0.010914
941.905818	-0.010958
942.083736	-0.011884
942.261636	-0.013013
942.439517	-0.013725
942.617380	-0.014645
942.795225	-0.015180
942.973052	-0.015207
943.150860	-0.015547
943.328651	-0.014240
943.506423	-0.015336
943.684176	-0.015728
943.861912	-0.015149
944.039629	-0.014330
944.217328	-0.013713
944.395009	-0.014475
944.572672	-0.015700
944.750317	-0.016069
944.927943	-0.017347
945.105551	-0.016960
945.283141	-0.015538
945.460712	-0.014535
945.638265	-0.015697
945.815801	-0.015839
945.993317	-0.015421
946.170816	-0.015546
946.348297	-0.014646
946.525759	-0.014453
946.703203	-0.014380
946.880629	-0.015446
947.058036	-0.016921
947.235425	-0.016497
947.412797	-0.016441
947.590149	-0.015219
947.767484	-0.013957
947.944800	-0.015285
948.122099	-0.016771
948.299379	-0.016389
948.476640	-0.017999
948.653884	-0.016185
948.831109	-0.015798
949.008316	-0.016095
949.185505	-0.018026
949.362676	-0.019066
949.539828	-0.018568
949.716962	-0.016806
949.894078	-0.017116
950.071176	-0.015702
950.248256	-0.016248
950.425317	-0.016628
950.602360	-0.016692
950.779385	-0.015449
950.956391	-0.014139
951.133380	-0.013276
951.310350	-0.013456
951.487302	-0.014029
951.664235	-0.014503
951.841151	-0.015842
952.018048	-0.015830
952.194927	-0.015868
952.371788	-0.016166
952.548631	-0.017005
952.725455	-0.018049
952.902261	-0.017740
953.079049	-0.018248
953.255819	-0.018164
953.432570	-0.018296
953.609303	-0.018136
953.786018	-0.017961
953.962715	-0.018122
954.139394	-0.018072
954.316054	-0.018578
954.492696	-0.022270
954.669320	-0.022044
954.845926	-0.022027
955.022513	-0.021212
955.199083	-0.021326
955.375634	-0.021752
955.552166	-0.021820
955.728681	-0.022967
955.905177	-0.023372
956.081655	-0.020275
956.258115	-0.018514
956.434557	-0.017393
956.610980	-0.017386
956.787385	-0.015341
956.963772	-0.013801
957.140141	-0.012841
957.316492	-0.012430
957.492824	-0.012324
957.669138	-0.014505
957.845434	-0.014060
958.021712	-0.016247
958.197971	-0.015235
958.374212	-0.015433
958.550435	-0.017772
958.726640	-0.019555
958.902826	-0.017532
959.078995	-0.015881
959.255145	-0.013431
959.431277	-0.015481
959.607390	-0.013714
959.783486	-0.013958
959.959563	-0.015392
960.135622	-0.012191
960.311662	-0.009880
960.487685	-0.010353
960.663689	-0.009876
960.839675	-0.010135
961.015643	-0.010298
961.191593	-0.009888
961.367524	-0.011326
961.543437	-0.010914
961.719332	-0.011847
961.895209	-0.013177
962.071067	-0.013206
962.246907	-0.013901
962.422730	-0.011740
962.598533	-0.012164
962.774319	-0.013057
962.950086	-0.013740
963.125835	-0.013516
963.301566	-0.016544
963.477279	-0.016473
963.652973	-0.014353
963.828650	-0.014648
964.004308	-0.014861
964.179947	-0.011403
964.355569	-0.009538
964.531172	-0.008384
964.706757	-0.009449
964.882324	-0.005252
965.057873	-0.006537
965.233403	-0.009494
965.408916	-0.008470
965.584410	-0.010683
965.759885	-0.012062
965.935343	-0.011263
966.110782	-0.009716
966.286203	-0.008855
966.461606	-0.010162
966.636991	-0.008207
966.812357	-0.006169
966.987705	-0.005138
967.163035	-0.003130
967.338347	-0.003424
967.513641	-0.003837
967.688916	-0.004768
967.864173	-0.004777
968.039412	-0.004644
968.214632	-0.006839
968.389835	-0.005314
968.565019	-0.005459
968.740185	-0.005412
968.915333	-0.002517
969.090462	-0.004884
969.265573	-0.003468
969.440667	-0.002341
969.615741	-0.003290
969.790798	-0.000534
969.965836	-0.002115
970.140856	-0.001774
970.315858	-0.003801
970.490842	-0.007054
970.665808	-0.004501
970.840755	-0.006748
971.015684	-0.007947
971.190595	-0.008619
971.365487	-0.007862
971.540362	-0.007960
971.715218	-0.008294
971.890056	-0.005831
972.064875	-0.003339
972.239677	-0.004817
972.414460	-0.006093
972.589225	-0.006823
972.763972	-0.004666
972.938700	-0.006738
973.113411	-0.007152
973.288103	-0.008585
973.462777	-0.009151
973.637432	-0.011357
973.812070	-0.012266
973.986689	-0.008773
974.161290	-0.007210
974.335873	-0.006839
974.510437	-0.005316
974.684984	-0.004365
974.859512	-0.003964
975.034022	-0.002199
975.208513	-0.002126
975.382987	-0.000737
975.557442	-0.001525
975.731879	-0.001256
975.906298	-0.000461
976.080698	-0.002375
976.255080	-0.002835
976.429445	-0.002567
976.603790	-0.005287
976.778118	-0.004072
976.952427	-0.004324
977.126719	-0.006095
977.300992	-0.007851
977.475246	-0.009988
977.649483	-0.006460
977.823701	-0.007602
977.997901	-0.009288
978.172083	-0.009717
978.346247	-0.010427
978.520392	-0.011291
978.694519	-0.010215
978.868628	-0.009394
979.042719	-0.008635
979.216791	-0.011806
979.390845	-0.010822
979.564882	-0.007837
979.738899	-0.006866
979.912899	-0.009005
980.086880	-0.007585
980.260843	-0.006455
980.434788	-0.003435
980.608715	-0.005188
980.782623	-0.005536
980.956514	-0.005325
981.130386	-0.006538
981.304240	-0.006111
981.478075	-0.004705
981.651892	-0.005193
981.825692	-0.006559
981.999472	-0.007846
982.173235	-0.006118
982.346980	-0.005143
982.520706	-0.003476
982.694414	-0.003491
982.868104	-0.004216
983.041775	-0.002778
983.215428	-0.002902
983.389064	-0.003130
983.562680	-0.003063
983.736279	-0.003440
983.909860	-0.003289
984.083422	-0.003177
984.256966	-0.002311
984.430491	-0.001248
984.603999	-0.004402
984.777488	-0.004251
984.950959	-0.003742
985.124412	-0.003077
985.297847	-0.003513
985.471263	-0.001547
985.644661	-0.001925
985.818041	-0.002508
985.991403	-0.002494
986.164747	0.001683
986.338072	0.000641
986.511379	0.000785
986.684668	-0.000336
986.857938	0.000214
987.031191	-0.000999
987.204425	-0.001113
987.377641	-0.002221
987.550839	-0.004556
987.724018	-0.006485
987.897179	-0.004744
988.070322	-0.004015
988.243447	-0.004553
988.416554	-0.006171
988.589642	-0.004656
988.762712	-0.005987
988.935764	-0.004395
989.108798	-0.003131
989.281813	-0.002879
989.454811	-0.002858
989.627790	-0.003284
989.800751	-0.002324
989.973693	-0.000357
990.146617	-0.002753
990.319524	-0.001725
990.492412	-0.000675
990.665281	-0.000291
990.838133	-0.000714
991.010966	-0.001620
991.183781	-0.002746
991.356578	-0.003851
991.529356	-0.005534
991.702117	-0.005957
991.874859	-0.008182
992.047583	-0.009759
992.220288	-0.009186
992.392976	-0.010807
992.565645	-0.010310
992.738296	-0.008989
992.910929	-0.010071
993.083543	-0.008070
993.256139	-0.008169
993.428718	-0.006724
993.601277	-0.006489
993.773819	-0.005650
993.946342	-0.004333
994.118848	-0.004725
994.291335	-0.005266
994.463803	-0.003008
994.636254	-0.002718
994.808686	-0.002308
994.981100	-0.002782
995.153496	-0.001409
995.325874	-0.004081
995.498233	-0.001555
995.670574	0.000594
995.842897	0.001265
996.015202	0.000254
996.187488	-0.001302
996.359757	-0.000045
996.532007	0.002568
996.704239	0.000401
996.876452	0.002146
997.048648	0.000674
997.220825	0.000577
997.392984	0.001334
997.565124	0.001493
997.737247	0.002374
997.909351	0.001944
998.081437	-0.000284
998.253505	0.001965
998.425554	0.003045
998.597586	0.002674
998.769599	0.001951
998.941594	-0.000143
999.113571	0.001510
999.285529	0.001303
999.457469	0.003630
999.629391	0.003973
999.801295	0.002735
999.973181	0.001284
1000.145048	0.001015
1000.316897	0.001844
1000.488728	0.001684
1000.660541	-0.001091
1000.832335	-0.002308
1001.004111	-0.002710
1001.175869	-0.001648
1001.347609	-0.000550
1001.519331	-0.001274
1001.691034	-0.000251
1001.862719	-0.003115
1002.034386	-0.001776
1002.206035	-0.000451
1002.377665	0.000189
1002.549277	-0.002417
1002.720871	-0.002148
1002.892447	-0.003756
1003.064004	-0.003559
1003.235544	-0.003266
1003.407065	-0.002829
1003.578568	-0.003274
1003.750052	-0.003022
1003.921519	-0.003881
1004.092967	-0.003059
1004.264397	-0.004644
1004.435809	-0.004606
1004.607202	-0.004688
1004.778577	-0.006968
1004.949934	-0.007535
1005.121273	-0.006127
1005.292594	-0.006762
1005.463896	-0.004311
1005.635180	-0.004251
1005.806446	-0.004301
1005.977694	-0.004272
1006.148923	-0.003018
1006.320135	-0.001573
1006.491328	-0.001584
1006.662503	-0.002966
1006.833659	-0.005104
1007.004798	-0.005516
1007.175918	-0.005610
1007.347020	-0.005106
1007.518103	-0.005196
1007.689169	-0.004509
1007.860216	-0.002348
1008.031245	-0.000312
1008.202256	0.000131
1008.373248	0.003406
1008.544223	0.004900
1008.715179	0.003820
1008.886117	0.003825
1009.057036	0.004950
1009.227938	0.004183
1009.398821	0.001514
1009.569686	-0.000492
1009.740533	-0.000423
1009.911361	-0.002068
1010.082172	-0.005243
1010.252964	-0.003961
1010.423738	-0.004203
1010.594493	-0.004909
1010.765231	-0.004437
1010.935950	-0.004259
1011.106651	-0.003903
1011.277334	-0.003494
1011.447998	-0.002959
1011.618645	-0.000598
1011.789273	-0.000091
1011.959882	-0.000036
1012.130474	-0.000014
1012.301048	-0.000192
1012.471603	-0.000339
1012.642140	-0.000034
1012.812658	0.000258
1012.983159	-0.000186
1013.153641	-0.002713
1013.324105	-0.004781
1013.494551	-0.005204
1013.664979	-0.005930
1013.835388	-0.005812
1014.005779	-0.004713
1014.176152	-0.004332
1014.346507	-0.004933
1014.516843	-0.004818
1014.687162	-0.002200
1014.857462	-0.000130
1015.027744	0.002165
1015.198007	0.001160
1015.368252	-0.000184
1015.538480	-0.001222
1015.708689	-0.001389
1015.878879	-0.003534
1016.049052	-0.003507
1016.219206	-0.005288
1016.389342	-0.007578
1016.559460	-0.011086
1016.729559	-0.008652
1016.899641	-0.008982
1017.069704	-0.007882
1017.239749	-0.005595
1017.409775	-0.003999
1017.579784	-0.003077
1017.749774	-0.002931
1017.919746	-0.001243
1018.089700	0.000113
1018.259635	-0.000801
1018.429553	0.000190
1018.599452	0.000397
1018.769333	-0.002124
1018.939195	-0.002289
1019.109040	-0.005326
1019.278866	-0.004957
1019.448674	-0.003916
1019.618464	-0.002534
1019.788235	-0.002056
1019.957989	-0.003413
1020.127724	-0.004393
1020.297441	-0.003142
1020.467139	-0.003137
1020.636820	-0.000764
1020.806482	0.000051
1020.976126	-0.001282
1021.145752	-0.003003
1021.315359	-0.004752
1021.484948	-0.002322
1021.654519	-0.002206
1021.824072	-0.002501
1021.993607	-0.000817
1022.163123	-0.000304
1022.332621	0.000156
1022.502101	-0.000032
1022.671563	0.000036
1022.841007	0.002267
1023.010432	0.001169
1023.179839	0.003372
1023.349228	0.002089
1023.518598	-0.000213
1023.687951	-0.001442
1023.857285	-0.003659
1024.026601	-0.003050
1024.195899	-0.002802
1024.365178	-0.003612
1024.534439	-0.004220
1024.703682	-0.007055
1024.872907	-0.004326
1025.042114	-0.004164
1025.211302	-0.003524
1025.380472	-0.001964
1025.549624	-0.001742
1025.718758	-0.001818
1025.887873	-0.002004
1026.056970	-0.000602
1026.226049	-0.000040
1026.395110	-0.002427
1026.564153	-0.001616
1026.733177	-0.001518
1026.902183	-0.002321
1027.071171	-0.004412
1027.240141	-0.004979
1027.409092	-0.005615
1027.578026	-0.007756
1027.746940	-0.008596
1027.915837	-0.008173
1028.084716	-0.010449
1028.253576	-0.008867
1028.422418	-0.007922
1028.591242	-0.005529
1028.760048	-0.005979
1028.928835	-0.004803
1029.097604	-0.003630
1029.266355	-0.001618
1029.435088	-0.002395
1029.603803	0.000737
1029.772499	-0.001384
1029.941177	-0.002361
1030.109837	-0.002637
1030.278478	0.000274
1030.447102	0.000132
1030.615707	-0.001238
1030.784294	-0.004218
1030.952863	-0.004894
1031.121413	-0.004558
1031.289945	-0.004048
1031.458460	-0.002062
1031.626955	-0.002629
1031.795433	-0.003453
1031.963892	-0.003501
1032.132334	-0.001921
1032.300756	-0.000165
1032.469161	0.001955
1032.637548	-0.000377
1032.805916	0.000901
1032.974266	-0.001054
1033.142598	0.000520
1033.310911	-0.001405
1033.479207	-0.000654
1033.647484	0.000146
1033.815743	0.001754
1033.983983	0.001719
1034.152206	0.001955
1034.320410	0.000992
1034.488596	-0.000345
1034.656764	-0.002568
1034.824914	-0.000947
1034.993045	-0.002770
1035.161158	-0.003291
1035.329253	-0.005460
1035.497330	-0.005121
1035.665388	-0.004138
1035.833428	-0.003116
1036.001450	-0.001057
1036.169454	-0.000315
1036.337440	-0.001171
1036.505407	-0.001799
1036.673356	-0.001881
1036.841287	-0.001674
1037.009200	-0.001900
1037.177094	-0.001845
1037.344970	-0.003270
1037.512828	-0.003020
1037.680668	-0.002368
1037.848489	-0.003784
1038.016293	-0.003289
1038.184078	-0.004566
1038.351845	-0.004539
1038.519593	-0.007129
1038.687324	-0.006849
1038.855036	-0.005380
1039.022730	-0.007024
1039.190406	-0.007443
1039.358063	-0.007025
1039.525702	-0.006006
1039.693323	-0.005637
1039.860926	-0.003742
1040.028511	-0.003217
1040.196077	-0.003459
1040.363625	-0.004825
1040.531155	-0.004937
1040.698667	-0.005383
1040.866161	-0.003548
1041.033636	-0.003169
1041.201093	-0.002700
1041.368532	-0.004241
1041.535952	-0.002703
1041.703355	-0.002981
1041.870739	-0.002231
1042.038105	-0.001725
1042.205452	0.000130
1042.372782	0.001851
1042.540093	0.000861
1042.707386	0.000872
1042.874661	0.000799
1043.041918	0.000524
1043.209156	0.002154
1043.376376	0.001912
1043.543578	0.002644
1043.710762	0.001453
1043.877927	0.000038
1044.045074	-0.000793
1044.212203	-0.002096
1044.379314	-0.001391
1044.546407	-0.001337
1044.713481	-0.004238
1044.880537	-0.002299
1045.047575	-0.002195
1045.214595	-0.002375
1045.381596	-0.004221
1045.548579	-0.002691
1045.715544	-0.001718
1045.882491	-0.002968
1046.049420	-0.002830
1046.216330	-0.000593
1046.383222	-0.002822
1046.550096	-0.003819
1046.716951	-0.002972
1046.883789	-0.002967
1047.050608	-0.002539
1047.217409	-0.003535
1047.384192	-0.002590
1047.550956	-0.002369
1047.717703	-0.001895
1047.884431	-0.000879
1048.051140	0.001516
1048.217832	0.000774
1048.384505	0.001414
1048.551161	0.001733
1048.717798	0.002082
1048.884416	0.001578
1049.051017	0.001740
1049.217599	0.001675
1049.384163	-0.000404
1049.550709	-0.000718
1049.717237	-0.000053
1049.883746	0.000477
1050.050237	-0.000256
1050.216710	0.000971
1050.383165	0.000607
1050.549601	-0.000452
1050.716019	-0.000513
1050.882420	0.002601
1051.048801	0.000590
1051.215165	0.001367
1051.381510	0.000139
1051.547837	-0.000052
1051.714146	0.000245
1051.880437	0.000867
1052.046709	0.002868
1052.212964	0.000148
1052.379200	-0.000311
1052.545417	-0.000801
1052.711617	-0.001422
1052.877798	-0.001411
1053.043961	-0.002671
1053.210106	-0.003025
1053.376233	-0.001615
1053.542341	-0.002958
1053.708432	-0.000971
1053.874504	-0.003168
1054.040557	-0.003031
1054.206593	-0.005361
1054.372610	-0.005700
1054.538609	-0.004482
1054.704590	-0.003460
1054.870553	-0.005772
1055.036497	-0.006929
1055.202424	-0.006040
1055.368331	-0.006396
1055.534221	-0.004368
1055.700093	-0.001756
1055.865946	-0.001110
1056.031781	-0.000434
1056.197598	-0.001650
1056.363397	-0.001192
1056.529177	-0.001686
1056.694939	-0.003233
1056.860683	-0.001482
1057.026409	-0.001483
1057.192116	-0.003133
1057.357806	-0.001943
1057.523477	-0.001560
1057.689130	-0.000876
1057.854764	-0.000587
1058.020381	0.003209
1058.185979	0.004025
1058.351559	0.003361
1058.517120	0.001877
1058.682664	0.002778
1058.848189	0.003391
1059.013696	0.001698
1059.179185	0.001176
1059.344656	0.000538
1059.510108	-0.001325
1059.675542	-0.000892
1059.840958	-0.000261
1060.006356	0.002008
1060.171735	0.000903
1060.337096	-0.000716
1060.502439	-0.000594
1060.667764	-0.000054
1060.833071	0.002921
1060.998359	0.003387
1061.163629	0.002351
1061.328881	0.001476
1061.494115	-0.000674
1061.659330	0.000431
1061.824527	-0.000996
1061.989706	-0.000977
1062.154867	-0.001647
1062.320010	-0.003330
1062.485134	-0.002888
1062.650240	-0.002803
1062.815328	-0.003979
1062.980398	-0.003347
1063.145449	-0.001603
1063.310482	-0.000072
1063.475497	0.000828
1063.640494	0.000822
1063.805473	0.000652
1063.970433	-0.000650
1064.135375	-0.000262
1064.300299	-0.001401
1064.465204	-0.002380
1064.630092	-0.003865
1064.794961	-0.002344
1064.959812	-0.001399
1065.124645	-0.000938
1065.289459	-0.002709
1065.454256	-0.002919
1065.619034	-0.002712
1065.783793	-0.000221
1065.948535	0.000773
1066.113258	0.000639
1066.277964	-0.000255
1066.442651	-0.002801
1066.607319	-0.002928
1066.771970	-0.001486
1066.936602	-0.002513
1067.101216	-0.003938
1067.265812	-0.005373
1067.430389	-0.004674
1067.594949	-0.005692
1067.759490	-0.005933
1067.924013	-0.003575
1068.088518	-0.004676
1068.253004	-0.005392
1068.417472	-0.004855
1068.581922	-0.005411
1068.746354	-0.004517
1068.910768	-0.006263
1069.075163	-0.007324
1069.239540	-0.007346
1069.403899	-0.007930
1069.568240	-0.009066
1069.732562	-0.007765
1069.896866	-0.007181
1070.061152	-0.005357
1070.225420	-0.006127
1070.389670	-0.005570
1070.553901	-0.004750
1070.718114	-0.004514
1070.882309	-0.004110
1071.046486	-0.002205
1071.210644	-0.003430
1071.374784	-0.003167
1071.538906	-0.003243
1071.703010	-0.002435
1071.867096	-0.002371
1072.031163	-0.000902
1072.195212	-0.000699
1072.359243	-0.001394
1072.523256	-0.002248
1072.687250	-0.003463
1072.851226	-0.006188
1073.015184	-0.004404
1073.179124	-0.003329
1073.343045	-0.002583
1073.506949	-0.001399
1073.670834	-0.002351
1073.834701	-0.003457
1073.998549	-0.003040
1074.162380	-0.002079
1074.326192	0.002322
1074.489986	0.000286
1074.653761	0.000150
1074.817519	0.001788
1074.981258	-0.000777
1075.144979	-0.002638
1075.308682	-0.001097
1075.472367	-0.002005
1075.636033	-0.001690
1075.799681	-0.003183
1075.963311	-0.001436
1076.126923	-0.000977
1076.290516	-0.004753
1076.454092	-0.005693
1076.617649	-0.003227
1076.781187	-0.001793
1076.944708	0.000037
1077.108210	0.001231
1077.271695	0.000892
1077.435160	-0.001178
1077.598608	-0.001205
1077.762038	0.001473
1077.925449	0.001587
1078.088842	0.001197
1078.252217	-0.000235
1078.415573	-0.000103
1078.578912	0.000127
1078.742232	0.000305
1078.905534	0.000976
1079.068817	0.000659
1079.232083	-0.000914
1079.395330	-0.000688
1079.558559	-0.001027
1079.721770	-0.005270
1079.884962	-0.006098
1080.048136	-0.006593
1080.211293	-0.006251
1080.374430	-0.007713
1080.537550	-0.006642
1080.700651	-0.007014
1080.863735	-0.004729
1081.026800	-0.002378
1081.189846	-0.001133
1081.352875	-0.000308
1081.515885	-0.000481
1081.678877	0.000302
1081.841851	-0.000770
1082.004807	-0.001026
1082.167744	0.000958
1082.330663	-0.001464
1082.493564	-0.001164
1082.656447	-0.000220
1082.819312	0.000747
1082.982158	0.001502
1083.144986	0.001852
1083.307796	0.004151
1083.470587	0.002105
1083.633361	0.001947
1083.796116	0.001182
1083.958853	-0.000739
1084.121571	-0.003214
1084.284272	-0.004445
1084.446954	-0.004648
1084.609618	-0.004328
1084.772264	-0.004684
1084.934892	-0.004341
1085.097501	-0.005155
1085.260092	-0.004196
1085.422665	-0.005482
1085.585220	-0.003053
1085.747756	-0.002135
1085.910274	-0.006224
1086.072774	-0.008532
1086.235256	-0.009714
1086.397720	-0.010407
1086.560165	-0.011999
1086.722592	-0.010374
1086.885001	-0.009849
1087.047392	-0.009497
1087.209764	-0.012145
1087.372119	-0.008410
1087.534455	-0.009795
1087.696772	-0.010387
1087.859072	-0.008320
1088.021353	-0.007334
1088.183616	-0.008873
1088.345861	-0.008275
1088.508088	-0.007560
1088.670296	-0.005374
1088.832486	-0.006234
1088.994658	-0.004255
1089.156812	-0.002642
1089.318948	-0.002251
1089.481065	-0.001583
1089.643164	-0.001045
1089.805245	-0.000911
1089.967308	0.001026
1090.129352	0.000113
1090.291378	0.000568
1090.453386	0.001087
1090.615376	0.002375
1090.777347	0.001121
1090.939301	0.000616
1091.101236	0.001111
1091.263153	0.001070
1091.425051	-0.002448
1091.586932	-0.003295
1091.748794	-0.002468
1091.910638	-0.003473
1092.072463	-0.005828
1092.234271	-0.007630
1092.396060	-0.007385
1092.557831	-0.009004
1092.719584	-0.009720
1092.881319	-0.012376
1093.043035	-0.012300
1093.204733	-0.011890
1093.366413	-0.011043
1093.528075	-0.008269
1093.689718	-0.008530
1093.851343	-0.006936
1094.012950	-0.005895
1094.174539	-0.008247
1094.336110	-0.006300
1094.497662	-0.006567
1094.659196	-0.008984
1094.820712	-0.011111
1094.982210	-0.010345
1095.143689	-0.006859
1095.305151	-0.008599
1095.466594	-0.008002
1095.628018	-0.004065
1095.789425	-0.001779
1095.950813	-0.000719
1096.112183	0.001817
1096.273535	0.007245
1096.434869	0.002524
1096.596184	0.003114
1096.757482	0.002513
1096.918761	-0.001161
1097.080021	-0.000872
1097.241264	-0.001891
1097.402488	-0.001740
1097.563694	-0.006756
1097.724882	-0.012304
1097.886052	-0.007523
1098.047203	-0.013445
1098.208336	-0.013389
1098.369451	-0.011452
1098.530548	-0.014212
1098.691627	-0.014005
1098.852687	-0.014431
1099.013729	-0.008424
1099.174753	-0.009001
1099.335758	-0.010270
1099.496746	-0.009025
1099.657715	-0.010555
1099.818666	-0.009439
1099.979599	-0.010006
1100.140513	-0.012553
1100.301409	-0.012944
1100.462287	-0.013185
1100.623147	-0.011255
1100.783989	-0.012818
1100.944812	-0.009042
1101.105617	-0.009363
1101.266404	-0.012245
1101.427173	-0.012345
1101.587923	-0.008921
1101.748656	-0.007374
1101.909370	-0.012363
1102.070066	-0.011857
1102.230743	-0.012970
1102.391403	-0.014439
1102.552044	-0.009519
1102.712667	-0.009035
1102.873271	-0.007780
1103.033858	-0.007332
1103.194426	-0.007266
1103.354976	-0.005296
1103.515508	-0.005885
1103.676021	-0.004211
1103.836517	-0.004076
1103.996994	-0.010717
1104.157453	-0.008455
1104.317893	-0.008707
1104.478316	-0.010420
1104.638720	-0.012271
1104.799106	-0.011437
1104.959474	-0.011397
1105.119823	-0.010183
1105.280155	-0.009303
1105.440468	-0.004945
1105.600763	-0.005947
1105.761039	-0.005953
1105.921298	-0.006679
1106.081538	-0.005976
1106.241760	-0.006377
1106.401964	-0.010266
1106.562149	-0.015652
1106.722316	-0.017001
1106.882465	-0.019403
1107.042596	-0.018870
1107.202709	-0.022343
1107.362803	-0.024919
1107.522879	-0.025546
1107.682937	-0.025351
1107.842977	-0.022807
1108.002999	-0.018717
1108.163002	-0.019390
1108.322987	-0.018455
1108.482954	-0.016542
1108.642902	-0.013051
1108.802833	-0.010033
1108.962745	-0.010641
1109.122639	-0.010090
1109.282515	-0.012449
1109.442372	-0.013598
1109.602211	-0.013565
1109.762032	-0.010083
1109.921835	-0.012335
1110.081620	-0.010330
1110.241386	-0.008872
1110.401134	-0.009852
1110.560864	-0.012399
1110.720576	-0.006501
1110.880269	-0.005358
1111.039945	-0.005117
1111.199602	-0.008260
1111.359240	-0.009870
1111.518861	-0.009202
1111.678463	-0.010062
1111.838047	-0.008117
1111.997613	-0.001473
1112.157161	-0.004847
1112.316690	-0.006200
1112.476202	-0.007670
1112.635695	-0.009346
1112.795169	-0.010790
1112.954626	-0.011484
1113.114064	-0.009042
1113.273484	-0.009467
1113.432886	-0.012837
1113.592270	-0.011750
1113.751635	-0.014678
1113.910983	-0.011602
1114.070312	-0.010415
1114.229622	-0.004469
1114.388915	-0.006859
1114.548189	-0.009264
1114.707445	-0.010672
1114.866683	-0.014362
1115.025903	-0.009576
1115.185104	-0.007651
1115.344287	-0.007810
1115.503452	-0.004664
1115.662599	-0.004463
1115.821727	-0.003689
1115.980838	-0.006772
1116.139930	-0.007256
1116.299004	-0.007529
1116.458059	-0.012206
1116.617097	-0.008625
1116.776116	-0.009923
1116.935117	-0.013058
1117.094099	-0.016134
1117.253064	-0.016389
1117.412010	-0.010327
1117.570938	-0.007442
1117.729848	-0.005718
1117.888740	-0.006367
1118.047613	-0.006761
1118.206468	-0.004403
1118.365305	-0.003112
1118.524124	-0.002946
1118.682924	-0.001653
1118.841707	-0.006888
1119.000471	-0.005710
1119.159216	-0.004196
1119.317944	0.000113
1119.476653	-0.003449
1119.635344	-0.004637
1119.794017	-0.005270
1119.952672	-0.004422
1120.111308	-0.004691
1120.269927	-0.001897
1120.428527	-0.001676
1120.587108	-0.002582
1120.745672	-0.003074
1120.904217	0.001316
1121.062744	-0.002595
1121.221253	-0.002744
1121.379744	-0.002324
1121.538216	-0.003935
1121.696671	-0.004166
1121.855107	-0.009109
1122.013524	-0.011751
1122.171924	-0.016046
1122.330305	-0.020941
1122.488668	-0.014828
1122.647013	-0.016356
1122.805340	-0.017145
1122.963648	-0.013452
1123.121938	-0.012111
1123.280210	-0.010006
1123.438464	-0.006324
1123.596700	-0.005840
1123.754917	-0.005757
1123.913116	-0.010949
1124.071297	-0.011491
1124.229459	-0.013797
1124.387604	-0.017194
1124.545730	-0.015096
1124.703838	-0.017530
1124.861928	-0.019800
1125.019999	-0.020532
1125.178052	-0.020279
1125.336088	-0.016032
1125.494104	-0.019824
1125.652103	-0.019657
1125.810083	-0.020773
1125.968045	-0.026947
1126.125989	-0.024803
1126.283915	-0.023925
1126.441823	-0.020663
1126.599712	-0.014671
1126.757583	-0.018270
1126.915436	-0.013563
1127.073270	-0.014452
1127.231087	-0.014754
1127.388885	-0.013814
1127.546665	-0.011431
1127.704426	-0.010812
1127.862170	-0.015673
1128.019895	-0.018907
1128.177602	-0.014519
1128.335291	-0.014626
1128.492961	-0.005683
1128.650614	-0.007406
1128.808248	-0.006480
1128.965864	-0.006587
1129.123461	-0.011767
1129.281041	-0.006124
1129.438602	-0.005916
1129.596145	-0.008512
1129.753670	-0.007091
1129.911176	-0.016067
1130.068665	-0.012337
1130.226135	-0.009441
1130.383587	-0.012905
1130.541020	-0.006975
1130.698436	-0.006795
1130.855833	-0.011382
1131.013212	-0.015759
1131.170573	-0.014467
1131.327915	-0.008602
1131.485239	-0.010558
1131.642545	-0.015337
1131.799833	-0.013766
1131.957103	-0.015613
1132.114354	-0.022152
1132.271588	-0.016730
1132.428803	-0.012563
1132.585999	-0.014628
1132.743178	-0.018338
1132.900338	-0.018250
1133.057480	-0.014353
1133.214604	-0.018022
1133.371710	-0.015591
1133.528797	-0.018724
1133.685866	-0.020489
1133.842917	-0.023184
1133.999950	-0.022116
1134.156964	-0.020539
1134.313960	-0.017865
1134.470938	-0.020638
1134.627898	-0.013486
1134.784840	-0.015964
1134.941763	-0.012749
1135.098668	-0.021354
1135.255555	-0.023356
1135.412424	-0.028732
1135.569274	-0.027472
1135.726107	-0.032471
1135.882921	-0.030673
1136.039716	-0.032948
1136.196494	-0.036250
1136.353253	-0.033002
1136.509995	-0.029595
1136.666717	-0.029221
1136.823422	-0.026211
1136.980109	-0.024335
1137.136777	-0.022795
1137.293427	-0.022521
1137.450059	-0.025604
1137.606672	-0.025828
1137.763267	-0.023793
1137.919844	-0.023012
1138.076403	-0.018090
1138.232944	-0.018054
1138.389466	-0.021115
1138.545971	-0.020361
1138.702457	-0.019518
1138.858924	-0.021585
1139.015374	-0.017625
1139.171805	-0.019847
1139.328218	-0.019363
1139.484613	-0.019407
1139.640990	-0.013343
1139.797348	-0.020344
1139.953688	-0.015758
1140.110010	-0.013998
1140.266314	-0.015078
1140.422600	-0.015715
1140.578867	-0.013721
1140.735116	-0.009826
1140.891347	-0.013288
1141.047559	-0.019675
1141.203754	-0.010496
1141.359930	-0.012852
1141.516088	-0.011153
1141.672228	-0.002120
1141.828349	-0.002338
1141.984452	-0.012718
1142.140537	-0.019981
1142.296604	-0.017706
1142.452653	-0.020074
1142.608683	-0.025201
1142.764695	-0.030365
1142.920689	-0.034423
1143.076665	-0.037005
1143.232622	-0.039501
1143.388562	-0.035055
1143.544483	-0.030641
1143.700385	-0.034030
1143.856270	-0.031017
1144.012136	-0.031076
1144.167985	-0.026979
1144.323814	-0.029919
1144.479626	-0.039133
1144.635420	-0.036916
1144.791195	-0.034240
1144.946952	-0.034176
1145.102691	-0.030006
1145.258411	-0.028708
1145.414113	-0.034485
1145.569798	-0.035248
1145.725463	-0.035335
1145.881111	-0.029440
1146.036741	-0.028665
1146.192352	-0.029420
1146.347945	-0.027426
1146.503519	-0.027514
1146.659076	-0.028083
1146.814614	-0.017928
1146.970134	-0.020820
1147.125636	-0.014501
1147.281120	-0.012241
1147.436585	-0.009633
1147.592032	-0.006450
1147.747461	-0.006679
1147.902872	-0.005794
1148.058265	-0.005707
1148.213639	-0.008467
1148.368995	-0.001857
1148.524333	-0.004185
1148.679653	-0.004317
1148.834954	-0.002927
1148.990237	-0.006306
1149.145502	-0.011187
1149.300749	-0.011569
1149.455977	-0.017002
1149.611188	-0.017795
1149.766380	-0.017780
1149.921553	-0.013321
1150.076709	-0.017917
1150.231846	-0.018633
1150.386966	-0.021480
1150.542066	-0.013262
1150.697149	-0.016184
1150.852214	-0.012309
1151.007260	-0.016634
1151.162288	-0.019866
1151.317298	-0.029111
1151.472289	-0.022180
1151.627263	-0.030149
1151.782218	-0.027819
1151.937155	-0.033337
1152.092073	-0.030251
1152.246974	-0.027331
1152.401856	-0.022369
1152.556720	-0.025826
1152.711566	-0.026358
1152.866393	-0.029818
1153.021203	-0.022979
1153.175994	-0.017524
1153.330767	-0.010795
1153.485521	-0.022762
1153.640258	-0.016120
1153.794976	-0.023144
1153.949676	-0.017581
1154.104358	-0.017047
1154.259021	-0.011914
1154.413667	-0.012596
1154.568294	-0.020669
1154.722903	-0.020783
1154.877493	-0.004371
1155.032066	-0.022367
1155.186620	-0.024132
1155.341156	-0.026010
1155.495674	-0.018797
1155.650173	-0.023704
1155.804654	-0.028205
1155.959118	-0.028657
1156.113562	-0.035848
1156.267989	-0.046791
1156.422397	-0.035298
1156.576788	-0.022047
1156.731160	-0.016290
1156.885513	-0.026645
1157.039849	-0.027083
1157.194166	-0.023016
1157.348465	-0.021960
1157.502746	-0.016380
1157.657009	-0.013902
1157.811253	-0.017672
1157.965479	-0.024156
1158.119687	-0.030675
1158.273877	-0.025291
1158.428048	-0.023489
1158.582201	-0.019572
1158.736337	-0.019818
1158.890453	-0.023097
1159.044552	-0.026553
1159.198632	-0.025777
1159.352694	-0.027858
1159.506738	-0.023120
1159.660764	-0.025329
1159.814771	-0.026981
1159.968761	-0.034062
1160.122732	-0.036151
1160.276685	-0.033418
1160.430619	-0.023221
1160.584535	-0.022459
1160.738434	-0.024130
1160.892313	-0.030711
1161.046175	-0.030153
1161.200019	-0.025959
1161.353844	-0.030035
1161.507651	-0.030694
1161.661440	-0.032531
1161.815210	-0.038306
1161.968962	-0.042606
1162.122697	-0.036569
1162.276412	-0.038241
1162.430110	-0.035911
1162.583789	-0.038938
1162.737451	-0.031308
1162.891094	-0.025243
1163.044718	-0.030013
1163.198325	-0.028702
1163.351913	-0.021702
1163.505483	-0.029846
1163.659035	-0.022779
1163.812569	-0.021900
1163.966084	-0.016458
1164.119581	-0.015577
1164.273060	-0.006092
1164.426521	0.000568
1164.579964	-0.000786
1164.733388	-0.004765
1164.886794	0.005585
1165.040182	0.003485
1165.193551	-0.006932
1165.346903	-0.012900
1165.500236	-0.015547
1165.653551	-0.021170
1165.806848	-0.027458
1165.960126	-0.029151
1166.113386	-0.022317
1166.266628	-0.019447
1166.419852	-0.024060
1166.573058	-0.017528
1166.726245	-0.010349
1166.879414	-0.001036
1167.032565	-0.012091
1167.185698	-0.000128
1167.338812	-0.000797
1167.491909	-0.009353
1167.644987	-0.007161
1167.798046	-0.013511
1167.951088	-0.006579
1168.104111	-0.013904
1168.257117	-0.012393
1168.410103	0.000078
1168.563072	-0.006024
1168.716023	-0.010385
1168.868955	-0.006521
1169.021869	-0.021166
1169.174765	-0.006022
1169.327642	-0.015207
1169.480501	-0.014875
1169.633343	-0.031274
1169.786165	-0.029706
1169.938970	-0.027919
1170.091757	-0.011261
1170.244525	-0.012553
1170.397275	-0.003275
1170.550007	-0.010146
1170.702720	0.001017
1170.855415	0.000989
1171.008092	0.006284
1171.160751	-0.000807
1171.313392	-0.006313
1171.466014	-0.011388
1171.618619	-0.028256
1171.771205	-0.028256
1171.923772	-0.028256
