sample name	sample
index	336
start time	 03-01-2021  10:54:06 AM


Wavelength (nm)	Absorbance
494.344910	-0.497259
494.563924	-0.497259
494.782919	-0.497259
495.001897	-0.542195
495.220856	-0.498736
495.439797	-0.519894
495.658719	-0.519156
495.877624	-0.458242
496.096510	-0.521389
496.315378	-0.363681
496.534227	-0.310244
496.753059	-0.122403
496.971872	-0.124432
497.190667	0.139747
497.409444	0.145534
497.628203	0.141756
497.846943	0.140534
498.065665	0.139730
498.284369	0.138178
498.503055	0.137682
498.721723	0.137040
498.940372	0.137310
499.159003	0.135571
499.377616	0.133697
499.596210	0.133331
499.814787	0.132986
500.033345	0.133293
500.251885	0.132159
500.470406	0.132431
500.688910	0.131414
500.907395	0.131370
501.125862	0.131740
501.344311	0.131882
501.562742	0.130404
501.781154	0.128999
501.999548	0.128056
502.217924	0.126628
502.436282	0.124611
502.654621	0.123692
502.872942	0.121471
503.091245	0.120422
503.309530	0.119122
503.527797	0.118518
503.746045	0.118076
503.964275	0.116799
504.182487	0.116597
504.400681	0.115449
504.618856	0.114829
504.837013	0.114199
505.055152	0.113238
505.273273	0.112706
505.491376	0.111170
505.709460	0.110296
505.927526	0.109376
506.145574	0.109267
506.363604	0.109676
506.581615	0.108783
506.799608	0.106752
507.017583	0.105797
507.235540	0.104687
507.453478	0.103629
507.671399	0.101943
507.889301	0.100894
508.107185	0.099395
508.325050	0.097957
508.542898	0.097555
508.760727	0.097748
508.978538	0.097545
509.196330	0.097148
509.414105	0.096867
509.631861	0.097252
509.849599	0.097707
510.067319	0.097126
510.285021	0.097125
510.502704	0.096364
510.720369	0.095368
510.938016	0.094251
511.155645	0.092826
511.373255	0.092467
511.590848	0.092210
511.808422	0.091708
512.025977	0.091102
512.243515	0.090038
512.461034	0.089229
512.678536	0.089342
512.896018	0.088462
513.113483	0.088997
513.330930	0.088315
513.548358	0.087443
513.765768	0.086084
513.983160	0.085180
514.200533	0.084191
514.417889	0.084012
514.635226	0.083180
514.852545	0.083068
515.069845	0.081532
515.287128	0.081514
515.504392	0.080636
515.721638	0.079335
515.938866	0.079189
516.156075	0.078715
516.373267	0.077107
516.590440	0.076211
516.807594	0.074376
517.024731	0.074224
517.241850	0.072890
517.458950	0.071906
517.676032	0.072510
517.893095	0.071958
518.110141	0.071374
518.327168	0.071464
518.544177	0.072001
518.761168	0.071873
518.978141	0.071208
519.195095	0.070664
519.412031	0.070339
519.628949	0.069548
519.845849	0.068575
520.062731	0.067921
520.279594	0.066744
520.496439	0.064710
520.713266	0.064601
520.930074	0.064017
521.146865	0.063610
521.363637	0.063142
521.580391	0.062475
521.797127	0.062291
522.013844	0.062235
522.230543	0.062261
522.447224	0.062106
522.663887	0.061501
522.880532	0.060506
523.097158	0.059734
523.313766	0.059015
523.530356	0.058162
523.746928	0.057490
523.963481	0.057137
524.180017	0.056949
524.396534	0.056556
524.613032	0.056544
524.829513	0.056679
525.045975	0.056407
525.262420	0.056280
525.478845	0.056519
525.695253	0.056076
525.911643	0.055566
526.128014	0.055149
526.344367	0.054576
526.560702	0.054063
526.777018	0.053602
526.993316	0.053542
527.209597	0.053220
527.425858	0.052816
527.642102	0.052712
527.858328	0.052050
528.074535	0.051943
528.290724	0.051850
528.506894	0.051861
528.723047	0.052004
528.939181	0.051433
529.155297	0.050791
529.371395	0.050046
529.587475	0.049193
529.803536	0.049479
530.019579	0.048456
530.235604	0.047932
530.451611	0.047434
530.667600	0.047014
530.883570	0.046276
531.099522	0.045898
531.315456	0.045711
531.531372	0.045499
531.747269	0.044764
531.963148	0.044712
532.179009	0.044377
532.394852	0.044167
532.610676	0.043209
532.826482	0.042977
533.042271	0.042000
533.258040	0.041744
533.473792	0.041406
533.689525	0.041128
533.905240	0.040401
534.120937	0.040322
534.336616	0.039352
534.552277	0.038988
534.767919	0.038744
534.983543	0.038971
535.199149	0.038147
535.414736	0.037801
535.630306	0.037500
535.845857	0.037454
536.061390	0.037213
536.276904	0.036678
536.492401	0.036270
536.707879	0.036405
536.923339	0.036015
537.138781	0.035985
537.354204	0.036133
537.569610	0.035590
537.784997	0.035022
538.000366	0.034609
538.215716	0.035022
538.431049	0.034990
538.646363	0.034151
538.861659	0.034048
539.076937	0.034128
539.292196	0.033789
539.507438	0.033756
539.722661	0.033656
539.937866	0.033212
540.153052	0.032659
540.368221	0.032348
540.583371	0.032387
540.798503	0.032135
541.013617	0.031280
541.228712	0.030978
541.443789	0.030285
541.658848	0.029947
541.873889	0.029732
542.088912	0.029696
542.303916	0.029489
542.518902	0.028782
542.733870	0.028701
542.948820	0.028639
543.163752	0.028255
543.378665	0.028187
543.593560	0.027974
543.808437	0.027556
544.023295	0.026996
544.238136	0.026883
544.452958	0.026910
544.667762	0.026599
544.882548	0.026389
545.097315	0.026052
545.312064	0.026326
545.526795	0.026261
545.741508	0.026225
545.956203	0.026283
546.170879	0.026068
546.385537	0.025937
546.600177	0.025760
546.814799	0.025790
547.029402	0.025580
547.243988	0.025390
547.458555	0.025203
547.673103	0.024505
547.887634	0.023875
548.102146	0.024099
548.316640	0.023496
548.531116	0.023136
548.745574	0.022484
548.960013	0.022495
549.174435	0.021818
549.388838	0.021597
549.603222	0.021806
549.817589	0.021659
550.031937	0.020595
550.246267	0.020444
550.460579	0.020393
550.674873	0.020228
550.889148	0.019622
551.103405	0.019198
551.317644	0.018619
551.531865	0.018383
551.746068	0.018308
551.960252	0.018243
552.174418	0.018128
552.388566	0.017908
552.602696	0.017696
552.816807	0.017587
553.030900	0.017577
553.244975	0.017638
553.459032	0.017467
553.673070	0.017079
553.887091	0.016818
554.101093	0.016769
554.315077	0.016314
554.529042	0.016225
554.742990	0.016081
554.956919	0.015910
555.170830	0.015368
555.384722	0.015485
555.598597	0.015442
555.812453	0.015285
556.026291	0.015379
556.240111	0.015448
556.453913	0.015007
556.667696	0.014828
556.881461	0.014408
557.095208	0.014547
557.308937	0.014032
557.522647	0.013757
557.736339	0.013786
557.950013	0.013397
558.163669	0.012764
558.377307	0.012979
558.590926	0.012971
558.804527	0.013006
559.018110	0.012952
559.231675	0.012745
559.445221	0.012540
559.658749	0.012145
559.872259	0.011712
560.085751	0.011696
560.299225	0.011282
560.512680	0.010910
560.726117	0.010688
560.939536	0.010120
561.152937	0.009989
561.366319	0.010111
561.579683	0.009889
561.793029	0.009966
562.006357	0.009952
562.219667	0.009766
562.432958	0.009588
562.646231	0.009323
562.859486	0.009315
563.072723	0.009298
563.285941	0.008902
563.499141	0.009217
563.712323	0.009411
563.925487	0.009205
564.138632	0.009189
564.351760	0.009110
564.564869	0.009171
564.777960	0.009452
564.991032	0.009175
565.204087	0.009285
565.417123	0.008881
565.630141	0.008274
565.843140	0.008267
566.056122	0.008317
566.269085	0.007968
566.482030	0.007585
566.694957	0.007258
566.907866	0.006987
567.120756	0.006688
567.333628	0.006245
567.546482	0.006223
567.759318	0.006152
567.972135	0.005838
568.184935	0.005589
568.397716	0.005597
568.610478	0.005370
568.823223	0.005172
569.035949	0.004976
569.248657	0.005221
569.461347	0.005126
569.674019	0.004924
569.886672	0.004957
570.099308	0.004854
570.311925	0.004767
570.524523	0.004587
570.737104	0.004881
570.949666	0.004625
571.162210	0.004567
571.374736	0.004433
571.587244	0.004322
571.799733	0.004175
572.012205	0.004249
572.224658	0.004113
572.437092	0.003966
572.649509	0.003673
572.861907	0.003905
573.074287	0.003733
573.286649	0.003519
573.498993	0.003313
573.711318	0.003282
573.923625	0.003113
574.135914	0.003285
574.348185	0.003268
574.560438	0.003202
574.772672	0.002972
574.984888	0.002612
575.197086	0.002446
575.409266	0.002111
575.621427	0.001927
575.833570	0.002011
576.045695	0.001877
576.257802	0.001498
576.469890	0.001139
576.681961	0.000854
576.894013	0.001049
577.106046	0.000991
577.318062	0.000985
577.530059	0.000866
577.742039	0.000843
577.954000	0.000466
578.165942	0.000549
578.377867	0.000742
578.589773	0.000918
578.801661	0.000706
579.013531	0.000725
579.225382	0.000881
579.437216	0.000776
579.649031	0.000694
579.860828	0.000837
580.072606	0.000966
580.284367	0.000896
580.496109	0.000626
580.707833	0.000555
580.919539	0.000529
581.131227	0.000403
581.342896	0.000294
581.554547	0.000047
581.766180	-0.000385
581.977795	-0.000406
582.189391	-0.000524
582.400969	-0.000479
582.612529	-0.000660
582.824071	-0.000798
583.035595	-0.000760
583.247100	-0.000903
583.458587	-0.000859
583.670056	-0.000830
583.881506	-0.000960
584.092939	-0.000609
584.304353	-0.000426
584.515749	-0.000565
584.727127	-0.000804
584.938486	-0.000869
585.149828	-0.001092
585.361151	-0.001278
585.572456	-0.001045
585.783742	-0.001445
585.995011	-0.002100
586.206261	-0.002348
586.417493	-0.002123
586.628706	-0.002081
586.839902	-0.002494
587.051079	-0.002398
587.262238	-0.002647
587.473379	-0.002994
587.684502	-0.002589
587.895606	-0.002578
588.106692	-0.002612
588.317760	-0.002678
588.528810	-0.002873
588.739841	-0.002904
588.950855	-0.003089
589.161850	-0.003013
589.372827	-0.003080
589.583785	-0.003609
589.794726	-0.003840
590.005648	-0.004451
590.216552	-0.004631
590.427437	-0.004477
590.638305	-0.004507
590.849154	-0.004094
591.059985	-0.004221
591.270798	-0.004381
591.481592	-0.004301
591.692369	-0.004249
591.903127	-0.003910
592.113867	-0.004147
592.324588	-0.004277
592.535292	-0.004314
592.745977	-0.004940
592.956644	-0.005231
593.167293	-0.005428
593.377923	-0.005707
593.588536	-0.005718
593.799130	-0.005736
594.009706	-0.005432
594.220263	-0.005309
594.430803	-0.005435
594.641324	-0.005220
594.851827	-0.004958
595.062312	-0.004709
595.272778	-0.004811
595.483227	-0.004766
595.693657	-0.004984
595.904069	-0.005171
596.114462	-0.005676
596.324838	-0.005603
596.535195	-0.005983
596.745534	-0.006068
596.955855	-0.006052
597.166157	-0.005731
597.376441	-0.005847
597.586707	-0.005757
597.796955	-0.005912
598.007185	-0.005815
598.217396	-0.005819
598.427589	-0.005725
598.637764	-0.005836
598.847921	-0.006187
599.058060	-0.006453
599.268180	-0.006331
599.478282	-0.006732
599.688366	-0.006841
599.898431	-0.006530
600.108479	-0.006447
600.318508	-0.006374
600.528519	-0.006199
600.738511	-0.005977
600.948486	-0.005916
601.158442	-0.006212
601.368380	-0.006145
601.578300	-0.006104
601.788202	-0.006325
601.998085	-0.006695
602.207950	-0.006848
602.417797	-0.007047
602.627626	-0.007105
602.837436	-0.007330
603.047228	-0.007437
603.257002	-0.007184
603.466758	-0.007326
603.676496	-0.007485
603.886215	-0.007306
604.095916	-0.007310
604.305599	-0.007255
604.515264	-0.007350
604.724910	-0.007061
604.934538	-0.006858
605.144148	-0.007079
605.353740	-0.006886
605.563314	-0.006708
605.772869	-0.006833
605.982406	-0.007017
606.191925	-0.007015
606.401425	-0.006857
606.610908	-0.006910
606.820372	-0.006971
607.029818	-0.006987
607.239246	-0.007124
607.448655	-0.007160
607.658047	-0.007126
607.867420	-0.006991
608.076775	-0.007040
608.286111	-0.007328
608.495430	-0.007604
608.704730	-0.007765
608.914012	-0.007757
609.123275	-0.007763
609.332521	-0.008198
609.541748	-0.008336
609.750957	-0.008549
609.960148	-0.008736
610.169321	-0.008757
610.378475	-0.008836
610.587611	-0.008875
610.796729	-0.008619
611.005829	-0.008748
611.214910	-0.008495
611.423974	-0.008365
611.633019	-0.008174
611.842045	-0.008034
612.051054	-0.007981
612.260044	-0.007750
612.469017	-0.007897
612.677970	-0.008053
612.886906	-0.007986
613.095824	-0.008055
613.304723	-0.008350
613.513604	-0.008417
613.722467	-0.008412
613.931311	-0.008405
614.140138	-0.008401
614.348946	-0.008262
614.557736	-0.008378
614.766507	-0.008471
614.975261	-0.008510
615.183996	-0.008379
615.392713	-0.008346
615.601412	-0.008583
615.810092	-0.008787
616.018754	-0.009073
616.227399	-0.009144
616.436024	-0.009302
616.644632	-0.009220
616.853222	-0.009263
617.061793	-0.009268
617.270346	-0.009531
617.478880	-0.009445
617.687397	-0.009306
617.895895	-0.009340
618.104375	-0.009405
618.312837	-0.009465
618.521281	-0.009636
618.729706	-0.009829
618.938113	-0.009861
619.146502	-0.009826
619.354873	-0.010005
619.563226	-0.010173
619.771560	-0.010138
619.979876	-0.009994
620.188174	-0.010081
620.396453	-0.009910
620.604715	-0.009816
620.812958	-0.009953
621.021183	-0.009901
621.229390	-0.009823
621.437578	-0.009684
621.645748	-0.009653
621.853900	-0.009791
622.062034	-0.009603
622.270150	-0.009765
622.478247	-0.009768
622.686326	-0.009688
622.894387	-0.009656
623.102430	-0.009697
623.310454	-0.009751
623.518461	-0.009630
623.726449	-0.009577
623.934418	-0.009800
624.142370	-0.009867
624.350303	-0.009934
624.558218	-0.009968
624.766115	-0.009897
624.973994	-0.009905
625.181855	-0.009894
625.389697	-0.010004
625.597521	-0.010101
625.805327	-0.010108
626.013114	-0.010063
626.220883	-0.010103
626.428634	-0.010115
626.636367	-0.010357
626.844082	-0.010419
627.051778	-0.010652
627.259457	-0.010769
627.467117	-0.010926
627.674758	-0.010856
627.882382	-0.010922
628.089987	-0.010907
628.297574	-0.010922
628.505143	-0.010698
628.712694	-0.010661
628.920226	-0.010437
629.127740	-0.010446
629.335236	-0.010330
629.542714	-0.010349
629.750174	-0.010461
629.957615	-0.010418
630.165038	-0.010330
630.372443	-0.010457
630.579829	-0.010430
630.787198	-0.010469
630.994548	-0.010409
631.201880	-0.010355
631.409194	-0.010411
631.616489	-0.010231
631.823766	-0.010267
632.031025	-0.010262
632.238266	-0.010269
632.445489	-0.010161
632.652693	-0.010464
632.859879	-0.010601
633.067047	-0.010695
633.274197	-0.010678
633.481329	-0.010727
633.688442	-0.010618
633.895537	-0.010848
634.102614	-0.010718
634.309672	-0.010780
634.516713	-0.010472
634.723735	-0.010297
634.930739	-0.010264
635.137724	-0.010283
635.344692	-0.010344
635.551641	-0.010293
635.758572	-0.010363
635.965485	-0.010451
636.172379	-0.010519
636.379256	-0.010534
636.586114	-0.010772
636.792954	-0.010549
636.999775	-0.010592
637.206579	-0.010608
637.413364	-0.010983
637.620131	-0.010940
637.826880	-0.011056
638.033610	-0.011307
638.240323	-0.011493
638.447017	-0.011485
638.653692	-0.011684
638.860350	-0.011575
639.066990	-0.011671
639.273611	-0.011592
639.480214	-0.011672
639.686798	-0.011716
639.893365	-0.011436
640.099913	-0.011385
640.306443	-0.011380
640.512955	-0.011521
640.719449	-0.011592
640.925924	-0.011561
641.132381	-0.011347
641.338820	-0.011229
641.545241	-0.011166
641.751644	-0.011326
641.958028	-0.011241
642.164394	-0.011207
642.370742	-0.011230
642.577071	-0.011164
642.783383	-0.011066
642.989676	-0.011081
643.195951	-0.010938
643.402207	-0.010968
643.608446	-0.010966
643.814666	-0.011006
644.020868	-0.011111
644.227052	-0.011033
644.433218	-0.011106
644.639365	-0.011099
644.845494	-0.011097
645.051605	-0.011263
645.257698	-0.011340
645.463772	-0.011227
645.669828	-0.011192
645.875866	-0.010988
646.081886	-0.011069
646.287888	-0.011011
646.493871	-0.011122
646.699836	-0.011222
646.905783	-0.011332
647.111712	-0.011341
647.317622	-0.011465
647.523514	-0.011679
647.729388	-0.011700
647.935244	-0.011640
648.141082	-0.011736
648.346901	-0.011754
648.552702	-0.011784
648.758485	-0.011880
648.964250	-0.011979
649.169996	-0.012099
649.375724	-0.012183
649.581434	-0.012269
649.787126	-0.012348
649.992800	-0.012385
650.198455	-0.012406
650.404092	-0.012346
650.609711	-0.012204
650.815311	-0.012136
651.020894	-0.012035
651.226458	-0.011668
651.432004	-0.011601
651.637532	-0.011434
651.843041	-0.011390
652.048532	-0.011231
652.254006	-0.011300
652.459460	-0.011195
652.664897	-0.011098
652.870315	-0.010948
653.075716	-0.011114
653.281097	-0.011202
653.486461	-0.011250
653.691807	-0.011393
653.897134	-0.011561
654.102443	-0.011541
654.307734	-0.011661
654.513006	-0.011859
654.718261	-0.012008
654.923497	-0.012113
655.128715	-0.012047
655.333915	-0.012190
655.539096	-0.012142
655.744259	-0.012310
655.949404	-0.012373
656.154531	-0.012297
656.359640	-0.012228
656.564730	-0.012113
656.769802	-0.012030
656.974856	-0.012124
657.179892	-0.012130
657.384909	-0.012219
657.589908	-0.012072
657.794889	-0.012082
657.999852	-0.012039
658.204797	-0.012111
658.409723	-0.012283
658.614631	-0.012293
658.819521	-0.012255
659.024393	-0.012210
659.229246	-0.011952
659.434081	-0.011987
659.638898	-0.012000
659.843697	-0.012108
660.048478	-0.011910
660.253240	-0.011937
660.457984	-0.012050
660.662710	-0.012248
660.867417	-0.012230
661.072107	-0.012319
661.276778	-0.012269
661.481431	-0.012233
661.686066	-0.012200
661.890682	-0.012275
662.095281	-0.012364
662.299861	-0.012360
662.504422	-0.012072
662.708966	-0.011978
662.913491	-0.011898
663.117999	-0.011923
663.322488	-0.012037
663.526958	-0.012061
663.731411	-0.011918
663.935845	-0.011709
664.140261	-0.011616
664.344659	-0.011744
664.549038	-0.011749
664.753400	-0.011870
664.957743	-0.011894
665.162068	-0.011889
665.366375	-0.011798
665.570663	-0.011953
665.774933	-0.012074
665.979185	-0.011960
666.183419	-0.011932
666.387635	-0.011973
666.591832	-0.011931
666.796011	-0.011871
667.000172	-0.011740
667.204315	-0.011795
667.408439	-0.011636
667.612545	-0.011590
667.816634	-0.011763
668.020703	-0.011593
668.224755	-0.011559
668.428788	-0.011600
668.632803	-0.011605
668.836800	-0.011565
669.040779	-0.011579
669.244739	-0.011750
669.448681	-0.011715
669.652605	-0.011575
669.856511	-0.011663
670.060399	-0.011554
670.264268	-0.011524
670.468119	-0.011425
670.671952	-0.011532
670.875767	-0.011621
671.079563	-0.011601
671.283341	-0.011605
671.487101	-0.011656
671.690843	-0.011665
671.894567	-0.011851
672.098272	-0.011791
672.301959	-0.011794
672.505628	-0.011666
672.709278	-0.011573
672.912911	-0.011560
673.116525	-0.011494
673.320121	-0.011453
673.523699	-0.011458
673.727258	-0.011403
673.930799	-0.011369
674.134322	-0.011383
674.337827	-0.011429
674.541314	-0.011455
674.744782	-0.011448
674.948232	-0.011455
675.151664	-0.011542
675.355078	-0.011549
675.558474	-0.011637
675.761851	-0.011667
675.965210	-0.011562
676.168551	-0.011531
676.371873	-0.011358
676.575178	-0.011276
676.778464	-0.011273
676.981732	-0.011152
677.184981	-0.011168
677.388213	-0.011054
677.591426	-0.011080
677.794621	-0.011117
677.997798	-0.011107
678.200956	-0.011054
678.404097	-0.011077
678.607219	-0.011032
678.810323	-0.011043
679.013408	-0.010970
679.216476	-0.010944
679.419525	-0.010806
679.622556	-0.010776
679.825569	-0.010842
680.028563	-0.010859
680.231540	-0.010733
680.434498	-0.010682
680.637438	-0.010649
680.840359	-0.010639
681.043263	-0.010586
681.246148	-0.010565
681.449015	-0.010619
681.651864	-0.010534
681.854694	-0.010685
682.057506	-0.010802
682.260301	-0.010787
682.463076	-0.010921
682.665834	-0.010853
682.868573	-0.010940
683.071295	-0.011065
683.273998	-0.011088
683.476682	-0.011020
683.679349	-0.010870
683.881997	-0.010823
684.084627	-0.010936
684.287239	-0.010788
684.489833	-0.010878
684.692408	-0.010818
684.894965	-0.010741
685.097504	-0.010748
685.300025	-0.010858
685.502527	-0.010826
685.705012	-0.010791
685.907478	-0.010708
686.109925	-0.010760
686.312355	-0.010756
686.514766	-0.010853
686.717159	-0.010878
686.919534	-0.010790
687.121891	-0.010713
687.324230	-0.010840
687.526550	-0.010828
687.728852	-0.010729
687.931136	-0.010552
688.133401	-0.010533
688.335649	-0.010335
688.537878	-0.010260
688.740089	-0.010260
688.942281	-0.010209
689.144456	-0.009991
689.346612	-0.009902
689.548750	-0.009925
689.750870	-0.010096
689.952971	-0.009975
690.155055	-0.010017
690.357120	-0.009880
690.559167	-0.009910
690.761195	-0.009882
690.963206	-0.010025
691.165198	-0.009966
691.367172	-0.009947
691.569128	-0.009703
691.771065	-0.009807
691.972984	-0.009795
692.174885	-0.009893
692.376768	-0.009861
692.578633	-0.009875
692.780479	-0.009900
692.982308	-0.010026
693.184118	-0.010108
693.385909	-0.010343
693.587683	-0.010293
693.789438	-0.010344
693.991175	-0.010374
694.192894	-0.010403
694.394595	-0.010430
694.596277	-0.010381
694.797941	-0.010418
694.999587	-0.010321
695.201215	-0.010266
695.402824	-0.010310
695.604416	-0.010308
695.805989	-0.010340
696.007543	-0.010268
696.209080	-0.010341
696.410598	-0.010268
696.612099	-0.010265
696.813580	-0.010330
697.015044	-0.010238
697.216490	-0.010196
697.417917	-0.010051
697.619326	-0.009998
697.820717	-0.010053
698.022089	-0.009888
698.223444	-0.010025
698.424780	-0.010074
698.626098	-0.010134
698.827397	-0.010191
699.028679	-0.010223
699.229942	-0.010421
699.431187	-0.010545
699.632414	-0.010588
699.833622	-0.010697
700.034813	-0.010737
700.235985	-0.010766
700.437139	-0.010771
700.638274	-0.010846
700.839392	-0.010877
701.040491	-0.010903
701.241572	-0.010837
701.442635	-0.010851
701.643679	-0.010809
701.844706	-0.010772
702.045714	-0.010707
702.246704	-0.010723
702.447675	-0.010669
702.648629	-0.010603
702.849564	-0.010581
703.050481	-0.010730
703.251380	-0.010668
703.452260	-0.010648
703.653122	-0.010634
703.853966	-0.010564
704.054792	-0.010499
704.255600	-0.010514
704.456389	-0.010535
704.657160	-0.010553
704.857913	-0.010460
705.058648	-0.010509
705.259365	-0.010600
705.460063	-0.010541
705.660743	-0.010648
705.861405	-0.010681
706.062048	-0.010725
706.262674	-0.010787
706.463281	-0.010836
706.663870	-0.010816
706.864441	-0.010845
707.064993	-0.010793
707.265527	-0.010906
707.466043	-0.010923
707.666541	-0.011048
707.867021	-0.011070
708.067482	-0.011080
708.267925	-0.010987
708.468350	-0.011015
708.668757	-0.011010
708.869145	-0.011164
709.069516	-0.011239
709.269868	-0.011265
709.470201	-0.011173
709.670517	-0.011229
709.870814	-0.011239
710.071093	-0.011234
710.271354	-0.011271
710.471597	-0.011269
710.671821	-0.011153
710.872028	-0.010959
711.072216	-0.010946
711.272385	-0.010999
711.472537	-0.010935
711.672670	-0.010931
711.872785	-0.010913
712.072882	-0.010967
712.272961	-0.010887
712.473021	-0.010892
712.673063	-0.010950
712.873087	-0.010904
713.073093	-0.010818
713.273081	-0.010788
713.473050	-0.010776
713.673001	-0.010871
713.872934	-0.010791
714.072849	-0.010915
714.272745	-0.011031
714.472623	-0.011223
714.672483	-0.011299
714.872325	-0.011350
715.072148	-0.011435
715.271954	-0.011606
715.471741	-0.011544
715.671509	-0.011584
715.871260	-0.011509
716.070992	-0.011549
716.270707	-0.011464
716.470403	-0.011541
716.670080	-0.011728
716.869740	-0.011743
717.069381	-0.011754
717.269004	-0.011761
717.468609	-0.011893
717.668195	-0.012075
717.867764	-0.012286
718.067314	-0.012396
718.266846	-0.012529
718.466360	-0.012336
718.665855	-0.012413
718.865332	-0.012413
719.064791	-0.012558
719.264232	-0.012511
719.463655	-0.012488
719.663059	-0.012330
719.862445	-0.012404
720.061813	-0.012334
720.261163	-0.012509
720.460494	-0.012629
720.659807	-0.012643
720.859102	-0.012717
721.058379	-0.012762
721.257638	-0.012853
721.456878	-0.012872
721.656100	-0.012910
721.855304	-0.012893
722.054490	-0.012905
722.253657	-0.012941
722.452806	-0.013082
722.651937	-0.013262
722.851050	-0.013390
723.050145	-0.013486
723.249221	-0.013401
723.448279	-0.013314
723.647319	-0.013477
723.846340	-0.013539
724.045344	-0.013530
724.244329	-0.013456
724.443296	-0.013334
724.642245	-0.013278
724.841175	-0.013276
725.040088	-0.013431
725.238982	-0.013539
725.437857	-0.013450
725.636715	-0.013522
725.835554	-0.013606
726.034376	-0.013747
726.233179	-0.013781
726.431963	-0.013885
726.630730	-0.013985
726.829478	-0.014134
727.028208	-0.014326
727.226920	-0.014517
727.425614	-0.014602
727.624289	-0.014656
727.822946	-0.014720
728.021585	-0.014781
728.220206	-0.014895
728.418808	-0.014920
728.617392	-0.014919
728.815958	-0.014782
729.014506	-0.014751
729.213036	-0.014642
729.411547	-0.014747
729.610040	-0.014686
729.808515	-0.014797
730.006972	-0.014831
730.205410	-0.014807
730.403831	-0.014915
730.602233	-0.014947
730.800616	-0.014838
730.998982	-0.014768
731.197329	-0.014600
731.395658	-0.014628
731.593969	-0.014493
731.792262	-0.014462
731.990536	-0.014406
732.188793	-0.014430
732.387031	-0.014536
732.585250	-0.014684
732.783452	-0.014757
732.981635	-0.014871
733.179800	-0.014816
733.377947	-0.014865
733.576076	-0.014858
733.774186	-0.014850
733.972278	-0.014717
734.170352	-0.014568
734.368408	-0.014447
734.566446	-0.014524
734.764465	-0.014552
734.962466	-0.014605
735.160449	-0.014529
735.358413	-0.014498
735.556360	-0.014741
735.754288	-0.014809
735.952198	-0.014930
736.150090	-0.014955
736.347963	-0.015058
736.545818	-0.015083
736.743655	-0.015167
736.941474	-0.015456
737.139275	-0.015538
737.337057	-0.015627
737.534821	-0.015704
737.732567	-0.015833
737.930295	-0.015927
738.128005	-0.015936
738.325696	-0.016015
738.523369	-0.016048
738.721024	-0.015974
738.918660	-0.015970
739.116279	-0.015610
739.313879	-0.015687
739.511461	-0.015621
739.709024	-0.015649
739.906570	-0.015594
740.104097	-0.015444
740.301606	-0.015388
740.499097	-0.015351
740.696569	-0.015312
740.894024	-0.015449
741.091460	-0.015416
741.288878	-0.015456
741.486277	-0.015430
741.683659	-0.015451
741.881022	-0.015558
742.078367	-0.015639
742.275694	-0.015608
742.473002	-0.015619
742.670293	-0.015712
742.867565	-0.015731
743.064819	-0.015561
743.262054	-0.015585
743.459272	-0.015589
743.656471	-0.015546
743.853652	-0.015516
744.050815	-0.015543
744.247959	-0.015457
744.445085	-0.015345
744.642194	-0.015181
744.839283	-0.015286
745.036355	-0.015293
745.233408	-0.015412
745.430444	-0.015422
745.627461	-0.015344
745.824459	-0.015269
746.021440	-0.015303
746.218402	-0.015500
746.415346	-0.015504
746.612272	-0.015482
746.809180	-0.015562
747.006069	-0.015629
747.202940	-0.015834
747.399793	-0.015914
747.596628	-0.016063
747.793444	-0.016147
747.990243	-0.015997
748.187023	-0.016119
748.383784	-0.016269
748.580528	-0.016256
748.777253	-0.016297
748.973960	-0.015963
749.170649	-0.016108
749.367320	-0.016210
749.563973	-0.016304
749.760607	-0.016525
749.957223	-0.016537
750.153821	-0.016438
750.350400	-0.016507
750.546962	-0.016469
750.743505	-0.016647
750.940030	-0.016580
751.136536	-0.016643
751.333025	-0.016599
751.529495	-0.016522
751.725947	-0.016654
751.922381	-0.016843
752.118796	-0.016858
752.315194	-0.016810
752.511573	-0.016934
752.707934	-0.016769
752.904276	-0.016627
753.100601	-0.016539
753.296907	-0.016472
753.493195	-0.016364
753.689465	-0.016077
753.885716	-0.015990
754.081949	-0.015885
754.278164	-0.015587
754.474361	-0.015652
754.670540	-0.015607
754.866700	-0.015566
755.062843	-0.015545
755.258967	-0.015443
755.455072	-0.015585
755.651160	-0.015465
755.847229	-0.015521
756.043280	-0.015545
756.239313	-0.015519
756.435328	-0.015484
756.631324	-0.015548
756.827302	-0.015566
757.023262	-0.015541
757.219204	-0.015497
757.415127	-0.015465
757.611033	-0.015396
757.806920	-0.015478
758.002788	-0.015588
758.198639	-0.015506
758.394471	-0.015365
758.590286	-0.015251
758.786081	-0.015194
758.981859	-0.015160
759.177619	-0.015206
759.373360	-0.015198
759.569083	-0.015108
759.764788	-0.014934
759.960474	-0.014872
760.156143	-0.014953
760.351793	-0.014982
760.547425	-0.014891
760.743038	-0.014712
760.938634	-0.014601
761.134211	-0.014544
761.329770	-0.014591
761.525311	-0.014667
761.720833	-0.014765
761.916338	-0.014664
762.111824	-0.014635
762.307292	-0.014811
762.502741	-0.015006
762.698173	-0.015047
762.893586	-0.015073
763.088981	-0.015220
763.284358	-0.015198
763.479716	-0.015250
763.675057	-0.015408
763.870379	-0.015575
764.065683	-0.015495
764.260968	-0.015268
764.456236	-0.015345
764.651485	-0.015463
764.846716	-0.015407
765.041929	-0.015387
765.237123	-0.015493
765.432299	-0.015470
765.627457	-0.015355
765.822597	-0.015410
766.017719	-0.015523
766.212822	-0.015499
766.407907	-0.015456
766.602974	-0.015208
766.798023	-0.015089
766.993054	-0.014843
767.188066	-0.014817
767.383060	-0.014765
767.578036	-0.014656
767.772993	-0.014711
767.967933	-0.014752
768.162854	-0.014502
768.357757	-0.014570
768.552642	-0.014611
768.747508	-0.014626
768.942356	-0.014719
769.137186	-0.014478
769.331998	-0.014680
769.526792	-0.014664
769.721567	-0.014662
769.916324	-0.014938
770.111063	-0.014880
770.305784	-0.014793
770.500486	-0.014730
770.695171	-0.014627
770.889837	-0.014892
771.084484	-0.014782
771.279114	-0.014789
771.473725	-0.014705
771.668318	-0.014531
771.862893	-0.014519
772.057450	-0.014507
772.251988	-0.014701
772.446509	-0.014658
772.641011	-0.014602
772.835494	-0.014458
773.029960	-0.014464
773.224407	-0.014449
773.418836	-0.014429
773.613247	-0.014513
773.807640	-0.014652
774.002014	-0.014438
774.196370	-0.014328
774.390708	-0.014328
774.585028	-0.014262
774.779330	-0.014168
774.973613	-0.014146
775.167878	-0.014086
775.362125	-0.014020
775.556354	-0.013929
775.750564	-0.013784
775.944756	-0.013861
776.138930	-0.013780
776.333086	-0.013844
776.527223	-0.013797
776.721343	-0.013734
776.915444	-0.013848
777.109526	-0.014072
777.303591	-0.014239
777.497637	-0.014398
777.691666	-0.014417
777.885676	-0.014506
778.079667	-0.014572
778.273641	-0.014623
778.467596	-0.014752
778.661533	-0.014704
778.855452	-0.014720
779.049352	-0.014713
779.243235	-0.014840
779.437099	-0.014793
779.630945	-0.014781
779.824773	-0.014807
780.018582	-0.014872
780.212373	-0.014899
780.406146	-0.015043
780.599901	-0.014837
780.793638	-0.014693
780.987356	-0.014740
781.181056	-0.014634
781.374738	-0.014453
781.568402	-0.014257
781.762047	-0.014233
781.955674	-0.014124
782.149283	-0.014069
782.342874	-0.014183
782.536447	-0.014099
782.730001	-0.013932
782.923537	-0.014028
783.117055	-0.013995
783.310555	-0.014025
783.504036	-0.013979
783.697499	-0.013910
783.890944	-0.013821
784.084371	-0.013846
784.277780	-0.013981
784.471170	-0.014015
784.664542	-0.014062
784.857896	-0.014045
785.051231	-0.014157
785.244549	-0.014038
785.437848	-0.014024
785.631129	-0.013894
785.824392	-0.013836
786.017636	-0.013792
786.210863	-0.013801
786.404071	-0.013796
786.597260	-0.013936
786.790432	-0.013940
786.983585	-0.014079
787.176721	-0.014196
787.369838	-0.014262
787.562936	-0.014147
787.756017	-0.014193
787.949079	-0.014075
788.142123	-0.013922
788.335149	-0.014020
788.528156	-0.013853
788.721146	-0.013768
788.914117	-0.013750
789.107070	-0.013663
789.300005	-0.013676
789.492921	-0.013444
789.685819	-0.013456
789.878699	-0.013430
790.071561	-0.013168
790.264405	-0.013192
790.457230	-0.013019
790.650037	-0.012851
790.842826	-0.012762
791.035597	-0.012604
791.228349	-0.012595
791.421084	-0.012433
791.613800	-0.012425
791.806497	-0.012615
791.999177	-0.012824
792.191838	-0.012993
792.384481	-0.013067
792.577106	-0.013321
792.769713	-0.013406
792.962301	-0.013619
793.154871	-0.014007
793.347423	-0.014097
793.539957	-0.014042
793.732473	-0.013836
793.924970	-0.013862
794.117449	-0.014021
794.309910	-0.014019
794.502353	-0.014088
794.694777	-0.014143
794.887183	-0.013919
795.079571	-0.013922
795.271941	-0.013958
795.464293	-0.014011
795.656626	-0.014006
795.848941	-0.013970
796.041238	-0.013915
796.233516	-0.013830
796.425777	-0.013673
796.618019	-0.013754
796.810243	-0.013782
797.002449	-0.013777
797.194636	-0.013746
797.386805	-0.013708
797.578956	-0.013394
797.771089	-0.013516
797.963204	-0.013610
798.155300	-0.013529
798.347378	-0.013563
798.539438	-0.013549
798.731480	-0.013563
798.923503	-0.013675
799.115509	-0.013641
799.307496	-0.013925
799.499465	-0.013784
799.691415	-0.013677
799.883348	-0.013762
800.075262	-0.013718
800.267158	-0.013766
800.459035	-0.013719
800.650895	-0.013723
800.842736	-0.013696
801.034559	-0.013607
801.226364	-0.013709
801.418150	-0.013843
801.609919	-0.013933
801.801669	-0.013962
801.993401	-0.013732
802.185114	-0.013645
802.376810	-0.013591
802.568487	-0.013681
802.760146	-0.013792
802.951787	-0.013687
803.143409	-0.013618
803.335014	-0.013559
803.526600	-0.013480
803.718168	-0.013622
803.909717	-0.013730
804.101249	-0.013734
804.292762	-0.013748
804.484257	-0.013664
804.675734	-0.013626
804.867192	-0.013576
805.058632	-0.013561
805.250054	-0.013399
805.441458	-0.013440
805.632844	-0.013523
805.824211	-0.013363
806.015561	-0.013360
806.206891	-0.013502
806.398204	-0.013356
806.589499	-0.013280
806.780775	-0.013276
806.972033	-0.013396
807.163273	-0.013326
807.354495	-0.013055
807.545698	-0.013220
807.736883	-0.013057
807.928050	-0.012681
808.119199	-0.012806
808.310329	-0.012918
808.501441	-0.012777
808.692535	-0.012631
808.883611	-0.012637
809.074669	-0.012701
809.265708	-0.012528
809.456729	-0.012474
809.647732	-0.012611
809.838717	-0.012522
810.029683	-0.012467
810.220632	-0.012684
810.411562	-0.012957
810.602474	-0.012919
810.793367	-0.012906
810.984242	-0.012995
811.175100	-0.013167
811.365938	-0.013232
811.556759	-0.013226
811.747562	-0.013292
811.938346	-0.013052
812.129112	-0.012860
812.319860	-0.012988
812.510589	-0.013023
812.701300	-0.013095
812.891994	-0.013025
813.082668	-0.013139
813.273325	-0.013219
813.463964	-0.013120
813.654584	-0.013316
813.845186	-0.013425
814.035769	-0.013439
814.226335	-0.013599
814.416882	-0.013519
814.607411	-0.013698
814.797922	-0.013766
814.988415	-0.013843
815.178889	-0.014047
815.369345	-0.014114
815.559783	-0.014197
815.750203	-0.014153
815.940605	-0.014155
816.130988	-0.014353
816.321353	-0.014252
816.511700	-0.014259
816.702028	-0.014154
816.892339	-0.013970
817.082631	-0.014006
817.272905	-0.013952
817.463161	-0.013969
817.653398	-0.013983
817.843617	-0.013862
818.033819	-0.013919
818.224001	-0.013813
818.414166	-0.013760
818.604312	-0.013709
818.794440	-0.013694
818.984550	-0.013641
819.174642	-0.013699
819.364716	-0.013551
819.554771	-0.013598
819.744808	-0.013456
819.934827	-0.013430
820.124827	-0.013565
820.314810	-0.013694
820.504774	-0.013535
820.694720	-0.013547
820.884647	-0.013393
821.074557	-0.013591
821.264448	-0.013645
821.454321	-0.013875
821.644176	-0.013824
821.834012	-0.014047
822.023831	-0.014039
822.213631	-0.014161
822.403413	-0.014257
822.593176	-0.014428
822.782922	-0.014516
822.972649	-0.014377
823.162358	-0.014363
823.352049	-0.014324
823.541721	-0.014099
823.731376	-0.014040
823.921012	-0.014153
824.110629	-0.014250
824.300229	-0.014088
824.489811	-0.013959
824.679374	-0.013987
824.868919	-0.014102
825.058445	-0.014337
825.247954	-0.014434
825.437444	-0.014489
825.626916	-0.014419
825.816370	-0.014488
826.005806	-0.014721
826.195223	-0.014650
826.384622	-0.014769
826.574003	-0.014699
826.763366	-0.014552
826.952711	-0.014515
827.142037	-0.014671
827.331345	-0.014612
827.520635	-0.014345
827.709906	-0.014236
827.899160	-0.014469
828.088395	-0.014411
828.277612	-0.014415
828.466810	-0.014339
828.655991	-0.014416
828.845153	-0.014223
829.034297	-0.014321
829.223423	-0.014350
829.412531	-0.014435
829.601620	-0.014183
829.790691	-0.014152
829.979744	-0.013953
830.168779	-0.014177
830.357795	-0.014096
830.546793	-0.014334
830.735773	-0.014179
830.924735	-0.014286
831.113679	-0.014149
831.302604	-0.014205
831.491511	-0.014272
831.680400	-0.014444
831.869271	-0.014505
832.058123	-0.014755
832.246957	-0.014688
832.435773	-0.014739
832.624571	-0.014702
832.813351	-0.014805
833.002112	-0.014817
833.190855	-0.014800
833.379580	-0.014881
833.568287	-0.014858
833.756975	-0.014593
833.945645	-0.014771
834.134297	-0.014773
834.322931	-0.014878
834.511547	-0.014728
834.700144	-0.014727
834.888723	-0.014784
835.077284	-0.014649
835.265826	-0.014342
835.454351	-0.014505
835.642857	-0.014103
835.831345	-0.014188
836.019815	-0.014175
836.208266	-0.014205
836.396699	-0.014176
836.585114	-0.014174
836.773511	-0.014217
836.961890	-0.014077
837.150250	-0.014249
837.338592	-0.014584
837.526916	-0.014486
837.715222	-0.014287
837.903510	-0.014507
838.091779	-0.014513
838.280030	-0.014487
838.468263	-0.014640
838.656477	-0.014957
838.844674	-0.014729
839.032852	-0.014578
839.221012	-0.014565
839.409153	-0.014599
839.597277	-0.014407
839.785382	-0.014433
839.973469	-0.014416
840.161538	-0.014002
840.349589	-0.013968
840.537621	-0.014079
840.725635	-0.014138
840.913631	-0.014293
841.101609	-0.014441
841.289568	-0.014762
841.477509	-0.014901
841.665432	-0.015058
841.853337	-0.015255
842.041224	-0.015438
842.229092	-0.015339
842.416942	-0.015239
842.604774	-0.015059
842.792588	-0.015069
842.980383	-0.014984
843.168160	-0.014818
843.355919	-0.014633
843.543660	-0.014854
843.731382	-0.014644
843.919087	-0.014681
844.106773	-0.014579
844.294441	-0.014622
844.482090	-0.014618
844.669722	-0.014544
844.857335	-0.014656
845.044930	-0.014791
845.232507	-0.014546
845.420065	-0.014707
845.607605	-0.014535
845.795127	-0.014613
845.982631	-0.014609
846.170117	-0.014483
846.357584	-0.014312
846.545033	-0.014087
846.732464	-0.013892
846.919877	-0.014080
847.107272	-0.014130
847.294648	-0.014230
847.482006	-0.014167
847.669346	-0.014303
847.856667	-0.014292
848.043971	-0.014238
848.231256	-0.014219
848.418523	-0.014220
848.605771	-0.013860
848.793002	-0.013541
848.980214	-0.013496
849.167408	-0.013413
849.354584	-0.013424
849.541742	-0.013462
849.728881	-0.013512
849.916002	-0.013563
850.103105	-0.013330
850.290190	-0.013392
850.477256	-0.013570
850.664304	-0.013365
850.851334	-0.013515
851.038346	-0.013241
851.225340	-0.013041
851.412315	-0.013084
851.599272	-0.013044
851.786211	-0.013281
851.973132	-0.013325
852.160034	-0.013234
852.346918	-0.013473
852.533784	-0.013402
852.720632	-0.013260
852.907462	-0.013259
853.094273	-0.013078
853.281066	-0.012887
853.467841	-0.012769
853.654598	-0.012867
853.841336	-0.012977
854.028056	-0.012745
854.214758	-0.012691
854.401442	-0.012739
854.588107	-0.012590
854.774755	-0.012566
854.961384	-0.012679
855.147995	-0.012747
855.334587	-0.012559
855.521162	-0.012422
855.707718	-0.012619
855.894256	-0.012562
856.080775	-0.012611
856.267277	-0.012687
856.453760	-0.012627
856.640225	-0.012560
856.826672	-0.012582
857.013101	-0.012551
857.199511	-0.012406
857.385903	-0.012355
857.572277	-0.012363
857.758633	-0.012476
857.944970	-0.012595
858.131290	-0.013037
858.317591	-0.013094
858.503873	-0.013032
858.690138	-0.012933
858.876384	-0.012985
859.062612	-0.012684
859.248822	-0.012813
859.435014	-0.012621
859.621188	-0.012568
859.807343	-0.012284
859.993480	-0.012287
860.179599	-0.012354
860.365699	-0.012505
860.551781	-0.012726
860.737846	-0.012855
860.923891	-0.012488
861.109919	-0.012628
861.295929	-0.012613
861.481920	-0.012663
861.667893	-0.012745
861.853848	-0.012643
862.039784	-0.012606
862.225702	-0.012514
862.411603	-0.012526
862.597484	-0.012837
862.783348	-0.012788
862.969193	-0.012631
863.155021	-0.012565
863.340830	-0.012489
863.526620	-0.012424
863.712393	-0.012410
863.898147	-0.012142
864.083883	-0.012219
864.269601	-0.012128
864.455301	-0.012141
864.640982	-0.012280
864.826645	-0.012249
865.012290	-0.012160
865.197917	-0.012180
865.383526	-0.012181
865.569116	-0.012403
865.754688	-0.012463
865.940242	-0.012447
866.125777	-0.012352
866.311295	-0.012540
866.496794	-0.012484
866.682275	-0.012773
866.867737	-0.012615
867.053182	-0.012630
867.238608	-0.012521
867.424016	-0.012198
867.609406	-0.012253
867.794778	-0.012311
867.980131	-0.012227
868.165466	-0.012403
868.350783	-0.012138
868.536082	-0.012375
868.721362	-0.012090
868.906625	-0.012094
869.091869	-0.012081
869.277094	-0.012018
869.462302	-0.011773
869.647491	-0.011665
869.832662	-0.011403
870.017815	-0.011203
870.202950	-0.011284
870.388066	-0.011577
870.573165	-0.011630
870.758245	-0.011755
870.943306	-0.011712
871.128350	-0.012018
871.313375	-0.011965
871.498382	-0.011882
871.683371	-0.012091
871.868342	-0.011831
872.053294	-0.011513
872.238229	-0.011323
872.423144	-0.011161
872.608042	-0.011032
872.792922	-0.010918
872.977783	-0.011055
873.162626	-0.011242
873.347451	-0.011275
873.532258	-0.011115
873.717046	-0.011382
873.901816	-0.011537
874.086568	-0.011748
874.271302	-0.011845
874.456017	-0.011932
874.640715	-0.011769
874.825394	-0.011780
875.010055	-0.011883
875.194697	-0.011964
875.379322	-0.011887
875.563928	-0.011539
875.748516	-0.011424
875.933085	-0.011319
876.117637	-0.011179
876.302170	-0.011314
876.486685	-0.011161
876.671182	-0.010840
876.855661	-0.010835
877.040121	-0.010625
877.224563	-0.010659
877.408987	-0.010679
877.593393	-0.010845
877.777780	-0.010785
877.962150	-0.010759
878.146501	-0.010686
878.330833	-0.010904
878.515148	-0.010968
878.699444	-0.011107
878.883722	-0.011198
879.067982	-0.011251
879.252224	-0.011078
879.436447	-0.010873
879.620653	-0.010781
879.804840	-0.010797
879.989008	-0.010497
880.173159	-0.010499
880.357291	-0.010637
880.541405	-0.010628
880.725501	-0.010672
880.909579	-0.010449
881.093638	-0.010476
881.277680	-0.010433
881.461703	-0.010384
881.645707	-0.010421
881.829694	-0.010265
882.013662	-0.010097
882.197612	-0.010105
882.381544	-0.010063
882.565458	-0.010246
882.749353	-0.010244
882.933230	-0.009822
883.117089	-0.009680
883.300930	-0.009533
883.484753	-0.009717
883.668557	-0.009531
883.852343	-0.009664
884.036111	-0.009495
884.219861	-0.009523
884.403592	-0.009614
884.587305	-0.009674
884.771000	-0.009836
884.954677	-0.009893
885.138335	-0.009625
885.321976	-0.009481
885.505598	-0.009169
885.689201	-0.008995
885.872787	-0.008827
886.056354	-0.008822
886.239904	-0.008978
886.423434	-0.008743
886.606947	-0.008629
886.790442	-0.008731
886.973918	-0.008835
887.157376	-0.008600
887.340816	-0.008705
887.524237	-0.008908
887.707641	-0.008781
887.891026	-0.008886
888.074393	-0.009150
888.257741	-0.009396
888.441072	-0.009309
888.624384	-0.009028
888.807678	-0.009277
888.990954	-0.009253
889.174211	-0.009153
889.357451	-0.009144
889.540672	-0.008923
889.723875	-0.008654
889.907059	-0.008300
890.090226	-0.008337
890.273374	-0.008498
890.456504	-0.008538
890.639616	-0.008632
890.822709	-0.008552
891.005785	-0.008349
891.188842	-0.008328
891.371881	-0.008237
891.554901	-0.008441
891.737904	-0.008292
891.920888	-0.008447
892.103854	-0.008379
892.286802	-0.008099
892.469731	-0.007948
892.652643	-0.008067
892.835536	-0.007937
893.018410	-0.007933
893.201267	-0.008082
893.384106	-0.008001
893.566926	-0.007722
893.749728	-0.007604
893.932511	-0.007500
894.115277	-0.007444
894.298024	-0.007382
894.480753	-0.007334
894.663464	-0.007375
894.846157	-0.007105
895.028831	-0.007117
895.211487	-0.007145
895.394125	-0.007463
895.576745	-0.007648
895.759346	-0.007549
895.941930	-0.007605
896.124495	-0.007963
896.307041	-0.007811
896.489570	-0.007929
896.672080	-0.007959
896.854573	-0.007939
897.037046	-0.007418
897.219502	-0.007422
897.401940	-0.007600
897.584359	-0.007438
897.766760	-0.007040
897.949143	-0.007211
898.131507	-0.007094
898.313854	-0.006902
898.496182	-0.007171
898.678492	-0.007506
898.860783	-0.007391
899.043057	-0.007479
899.225312	-0.007414
899.407549	-0.007481
899.589768	-0.007341
899.771968	-0.007443
899.954151	-0.007636
900.136315	-0.007113
900.318461	-0.006950
900.500588	-0.006632
900.682698	-0.006340
900.864789	-0.006562
901.046862	-0.006455
901.228917	-0.006587
901.410953	-0.006205
901.592971	-0.006045
901.774972	-0.006403
901.956953	-0.006402
902.138917	-0.006307
902.320862	-0.006399
902.502790	-0.006184
902.684699	-0.006225
902.866589	-0.005907
903.048462	-0.005964
903.230316	-0.005729
903.412152	-0.005466
903.593970	-0.005409
903.775770	-0.005459
903.957551	-0.005403
904.139314	-0.005520
904.321059	-0.005457
904.502786	-0.005815
904.684494	-0.005721
904.866185	-0.005816
905.047857	-0.005774
905.229510	-0.005705
905.411146	-0.005726
905.592763	-0.005509
905.774363	-0.005356
905.955943	-0.005302
906.137506	-0.005113
906.319051	-0.005341
906.500577	-0.005313
906.682085	-0.005544
906.863575	-0.005527
907.045046	-0.005787
907.226500	-0.006064
907.407935	-0.005780
907.589352	-0.005957
907.770750	-0.006023
907.952131	-0.005620
908.133493	-0.005594
908.314837	-0.005287
908.496163	-0.005164
908.677470	-0.005120
908.858760	-0.004561
909.040031	-0.004825
909.221284	-0.004831
909.402518	-0.004390
909.583735	-0.004690
909.764933	-0.004747
909.946113	-0.005103
910.127275	-0.005218
910.308418	-0.005100
910.489544	-0.005431
910.670651	-0.005469
910.851740	-0.005775
911.032810	-0.006085
911.213863	-0.005983
911.394897	-0.006118
911.575913	-0.005738
911.756911	-0.005716
911.937890	-0.006013
912.118851	-0.006131
912.299794	-0.006274
912.480719	-0.005545
912.661626	-0.005687
912.842514	-0.005801
913.023384	-0.005929
913.204236	-0.006016
913.385070	-0.005763
913.565886	-0.005634
913.746683	-0.005473
913.927462	-0.005291
914.108223	-0.005847
914.288965	-0.005658
914.469690	-0.005519
914.650396	-0.005709
914.831084	-0.005743
915.011754	-0.006017
915.192405	-0.006060
915.373038	-0.006485
915.553653	-0.006605
915.734250	-0.006441
915.914829	-0.006549
916.095389	-0.006578
916.275931	-0.006107
916.456455	-0.006311
916.636961	-0.006171
916.817448	-0.005996
916.997917	-0.005620
917.178368	-0.005391
917.358801	-0.005174
917.539216	-0.005497
917.719612	-0.005680
917.899990	-0.005804
918.080350	-0.005958
918.260692	-0.006308
918.441015	-0.006389
918.621320	-0.006620
918.801607	-0.006793
918.981876	-0.007042
919.162127	-0.006710
919.342359	-0.006580
919.522573	-0.006503
919.702769	-0.006173
919.882947	-0.005967
920.063106	-0.006125
920.243247	-0.006054
920.423370	-0.006412
920.603475	-0.006514
920.783562	-0.006730
920.963630	-0.006937
921.143680	-0.006895
921.323712	-0.006856
921.503725	-0.007307
921.683721	-0.007274
921.863698	-0.007529
922.043657	-0.007088
922.223598	-0.007017
922.403520	-0.007056
922.583424	-0.007236
922.763311	-0.007271
922.943178	-0.007378
923.123028	-0.007018
923.302859	-0.007071
923.482673	-0.006874
923.662467	-0.007074
923.842244	-0.007219
924.022003	-0.007137
924.201743	-0.007168
924.381465	-0.007388
924.561169	-0.007869
924.740854	-0.007606
924.920522	-0.007286
925.100171	-0.007760
925.279802	-0.008028
925.459414	-0.007631
925.639009	-0.007515
925.818585	-0.007101
925.998143	-0.006862
926.177683	-0.006431
926.357205	-0.006529
926.536708	-0.006491
926.716193	-0.005969
926.895660	-0.005800
927.075109	-0.006216
927.254539	-0.006069
927.433951	-0.005911
927.613345	-0.006035
927.792721	-0.005518
927.972079	-0.006032
928.151418	-0.006265
928.330739	-0.006334
928.510042	-0.005831
928.689327	-0.005796
928.868593	-0.005513
929.047841	-0.005572
929.227071	-0.005637
929.406283	-0.006038
929.585476	-0.005540
929.764652	-0.005184
929.943809	-0.004950
930.122948	-0.005427
930.302068	-0.005312
930.481171	-0.005776
930.660255	-0.006166
930.839321	-0.006076
931.018369	-0.006495
931.197398	-0.006753
931.376409	-0.007374
931.555402	-0.007812
931.734377	-0.007821
931.913334	-0.007753
932.092272	-0.007476
932.271192	-0.007537
932.450094	-0.007636
932.628978	-0.007446
932.807844	-0.007452
932.986691	-0.006808
933.165520	-0.006448
933.344331	-0.005862
933.523123	-0.005558
933.701898	-0.005470
933.880654	-0.005014
934.059392	-0.004540
934.238111	-0.004681
934.416813	-0.004041
934.595496	-0.004036
934.774161	-0.004012
934.952808	-0.003963
935.131437	-0.004143
935.310047	-0.004242
935.488639	-0.004252
935.667213	-0.004113
935.845769	-0.003381
936.024306	-0.003349
936.202825	-0.003419
936.381326	-0.003011
936.559809	-0.003101
936.738274	-0.002871
936.916720	-0.002284
937.095148	-0.002115
937.273558	-0.002236
937.451950	-0.002632
937.630323	-0.002598
937.808678	-0.002434
937.987015	-0.002718
938.165334	-0.002598
938.343635	-0.002318
938.521917	-0.002321
938.700181	-0.001838
938.878427	-0.001394
939.056655	-0.001747
939.234864	-0.001678
939.413055	-0.001739
939.591228	-0.001494
939.769383	-0.001301
939.947519	-0.001092
940.125638	-0.001597
940.303738	-0.001381
940.481820	-0.001641
940.659883	-0.000536
940.837929	0.000339
941.015956	0.000830
941.193965	0.001646
941.371955	0.002501
941.549928	0.003240
941.727882	0.004611
941.905818	0.005124
942.083736	0.006202
942.261636	0.006858
942.439517	0.006936
942.617380	0.007783
942.795225	0.008137
942.973052	0.007645
943.150860	0.007507
943.328651	0.007471
943.506423	0.007355
943.684176	0.007316
943.861912	0.007833
944.039629	0.007260
944.217328	0.007382
944.395009	0.007544
944.572672	0.008711
944.750317	0.009774
944.927943	0.010987
945.105551	0.011486
945.283141	0.012453
945.460712	0.013037
945.638265	0.013903
945.815801	0.014823
945.993317	0.016349
946.170816	0.017479
946.348297	0.018931
946.525759	0.018508
946.703203	0.018896
946.880629	0.019191
947.058036	0.020129
947.235425	0.022379
947.412797	0.023376
947.590149	0.024028
947.767484	0.024406
947.944800	0.024249
948.122099	0.026174
948.299379	0.028185
948.476640	0.029640
948.653884	0.030491
948.831109	0.030651
949.008316	0.031688
949.185505	0.033407
949.362676	0.034127
949.539828	0.035022
949.716962	0.036700
949.894078	0.036850
950.071176	0.037791
950.248256	0.039099
950.425317	0.041633
950.602360	0.042447
950.779385	0.041974
950.956391	0.043988
951.133380	0.045140
951.310350	0.046156
951.487302	0.048886
951.664235	0.050351
951.841151	0.051261
952.018048	0.051367
952.194927	0.053813
952.371788	0.055575
952.548631	0.056631
952.725455	0.058701
952.902261	0.059327
953.079049	0.060791
953.255819	0.061669
953.432570	0.063713
953.609303	0.066320
953.786018	0.066182
953.962715	0.067649
954.139394	0.069832
954.316054	0.071494
954.492696	0.073333
954.669320	0.074920
954.845926	0.077963
955.022513	0.080159
955.199083	0.081266
955.375634	0.083742
955.552166	0.085436
955.728681	0.087789
955.905177	0.089153
956.081655	0.088704
956.258115	0.088459
956.434557	0.088050
956.610980	0.087930
956.787385	0.089981
956.963772	0.093481
957.140141	0.097140
957.316492	0.098053
957.492824	0.101300
957.669138	0.105093
957.845434	0.108888
958.021712	0.112065
958.197971	0.113145
958.374212	0.114054
958.550435	0.114539
958.726640	0.113925
958.902826	0.115270
959.078995	0.115701
959.255145	0.117741
959.431277	0.118960
959.607390	0.119342
959.783486	0.124134
959.959563	0.126851
960.135622	0.127137
960.311662	0.129647
960.487685	0.131854
960.663689	0.134760
960.839675	0.136644
961.015643	0.140165
961.191593	0.141112
961.367524	0.139490
961.543437	0.139049
961.719332	0.143078
961.895209	0.146296
962.071067	0.147825
962.246907	0.151427
962.422730	0.150349
962.598533	0.150413
962.774319	0.155192
962.950086	0.159273
963.125835	0.162671
963.301566	0.162680
963.477279	0.162582
963.652973	0.162011
963.828650	0.159130
964.004308	0.161845
964.179947	0.161825
964.355569	0.161381
964.531172	0.160327
964.706757	0.159056
964.882324	0.158377
965.057873	0.158972
965.233403	0.159668
965.408916	0.162209
965.584410	0.165711
965.759885	0.169490
965.935343	0.171070
966.110782	0.172678
966.286203	0.174868
966.461606	0.177174
966.636991	0.178670
966.812357	0.178707
966.987705	0.177622
967.163035	0.177803
967.338347	0.178603
967.513641	0.179077
967.688916	0.180022
967.864173	0.179116
968.039412	0.180423
968.214632	0.180056
968.389835	0.181193
968.565019	0.183188
968.740185	0.182980
968.915333	0.182116
969.090462	0.183294
969.265573	0.183856
969.440667	0.184709
969.615741	0.183897
969.790798	0.184789
969.965836	0.185473
970.140856	0.184690
970.315858	0.182804
970.490842	0.182292
970.665808	0.181320
970.840755	0.181278
971.015684	0.183153
971.190595	0.182928
971.365487	0.183732
971.540362	0.186434
971.715218	0.186043
971.890056	0.187244
972.064875	0.186014
972.239677	0.187397
972.414460	0.187882
972.589225	0.186517
972.763972	0.187622
972.938700	0.184840
973.113411	0.181945
973.288103	0.180492
973.462777	0.181851
973.637432	0.183021
973.812070	0.183962
973.986689	0.180863
974.161290	0.179922
974.335873	0.182215
974.510437	0.182416
974.684984	0.183608
974.859512	0.184458
975.034022	0.182860
975.208513	0.182649
975.382987	0.179882
975.557442	0.182713
975.731879	0.183670
975.906298	0.180512
976.080698	0.183015
976.255080	0.183715
976.429445	0.184193
976.603790	0.182732
976.778118	0.182095
976.952427	0.182649
977.126719	0.179348
977.300992	0.177364
977.475246	0.177552
977.649483	0.174826
977.823701	0.172224
977.997901	0.171883
978.172083	0.173654
978.346247	0.173529
978.520392	0.172613
978.694519	0.176090
978.868628	0.175466
979.042719	0.175820
979.216791	0.176244
979.390845	0.175559
979.564882	0.175343
979.738899	0.174203
979.912899	0.174225
980.086880	0.173703
980.260843	0.174466
980.434788	0.174358
980.608715	0.173100
980.782623	0.172164
980.956514	0.172729
981.130386	0.171949
981.304240	0.168693
981.478075	0.167101
981.651892	0.165459
981.825692	0.163184
981.999472	0.163594
982.173235	0.162049
982.346980	0.163257
982.520706	0.165228
982.694414	0.162496
982.868104	0.164068
983.041775	0.165165
983.215428	0.164559
983.389064	0.162619
983.562680	0.164137
983.736279	0.166329
983.909860	0.164847
984.083422	0.162726
984.256966	0.164761
984.430491	0.163835
984.603999	0.163708
984.777488	0.166645
984.950959	0.168348
985.124412	0.167791
985.297847	0.165782
985.471263	0.163479
985.644661	0.163439
985.818041	0.164126
985.991403	0.166926
986.164747	0.165923
986.338072	0.162975
986.511379	0.162367
986.684668	0.160996
986.857938	0.160206
987.031191	0.162873
987.204425	0.164264
987.377641	0.162794
987.550839	0.160672
987.724018	0.160944
987.897179	0.161654
988.070322	0.159293
988.243447	0.158506
988.416554	0.159357
988.589642	0.157850
988.762712	0.155967
988.935764	0.155911
989.108798	0.156108
989.281813	0.154472
989.454811	0.154176
989.627790	0.154525
989.800751	0.154536
989.973693	0.153544
990.146617	0.153194
990.319524	0.151856
990.492412	0.152648
990.665281	0.150545
990.838133	0.150370
991.010966	0.149081
991.183781	0.148129
991.356578	0.145980
991.529356	0.145653
991.702117	0.144952
991.874859	0.145286
992.047583	0.144600
992.220288	0.144255
992.392976	0.143198
992.565645	0.143247
992.738296	0.143895
992.910929	0.146843
993.083543	0.145988
993.256139	0.144109
993.428718	0.141708
993.601277	0.139087
993.773819	0.139636
993.946342	0.139580
994.118848	0.140319
994.291335	0.142133
994.463803	0.140338
994.636254	0.140066
994.808686	0.141943
994.981100	0.143536
995.153496	0.144653
995.325874	0.145185
995.498233	0.145105
995.670574	0.142198
995.842897	0.138353
996.015202	0.136620
996.187488	0.136836
996.359757	0.135740
996.532007	0.135022
996.704239	0.134621
996.876452	0.134489
997.048648	0.135406
997.220825	0.135522
997.392984	0.136172
997.565124	0.135680
997.737247	0.133615
997.909351	0.131730
998.081437	0.132503
998.253505	0.131887
998.425554	0.130314
998.597586	0.129133
998.769599	0.128968
998.941594	0.128102
999.113571	0.129244
999.285529	0.129163
999.457469	0.130740
999.629391	0.127314
999.801295	0.127101
999.973181	0.126270
1000.145048	0.126121
1000.316897	0.127066
1000.488728	0.128230
1000.660541	0.127153
1000.832335	0.127757
1001.004111	0.125067
1001.175869	0.125976
1001.347609	0.124914
1001.519331	0.124668
1001.691034	0.122679
1001.862719	0.121179
1002.034386	0.121314
1002.206035	0.122073
1002.377665	0.120960
1002.549277	0.120565
1002.720871	0.119666
1002.892447	0.119953
1003.064004	0.120268
1003.235544	0.121295
1003.407065	0.121731
1003.578568	0.119442
1003.750052	0.118825
1003.921519	0.118145
1004.092967	0.119409
1004.264397	0.119311
1004.435809	0.118466
1004.607202	0.117711
1004.778577	0.115240
1004.949934	0.114187
1005.121273	0.112907
1005.292594	0.111388
1005.463896	0.112799
1005.635180	0.111890
1005.806446	0.111970
1005.977694	0.111343
1006.148923	0.110471
1006.320135	0.111013
1006.491328	0.111058
1006.662503	0.112083
1006.833659	0.111171
1007.004798	0.110878
1007.175918	0.111074
1007.347020	0.111738
1007.518103	0.112179
1007.689169	0.110968
1007.860216	0.110902
1008.031245	0.110324
1008.202256	0.110431
1008.373248	0.109648
1008.544223	0.105693
1008.715179	0.106235
1008.886117	0.103460
1009.057036	0.102988
1009.227938	0.105157
1009.398821	0.104698
1009.569686	0.104628
1009.740533	0.102222
1009.911361	0.103342
1010.082172	0.104432
1010.252964	0.101834
1010.423738	0.100262
1010.594493	0.099895
1010.765231	0.097452
1010.935950	0.098127
1011.106651	0.097432
1011.277334	0.097022
1011.447998	0.096482
1011.618645	0.099331
1011.789273	0.100882
1011.959882	0.102945
1012.130474	0.102991
1012.301048	0.102653
1012.471603	0.101665
1012.642140	0.100359
1012.812658	0.099630
1012.983159	0.099523
1013.153641	0.096461
1013.324105	0.095265
1013.494551	0.094719
1013.664979	0.093045
1013.835388	0.092304
1014.005779	0.090728
1014.176152	0.091050
1014.346507	0.092208
1014.516843	0.093488
1014.687162	0.092740
1014.857462	0.091790
1015.027744	0.092947
1015.198007	0.092318
1015.368252	0.093213
1015.538480	0.094070
1015.708689	0.094789
1015.878879	0.094405
1016.049052	0.091862
1016.219206	0.091936
1016.389342	0.090755
1016.559460	0.088548
1016.729559	0.088889
1016.899641	0.087991
1017.069704	0.085333
1017.239749	0.083071
1017.409775	0.082892
1017.579784	0.082401
1017.749774	0.082218
1017.919746	0.082246
1018.089700	0.082822
1018.259635	0.082340
1018.429553	0.083877
1018.599452	0.086780
1018.769333	0.086744
1018.939195	0.086222
1019.109040	0.086583
1019.278866	0.086447
1019.448674	0.087337
1019.618464	0.087100
1019.788235	0.087248
1019.957989	0.084735
1020.127724	0.083631
1020.297441	0.084532
1020.467139	0.084004
1020.636820	0.083015
1020.806482	0.081413
1020.976126	0.081547
1021.145752	0.078734
1021.315359	0.077973
1021.484948	0.078638
1021.654519	0.078284
1021.824072	0.075685
1021.993607	0.076100
1022.163123	0.076239
1022.332621	0.077283
1022.502101	0.075763
1022.671563	0.076879
1022.841007	0.077817
1023.010432	0.077269
1023.179839	0.077479
1023.349228	0.078595
1023.518598	0.077131
1023.687951	0.077089
1023.857285	0.077493
1024.026601	0.078496
1024.195899	0.079105
1024.365178	0.078340
1024.534439	0.077950
1024.703682	0.076731
1024.872907	0.075697
1025.042114	0.075868
1025.211302	0.074978
1025.380472	0.075310
1025.549624	0.074693
1025.718758	0.072768
1025.887873	0.072271
1026.056970	0.072351
1026.226049	0.071430
1026.395110	0.071672
1026.564153	0.072409
1026.733177	0.073657
1026.902183	0.070653
1027.071171	0.069808
1027.240141	0.070637
1027.409092	0.069341
1027.578026	0.068693
1027.746940	0.070240
1027.915837	0.070350
1028.084716	0.068304
1028.253576	0.069238
1028.422418	0.070747
1028.591242	0.071622
1028.760048	0.073599
1028.928835	0.074120
1029.097604	0.073192
1029.266355	0.071081
1029.435088	0.070664
1029.603803	0.070809
1029.772499	0.068376
1029.941177	0.068851
1030.109837	0.068122
1030.278478	0.066432
1030.447102	0.066864
1030.615707	0.068512
1030.784294	0.068651
1030.952863	0.067304
1031.121413	0.067730
1031.289945	0.067170
1031.458460	0.066534
1031.626955	0.065546
1031.795433	0.063477
1031.963892	0.061808
1032.132334	0.060643
1032.300756	0.061088
1032.469161	0.063603
1032.637548	0.063659
1032.805916	0.063961
1032.974266	0.063119
1033.142598	0.063413
1033.310911	0.063338
1033.479207	0.063576
1033.647484	0.062481
1033.815743	0.062510
1033.983983	0.059334
1034.152206	0.057902
1034.320410	0.058633
1034.488596	0.058046
1034.656764	0.057260
1034.824914	0.058423
1034.993045	0.058708
1035.161158	0.058819
1035.329253	0.058374
1035.497330	0.059154
1035.665388	0.059241
1035.833428	0.057745
1036.001450	0.058681
1036.169454	0.058431
1036.337440	0.057762
1036.505407	0.058709
1036.673356	0.057969
1036.841287	0.057272
1037.009200	0.057773
1037.177094	0.058315
1037.344970	0.058201
1037.512828	0.055812
1037.680668	0.056366
1037.848489	0.054531
1038.016293	0.052380
1038.184078	0.052664
1038.351845	0.051352
1038.519593	0.051467
1038.687324	0.050657
1038.855036	0.049099
1039.022730	0.049560
1039.190406	0.048428
1039.358063	0.048369
1039.525702	0.047923
1039.693323	0.047498
1039.860926	0.048234
1040.028511	0.048136
1040.196077	0.047196
1040.363625	0.046728
1040.531155	0.047637
1040.698667	0.048698
1040.866161	0.048887
1041.033636	0.049201
1041.201093	0.050120
1041.368532	0.050265
1041.535952	0.049182
1041.703355	0.049250
1041.870739	0.049368
1042.038105	0.049766
1042.205452	0.050341
1042.372782	0.050303
1042.540093	0.050642
1042.707386	0.049476
1042.874661	0.050618
1043.041918	0.051252
1043.209156	0.049892
1043.376376	0.051003
1043.543578	0.049741
1043.710762	0.047055
1043.877927	0.047627
1044.045074	0.045824
1044.212203	0.046603
1044.379314	0.046388
1044.546407	0.044293
1044.713481	0.046576
1044.880537	0.045042
1045.047575	0.044240
1045.214595	0.045999
1045.381596	0.046090
1045.548579	0.046434
1045.715544	0.044433
1045.882491	0.042803
1046.049420	0.042961
1046.216330	0.041688
1046.383222	0.042844
1046.550096	0.045049
1046.716951	0.045006
1046.883789	0.043272
1047.050608	0.044400
1047.217409	0.045320
1047.384192	0.045784
1047.550956	0.046580
1047.717703	0.047895
1047.884431	0.046533
1048.051140	0.043607
1048.217832	0.042313
1048.384505	0.043905
1048.551161	0.042566
1048.717798	0.041607
1048.884416	0.039403
1049.051017	0.039660
1049.217599	0.038897
1049.384163	0.039539
1049.550709	0.040386
1049.717237	0.041377
1049.883746	0.042630
1050.050237	0.042882
1050.216710	0.044437
1050.383165	0.044953
1050.549601	0.044777
1050.716019	0.044569
1050.882420	0.045187
1051.048801	0.045102
1051.215165	0.045281
1051.381510	0.042113
1051.547837	0.042015
1051.714146	0.040729
1051.880437	0.041829
1052.046709	0.043110
1052.212964	0.044152
1052.379200	0.043376
1052.545417	0.042164
1052.711617	0.040070
1052.877798	0.041318
1053.043961	0.040256
1053.210106	0.040932
1053.376233	0.041934
1053.542341	0.039254
1053.708432	0.038976
1053.874504	0.038989
1054.040557	0.040106
1054.206593	0.039977
1054.372610	0.040199
1054.538609	0.042839
1054.704590	0.041260
1054.870553	0.040224
1055.036497	0.039863
1055.202424	0.039797
1055.368331	0.040359
1055.534221	0.040210
1055.700093	0.040330
1055.865946	0.041466
1056.031781	0.039857
1056.197598	0.039992
1056.363397	0.039594
1056.529177	0.037766
1056.694939	0.035913
1056.860683	0.034931
1057.026409	0.033420
1057.192116	0.033731
1057.357806	0.031194
1057.523477	0.031162
1057.689130	0.031759
1057.854764	0.030000
1058.020381	0.032651
1058.185979	0.033891
1058.351559	0.033749
1058.517120	0.033912
1058.682664	0.032662
1058.848189	0.034100
1059.013696	0.032768
1059.179185	0.032603
1059.344656	0.033547
1059.510108	0.033651
1059.675542	0.031963
1059.840958	0.032095
1060.006356	0.033418
1060.171735	0.034974
1060.337096	0.033147
1060.502439	0.034264
1060.667764	0.034182
1060.833071	0.032787
1060.998359	0.032342
1061.163629	0.033471
1061.328881	0.031247
1061.494115	0.031370
1061.659330	0.030608
1061.824527	0.032255
1061.989706	0.031816
1062.154867	0.030862
1062.320010	0.033557
1062.485134	0.033880
1062.650240	0.032761
1062.815328	0.033495
1062.980398	0.032027
1063.145449	0.033303
1063.310482	0.030753
1063.475497	0.030971
1063.640494	0.029818
1063.805473	0.028278
1063.970433	0.027855
1064.135375	0.029120
1064.300299	0.030490
1064.465204	0.031302
1064.630092	0.029052
1064.794961	0.029600
1064.959812	0.029574
1065.124645	0.031669
1065.289459	0.030984
1065.454256	0.030653
1065.619034	0.029610
1065.783793	0.028914
1065.948535	0.027076
1066.113258	0.027574
1066.277964	0.027315
1066.442651	0.025991
1066.607319	0.025220
1066.771970	0.027064
1066.936602	0.027215
1067.101216	0.027107
1067.265812	0.027002
1067.430389	0.028671
1067.594949	0.027177
1067.759490	0.027768
1067.924013	0.028423
1068.088518	0.027367
1068.253004	0.025010
1068.417472	0.023673
1068.581922	0.024482
1068.746354	0.024407
1068.910768	0.024029
1069.075163	0.024467
1069.239540	0.023787
1069.403899	0.022969
1069.568240	0.023291
1069.732562	0.023914
1069.896866	0.024681
1070.061152	0.023331
1070.225420	0.023722
1070.389670	0.024525
1070.553901	0.026322
1070.718114	0.026874
1070.882309	0.028124
1071.046486	0.028385
1071.210644	0.027742
1071.374784	0.027536
1071.538906	0.029162
1071.703010	0.028972
1071.867096	0.027074
1072.031163	0.026574
1072.195212	0.027464
1072.359243	0.025997
1072.523256	0.025060
1072.687250	0.024727
1072.851226	0.026971
1073.015184	0.023653
1073.179124	0.022328
1073.343045	0.024870
1073.506949	0.023713
1073.670834	0.024250
1073.834701	0.022850
1073.998549	0.022309
1074.162380	0.023896
1074.326192	0.021057
1074.489986	0.022670
1074.653761	0.022850
1074.817519	0.021576
1074.981258	0.022058
1075.144979	0.018503
1075.308682	0.020576
1075.472367	0.023108
1075.636033	0.021314
1075.799681	0.021641
1075.963311	0.021226
1076.126923	0.020224
1076.290516	0.019244
1076.454092	0.019228
1076.617649	0.020651
1076.781187	0.020924
1076.944708	0.018988
1077.108210	0.018781
1077.271695	0.019728
1077.435160	0.019114
1077.598608	0.020732
1077.762038	0.022136
1077.925449	0.021539
1078.088842	0.020818
1078.252217	0.021295
1078.415573	0.022915
1078.578912	0.026922
1078.742232	0.026234
1078.905534	0.026199
1079.068817	0.026251
1079.232083	0.024252
1079.395330	0.024593
1079.558559	0.025417
1079.721770	0.024430
1079.884962	0.021719
1080.048136	0.019189
1080.211293	0.018311
1080.374430	0.019348
1080.537550	0.018655
1080.700651	0.018636
1080.863735	0.018586
1081.026800	0.019930
1081.189846	0.019171
1081.352875	0.019942
1081.515885	0.020624
1081.678877	0.020209
1081.841851	0.020586
1082.004807	0.018422
1082.167744	0.018681
1082.330663	0.019242
1082.493564	0.017962
1082.656447	0.019790
1082.819312	0.021372
1082.982158	0.018988
1083.144986	0.021062
1083.307796	0.018555
1083.470587	0.021069
1083.633361	0.019223
1083.796116	0.018624
1083.958853	0.018961
1084.121571	0.016940
1084.284272	0.016851
1084.446954	0.016415
1084.609618	0.014695
1084.772264	0.015724
1084.934892	0.016461
1085.097501	0.018218
1085.260092	0.018379
1085.422665	0.016610
1085.585220	0.018848
1085.747756	0.017468
1085.910274	0.017149
1086.072774	0.016595
1086.235256	0.017039
1086.397720	0.016184
1086.560165	0.016237
1086.722592	0.016807
1086.885001	0.015145
1087.047392	0.012498
1087.209764	0.014064
1087.372119	0.016764
1087.534455	0.014909
1087.696772	0.015528
1087.859072	0.015220
1088.021353	0.015808
1088.183616	0.014516
1088.345861	0.018488
1088.508088	0.020358
1088.670296	0.018944
1088.832486	0.017542
1088.994658	0.021703
1089.156812	0.019288
1089.318948	0.018583
1089.481065	0.017866
1089.643164	0.018840
1089.805245	0.018191
1089.967308	0.015296
1090.129352	0.014399
1090.291378	0.012899
1090.453386	0.012323
1090.615376	0.012693
1090.777347	0.013699
1090.939301	0.013382
1091.101236	0.013371
1091.263153	0.012907
1091.425051	0.013611
1091.586932	0.013318
1091.748794	0.014470
1091.910638	0.011539
1092.072463	0.012080
1092.234271	0.012261
1092.396060	0.010791
1092.557831	0.010548
1092.719584	0.009493
1092.881319	0.008984
1093.043035	0.009068
1093.204733	0.008905
1093.366413	0.009166
1093.528075	0.009442
1093.689718	0.009033
1093.851343	0.009825
1094.012950	0.008586
1094.174539	0.008804
1094.336110	0.008768
1094.497662	0.009641
1094.659196	0.010896
1094.820712	0.012434
1094.982210	0.012919
1095.143689	0.013731
1095.305151	0.014868
1095.466594	0.014575
1095.628018	0.015753
1095.789425	0.018250
1095.950813	0.018119
1096.112183	0.017318
1096.273535	0.017503
1096.434869	0.018214
1096.596184	0.015850
1096.757482	0.012889
1096.918761	0.013443
1097.080021	0.011868
1097.241264	0.011008
1097.402488	0.009958
1097.563694	0.010092
1097.724882	0.010178
1097.886052	0.008024
1098.047203	0.007467
1098.208336	0.006732
1098.369451	0.007013
1098.530548	0.007767
1098.691627	0.005768
1098.852687	0.007224
1099.013729	0.007239
1099.174753	0.005942
1099.335758	0.006367
1099.496746	0.005339
1099.657715	0.009309
1099.818666	0.009269
1099.979599	0.006255
1100.140513	0.005122
1100.301409	0.003269
1100.462287	-0.000097
1100.623147	-0.000859
1100.783989	-0.002671
1100.944812	-0.001285
1101.105617	-0.002529
1101.266404	-0.001680
1101.427173	0.001789
1101.587923	0.006393
1101.748656	0.008935
1101.909370	0.009678
1102.070066	0.011354
1102.230743	0.011601
1102.391403	0.008941
1102.552044	0.007409
1102.712667	0.003739
1102.873271	0.003388
1103.033858	0.001056
1103.194426	-0.000747
1103.354976	0.001659
1103.515508	0.001903
1103.676021	0.001775
1103.836517	0.006147
1103.996994	0.005918
1104.157453	0.006387
1104.317893	0.006307
1104.478316	0.005623
1104.638720	0.004138
1104.799106	0.004104
1104.959474	0.001339
1105.119823	0.002730
1105.280155	0.002105
1105.440468	0.004275
1105.600763	0.005628
1105.761039	0.001281
1105.921298	0.003617
1106.081538	0.004693
1106.241760	0.003495
1106.401964	0.004940
1106.562149	0.005822
1106.722316	0.002666
1106.882465	0.001446
1107.042596	0.000040
1107.202709	0.005145
1107.362803	0.001151
1107.522879	0.005002
1107.682937	0.007620
1107.842977	0.007521
1108.002999	0.009383
1108.163002	0.011972
1108.322987	0.013554
1108.482954	0.015231
1108.642902	0.013203
1108.802833	0.012273
1108.962745	0.009147
1109.122639	0.006654
1109.282515	0.004573
1109.442372	0.002417
1109.602211	0.003713
1109.762032	0.000652
1109.921835	-0.000242
1110.081620	0.001372
1110.241386	0.006103
1110.401134	0.005685
1110.560864	0.005361
1110.720576	0.005523
1110.880269	0.005631
1111.039945	0.004841
1111.199602	0.003949
1111.359240	0.006351
1111.518861	0.002448
1111.678463	0.001112
1111.838047	0.002470
1111.997613	0.006181
1112.157161	0.008627
1112.316690	0.006324
1112.476202	0.007917
1112.635695	0.011521
1112.795169	0.009486
1112.954626	0.008861
1113.114064	0.009153
1113.273484	0.008438
1113.432886	0.006600
1113.592270	0.008544
1113.751635	0.011343
1113.910983	0.010550
1114.070312	0.008329
1114.229622	0.009743
1114.388915	0.014872
1114.548189	0.009595
1114.707445	0.009421
1114.866683	0.011840
1115.025903	0.009725
1115.185104	0.007689
1115.344287	0.005592
1115.503452	0.004715
1115.662599	0.000273
1115.821727	-0.001253
1115.980838	0.002663
1116.139930	-0.000206
1116.299004	-0.004216
1116.458059	-0.004710
1116.617097	-0.005323
1116.776116	-0.005193
1116.935117	-0.002037
1117.094099	-0.000301
1117.253064	0.000429
1117.412010	-0.001853
1117.570938	0.003252
1117.729848	0.004077
1117.888740	0.004787
1118.047613	0.002169
1118.206468	0.000466
1118.365305	-0.001257
1118.524124	0.000253
1118.682924	-0.000183
1118.841707	0.002590
1119.000471	0.000640
1119.159216	0.000408
1119.317944	-0.001924
1119.476653	0.002417
1119.635344	0.004699
1119.794017	0.003867
1119.952672	0.002730
1120.111308	0.002255
1120.269927	0.002924
1120.428527	0.001345
1120.587108	-0.000186
1120.745672	0.001790
1120.904217	0.001170
1121.062744	-0.001791
1121.221253	0.000463
1121.379744	0.000663
1121.538216	0.001091
1121.696671	0.000480
1121.855107	0.001174
1122.013524	0.001176
1122.171924	0.002813
1122.330305	0.003593
1122.488668	0.005835
1122.647013	0.000893
1122.805340	-0.000162
1122.963648	0.000188
1123.121938	0.000156
1123.280210	0.003995
1123.438464	0.007277
1123.596700	0.005149
1123.754917	0.005129
1123.913116	0.003136
1124.071297	0.002772
1124.229459	0.004027
1124.387604	-0.000609
1124.545730	0.001346
1124.703838	-0.001747
1124.861928	-0.007159
1125.019999	-0.005984
1125.178052	-0.006995
1125.336088	-0.007903
1125.494104	-0.006994
1125.652103	-0.007528
1125.810083	-0.002883
1125.968045	-0.005713
1126.125989	-0.007252
1126.283915	-0.001892
1126.441823	-0.006484
1126.599712	-0.004962
1126.757583	-0.004612
1126.915436	-0.001020
1127.073270	-0.005951
1127.231087	-0.006523
1127.388885	-0.009413
1127.546665	-0.014724
1127.704426	-0.016249
1127.862170	-0.011641
1128.019895	-0.014215
1128.177602	-0.015010
1128.335291	-0.012484
1128.492961	-0.007858
1128.650614	-0.007806
1128.808248	-0.007590
1128.965864	-0.003681
1129.123461	-0.004052
1129.281041	-0.007554
1129.438602	-0.003794
1129.596145	-0.000879
1129.753670	-0.009039
1129.911176	-0.009763
1130.068665	-0.010135
1130.226135	-0.007375
1130.383587	-0.006110
1130.541020	-0.006951
1130.698436	-0.006685
1130.855833	-0.010382
1131.013212	-0.013909
1131.170573	-0.010211
1131.327915	-0.010198
1131.485239	-0.011209
1131.642545	-0.009860
1131.799833	-0.007716
1131.957103	-0.008098
1132.114354	-0.005512
1132.271588	-0.000933
1132.428803	0.001001
1132.585999	0.000655
1132.743178	0.002394
1132.900338	-0.000712
1133.057480	-0.003183
1133.214604	-0.006934
1133.371710	-0.004311
1133.528797	-0.001871
1133.685866	-0.001452
1133.842917	-0.001894
1133.999950	-0.003353
1134.156964	-0.006806
1134.313960	-0.005990
1134.470938	-0.002419
1134.627898	-0.001780
1134.784840	-0.005538
1134.941763	-0.015938
1135.098668	-0.019252
1135.255555	-0.015401
1135.412424	-0.012939
1135.569274	-0.011027
1135.726107	-0.010132
1135.882921	-0.009877
1136.039716	-0.008717
1136.196494	-0.007099
1136.353253	0.000006
1136.509995	-0.002011
1136.666717	-0.001386
1136.823422	-0.005489
1136.980109	-0.004550
1137.136777	-0.002662
1137.293427	-0.005882
1137.450059	-0.003057
1137.606672	-0.003631
1137.763267	-0.002101
1137.919844	-0.001267
1138.076403	-0.002723
1138.232944	0.002032
1138.389466	0.001596
1138.545971	0.002689
1138.702457	0.000621
1138.858924	-0.007024
1139.015374	-0.007337
1139.171805	-0.012280
1139.328218	-0.010168
1139.484613	-0.010912
1139.640990	-0.011747
1139.797348	-0.013056
1139.953688	-0.015106
1140.110010	-0.008961
1140.266314	-0.006354
1140.422600	-0.009446
1140.578867	-0.003610
1140.735116	0.000290
1140.891347	0.000525
1141.047559	-0.002221
1141.203754	0.000176
1141.359930	0.002054
1141.516088	-0.003155
1141.672228	0.002209
1141.828349	0.006847
1141.984452	0.001404
1142.140537	-0.003101
1142.296604	-0.007381
1142.452653	-0.002322
1142.608683	-0.002267
1142.764695	-0.006066
1142.920689	-0.007822
1143.076665	-0.009015
1143.232622	-0.014851
1143.388562	-0.012267
1143.544483	-0.015013
1143.700385	-0.011675
1143.856270	-0.012858
1144.012136	-0.012187
1144.167985	-0.010600
1144.323814	-0.008525
1144.479626	-0.013329
1144.635420	-0.010816
1144.791195	-0.011933
1144.946952	-0.017131
1145.102691	-0.018264
1145.258411	-0.023646
1145.414113	-0.031656
1145.569798	-0.033025
1145.725463	-0.028524
1145.881111	-0.018641
1146.036741	-0.016572
1146.192352	-0.017916
1146.347945	-0.015046
1146.503519	-0.010647
1146.659076	-0.007185
1146.814614	-0.001997
1146.970134	-0.001319
1147.125636	-0.007552
1147.281120	-0.015809
1147.436585	-0.020742
1147.592032	-0.017283
1147.747461	-0.015106
1147.902872	-0.021688
1148.058265	-0.020463
1148.213639	-0.021971
1148.368995	-0.018937
1148.524333	-0.018411
1148.679653	-0.019704
1148.834954	-0.012200
1148.990237	-0.008626
1149.145502	-0.010734
1149.300749	-0.007498
1149.455977	-0.008951
1149.611188	-0.000449
1149.766380	0.005740
1149.921553	0.010991
1150.076709	0.012966
1150.231846	0.012381
1150.386966	0.005225
1150.542066	0.008561
1150.697149	0.010734
1150.852214	0.009919
1151.007260	0.004263
1151.162288	0.001085
1151.317298	0.004283
1151.472289	0.009586
1151.627263	0.015969
1151.782218	0.015262
1151.937155	0.021401
1152.092073	0.023484
1152.246974	0.025291
1152.401856	0.026771
1152.556720	0.023684
1152.711566	0.023356
1152.866393	0.016487
1153.021203	0.004797
1153.175994	0.005946
1153.330767	0.001577
1153.485521	-0.001440
1153.640258	-0.003235
1153.794976	-0.006076
1153.949676	-0.009207
1154.104358	-0.016993
1154.259021	-0.021287
1154.413667	-0.017379
1154.568294	-0.012475
1154.722903	-0.011596
1154.877493	-0.009953
1155.032066	-0.004207
1155.186620	-0.005826
1155.341156	-0.003629
1155.495674	-0.005301
1155.650173	-0.001876
1155.804654	-0.008852
1155.959118	-0.007282
1156.113562	-0.010952
1156.267989	-0.016662
1156.422397	-0.018612
1156.576788	-0.020131
1156.731160	-0.018236
1156.885513	-0.020821
1157.039849	-0.023787
1157.194166	-0.013997
1157.348465	-0.021410
1157.502746	-0.018187
1157.657009	-0.016710
1157.811253	-0.021258
1157.965479	-0.020401
1158.119687	-0.026485
1158.273877	-0.017868
1158.428048	-0.019459
1158.582201	-0.022630
1158.736337	-0.024202
1158.890453	-0.025993
1159.044552	-0.020365
1159.198632	-0.023764
1159.352694	-0.022214
1159.506738	-0.022249
1159.660764	-0.025439
1159.814771	-0.018946
1159.968761	-0.023575
1160.122732	-0.019270
1160.276685	-0.020203
1160.430619	-0.022202
1160.584535	-0.021470
1160.738434	-0.022073
1160.892313	-0.023474
1161.046175	-0.019815
1161.200019	-0.025263
1161.353844	-0.028354
1161.507651	-0.025997
1161.661440	-0.026670
1161.815210	-0.028668
1161.968962	-0.029246
1162.122697	-0.033499
1162.276412	-0.033539
1162.430110	-0.038601
1162.583789	-0.035696
1162.737451	-0.025986
1162.891094	-0.028503
1163.044718	-0.025477
1163.198325	-0.029157
1163.351913	-0.019634
1163.505483	-0.007848
1163.659035	0.003166
1163.812569	0.003044
1163.966084	0.001117
1164.119581	-0.006146
1164.273060	-0.004572
1164.426521	0.002157
1164.579964	0.004158
1164.733388	-0.006441
1164.886794	-0.010750
1165.040182	-0.011144
1165.193551	-0.010693
1165.346903	-0.008533
1165.500236	-0.001439
1165.653551	0.000806
1165.806848	-0.008055
1165.960126	-0.003010
1166.113386	0.002685
1166.266628	-0.005991
1166.419852	-0.015022
1166.573058	-0.016680
1166.726245	-0.018778
1166.879414	-0.017555
1167.032565	-0.025160
1167.185698	-0.028687
1167.338812	-0.039392
1167.491909	-0.037807
1167.644987	-0.034082
1167.798046	-0.033812
1167.951088	-0.032845
1168.104111	-0.032078
1168.257117	-0.044854
1168.410103	-0.039053
1168.563072	-0.035578
1168.716023	-0.030782
1168.868955	-0.033949
1169.021869	-0.033994
1169.174765	-0.034827
1169.327642	-0.034101
1169.480501	-0.026902
1169.633343	-0.015449
1169.786165	-0.014704
1169.938970	-0.009629
1170.091757	-0.008681
1170.244525	-0.013107
1170.397275	-0.013742
1170.550007	-0.005825
1170.702720	-0.009447
1170.855415	-0.013213
1171.008092	-0.027478
1171.160751	-0.042628
1171.313392	-0.058185
1171.466014	-0.020464
1171.618619	-0.102043
1171.771205	-0.102043
1171.923772	-0.102043
