sample name	sample
index	1343
start time	 05-03-2021  12:44:34 PM
880	0.049847
Peak Time (s)	91.535
Peak Height 	0.04985
calc peak height	90,93
Baseline Time (s)	9.535
Baseline Value 	-0.002951
subtract baseline	10,4
Abs	0.017238
Peak Time (s)	90.535
Peak Height 	0.01724
calc peak height	90,93
Baseline Time (s)	10.536
Baseline Value 	0.001413
subtract baseline	10,3
PK_550	0.026504
Peak Time (s)	91.535
Peak Height 	0.0265
calc peak height	90,93
Baseline Time (s)	11.537
Baseline Value 	9.7621E-5
subtract baseline	10,2
PK_880	0.021832
Peak Time (s)	90.035
Peak Height 	0.02183
calc peak height	90,93
Baseline Time (s)	9.035
Baseline Value 	7.6931E-5
subtract baseline	10,1


Time (s)	A880-A510	A880-A775	A880-A975	A880	I510	I775	I975	I880	
0.035500	-0.002823	-0.000929	-0.004253	0.007305	6055.100067	42058.717151	3870.674030	21856.460785
0.538500	-0.001253	-0.000045	-0.004925	0.003559	6093.353029	42477.625098	3877.391256	22020.316793
1.036000	0.000207	-0.000592	-0.003483	0.003230	6106.337719	42457.784288	3881.282894	22034.784377
1.536000	0.002872	0.000258	-0.000443	0.001359	6139.494248	42706.004101	3892.158640	22117.247890
2.036500	-0.001406	-0.000265	0.001575	0.004677	6084.166318	42356.069769	3889.266485	21971.268043
2.537000	-0.001260	-0.000821	-0.000021	0.000012	6119.092165	42730.469035	3896.104827	22176.781391
3.037000	0.001798	0.000303	-0.001034	-0.001085	6149.572486	42934.300925	3896.292509	22225.460961
3.537500	-0.001166	0.000181	-0.002837	0.000927	6113.100847	42738.391021	3887.797255	22136.290607
4.034500	0.000352	-0.000738	-0.004648	0.000323	6128.605070	42709.557215	3885.126229	22163.021761
4.535000	0.001713	0.000270	-0.005312	0.000687	6135.910950	42768.565335	3882.856628	22146.939933
5.035500	0.000073	0.000138	-0.001849	0.000587	6124.630655	42765.609607	3890.746525	22151.356158
5.538000	0.000370	0.000018	0.002983	0.000730	6125.750843	42741.459964	3901.227060	22145.000937
6.036000	-0.001632	0.000112	-0.002965	0.000763	6110.904690	42747.148488	3887.878108	22143.570874
6.536500	0.001207	0.001375	-0.002912	0.001263	6127.984401	42817.036154	3886.888988	22121.471837
7.037000	0.000180	0.000477	-0.003079	0.000437	6126.514895	42810.442918	3888.348819	22157.998384
7.537000	-0.002287	-0.000294	0.002830	-0.000008	6111.744683	42780.481888	3902.544361	22177.660437
8.037000	-0.002222	0.000030	-0.000641	0.000283	6110.107238	42783.671498	3894.115845	22164.815345
8.534500	-0.001110	0.000834	0.000388	0.000327	6117.887488	42853.235376	3896.314147	22162.835198
9.035000	0.000000	-0.000022	0.001915	-0.000235	6130.113461	42826.338052	3900.998960	22187.745296
9.535000	-0.000839	-0.000367	0.001390	0.000000	6122.255343	42773.107610	3899.291578	22177.327322
10.038500	0.000463	0.000063	-0.000647	0.000285	6129.696503	42786.458621	3894.098028	22164.729528
10.536000	-0.000785	0.000799	0.000000	0.000550	6118.627379	42829.634597	3894.948681	22152.968362
11.036500	0.000152	-0.000178	-0.000699	-0.000668	6134.402362	42851.696566	3896.108735	22206.935236
11.536500	0.000378	0.000000	-0.001859	-0.000667	6136.050183	42867.978842	3893.516651	22206.882566
12.037000	0.000393	-0.000917	-0.001469	-0.001206	6140.118475	42833.299735	3895.590841	22230.803675
12.534500	0.000301	-0.000119	0.002167	-0.000525	6134.443124	42844.026808	3902.216938	22200.586386
13.035000	0.002506	0.000309	0.003725	-0.000948	6153.778380	42922.164644	3906.682964	22219.352971
13.537500	0.002462	0.000356	0.000969	-0.000469	6149.918049	42882.491922	3899.397959	22198.093333
14.035000	-0.003383	-0.000520	0.000394	0.001243	6094.706129	42645.451273	3894.281734	22122.359429
14.536000	-0.001972	0.000826	-0.006082	0.002107	6098.668934	42689.438063	3878.039200	22084.221341
15.035500	-0.004475	0.000362	-0.001848	0.004326	6064.614010	42444.974155	3882.472692	21986.688185
15.536000	0.000733	0.000330	0.002146	-0.000601	6138.171288	42892.297162	3902.339999	22203.963089
16.036500	0.002865	0.000156	0.002923	-0.000354	6152.049974	42853.566141	3903.533102	22193.023396
16.536500	0.000864	-0.000805	-0.005524	-0.001056	6142.481484	42829.796921	3886.238634	22224.156813
17.037000	0.000201	-0.000748	-0.002693	-0.000015	6129.978329	42739.628054	3890.208423	22178.004382
17.537000	0.000401	0.000955	0.000375	0.000997	6124.030144	42802.945245	3894.788129	22133.218537
18.034500	-0.000521	0.000050	0.002055	0.000790	6118.808362	42738.992472	3899.010357	22142.358171
18.535000	-0.000545	-0.000505	-0.003636	0.000639	6119.732893	42701.969782	3886.665915	22149.047141
19.035500	0.000224	-0.000332	-0.000207	0.000340	6127.542640	42745.268164	3894.956428	22162.295522
19.535500	0.001262	0.001015	-0.001090	0.001679	6125.345298	42745.945732	3890.006539	22103.123557
20.036000	-0.001529	-0.000323	-0.005072	0.000885	6110.767582	42696.190676	3882.948963	22138.180157
20.536000	-0.000339	-0.000022	0.001491	0.001113	6117.778591	42702.771790	3897.023698	22128.075769
21.036500	-0.001173	0.001513	-0.000373	0.002337	6102.796862	42731.247660	3890.138173	22074.089343
21.537000	0.001110	0.000844	0.002735	0.001426	6126.078668	42753.519249	3899.111401	22114.286299
22.037000	0.001741	0.000458	-0.003791	0.001130	6132.870008	42745.181921	3885.237052	22127.352966
22.538500	-0.000813	0.000654	-0.002259	0.001313	6112.863389	42746.393740	3888.223348	22119.264042
23.035000	0.001085	0.000072	-0.000926	0.001319	6126.672607	42692.547949	3891.169966	22118.974125
23.535500	-0.001242	0.000226	-0.000712	0.000597	6114.955244	42772.724825	3893.254520	22150.891415
24.038000	-0.000873	0.000351	0.000917	0.000648	6117.277343	42779.516512	3896.778540	22148.638497
24.536000	0.000674	0.000594	-0.000016	0.000789	6127.546099	42788.837472	3894.378958	22142.393037
25.036000	0.001743	0.000442	0.002394	0.001142	6132.793178	42742.677991	3898.981575	22126.809106
25.536500	-0.001092	0.000536	0.004798	0.000896	6113.870630	42773.765146	3904.942514	22137.670017
26.036500	-0.000664	0.000254	-0.000210	-0.000035	6123.794318	42833.264524	3895.788146	22178.884237
26.540000	-0.000158	0.000926	0.001473	0.001189	6118.547338	42782.694276	3896.812726	22124.736611
27.037500	0.001178	0.000279	0.006772	-0.001667	6149.287597	42985.648279	3915.233353	22251.304761
27.535000	0.001403	0.000291	0.003468	-0.000379	6141.465794	42868.325720	3904.819298	22194.125880
28.034500	0.002558	0.001054	0.002214	-0.000057	6147.595357	42908.812845	3901.268906	22179.859784
28.537500	0.002600	0.000886	-0.001108	-0.000051	6147.854751	42892.832548	3893.818391	22179.581927
29.036000	0.004125	0.000272	0.006185	-0.000664	6163.648904	42892.776847	3911.614967	22206.777519
29.535500	-0.000375	0.000094	0.001708	0.001077	6117.777307	42716.743020	3897.590049	22129.674012
30.036000	0.000236	0.000681	0.001882	0.000074	6129.579207	42862.464911	3900.229229	22174.045584
30.536500	-0.002309	0.000473	0.001457	0.002046	6096.664730	42662.733990	3894.862131	22086.898942
31.037000	-0.002593	-0.000203	0.001310	0.001600	6097.843319	42641.781190	3895.529767	22106.577568
31.537000	0.000383	0.000176	-0.000459	0.001993	6116.628214	42640.503563	3890.712252	22089.262316
32.037000	0.002736	0.000067	0.001540	-0.000436	6151.699322	42852.923931	3900.606624	22196.640800
32.538000	-0.000154	0.000602	-0.000473	-0.000215	6128.836549	42881.812724	3895.602943	22186.864234
33.040000	0.004016	0.000075	0.005721	-0.002094	6173.441264	43006.214723	3913.810877	22270.314246
33.535000	-0.000940	-0.000023	-0.000385	0.002302	6104.744049	42594.134388	3890.189419	22075.647763
34.036000	-0.000796	0.000018	-0.000550	0.000941	6115.698693	42722.241790	3892.851063	22135.690320
34.536000	-0.000874	0.000389	-0.004117	0.000927	6115.233611	42757.496127	3884.966348	22136.326496
35.036500	0.001664	0.000168	0.000731	0.001083	6132.647917	42722.934483	3895.392263	22129.424827
35.536500	-0.000285	0.000719	-0.003279	0.002318	6109.393038	42660.396467	3883.744463	22074.930910
36.037000	0.000017	0.001250	0.005610	0.001718	6115.961695	42763.827246	3904.919534	22101.369498
36.537500	0.000202	-0.000049	0.005522	0.001103	6121.805677	42701.290163	3906.109625	22128.544337
37.035000	-0.000255	0.000357	-0.001058	0.001412	6116.206069	42710.089561	3890.670561	22114.875008
37.535000	-0.001969	-0.000127	0.003261	0.002411	6096.487156	42574.723824	3898.082689	22070.856127
38.035500	0.002067	0.000831	0.003552	0.001975	6129.066446	42701.985328	3899.711646	22090.059120
38.535500	-0.001939	0.000240	-0.000935	0.001512	6103.226419	42690.361306	3890.723080	22110.486516
39.036000	0.002105	0.000071	0.002151	0.001571	6132.300279	42669.448333	3897.476524	22107.866793
39.536500	-0.001943	-0.000062	-0.000985	0.001195	6105.503951	42691.734461	3891.316025	22124.482071
40.036000	0.000950	-0.000016	0.003311	0.000932	6128.528339	42719.925746	3901.514288	22136.107540
40.536500	0.000134	0.000273	-0.004149	0.001701	6116.935140	42675.978873	3883.184206	22102.122629
41.037000	0.000084	0.000083	-0.002192	0.001618	6117.177785	42666.244751	3887.695763	22105.783828
41.537000	0.000366	-0.000280	0.005571	0.002182	6115.122937	42581.647421	3903.784802	22080.917469
42.034000	0.001661	0.000765	-0.000668	0.001465	6129.827880	42742.595208	3891.419119	22112.533379
42.535500	0.000581	0.000176	-0.004403	0.001334	6122.883720	42700.775468	3883.436199	22118.338850
43.035500	0.000938	-0.000060	0.001279	0.001479	6124.429167	42665.847995	3895.730737	22111.912004
43.535000	0.000259	-0.000391	0.001957	0.001769	6117.356693	42609.173589	3896.599052	22099.138988
44.036000	0.000163	-0.000020	-0.001222	-0.001306	6139.163657	42924.917819	3896.366287	22235.257890
44.536500	0.002160	0.000984	0.005196	0.000042	6143.936859	42893.213594	3907.770600	22175.457782
45.036500	-0.001794	0.000648	-0.005794	0.004502	6082.630012	42454.935585	3873.426891	21978.959061
45.536500	-0.001186	0.000382	0.003182	-0.000674	6124.649133	42903.750107	3904.840712	22207.221120
46.037000	0.002716	0.001670	0.004067	0.000421	6145.233337	42921.430660	3904.363633	22158.668792
46.534500	0.000925	0.000165	0.003925	-0.000580	6139.429227	42875.191730	3906.304451	22203.036667
47.038000	0.000601	0.000285	0.004445	0.003461	6107.524608	42516.545433	3898.381417	22024.647651
47.535500	-0.000514	0.000342	0.004432	0.004907	6088.952663	42390.308430	3895.115552	21961.198916
48.035500	0.000780	0.001207	0.004798	0.000461	6130.726175	42875.321332	3905.925782	22156.928986
48.535500	0.000172	0.000401	0.004903	-0.000347	6132.193162	42875.398347	3907.988474	22192.689983
49.036000	0.001171	0.000035	-0.001405	0.002412	6119.317863	42589.419865	3887.680735	22070.791604
49.536500	0.000726	0.000457	-0.001221	0.005838	6091.188198	42316.342994	3880.522630	21920.478043
50.037000	0.004202	0.001400	0.004599	0.016322	6040.888368	41461.504797	3870.317516	21467.805659
50.536500	0.033105	-0.020200	0.028142	0.547241	3922.181315	13761.272371	3218.967062	8397.360463
51.040000	0.003650	-0.016016	-0.016918	-0.002519	6173.874230	41588.052624	3864.510451	22289.221632
51.537500	0.007294	-0.036907	-0.012945	-0.171850	7751.755479	57320.600888	4325.201777	31514.901487
52.034500	-0.018358	-0.025068	-0.022502	-0.147491	7229.340053	55776.307732	4220.021650	29956.346640
52.535000	-0.020209	-0.028734	-0.032009	-0.188701	7635.391163	60543.763472	4318.086344	32645.356810
53.035500	-0.001567	-0.051527	-0.016456	-0.236855	8414.559487	64005.421690	4538.171826	36128.392733
53.535500	-0.000391	-0.040899	-0.016405	-0.210935	8111.865226	61894.133598	4444.894057	34205.685688
54.036500	0.003694	-0.027008	-0.010402	-0.167344	7662.946701	57999.752264	4318.890709	31219.986769
54.536000	0.001687	-0.019836	-0.010358	-0.147195	7428.479040	56379.930617	4255.835242	29937.959017
55.037000	0.000295	-0.014482	-0.009934	-0.142184	7362.920349	56422.080426	4241.856078	29628.256301
55.537000	-0.006643	-0.008488	-0.014581	-0.105688	6942.834818	52797.289975	4122.837664	27477.267371
56.035000	-0.001562	-0.007611	-0.011797	-0.119636	7121.718365	54527.330773	4169.882002	28278.052970
56.538000	0.002970	-0.005304	-0.008229	-0.118129	7150.890153	54622.330528	4175.804175	28190.279653
57.035500	0.003384	-0.003031	-0.007822	-0.104731	7027.124747	53316.227602	4138.946689	27423.255107
57.535500	0.003090	-0.000464	-0.007771	-0.083636	6831.138662	51213.762180	4081.531950	26262.510669
58.036000	0.007412	-0.000979	-0.006724	-0.076850	6809.179965	50409.665327	4066.351041	25900.951028
58.535500	0.009583	0.002265	-0.002204	-0.057523	6659.661243	48685.229886	4028.095486	24901.596620
59.036500	0.011331	0.003704	-0.003117	-0.041307	6538.073565	47156.137413	3985.436787	24096.723154
59.536500	0.008786	0.004827	0.001582	-0.018505	6334.601308	45005.118810	3942.147719	23014.680795
60.036500	0.015396	0.004355	-0.001439	-0.007696	6302.021079	43927.427646	3910.271381	22521.245698
60.537500	0.016739	0.004239	0.005215	0.011103	6169.919430	42182.217696	3883.101253	21691.774673
61.037500	0.018258	0.010892	0.008451	0.032659	6024.692524	40859.742588	3843.531479	20783.842416
61.535000	0.016744	0.014325	0.004639	0.030178	6031.547404	41379.065363	3840.718594	20886.044212
62.035000	0.019361	0.018239	0.001693	0.035683	6011.117058	41238.721575	3823.075444	20660.046321
62.535500	0.017229	0.017696	0.001774	0.030402	6033.399134	41658.436492	3834.229691	20876.807833
63.038500	0.013779	0.018422	0.008082	0.025619	6042.880813	42152.122008	3857.745818	21075.410186
63.542000	0.015879	0.019352	0.004161	0.021712	6085.979460	42590.945968	3857.717863	21239.312608
64.036500	0.015992	0.022155	0.005494	0.020417	6096.154439	42966.462295	3863.375271	21293.916675
64.536500	0.013845	0.022558	0.003564	0.018508	6094.438039	43179.916959	3863.331170	21374.782401
65.033500	0.014991	0.023431	0.001865	0.016986	6113.822704	43402.313516	3862.950849	21439.504719
65.540500	0.016301	0.022986	0.004307	0.012993	6152.706414	43733.854349	3876.949998	21610.367292
66.035000	0.011985	0.023628	-0.003183	0.010407	6139.959775	44037.856875	3866.259989	21721.843029
66.535000	0.012502	0.021663	0.006940	0.006073	6175.810054	44262.499785	3898.119889	21910.211255
67.035500	0.013408	0.022509	0.005513	0.007232	6173.928135	44232.800726	3892.341587	21859.652582
67.535500	0.012131	0.022335	-0.000640	0.002898	6196.705135	44629.829829	3888.299450	22049.382290
68.036000	0.013532	0.022341	0.006343	0.001950	6214.322114	44721.496070	3906.051030	22091.161665
68.536500	0.013529	0.022431	-0.000143	0.000470	6225.444945	44872.563012	3894.808338	22156.510207
69.036500	0.010649	0.023732	0.005753	0.005082	6169.412301	44554.426290	3897.679302	21953.541022
69.537000	0.009165	0.023170	0.001930	0.006072	6151.113190	44406.079436	3886.961940	21910.260258
70.040000	0.013475	0.023722	0.006335	0.000213	6226.986488	45022.253907	3909.966336	22167.916659
70.537500	0.012691	0.023602	0.005128	0.000047	6222.314968	45026.641292	3907.605898	22175.240659
71.035000	0.010713	0.022322	0.001667	0.001886	6193.678423	44725.819770	3895.690767	22093.992828
71.535500	0.009790	0.024642	0.002353	0.005607	6159.166668	44591.346295	3888.931092	21930.596117
72.035500	0.016161	0.024712	0.005968	0.001033	6241.092799	45038.643283	3907.274636	22131.618095
72.535500	0.014831	0.024017	0.006359	0.001192	6229.832811	44956.049818	3907.801016	22124.622154
73.036500	0.011066	0.024442	0.000516	0.005289	6170.962245	44602.619758	3885.563959	21944.474084
73.536500	0.011576	0.024816	0.003744	0.010122	6139.053970	44177.394462	3882.022656	21734.187910
74.037000	0.013705	0.023957	0.007521	0.005037	6192.485357	44580.334802	3901.749463	21955.524507
74.539500	0.011382	0.024251	0.005919	0.007242	6158.849170	44397.663299	3893.224843	21859.228777
75.037000	0.010320	0.024728	-0.001990	0.012244	6114.335860	43968.319346	3864.867929	21642.581716
75.534500	0.008672	0.023787	-0.001543	0.015161	6081.238176	43605.805139	3859.536153	21517.389693
76.035000	0.010007	0.024499	0.009572	0.013588	6102.280988	43820.131117	3887.239409	21584.798936
76.535500	0.009725	0.024333	0.007503	0.015184	6088.680472	43654.757126	3879.153791	21516.414329
77.035500	0.008826	0.024547	0.002574	0.020293	6045.541705	43198.849597	3857.356098	21299.196851
77.536000	0.008793	0.025320	-0.004095	0.024818	6013.215484	42852.888573	3833.634491	21108.899461
78.036500	0.012302	0.025406	0.007109	0.021445	6062.154803	43171.749665	3864.646371	21250.547633
78.536500	0.013938	0.024991	0.002374	0.022299	6067.769135	43054.450488	3852.632141	21214.579565
79.037000	0.011734	0.025203	0.008244	0.024242	6038.130536	42895.004763	3861.057282	21133.011159
79.537500	0.011002	0.025582	0.004793	0.031798	5979.727720	42240.759736	3837.633129	20819.228756
80.037500	0.013551	0.026900	0.004772	0.028074	6023.825604	42699.247057	3845.447440	20973.188119
80.534500	0.012991	0.025478	0.005277	0.028185	6019.077353	42559.255146	3846.284339	20968.589845
81.035500	0.015799	0.027061	0.007040	0.030539	6022.296165	42489.133670	3845.031504	20871.161339
81.535500	0.012004	0.025562	0.006146	0.030398	5996.543344	42365.716439	3843.438697	20876.977128
82.035500	0.014940	0.026452	0.012187	0.032547	6002.068197	42251.695752	3851.704026	20788.416150
82.536500	0.014495	0.025721	0.007793	0.033002	5995.744359	42144.594232	3841.415528	20769.727865
83.036500	0.016698	0.026725	0.004401	0.034606	5999.955590	42090.545907	3830.935286	20704.029642
83.537000	0.014324	0.025950	0.007401	0.037340	5964.281453	41775.795141	3831.491634	20592.564490
84.037000	0.015671	0.026707	0.011188	0.036601	5978.795926	41909.606302	3840.983961	20622.599425
84.537500	0.016326	0.026383	0.009810	0.037495	5977.134320	41800.626216	3836.206503	20586.268797
85.040500	0.016150	0.026326	0.013444	0.038394	5969.643307	41715.222886	3841.961738	20549.761199
85.535500	0.015632	0.026517	0.010391	0.043405	5931.432243	41287.739462	3825.095221	20347.772373
86.035500	0.016962	0.026808	0.010985	0.040435	5961.106663	41576.452846	3832.511102	20467.204469
86.535500	0.015792	0.026088	0.015164	0.040754	5950.801789	41484.204582	3840.613332	20454.344576
87.036000	0.018323	0.026530	0.005577	0.042417	5956.807238	41376.113553	3817.202622	20387.422131
87.536000	0.016888	0.025490	0.012972	0.045982	5922.371079	40971.075066	3825.103484	20244.784000
88.036500	0.017892	0.025998	0.014212	0.043464	5946.589521	41236.801535	3832.926747	20345.418172
88.540000	0.019922	0.025959	0.013437	0.044080	5956.362859	41179.074668	3830.021217	20320.722699
89.037000	0.020161	0.026505	0.017181	0.047415	5934.998792	40934.487034	3830.873970	20187.766984
89.537500	0.020324	0.026594	0.012604	0.047445	5935.913343	40939.736193	3821.317109	20186.603857
90.035000	0.021832	0.025026	0.015172	0.045406	5960.410844	40980.904311	3830.875846	20267.757722
90.535000	0.018549	0.025296	0.017238	0.045841	5934.740584	40966.519644	3834.283260	20250.411576
91.035500	0.018296	0.025002	0.015569	0.046825	5926.241589	40854.821136	3828.745539	20211.216309
91.535500	0.019513	0.026504	0.013068	0.049847	5913.897727	40722.517897	3817.325167	20091.467344
92.037000	0.020619	0.025007	0.011309	0.045900	5948.595850	40936.041465	3821.832816	20248.053708
92.536000	0.020064	0.025996	0.016940	0.046729	5939.050829	40950.027216	3831.802085	20215.033720
93.053000	0.020467	0.025807	0.018736	0.049620	5921.969981	40681.680030	3829.518351	20100.429715
93.537000	0.020372	0.026153	0.011596	0.050105	5918.003075	40669.582092	3813.778459	20081.285953
94.037500	0.022538	0.027022	0.019461	0.048088	5946.734831	40920.899540	3834.231946	20161.064142
94.535000	0.024812	0.027476	0.012361	0.048787	5957.627468	40899.503165	3818.050865	20133.376818
95.035000	0.020987	0.027216	0.015030	0.050596	5918.848651	40719.283133	3819.822867	20061.931055
95.535500	0.022174	0.026847	0.016439	0.050763	5925.835847	40672.812059	3822.385412	20055.349745
