sample name	sample
index	428
start time	 03-08-2021  12:00:29 PM


Wavelength (nm)	Absorbance
494.344910	NaN
494.563924	NaN
494.782919	NaN
495.001897	0.576094
495.220856	0.155179
495.439797	-0.089360
495.658719	-0.149577
495.877624	-0.163534
496.096510	-0.213834
496.315378	-0.287301
496.534227	-0.273698
496.753059	-0.226725
496.971872	-0.229007
497.190667	-0.002979
497.409444	0.012955
497.628203	0.013890
497.846943	0.015492
498.065665	0.016632
498.284369	0.017810
498.503055	0.017837
498.721723	0.017747
498.940372	0.018098
499.159003	0.017360
499.377616	0.016630
499.596210	0.017284
499.814787	0.017058
500.033345	0.016432
500.251885	0.016098
500.470406	0.016358
500.688910	0.015358
500.907395	0.015446
501.125862	0.016343
501.344311	0.016832
501.562742	0.016539
501.781154	0.016283
501.999548	0.016770
502.217924	0.016662
502.436282	0.016684
502.654621	0.018108
502.872942	0.016773
503.091245	0.016274
503.309530	0.016125
503.527797	0.016225
503.746045	0.016320
503.964275	0.016299
504.182487	0.015876
504.400681	0.015998
504.618856	0.015539
504.837013	0.015888
505.055152	0.015408
505.273273	0.015215
505.491376	0.014213
505.709460	0.013632
505.927526	0.013717
506.145574	0.014244
506.363604	0.013990
506.581615	0.013616
506.799608	0.014641
507.017583	0.015116
507.235540	0.015149
507.453478	0.016380
507.671399	0.017624
507.889301	0.016868
508.107185	0.016787
508.325050	0.016792
508.542898	0.016756
508.760727	0.016077
508.978538	0.015862
509.196330	0.015287
509.414105	0.014872
509.631861	0.014365
509.849599	0.014465
510.067319	0.014153
510.285021	0.014073
510.502704	0.014207
510.720369	0.014803
510.938016	0.014278
511.155645	0.015101
511.373255	0.015288
511.590848	0.014898
511.808422	0.015557
512.025977	0.015820
512.243515	0.016164
512.461034	0.015996
512.678536	0.015432
512.896018	0.016028
513.113483	0.015801
513.330930	0.015953
513.548358	0.016545
513.765768	0.015691
513.983160	0.015793
514.200533	0.015145
514.417889	0.015265
514.635226	0.015993
514.852545	0.016178
515.069845	0.016190
515.287128	0.015475
515.504392	0.014657
515.721638	0.015351
515.938866	0.015204
516.156075	0.015359
516.373267	0.015484
516.590440	0.015259
516.807594	0.014582
517.024731	0.014232
517.241850	0.014453
517.458950	0.014937
517.676032	0.014735
517.893095	0.015001
518.110141	0.015299
518.327168	0.014378
518.544177	0.014008
518.761168	0.014397
518.978141	0.014276
519.195095	0.014990
519.412031	0.014621
519.628949	0.013992
519.845849	0.013965
520.062731	0.013917
520.279594	0.015326
520.496439	0.014938
520.713266	0.014876
520.930074	0.015360
521.146865	0.014764
521.363637	0.015268
521.580391	0.015902
521.797127	0.015909
522.013844	0.015637
522.230543	0.014883
522.447224	0.014536
522.663887	0.014592
522.880532	0.014017
523.097158	0.013861
523.313766	0.014049
523.530356	0.014129
523.746928	0.013623
523.963481	0.014339
524.180017	0.013781
524.396534	0.014610
524.613032	0.014344
524.829513	0.014607
525.045975	0.014570
525.262420	0.014215
525.478845	0.014147
525.695253	0.014697
525.911643	0.014308
526.128014	0.014787
526.344367	0.014711
526.560702	0.014630
526.777018	0.014723
526.993316	0.014874
527.209597	0.015067
527.425858	0.015458
527.642102	0.014819
527.858328	0.015188
528.074535	0.015488
528.290724	0.015344
528.506894	0.015628
528.723047	0.015758
528.939181	0.015768
529.155297	0.015633
529.371395	0.015238
529.587475	0.015345
529.803536	0.015078
530.019579	0.014910
530.235604	0.015059
530.451611	0.014993
530.667600	0.014844
530.883570	0.014755
531.099522	0.014756
531.315456	0.014767
531.531372	0.015145
531.747269	0.015214
531.963148	0.015073
532.179009	0.015153
532.394852	0.015336
532.610676	0.015622
532.826482	0.016134
533.042271	0.016073
533.258040	0.016504
533.473792	0.016514
533.689525	0.016430
533.905240	0.016708
534.120937	0.016480
534.336616	0.016622
534.552277	0.016484
534.767919	0.016004
534.983543	0.015799
535.199149	0.015537
535.414736	0.015243
535.630306	0.015059
535.845857	0.015017
536.061390	0.014994
536.276904	0.014563
536.492401	0.014633
536.707879	0.015142
536.923339	0.015674
537.138781	0.015648
537.354204	0.016055
537.569610	0.016050
537.784997	0.016075
538.000366	0.016478
538.215716	0.016850
538.431049	0.016879
538.646363	0.016528
538.861659	0.016441
539.076937	0.016082
539.292196	0.016212
539.507438	0.016194
539.722661	0.016256
539.937866	0.016043
540.153052	0.016199
540.368221	0.016460
540.583371	0.016908
540.798503	0.016739
541.013617	0.017461
541.228712	0.017505
541.443789	0.018149
541.658848	0.018208
541.873889	0.018169
542.088912	0.018126
542.303916	0.018163
542.518902	0.018054
542.733870	0.017996
542.948820	0.017872
543.163752	0.017375
543.378665	0.016896
543.593560	0.017130
543.808437	0.016997
544.023295	0.017232
544.238136	0.016951
544.452958	0.016364
544.667762	0.016596
544.882548	0.016591
545.097315	0.016808
545.312064	0.016839
545.526795	0.016554
545.741508	0.016779
545.956203	0.016127
546.170879	0.016547
546.385537	0.016803
546.600177	0.016974
546.814799	0.016463
547.029402	0.016593
547.243988	0.016979
547.458555	0.016784
547.673103	0.016955
547.887634	0.017344
548.102146	0.017181
548.316640	0.017141
548.531116	0.016626
548.745574	0.017189
548.960013	0.017234
549.174435	0.016925
549.388838	0.017034
549.603222	0.016647
549.817589	0.016730
550.031937	0.016692
550.246267	0.016701
550.460579	0.017139
550.674873	0.017045
550.889148	0.016845
551.103405	0.016780
551.317644	0.016761
551.531865	0.017283
551.746068	0.017353
551.960252	0.017444
552.174418	0.017462
552.388566	0.016938
552.602696	0.016995
552.816807	0.017077
553.030900	0.017410
553.244975	0.017487
553.459032	0.017298
553.673070	0.017127
553.887091	0.017114
554.101093	0.017178
554.315077	0.017826
554.529042	0.017506
554.742990	0.017376
554.956919	0.016877
555.170830	0.016828
555.384722	0.016440
555.598597	0.016202
555.812453	0.015659
556.026291	0.015938
556.240111	0.015623
556.453913	0.016054
556.667696	0.016390
556.881461	0.016551
557.095208	0.016537
557.308937	0.016887
557.522647	0.017367
557.736339	0.017907
557.950013	0.017831
558.163669	0.018149
558.377307	0.017895
558.590926	0.018001
558.804527	0.018167
559.018110	0.018285
559.231675	0.018590
559.445221	0.018390
559.658749	0.018314
559.872259	0.018570
560.085751	0.018536
560.299225	0.018491
560.512680	0.018143
560.726117	0.018108
560.939536	0.017963
561.152937	0.017772
561.366319	0.017633
561.579683	0.017484
561.793029	0.017098
562.006357	0.016896
562.219667	0.017026
562.432958	0.017205
562.646231	0.017026
562.859486	0.017270
563.072723	0.017189
563.285941	0.017381
563.499141	0.017566
563.712323	0.017520
563.925487	0.017364
564.138632	0.017726
564.351760	0.017546
564.564869	0.017882
564.777960	0.017831
564.991032	0.018017
565.204087	0.017909
565.417123	0.017825
565.630141	0.017738
565.843140	0.018060
566.056122	0.017727
566.269085	0.017967
566.482030	0.017806
566.694957	0.017746
566.907866	0.017463
567.120756	0.017840
567.333628	0.017744
567.546482	0.018049
567.759318	0.018029
567.972135	0.018420
568.184935	0.018363
568.397716	0.018418
568.610478	0.018637
568.823223	0.018744
569.035949	0.018857
569.248657	0.019012
569.461347	0.018884
569.674019	0.018834
569.886672	0.018395
570.099308	0.018506
570.311925	0.018428
570.524523	0.018396
570.737104	0.018576
570.949666	0.018516
571.162210	0.018221
571.374736	0.018145
571.587244	0.018238
571.799733	0.018253
572.012205	0.018205
572.224658	0.018380
572.437092	0.018290
572.649509	0.018113
572.861907	0.018288
573.074287	0.018887
573.286649	0.019276
573.498993	0.019424
573.711318	0.019669
573.923625	0.019802
574.135914	0.019826
574.348185	0.019777
574.560438	0.019875
574.772672	0.019487
574.984888	0.019155
575.197086	0.019190
575.409266	0.018894
575.621427	0.018672
575.833570	0.018609
576.045695	0.018652
576.257802	0.018857
576.469890	0.018882
576.681961	0.018862
576.894013	0.019010
577.106046	0.019107
577.318062	0.019459
577.530059	0.019690
577.742039	0.019585
577.954000	0.019675
578.165942	0.019839
578.377867	0.020030
578.589773	0.019946
578.801661	0.020065
579.013531	0.019617
579.225382	0.019761
579.437216	0.019626
579.649031	0.020021
579.860828	0.019754
580.072606	0.019677
580.284367	0.019171
580.496109	0.019447
580.707833	0.019556
580.919539	0.019657
581.131227	0.019668
581.342896	0.019769
581.554547	0.019683
581.766180	0.019844
581.977795	0.019937
582.189391	0.020318
582.400969	0.020373
582.612529	0.020189
582.824071	0.020539
583.035595	0.020447
583.247100	0.020602
583.458587	0.020647
583.670056	0.020699
583.881506	0.020795
584.092939	0.020768
584.304353	0.021229
584.515749	0.021513
584.727127	0.021526
584.938486	0.021331
585.149828	0.021623
585.361151	0.021695
585.572456	0.021812
585.783742	0.021559
585.995011	0.021976
586.206261	0.021576
586.417493	0.021407
586.628706	0.021306
586.839902	0.021491
587.051079	0.021222
587.262238	0.021156
587.473379	0.021019
587.684502	0.021010
587.895606	0.020711
588.106692	0.020405
588.317760	0.020629
588.528810	0.020538
588.739841	0.020492
588.950855	0.020661
589.161850	0.020622
589.372827	0.020868
589.583785	0.021295
589.794726	0.021533
590.005648	0.022113
590.216552	0.022104
590.427437	0.022489
590.638305	0.022524
590.849154	0.022423
591.059985	0.022312
591.270798	0.022364
591.481592	0.021982
591.692369	0.021668
591.903127	0.021352
592.113867	0.021131
592.324588	0.020851
592.535292	0.020669
592.745977	0.020647
592.956644	0.020694
593.167293	0.020598
593.377923	0.020949
593.588536	0.021293
593.799130	0.021487
594.009706	0.021483
594.220263	0.021851
594.430803	0.022258
594.641324	0.022158
594.851827	0.022498
595.062312	0.022580
595.272778	0.022435
595.483227	0.022480
595.693657	0.022519
595.904069	0.022748
596.114462	0.022685
596.324838	0.022606
596.535195	0.022607
596.745534	0.022488
596.955855	0.022428
597.166157	0.022403
597.376441	0.022239
597.586707	0.022204
597.796955	0.022118
598.007185	0.021809
598.217396	0.021982
598.427589	0.022085
598.637764	0.021922
598.847921	0.022015
599.058060	0.022051
599.268180	0.022266
599.478282	0.022277
599.688366	0.022318
599.898431	0.022584
600.108479	0.022303
600.318508	0.022408
600.528519	0.022479
600.738511	0.022583
600.948486	0.022794
601.158442	0.022733
601.368380	0.022881
601.578300	0.022920
601.788202	0.022961
601.998085	0.023240
602.207950	0.023170
602.417797	0.023231
602.627626	0.023052
602.837436	0.023127
603.047228	0.023075
603.257002	0.023038
603.466758	0.023309
603.676496	0.023268
603.886215	0.023101
604.095916	0.023290
604.305599	0.023340
604.515264	0.023614
604.724910	0.023589
604.934538	0.023635
605.144148	0.023690
605.353740	0.023500
605.563314	0.023666
605.772869	0.023657
605.982406	0.023687
606.191925	0.023563
606.401425	0.023513
606.610908	0.023341
606.820372	0.023431
607.029818	0.023168
607.239246	0.023090
607.448655	0.023187
607.658047	0.023357
607.867420	0.022990
608.076775	0.023338
608.286111	0.023214
608.495430	0.023455
608.704730	0.023599
608.914012	0.023731
609.123275	0.023998
609.332521	0.023931
609.541748	0.024037
609.750957	0.024501
609.960148	0.024657
610.169321	0.024900
610.378475	0.025062
610.587611	0.025062
610.796729	0.025161
611.005829	0.025208
611.214910	0.025192
611.423974	0.025114
611.633019	0.024914
611.842045	0.024548
612.051054	0.024325
612.260044	0.024172
612.469017	0.024191
612.677970	0.024304
612.886906	0.024351
613.095824	0.024197
613.304723	0.024254
613.513604	0.024528
613.722467	0.024665
613.931311	0.024739
614.140138	0.024802
614.348946	0.024620
614.557736	0.024925
614.766507	0.024791
614.975261	0.024896
615.183996	0.025020
615.392713	0.025016
615.601412	0.025072
615.810092	0.025243
616.018754	0.025099
616.227399	0.025415
616.436024	0.025078
616.644632	0.025213
616.853222	0.025395
617.061793	0.025316
617.270346	0.025251
617.478880	0.025235
617.687397	0.025249
617.895895	0.025540
618.104375	0.025409
618.312837	0.025641
618.521281	0.025830
618.729706	0.025643
618.938113	0.025718
619.146502	0.025922
619.354873	0.026056
619.563226	0.025897
619.771560	0.025739
619.979876	0.025873
620.188174	0.025653
620.396453	0.025224
620.604715	0.025298
620.812958	0.025137
621.021183	0.025025
621.229390	0.024895
621.437578	0.025034
621.645748	0.025178
621.853900	0.024890
622.062034	0.024796
622.270150	0.024970
622.478247	0.024933
622.686326	0.024985
622.894387	0.025043
623.102430	0.025265
623.310454	0.025175
623.518461	0.025106
623.726449	0.025182
623.934418	0.025437
624.142370	0.025633
624.350303	0.025745
624.558218	0.025853
624.766115	0.026024
624.973994	0.026150
625.181855	0.026225
625.389697	0.026202
625.597521	0.026529
625.805327	0.026629
626.013114	0.026528
626.220883	0.026672
626.428634	0.026664
626.636367	0.026319
626.844082	0.026192
627.051778	0.026406
627.259457	0.026552
627.467117	0.026367
627.674758	0.026538
627.882382	0.026601
628.089987	0.026671
628.297574	0.026831
628.505143	0.027164
628.712694	0.027361
628.920226	0.027357
629.127740	0.027428
629.335236	0.027589
629.542714	0.027454
629.750174	0.027382
629.957615	0.027273
630.165038	0.027420
630.372443	0.027468
630.579829	0.027251
630.787198	0.027101
630.994548	0.027074
631.201880	0.027214
631.409194	0.027239
631.616489	0.027472
631.823766	0.027410
632.031025	0.027129
632.238266	0.027028
632.445489	0.027043
632.652693	0.027175
632.859879	0.027202
633.067047	0.026849
633.274197	0.026794
633.481329	0.026712
633.688442	0.026937
633.895537	0.027074
634.102614	0.027186
634.309672	0.027478
634.516713	0.027495
634.723735	0.027512
634.930739	0.027875
635.137724	0.027873
635.344692	0.027747
635.551641	0.027795
635.758572	0.027929
635.965485	0.027816
636.172379	0.027729
636.379256	0.027787
636.586114	0.027725
636.792954	0.027692
636.999775	0.027818
637.206579	0.027778
637.413364	0.027542
637.620131	0.027249
637.826880	0.027338
638.033610	0.027384
638.240323	0.027364
638.447017	0.027414
638.653692	0.027294
638.860350	0.027204
639.066990	0.027375
639.273611	0.027442
639.480214	0.027546
639.686798	0.027536
639.893365	0.027466
640.099913	0.027656
640.306443	0.027625
640.512955	0.027814
640.719449	0.027899
640.925924	0.027984
641.132381	0.028033
641.338820	0.028190
641.545241	0.028282
641.751644	0.028474
641.958028	0.028621
642.164394	0.028714
642.370742	0.028546
642.577071	0.028784
642.783383	0.028945
642.989676	0.029040
643.195951	0.029137
643.402207	0.029200
643.608446	0.028970
643.814666	0.028864
644.020868	0.028831
644.227052	0.028965
644.433218	0.028784
644.639365	0.028736
644.845494	0.028871
645.051605	0.028792
645.257698	0.028811
645.463772	0.028996
645.669828	0.028866
645.875866	0.028783
646.081886	0.028799
646.287888	0.028758
646.493871	0.028787
646.699836	0.028632
646.905783	0.028720
647.111712	0.028705
647.317622	0.028655
647.523514	0.028755
647.729388	0.028921
647.935244	0.028738
648.141082	0.028725
648.346901	0.028741
648.552702	0.028844
648.758485	0.028784
648.964250	0.028819
649.169996	0.028740
649.375724	0.028773
649.581434	0.028818
649.787126	0.029311
649.992800	0.029434
650.198455	0.029625
650.404092	0.029693
650.609711	0.029711
650.815311	0.029549
651.020894	0.029687
651.226458	0.029652
651.432004	0.029770
651.637532	0.029600
651.843041	0.029659
652.048532	0.029230
652.254006	0.029208
652.459460	0.029139
652.664897	0.029349
652.870315	0.029373
653.075716	0.029447
653.281097	0.029436
653.486461	0.029530
653.691807	0.029627
653.897134	0.029976
654.102443	0.030010
654.307734	0.030127
654.513006	0.030244
654.718261	0.030364
654.923497	0.030484
655.128715	0.030410
655.333915	0.030276
655.539096	0.030205
655.744259	0.030102
655.949404	0.030008
656.154531	0.030073
656.359640	0.030001
656.564730	0.029842
656.769802	0.029797
656.974856	0.029919
657.179892	0.029994
657.384909	0.030026
657.589908	0.030257
657.794889	0.030479
657.999852	0.030508
658.204797	0.030548
658.409723	0.030682
658.614631	0.030679
658.819521	0.030769
659.024393	0.030826
659.229246	0.030945
659.434081	0.030729
659.638898	0.030855
659.843697	0.030961
660.048478	0.030919
660.253240	0.030902
660.457984	0.030965
660.662710	0.030929
660.867417	0.031080
661.072107	0.030907
661.276778	0.031103
661.481431	0.030875
661.686066	0.030888
661.890682	0.030987
662.095281	0.031027
662.299861	0.031100
662.504422	0.031061
662.708966	0.030814
662.913491	0.031006
663.117999	0.031039
663.322488	0.031227
663.526958	0.031370
663.731411	0.031417
663.935845	0.031436
664.140261	0.031394
664.344659	0.031615
664.549038	0.031797
664.753400	0.031829
664.957743	0.031850
665.162068	0.031866
665.366375	0.031845
665.570663	0.031897
665.774933	0.032012
665.979185	0.032133
666.183419	0.032064
666.387635	0.032140
666.591832	0.032245
666.796011	0.032416
667.000172	0.032534
667.204315	0.032632
667.408439	0.032687
667.612545	0.032810
667.816634	0.032872
668.020703	0.032990
668.224755	0.033061
668.428788	0.033181
668.632803	0.033189
668.836800	0.033217
669.040779	0.033344
669.244739	0.033499
669.448681	0.033676
669.652605	0.033764
669.856511	0.033784
670.060399	0.033874
670.264268	0.033817
670.468119	0.033851
670.671952	0.033827
670.875767	0.033774
671.079563	0.033588
671.283341	0.033338
671.487101	0.033147
671.690843	0.033129
671.894567	0.033022
672.098272	0.032997
672.301959	0.032975
672.505628	0.032939
672.709278	0.032890
672.912911	0.032960
673.116525	0.033017
673.320121	0.033284
673.523699	0.033241
673.727258	0.033236
673.930799	0.033233
674.134322	0.033161
674.337827	0.033068
674.541314	0.032951
674.744782	0.033078
674.948232	0.033236
675.151664	0.033267
675.355078	0.033420
675.558474	0.033533
675.761851	0.033672
675.965210	0.033845
676.168551	0.033983
676.371873	0.034128
676.575178	0.034309
676.778464	0.034283
676.981732	0.034279
677.184981	0.034175
677.388213	0.034358
677.591426	0.034357
677.794621	0.034293
677.997798	0.034445
678.200956	0.034463
678.404097	0.034213
678.607219	0.034253
678.810323	0.034261
679.013408	0.034243
679.216476	0.034242
679.419525	0.034176
679.622556	0.034311
679.825569	0.034285
680.028563	0.034415
680.231540	0.034514
680.434498	0.034450
680.637438	0.034407
680.840359	0.034621
681.043263	0.034488
681.246148	0.034565
681.449015	0.034436
681.651864	0.034473
681.854694	0.034437
682.057506	0.034507
682.260301	0.034716
682.463076	0.034825
682.665834	0.034895
682.868573	0.034886
683.071295	0.035025
683.273998	0.035217
683.476682	0.035199
683.679349	0.035313
683.881997	0.035342
684.084627	0.035365
684.287239	0.035495
684.489833	0.035561
684.692408	0.035777
684.894965	0.035829
685.097504	0.036021
685.300025	0.036201
685.502527	0.036237
685.705012	0.036341
685.907478	0.036307
686.109925	0.036270
686.312355	0.036106
686.514766	0.035969
686.717159	0.035920
686.919534	0.035665
687.121891	0.035568
687.324230	0.035524
687.526550	0.035518
687.728852	0.035528
687.931136	0.035510
688.133401	0.035521
688.335649	0.035604
688.537878	0.035716
688.740089	0.035785
688.942281	0.036073
689.144456	0.036134
689.346612	0.036172
689.548750	0.036202
689.750870	0.036276
689.952971	0.036227
690.155055	0.036235
690.357120	0.036063
690.559167	0.036092
690.761195	0.035876
690.963206	0.036030
691.165198	0.035975
691.367172	0.036017
691.569128	0.035917
691.771065	0.036146
691.972984	0.036112
692.174885	0.036272
692.376768	0.036367
692.578633	0.036402
692.780479	0.036296
692.982308	0.036307
693.184118	0.036318
693.385909	0.036414
693.587683	0.036523
693.789438	0.036672
693.991175	0.036625
694.192894	0.036574
694.394595	0.036518
694.596277	0.036394
694.797941	0.036381
694.999587	0.036417
695.201215	0.036485
695.402824	0.036435
695.604416	0.036488
695.805989	0.036329
696.007543	0.036360
696.209080	0.036537
696.410598	0.036676
696.612099	0.036635
696.813580	0.036705
697.015044	0.036637
697.216490	0.036721
697.417917	0.036812
697.619326	0.037050
697.820717	0.036878
698.022089	0.036863
698.223444	0.036966
698.424780	0.037118
698.626098	0.037075
698.827397	0.037189
699.028679	0.037114
699.229942	0.037040
699.431187	0.037147
699.632414	0.037358
699.833622	0.037290
700.034813	0.037320
700.235985	0.037377
700.437139	0.037348
700.638274	0.037327
700.839392	0.037316
701.040491	0.037385
701.241572	0.037347
701.442635	0.037416
701.643679	0.037563
701.844706	0.037360
702.045714	0.037413
702.246704	0.037582
702.447675	0.037539
702.648629	0.037621
702.849564	0.037509
703.050481	0.037541
703.251380	0.037465
703.452260	0.037482
703.653122	0.037787
703.853966	0.037679
704.054792	0.037539
704.255600	0.037686
704.456389	0.037579
704.657160	0.037710
704.857913	0.037621
705.058648	0.037598
705.259365	0.037444
705.460063	0.037231
705.660743	0.037268
705.861405	0.037373
706.062048	0.037278
706.262674	0.037400
706.463281	0.037252
706.663870	0.037302
706.864441	0.037256
707.064993	0.037336
707.265527	0.037414
707.466043	0.037495
707.666541	0.037368
707.867021	0.037435
708.067482	0.037528
708.267925	0.037815
708.468350	0.037852
708.668757	0.038084
708.869145	0.038312
709.069516	0.038381
709.269868	0.038478
709.470201	0.038690
709.670517	0.038799
709.870814	0.038769
710.071093	0.038779
710.271354	0.038844
710.471597	0.038742
710.671821	0.038720
710.872028	0.038713
711.072216	0.038599
711.272385	0.038492
711.472537	0.038340
711.672670	0.038303
711.872785	0.038313
712.072882	0.038292
712.272961	0.038392
712.473021	0.038347
712.673063	0.038259
712.873087	0.038184
713.073093	0.038288
713.273081	0.038409
713.473050	0.038437
713.673001	0.038219
713.872934	0.038171
714.072849	0.038114
714.272745	0.038007
714.472623	0.038116
714.672483	0.038253
714.872325	0.038062
715.072148	0.038080
715.271954	0.038071
715.471741	0.038081
715.671509	0.037967
715.871260	0.037816
716.070992	0.037781
716.270707	0.037700
716.470403	0.037603
716.670080	0.037612
716.869740	0.037500
717.069381	0.037414
717.269004	0.037436
717.468609	0.037383
717.668195	0.037446
717.867764	0.037421
718.067314	0.037377
718.266846	0.037375
718.466360	0.037406
718.665855	0.037445
718.865332	0.037592
719.064791	0.037467
719.264232	0.037618
719.463655	0.037717
719.663059	0.037631
719.862445	0.037690
720.061813	0.037626
720.261163	0.037651
720.460494	0.037696
720.659807	0.037586
720.859102	0.037658
721.058379	0.037705
721.257638	0.037543
721.456878	0.037401
721.656100	0.037237
721.855304	0.037275
722.054490	0.037191
722.253657	0.037086
722.452806	0.037026
722.651937	0.037021
722.851050	0.036886
723.050145	0.036944
723.249221	0.037197
723.448279	0.037529
723.647319	0.037447
723.846340	0.037646
724.045344	0.037572
724.244329	0.037583
724.443296	0.037747
724.642245	0.037940
724.841175	0.037996
725.040088	0.038160
725.238982	0.037983
725.437857	0.038133
725.636715	0.037997
725.835554	0.038049
726.034376	0.038045
726.233179	0.037938
726.431963	0.037875
726.630730	0.037895
726.829478	0.037716
727.028208	0.037827
727.226920	0.037859
727.425614	0.037826
727.624289	0.037754
727.822946	0.037725
728.021585	0.037726
728.220206	0.037604
728.418808	0.037454
728.617392	0.037339
728.815958	0.037142
729.014506	0.036934
729.213036	0.036893
729.411547	0.036887
729.610040	0.036870
729.808515	0.036860
730.006972	0.036893
730.205410	0.036882
730.403831	0.036935
730.602233	0.037017
730.800616	0.037025
730.998982	0.036859
731.197329	0.036823
731.395658	0.036683
731.593969	0.036576
731.792262	0.036460
731.990536	0.036448
732.188793	0.036398
732.387031	0.036294
732.585250	0.036367
732.783452	0.036457
732.981635	0.036436
733.179800	0.036504
733.377947	0.036389
733.576076	0.036332
733.774186	0.036435
733.972278	0.036498
734.170352	0.036438
734.368408	0.036355
734.566446	0.036495
734.764465	0.036462
734.962466	0.036550
735.160449	0.036600
735.358413	0.036611
735.556360	0.036529
735.754288	0.036652
735.952198	0.036808
736.150090	0.036810
736.347963	0.036775
736.545818	0.037008
736.743655	0.036967
736.941474	0.037067
737.139275	0.037119
737.337057	0.037083
737.534821	0.036930
737.732567	0.036919
737.930295	0.037062
738.128005	0.037003
738.325696	0.036756
738.523369	0.036687
738.721024	0.036537
738.918660	0.036517
739.116279	0.036447
739.313879	0.036374
739.511461	0.036396
739.709024	0.036236
739.906570	0.036161
740.104097	0.036199
740.301606	0.036051
740.499097	0.036095
740.696569	0.036131
740.894024	0.036196
741.091460	0.036422
741.288878	0.036253
741.486277	0.036267
741.683659	0.036416
741.881022	0.036375
742.078367	0.036516
742.275694	0.036426
742.473002	0.036417
742.670293	0.036335
742.867565	0.036179
743.064819	0.036233
743.262054	0.036291
743.459272	0.036093
743.656471	0.036063
743.853652	0.036134
744.050815	0.036074
744.247959	0.036093
744.445085	0.036106
744.642194	0.036256
744.839283	0.036258
745.036355	0.036109
745.233408	0.036272
745.430444	0.036122
745.627461	0.036004
745.824459	0.036014
746.021440	0.035822
746.218402	0.035807
746.415346	0.035383
746.612272	0.035197
746.809180	0.034986
747.006069	0.034583
747.202940	0.034601
747.399793	0.034564
747.596628	0.034474
747.793444	0.034357
747.990243	0.034232
748.187023	0.034256
748.383784	0.034197
748.580528	0.034241
748.777253	0.034391
748.973960	0.034508
749.170649	0.034425
749.367320	0.034447
749.563973	0.034466
749.760607	0.034515
749.957223	0.034418
750.153821	0.034341
750.350400	0.034582
750.546962	0.034496
750.743505	0.034390
750.940030	0.034365
751.136536	0.034317
751.333025	0.034505
751.529495	0.034438
751.725947	0.034460
751.922381	0.034637
752.118796	0.034452
752.315194	0.034484
752.511573	0.034517
752.707934	0.034650
752.904276	0.034937
753.100601	0.034751
753.296907	0.034803
753.493195	0.034958
753.689465	0.034812
753.885716	0.034808
754.081949	0.034915
754.278164	0.034986
754.474361	0.034877
754.670540	0.034554
754.866700	0.034654
755.062843	0.034656
755.258967	0.034564
755.455072	0.034573
755.651160	0.034598
755.847229	0.034501
756.043280	0.034381
756.239313	0.034429
756.435328	0.034447
756.631324	0.034298
756.827302	0.034261
757.023262	0.034328
757.219204	0.034375
757.415127	0.034404
757.611033	0.034331
757.806920	0.034306
758.002788	0.034248
758.198639	0.034418
758.394471	0.034535
758.590286	0.034511
758.786081	0.034705
758.981859	0.034608
759.177619	0.034564
759.373360	0.034514
759.569083	0.034394
759.764788	0.034511
759.960474	0.034450
760.156143	0.034404
760.351793	0.034512
760.547425	0.034242
760.743038	0.034231
760.938634	0.034182
761.134211	0.034238
761.329770	0.034351
761.525311	0.034191
761.720833	0.034130
761.916338	0.034103
762.111824	0.033958
762.307292	0.033802
762.502741	0.033928
762.698173	0.033794
762.893586	0.033803
763.088981	0.033726
763.284358	0.033883
763.479716	0.033782
763.675057	0.033751
763.870379	0.033604
764.065683	0.033821
764.260968	0.033765
764.456236	0.033907
764.651485	0.034043
764.846716	0.034214
765.041929	0.034103
765.237123	0.034159
765.432299	0.034301
765.627457	0.034430
765.822597	0.034299
766.017719	0.034382
766.212822	0.034229
766.407907	0.034095
766.602974	0.033858
766.798023	0.033786
766.993054	0.033819
767.188066	0.033630
767.383060	0.033706
767.578036	0.033772
767.772993	0.033645
767.967933	0.033726
768.162854	0.033750
768.357757	0.033869
768.552642	0.033789
768.747508	0.033657
768.942356	0.033678
769.137186	0.033505
769.331998	0.033443
769.526792	0.033468
769.721567	0.033495
769.916324	0.033309
770.111063	0.033189
770.305784	0.033069
770.500486	0.033011
770.695171	0.032989
770.889837	0.033069
771.084484	0.033172
771.279114	0.033061
771.473725	0.032906
771.668318	0.032845
771.862893	0.033046
772.057450	0.033181
772.251988	0.033277
772.446509	0.033279
772.641011	0.033271
772.835494	0.033146
773.029960	0.033137
773.224407	0.033183
773.418836	0.033548
773.613247	0.033251
773.807640	0.033177
774.002014	0.033349
774.196370	0.033317
774.390708	0.033256
774.585028	0.033200
774.779330	0.033263
774.973613	0.033296
775.167878	0.033015
775.362125	0.033132
775.556354	0.033400
775.750564	0.033174
775.944756	0.033074
776.138930	0.033108
776.333086	0.033131
776.527223	0.033146
776.721343	0.032991
776.915444	0.033055
777.109526	0.033016
777.303591	0.032670
777.497637	0.032667
777.691666	0.032976
777.885676	0.032950
778.079667	0.032892
778.273641	0.032710
778.467596	0.032984
778.661533	0.032886
778.855452	0.032833
779.049352	0.032827
779.243235	0.032854
779.437099	0.032571
779.630945	0.032478
779.824773	0.032404
780.018582	0.032431
780.212373	0.032260
780.406146	0.032392
780.599901	0.032387
780.793638	0.032582
780.987356	0.032578
781.181056	0.032742
781.374738	0.032808
781.568402	0.033114
781.762047	0.033368
781.955674	0.033417
782.149283	0.033379
782.342874	0.033564
782.536447	0.033532
782.730001	0.033553
782.923537	0.033450
783.117055	0.033504
783.310555	0.033345
783.504036	0.033108
783.697499	0.033178
783.890944	0.033158
784.084371	0.033011
784.277780	0.032981
784.471170	0.032880
784.664542	0.032840
784.857896	0.032861
785.051231	0.032720
785.244549	0.032712
785.437848	0.032575
785.631129	0.032638
785.824392	0.032767
786.017636	0.032649
786.210863	0.032782
786.404071	0.032694
786.597260	0.032569
786.790432	0.032601
786.983585	0.032454
787.176721	0.032390
787.369838	0.032343
787.562936	0.032154
787.756017	0.032137
787.949079	0.031944
788.142123	0.032166
788.335149	0.032304
788.528156	0.032380
788.721146	0.032638
788.914117	0.032541
789.107070	0.032507
789.300005	0.032443
789.492921	0.032677
789.685819	0.032840
789.878699	0.032776
790.071561	0.032672
790.264405	0.032605
790.457230	0.032533
790.650037	0.032591
790.842826	0.032603
791.035597	0.032661
791.228349	0.032517
791.421084	0.032334
791.613800	0.032275
791.806497	0.032403
791.999177	0.032431
792.191838	0.032461
792.384481	0.032512
792.577106	0.032376
792.769713	0.032420
792.962301	0.032378
793.154871	0.032494
793.347423	0.032569
793.539957	0.032542
793.732473	0.032571
793.924970	0.032456
794.117449	0.032525
794.309910	0.032646
794.502353	0.032738
794.694777	0.032787
794.887183	0.032872
795.079571	0.032909
795.271941	0.032872
795.464293	0.033043
795.656626	0.033195
795.848941	0.033129
796.041238	0.033204
796.233516	0.033332
796.425777	0.033194
796.618019	0.033344
796.810243	0.033371
797.002449	0.033393
797.194636	0.033323
797.386805	0.033429
797.578956	0.033576
797.771089	0.033599
797.963204	0.033558
798.155300	0.033787
798.347378	0.033575
798.539438	0.033471
798.731480	0.033558
798.923503	0.033592
799.115509	0.033542
799.307496	0.033656
799.499465	0.033532
799.691415	0.033431
799.883348	0.033445
800.075262	0.033632
800.267158	0.033598
800.459035	0.033575
800.650895	0.033507
800.842736	0.033574
801.034559	0.033579
801.226364	0.033647
801.418150	0.033635
801.609919	0.033559
801.801669	0.033458
801.993401	0.033594
802.185114	0.033731
802.376810	0.033669
802.568487	0.033554
802.760146	0.033509
802.951787	0.033779
803.143409	0.033839
803.335014	0.033969
803.526600	0.034111
803.718168	0.034176
803.909717	0.033874
804.101249	0.034065
804.292762	0.034199
804.484257	0.034058
804.675734	0.033976
804.867192	0.033892
805.058632	0.033971
805.250054	0.033707
805.441458	0.033755
805.632844	0.033925
805.824211	0.033826
806.015561	0.033781
806.206891	0.034025
806.398204	0.033963
806.589499	0.034104
806.780775	0.034110
806.972033	0.034222
807.163273	0.034199
807.354495	0.034275
807.545698	0.034336
807.736883	0.034389
807.928050	0.034256
808.119199	0.034163
808.310329	0.034112
808.501441	0.034045
808.692535	0.034026
808.883611	0.033899
809.074669	0.033678
809.265708	0.033723
809.456729	0.033561
809.647732	0.033491
809.838717	0.033484
810.029683	0.033657
810.220632	0.033727
810.411562	0.033930
810.602474	0.034028
810.793367	0.034380
810.984242	0.034293
811.175100	0.034401
811.365938	0.034387
811.556759	0.034363
811.747562	0.034181
811.938346	0.034096
812.129112	0.033946
812.319860	0.033841
812.510589	0.033697
812.701300	0.033915
812.891994	0.033981
813.082668	0.034175
813.273325	0.034460
813.463964	0.034701
813.654584	0.034851
813.845186	0.034980
814.035769	0.034984
814.226335	0.034995
814.416882	0.034704
814.607411	0.034822
814.797922	0.034898
814.988415	0.034950
815.178889	0.034957
815.369345	0.034885
815.559783	0.035136
815.750203	0.035316
815.940605	0.035540
816.130988	0.035688
816.321353	0.035745
816.511700	0.035865
816.702028	0.035933
816.892339	0.036146
817.082631	0.036077
817.272905	0.036006
817.463161	0.036161
817.653398	0.036050
817.843617	0.036503
818.033819	0.036627
818.224001	0.036378
818.414166	0.036219
818.604312	0.036029
818.794440	0.036142
818.984550	0.036171
819.174642	0.036169
819.364716	0.036392
819.554771	0.036052
819.744808	0.036066
819.934827	0.036064
820.124827	0.036062
820.314810	0.035999
820.504774	0.035967
820.694720	0.035939
820.884647	0.035835
821.074557	0.035517
821.264448	0.035538
821.454321	0.035405
821.644176	0.035703
821.834012	0.035739
822.023831	0.035844
822.213631	0.035965
822.403413	0.036022
822.593176	0.036160
822.782922	0.036346
822.972649	0.036510
823.162358	0.036409
823.352049	0.036367
823.541721	0.036368
823.731376	0.036175
823.921012	0.035976
824.110629	0.036025
824.300229	0.035853
824.489811	0.035740
824.679374	0.035551
824.868919	0.035613
825.058445	0.035567
825.247954	0.035701
825.437444	0.035813
825.626916	0.036210
825.816370	0.035951
826.005806	0.036116
826.195223	0.036272
826.384622	0.036458
826.574003	0.036569
826.763366	0.036659
826.952711	0.036725
827.142037	0.036971
827.331345	0.036761
827.520635	0.036874
827.709906	0.036869
827.899160	0.036812
828.088395	0.036793
828.277612	0.037036
828.466810	0.037175
828.655991	0.037141
828.845153	0.036913
829.034297	0.037183
829.223423	0.037143
829.412531	0.037141
829.601620	0.037258
829.790691	0.037437
829.979744	0.037229
830.168779	0.037164
830.357795	0.037465
830.546793	0.037713
830.735773	0.037529
830.924735	0.037779
831.113679	0.037827
831.302604	0.037920
831.491511	0.037877
831.680400	0.037915
831.869271	0.038012
832.058123	0.037790
832.246957	0.037713
832.435773	0.037999
832.624571	0.038123
832.813351	0.038092
833.002112	0.038189
833.190855	0.038288
833.379580	0.038453
833.568287	0.038407
833.756975	0.038559
833.945645	0.038609
834.134297	0.038554
834.322931	0.038773
834.511547	0.039124
834.700144	0.039028
834.888723	0.038917
835.077284	0.038928
835.265826	0.038986
835.454351	0.038982
835.642857	0.039174
835.831345	0.039514
836.019815	0.039203
836.208266	0.039278
836.396699	0.039237
836.585114	0.039302
836.773511	0.039352
836.961890	0.039534
837.150250	0.039635
837.338592	0.039904
837.526916	0.039732
837.715222	0.039826
837.903510	0.039656
838.091779	0.039715
838.280030	0.039734
838.468263	0.039569
838.656477	0.039585
838.844674	0.039707
839.032852	0.039386
839.221012	0.039292
839.409153	0.039233
839.597277	0.039600
839.785382	0.039873
839.973469	0.039892
840.161538	0.040239
840.349589	0.040163
840.537621	0.039812
840.725635	0.039780
840.913631	0.040103
841.101609	0.040322
841.289568	0.040273
841.477509	0.040212
841.665432	0.040405
841.853337	0.040358
842.041224	0.040390
842.229092	0.040784
842.416942	0.041237
842.604774	0.041147
842.792588	0.041275
842.980383	0.041238
843.168160	0.041541
843.355919	0.041725
843.543660	0.041986
843.731382	0.042189
843.919087	0.042332
844.106773	0.042303
844.294441	0.042342
844.482090	0.042359
844.669722	0.042493
844.857335	0.042476
845.044930	0.042519
845.232507	0.042375
845.420065	0.042514
845.607605	0.042598
845.795127	0.042423
845.982631	0.042631
846.170117	0.042923
846.357584	0.042982
846.545033	0.043197
846.732464	0.043279
846.919877	0.043391
847.107272	0.043490
847.294648	0.043528
847.482006	0.043915
847.669346	0.043862
847.856667	0.043813
848.043971	0.044013
848.231256	0.044020
848.418523	0.044165
848.605771	0.044381
848.793002	0.044474
848.980214	0.044422
849.167408	0.044476
849.354584	0.044695
849.541742	0.044645
849.728881	0.044657
849.916002	0.044529
850.103105	0.044700
850.290190	0.044673
850.477256	0.044896
850.664304	0.045290
850.851334	0.045493
851.038346	0.045597
851.225340	0.046007
851.412315	0.045948
851.599272	0.046115
851.786211	0.046183
851.973132	0.046176
852.160034	0.046309
852.346918	0.046506
852.533784	0.046508
852.720632	0.046471
852.907462	0.046427
853.094273	0.046792
853.281066	0.047067
853.467841	0.047233
853.654598	0.047591
853.841336	0.047662
854.028056	0.047398
854.214758	0.047357
854.401442	0.047425
854.588107	0.047404
854.774755	0.047368
854.961384	0.047289
855.147995	0.047118
855.334587	0.046832
855.521162	0.046391
855.707718	0.046545
855.894256	0.046549
856.080775	0.046677
856.267277	0.046740
856.453760	0.046714
856.640225	0.046770
856.826672	0.046654
857.013101	0.046846
857.199511	0.047085
857.385903	0.046971
857.572277	0.047204
857.758633	0.047353
857.944970	0.047624
858.131290	0.047658
858.317591	0.047651
858.503873	0.047975
858.690138	0.048085
858.876384	0.048450
859.062612	0.048498
859.248822	0.048565
859.435014	0.048792
859.621188	0.048806
859.807343	0.049087
859.993480	0.049082
860.179599	0.048927
860.365699	0.049092
860.551781	0.048963
860.737846	0.049220
860.923891	0.049176
861.109919	0.048711
861.295929	0.048614
861.481920	0.048558
861.667893	0.048797
861.853848	0.049018
862.039784	0.048850
862.225702	0.048772
862.411603	0.048857
862.597484	0.049159
862.783348	0.049645
862.969193	0.049897
863.155021	0.049911
863.340830	0.050024
863.526620	0.050237
863.712393	0.050614
863.898147	0.050792
864.083883	0.050819
864.269601	0.050643
864.455301	0.050600
864.640982	0.050610
864.826645	0.050804
865.012290	0.050972
865.197917	0.051071
865.383526	0.050881
865.569116	0.051024
865.754688	0.051387
865.940242	0.051372
866.125777	0.051548
866.311295	0.051483
866.496794	0.051667
866.682275	0.051684
866.867737	0.051484
867.053182	0.051791
867.238608	0.051893
867.424016	0.051506
867.609406	0.051827
867.794778	0.051760
867.980131	0.051880
868.165466	0.051725
868.350783	0.051833
868.536082	0.051893
868.721362	0.052048
868.906625	0.052048
869.091869	0.052321
869.277094	0.052536
869.462302	0.052568
869.647491	0.052721
869.832662	0.052475
870.017815	0.052421
870.202950	0.052489
870.388066	0.052720
870.573165	0.052955
870.758245	0.052956
870.943306	0.052619
871.128350	0.052893
871.313375	0.052916
871.498382	0.053406
871.683371	0.053762
871.868342	0.053905
872.053294	0.053560
872.238229	0.053546
872.423144	0.053869
872.608042	0.054225
872.792922	0.054273
872.977783	0.054112
873.162626	0.054175
873.347451	0.053813
873.532258	0.053853
873.717046	0.053865
873.901816	0.054111
874.086568	0.053815
874.271302	0.053795
874.456017	0.053660
874.640715	0.053842
874.825394	0.053894
875.010055	0.054056
875.194697	0.054098
875.379322	0.054225
875.563928	0.053955
875.748516	0.054164
875.933085	0.054081
876.117637	0.053917
876.302170	0.053706
876.486685	0.053476
876.671182	0.053550
876.855661	0.053674
877.040121	0.053735
877.224563	0.053816
877.408987	0.053602
877.593393	0.053764
877.777780	0.054146
877.962150	0.054324
878.146501	0.054659
878.330833	0.054736
878.515148	0.054970
878.699444	0.055125
878.883722	0.055363
879.067982	0.055599
879.252224	0.055559
879.436447	0.055478
879.620653	0.055615
879.804840	0.055084
879.989008	0.054982
880.173159	0.054568
880.357291	0.054325
880.541405	0.053882
880.725501	0.053593
880.909579	0.053357
881.093638	0.053349
881.277680	0.053430
881.461703	0.053851
881.645707	0.053739
881.829694	0.054029
882.013662	0.054448
882.197612	0.054491
882.381544	0.054780
882.565458	0.055218
882.749353	0.055248
882.933230	0.055270
883.117089	0.055340
883.300930	0.055626
883.484753	0.055729
883.668557	0.055561
883.852343	0.055734
884.036111	0.055922
884.219861	0.055747
884.403592	0.055838
884.587305	0.055907
884.771000	0.055818
884.954677	0.055743
885.138335	0.055708
885.321976	0.055618
885.505598	0.055857
885.689201	0.055845
885.872787	0.055824
886.056354	0.055535
886.239904	0.055410
886.423434	0.055303
886.606947	0.055177
886.790442	0.055060
886.973918	0.054802
887.157376	0.054640
887.340816	0.054290
887.524237	0.054041
887.707641	0.054348
887.891026	0.054198
888.074393	0.054708
888.257741	0.054711
888.441072	0.054651
888.624384	0.054994
888.807678	0.054945
888.990954	0.054857
889.174211	0.054912
889.357451	0.054725
889.540672	0.054881
889.723875	0.054728
889.907059	0.055063
890.090226	0.055229
890.273374	0.055077
890.456504	0.055187
890.639616	0.055442
890.822709	0.055674
891.005785	0.055929
891.188842	0.055787
891.371881	0.055532
891.554901	0.055214
891.737904	0.055110
891.920888	0.055007
892.103854	0.055167
892.286802	0.055538
892.469731	0.055621
892.652643	0.055474
892.835536	0.055823
893.018410	0.055711
893.201267	0.056075
893.384106	0.056609
893.566926	0.057080
893.749728	0.056975
893.932511	0.056570
894.115277	0.056870
894.298024	0.056792
894.480753	0.056693
894.663464	0.056848
894.846157	0.056537
895.028831	0.056129
895.211487	0.055946
895.394125	0.055707
895.576745	0.055854
895.759346	0.055726
895.941930	0.055895
896.124495	0.055814
896.307041	0.055815
896.489570	0.055951
896.672080	0.055875
896.854573	0.055914
897.037046	0.055960
897.219502	0.055997
897.401940	0.055893
897.584359	0.055439
897.766760	0.055142
897.949143	0.054697
898.131507	0.054438
898.313854	0.054431
898.496182	0.053943
898.678492	0.053711
898.860783	0.053296
899.043057	0.052820
899.225312	0.052931
899.407549	0.052903
899.589768	0.053098
899.771968	0.053166
899.954151	0.053152
900.136315	0.053238
900.318461	0.053376
900.500588	0.053429
900.682698	0.053498
900.864789	0.053444
901.046862	0.053435
901.228917	0.053499
901.410953	0.053226
901.592971	0.053231
901.774972	0.053449
901.956953	0.053179
902.138917	0.053470
902.320862	0.053168
902.502790	0.053194
902.684699	0.053359
902.866589	0.053234
903.048462	0.053411
903.230316	0.053285
903.412152	0.053139
903.593970	0.053183
903.775770	0.052775
903.957551	0.053051
904.139314	0.053003
904.321059	0.052712
904.502786	0.052979
904.684494	0.053057
904.866185	0.052690
905.047857	0.052594
905.229510	0.052903
905.411146	0.053209
905.592763	0.053187
905.774363	0.053195
905.955943	0.053645
906.137506	0.053053
906.319051	0.052786
906.500577	0.052976
906.682085	0.052995
906.863575	0.052646
907.045046	0.052397
907.226500	0.052430
907.407935	0.052450
907.589352	0.052138
907.770750	0.052273
907.952131	0.052201
908.133493	0.052457
908.314837	0.052735
908.496163	0.052579
908.677470	0.052001
908.858760	0.051686
909.040031	0.051391
909.221284	0.051344
909.402518	0.051301
909.583735	0.051465
909.764933	0.050634
909.946113	0.049806
910.127275	0.049829
910.308418	0.050260
910.489544	0.050327
910.670651	0.050378
910.851740	0.050498
911.032810	0.050574
911.213863	0.050182
911.394897	0.050006
911.575913	0.050216
911.756911	0.050348
911.937890	0.050226
912.118851	0.049973
912.299794	0.049652
912.480719	0.049168
912.661626	0.048785
912.842514	0.048950
913.023384	0.049027
913.204236	0.048900
913.385070	0.048384
913.565886	0.048094
913.746683	0.047926
913.927462	0.048113
914.108223	0.047950
914.288965	0.047779
914.469690	0.047394
914.650396	0.047572
914.831084	0.047505
915.011754	0.047809
915.192405	0.047689
915.373038	0.048096
915.553653	0.047898
915.734250	0.048364
915.914829	0.048499
916.095389	0.048722
916.275931	0.048195
916.456455	0.048276
916.636961	0.047950
916.817448	0.047705
916.997917	0.047348
917.178368	0.047319
917.358801	0.046628
917.539216	0.046667
917.719612	0.046063
917.899990	0.045987
918.080350	0.045391
918.260692	0.044947
918.441015	0.044996
918.621320	0.045168
918.801607	0.044650
918.981876	0.044581
919.162127	0.043761
919.342359	0.043601
919.522573	0.043691
919.702769	0.043720
919.882947	0.043519
920.063106	0.043309
920.243247	0.042463
920.423370	0.042644
920.603475	0.042082
920.783562	0.042298
920.963630	0.042407
921.143680	0.041978
921.323712	0.041686
921.503725	0.041545
921.683721	0.041344
921.863698	0.041195
922.043657	0.040707
922.223598	0.040692
922.403520	0.040241
922.583424	0.040052
922.763311	0.040006
922.943178	0.039634
923.123028	0.039432
923.302859	0.039289
923.482673	0.039133
923.662467	0.038910
923.842244	0.038711
924.022003	0.038810
924.201743	0.038281
924.381465	0.038168
924.561169	0.038141
924.740854	0.037869
924.920522	0.037511
925.100171	0.037003
925.279802	0.036936
925.459414	0.036724
925.639009	0.036533
925.818585	0.036769
925.998143	0.036513
926.177683	0.036144
926.357205	0.036219
926.536708	0.035798
926.716193	0.035329
926.895660	0.035257
927.075109	0.035292
927.254539	0.035191
927.433951	0.034868
927.613345	0.034754
927.792721	0.034380
927.972079	0.033979
928.151418	0.034187
928.330739	0.034561
928.510042	0.033845
928.689327	0.033408
928.868593	0.032914
929.047841	0.032393
929.227071	0.032076
929.406283	0.031799
929.585476	0.031717
929.764652	0.031267
929.943809	0.031156
930.122948	0.031276
930.302068	0.030998
930.481171	0.030543
930.660255	0.030326
930.839321	0.029855
931.018369	0.029792
931.197398	0.029386
931.376409	0.029109
931.555402	0.028516
931.734377	0.028458
931.913334	0.027901
932.092272	0.027954
932.271192	0.027320
932.450094	0.027325
932.628978	0.027176
932.807844	0.027016
932.986691	0.027037
933.165520	0.027048
933.344331	0.026128
933.523123	0.026401
933.701898	0.025873
933.880654	0.026161
934.059392	0.025778
934.238111	0.025848
934.416813	0.025932
934.595496	0.025583
934.774161	0.025383
934.952808	0.025509
935.131437	0.024635
935.310047	0.024558
935.488639	0.024167
935.667213	0.023612
935.845769	0.023375
936.024306	0.022554
936.202825	0.022264
936.381326	0.021891
936.559809	0.021738
936.738274	0.021861
936.916720	0.021666
937.095148	0.021499
937.273558	0.021685
937.451950	0.021604
937.630323	0.022059
937.808678	0.021732
937.987015	0.021797
938.165334	0.021443
938.343635	0.021350
938.521917	0.021031
938.700181	0.020296
938.878427	0.019761
939.056655	0.018931
939.234864	0.018404
939.413055	0.018045
939.591228	0.017425
939.769383	0.017454
939.947519	0.017655
940.125638	0.017683
940.303738	0.017934
940.481820	0.018296
940.659883	0.017844
940.837929	0.018032
941.015956	0.017890
941.193965	0.017383
941.371955	0.017215
941.549928	0.016514
941.727882	0.016215
941.905818	0.015808
942.083736	0.015239
942.261636	0.014903
942.439517	0.014060
942.617380	0.013808
942.795225	0.013930
942.973052	0.013512
943.150860	0.012842
943.328651	0.012481
943.506423	0.012627
943.684176	0.012201
943.861912	0.012896
944.039629	0.012987
944.217328	0.012320
944.395009	0.012120
944.572672	0.012148
944.750317	0.011807
944.927943	0.011637
945.105551	0.011325
945.283141	0.011105
945.460712	0.010692
945.638265	0.009460
945.815801	0.009612
945.993317	0.009054
946.170816	0.008844
946.348297	0.009759
946.525759	0.009150
946.703203	0.008260
946.880629	0.008729
947.058036	0.008359
947.235425	0.008701
947.412797	0.008723
947.590149	0.009563
947.767484	0.008781
947.944800	0.008871
948.122099	0.009332
948.299379	0.010361
948.476640	0.009379
948.653884	0.009265
948.831109	0.009236
949.008316	0.009292
949.185505	0.009174
949.362676	0.009475
949.539828	0.008923
949.716962	0.009171
949.894078	0.009804
950.071176	0.010138
950.248256	0.011186
950.425317	0.011324
950.602360	0.010085
950.779385	0.008422
950.956391	0.008331
951.133380	0.007661
951.310350	0.007318
951.487302	0.006321
951.664235	0.006867
951.841151	0.005689
952.018048	0.005037
952.194927	0.006513
952.371788	0.008596
952.548631	0.008505
952.725455	0.009165
952.902261	0.008998
953.079049	0.009089
953.255819	0.009093
953.432570	0.009187
953.609303	0.010209
953.786018	0.010413
953.962715	0.008646
954.139394	0.009442
954.316054	0.008736
954.492696	0.009741
954.669320	0.008649
954.845926	0.008084
955.022513	0.007698
955.199083	0.006830
955.375634	0.005550
955.552166	0.005625
955.728681	0.005978
955.905177	0.007318
956.081655	0.006805
956.258115	0.008531
956.434557	0.009610
956.610980	0.010397
956.787385	0.011181
956.963772	0.012064
957.140141	0.012670
957.316492	0.012598
957.492824	0.011815
957.669138	0.011726
957.845434	0.010071
958.021712	0.009475
958.197971	0.009973
958.374212	0.010066
958.550435	0.010721
958.726640	0.011464
958.902826	0.010688
959.078995	0.011200
959.255145	0.010443
959.431277	0.010655
959.607390	0.010138
959.783486	0.010118
959.959563	0.010547
960.135622	0.008938
960.311662	0.008408
960.487685	0.009122
960.663689	0.008531
960.839675	0.008904
961.015643	0.010775
961.191593	0.012343
961.367524	0.010695
961.543437	0.009472
961.719332	0.009913
961.895209	0.010481
962.071067	0.009780
962.246907	0.009640
962.422730	0.009194
962.598533	0.008871
962.774319	0.008175
962.950086	0.008619
963.125835	0.010418
963.301566	0.011243
963.477279	0.011281
963.652973	0.012530
963.828650	0.013069
964.004308	0.014362
964.179947	0.014024
964.355569	0.012844
964.531172	0.014002
964.706757	0.012508
964.882324	0.012386
965.057873	0.013711
965.233403	0.014484
965.408916	0.015163
965.584410	0.013195
965.759885	0.011667
965.935343	0.011986
966.110782	0.013148
966.286203	0.013359
966.461606	0.015113
966.636991	0.016174
966.812357	0.014820
966.987705	0.014368
967.163035	0.017497
967.338347	0.018806
967.513641	0.020228
967.688916	0.019916
967.864173	0.021837
968.039412	0.021832
968.214632	0.020914
968.389835	0.020879
968.565019	0.020918
968.740185	0.020784
968.915333	0.022224
969.090462	0.022075
969.265573	0.021525
969.440667	0.020342
969.615741	0.020044
969.790798	0.018857
969.965836	0.017519
970.140856	0.016032
970.315858	0.016690
970.490842	0.014833
970.665808	0.013993
970.840755	0.013787
971.015684	0.013839
971.190595	0.012979
971.365487	0.012564
971.540362	0.013412
971.715218	0.015746
971.890056	0.014007
972.064875	0.013841
972.239677	0.014498
972.414460	0.014042
972.589225	0.012398
972.763972	0.012596
972.938700	0.012803
973.113411	0.012837
973.288103	0.013128
973.462777	0.012258
973.637432	0.014511
973.812070	0.014164
973.986689	0.014663
974.161290	0.015982
974.335873	0.017955
974.510437	0.018652
974.684984	0.018911
974.859512	0.018187
975.034022	0.017129
975.208513	0.014456
975.382987	0.014784
975.557442	0.014177
975.731879	0.014633
975.906298	0.012762
976.080698	0.012937
976.255080	0.014111
976.429445	0.014451
976.603790	0.016672
976.778118	0.018185
976.952427	0.017924
977.126719	0.019225
977.300992	0.019738
977.475246	0.020123
977.649483	0.020566
977.823701	0.019016
977.997901	0.018538
978.172083	0.019683
978.346247	0.019885
978.520392	0.019729
978.694519	0.020370
978.868628	0.020485
979.042719	0.019105
979.216791	0.017876
979.390845	0.018888
979.564882	0.018395
979.738899	0.017269
979.912899	0.017426
980.086880	0.015934
980.260843	0.014220
980.434788	0.013347
980.608715	0.014225
980.782623	0.014577
980.956514	0.013302
981.130386	0.013816
981.304240	0.014061
981.478075	0.012738
981.651892	0.013225
981.825692	0.014271
981.999472	0.014469
982.173235	0.015533
982.346980	0.014880
982.520706	0.015369
982.694414	0.014163
982.868104	0.013690
983.041775	0.013967
983.215428	0.014019
983.389064	0.015634
983.562680	0.015180
983.736279	0.015232
983.909860	0.016427
984.083422	0.016298
984.256966	0.017438
984.430491	0.017275
984.603999	0.017869
984.777488	0.020243
984.950959	0.017914
985.124412	0.017565
985.297847	0.016030
985.471263	0.016397
985.644661	0.016782
985.818041	0.016200
985.991403	0.016459
986.164747	0.015631
986.338072	0.013822
986.511379	0.014614
986.684668	0.013766
986.857938	0.014437
987.031191	0.012321
987.204425	0.013805
987.377641	0.014241
987.550839	0.014405
987.724018	0.014210
987.897179	0.014363
988.070322	0.014355
988.243447	0.015180
988.416554	0.014984
988.589642	0.016812
988.762712	0.015180
988.935764	0.015802
989.108798	0.015937
989.281813	0.016545
989.454811	0.017460
989.627790	0.016103
989.800751	0.016568
989.973693	0.017129
990.146617	0.015496
990.319524	0.014969
990.492412	0.013097
990.665281	0.012114
990.838133	0.013461
991.010966	0.014071
991.183781	0.014122
991.356578	0.014480
991.529356	0.013899
991.702117	0.015405
991.874859	0.016867
992.047583	0.018010
992.220288	0.017819
992.392976	0.017336
992.565645	0.016770
992.738296	0.017805
992.910929	0.016844
993.083543	0.016024
993.256139	0.016184
993.428718	0.015064
993.601277	0.014736
993.773819	0.014325
993.946342	0.014688
994.118848	0.014127
994.291335	0.014086
994.463803	0.014967
994.636254	0.016202
994.808686	0.016319
994.981100	0.016332
995.153496	0.016489
995.325874	0.018297
995.498233	0.018650
995.670574	0.018026
995.842897	0.016912
996.015202	0.016929
996.187488	0.016266
996.359757	0.016464
996.532007	0.015558
996.704239	0.016363
996.876452	0.014476
997.048648	0.012844
997.220825	0.013444
997.392984	0.014795
997.565124	0.013599
997.737247	0.012806
997.909351	0.011616
998.081437	0.010367
998.253505	0.010754
998.425554	0.012190
998.597586	0.011782
998.769599	0.011633
998.941594	0.009138
999.113571	0.009986
999.285529	0.012135
999.457469	0.010953
999.629391	0.012928
999.801295	0.011863
999.973181	0.010859
1000.145048	0.011303
1000.316897	0.010656
1000.488728	0.012376
1000.660541	0.012076
1000.832335	0.011524
1001.004111	0.013038
1001.175869	0.011743
1001.347609	0.011841
1001.519331	0.012282
1001.691034	0.012524
1001.862719	0.013398
1002.034386	0.014143
1002.206035	0.014976
1002.377665	0.013842
1002.549277	0.012216
1002.720871	0.013450
1002.892447	0.012793
1003.064004	0.013564
1003.235544	0.014301
1003.407065	0.014151
1003.578568	0.014235
1003.750052	0.013408
1003.921519	0.013229
1004.092967	0.013998
1004.264397	0.013571
1004.435809	0.014719
1004.607202	0.012953
1004.778577	0.012231
1004.949934	0.011338
1005.121273	0.010751
1005.292594	0.010687
1005.463896	0.011551
1005.635180	0.014096
1005.806446	0.013809
1005.977694	0.012643
1006.148923	0.013968
1006.320135	0.013240
1006.491328	0.013791
1006.662503	0.012949
1006.833659	0.013412
1007.004798	0.012949
1007.175918	0.009967
1007.347020	0.011377
1007.518103	0.012194
1007.689169	0.012007
1007.860216	0.012229
1008.031245	0.013079
1008.202256	0.011591
1008.373248	0.010910
1008.544223	0.011312
1008.715179	0.011790
1008.886117	0.010599
1009.057036	0.008967
1009.227938	0.008984
1009.398821	0.009423
1009.569686	0.009010
1009.740533	0.010618
1009.911361	0.009961
1010.082172	0.009505
1010.252964	0.009962
1010.423738	0.010700
1010.594493	0.011857
1010.765231	0.011224
1010.935950	0.010488
1011.106651	0.010638
1011.277334	0.012151
1011.447998	0.012353
1011.618645	0.013027
1011.789273	0.012983
1011.959882	0.012279
1012.130474	0.012005
1012.301048	0.012495
1012.471603	0.012919
1012.642140	0.012579
1012.812658	0.011474
1012.983159	0.012101
1013.153641	0.012309
1013.324105	0.011092
1013.494551	0.012104
1013.664979	0.011567
1013.835388	0.011637
1014.005779	0.013242
1014.176152	0.012919
1014.346507	0.013913
1014.516843	0.012373
1014.687162	0.011713
1014.857462	0.013989
1015.027744	0.011742
1015.198007	0.011410
1015.368252	0.010350
1015.538480	0.008837
1015.708689	0.008484
1015.878879	0.005474
1016.049052	0.006786
1016.219206	0.006363
1016.389342	0.006014
1016.559460	0.007979
1016.729559	0.008656
1016.899641	0.009257
1017.069704	0.008616
1017.239749	0.008712
1017.409775	0.010798
1017.579784	0.011624
1017.749774	0.012023
1017.919746	0.011140
1018.089700	0.010061
1018.259635	0.010426
1018.429553	0.009861
1018.599452	0.010514
1018.769333	0.010831
1018.939195	0.009477
1019.109040	0.009350
1019.278866	0.007945
1019.448674	0.008738
1019.618464	0.009429
1019.788235	0.009459
1019.957989	0.011096
1020.127724	0.010113
1020.297441	0.010723
1020.467139	0.012442
1020.636820	0.011582
1020.806482	0.013254
1020.976126	0.012401
1021.145752	0.011759
1021.315359	0.011806
1021.484948	0.012286
1021.654519	0.013295
1021.824072	0.012427
1021.993607	0.011671
1022.163123	0.012706
1022.332621	0.013124
1022.502101	0.012413
1022.671563	0.011815
1022.841007	0.012474
1023.010432	0.010747
1023.179839	0.009917
1023.349228	0.010550
1023.518598	0.011885
1023.687951	0.011473
1023.857285	0.011156
1024.026601	0.011902
1024.195899	0.013407
1024.365178	0.013335
1024.534439	0.013642
1024.703682	0.013843
1024.872907	0.013608
1025.042114	0.012436
1025.211302	0.010929
1025.380472	0.010542
1025.549624	0.009637
1025.718758	0.007639
1025.887873	0.005678
1026.056970	0.004928
1026.226049	0.004589
1026.395110	0.004796
1026.564153	0.005586
1026.733177	0.006546
1026.902183	0.005910
1027.071171	0.006761
1027.240141	0.008385
1027.409092	0.009180
1027.578026	0.010622
1027.746940	0.010477
1027.915837	0.010235
1028.084716	0.010236
1028.253576	0.009486
1028.422418	0.009255
1028.591242	0.007955
1028.760048	0.006493
1028.928835	0.007327
1029.097604	0.006910
1029.266355	0.007617
1029.435088	0.007041
1029.603803	0.006463
1029.772499	0.008579
1029.941177	0.007548
1030.109837	0.009029
1030.278478	0.010515
1030.447102	0.008091
1030.615707	0.006719
1030.784294	0.006858
1030.952863	0.006752
1031.121413	0.005264
1031.289945	0.004449
1031.458460	0.005565
1031.626955	0.005407
1031.795433	0.004515
1031.963892	0.005791
1032.132334	0.007438
1032.300756	0.009026
1032.469161	0.011186
1032.637548	0.011700
1032.805916	0.011059
1032.974266	0.011927
1033.142598	0.012476
1033.310911	0.014267
1033.479207	0.013825
1033.647484	0.013281
1033.815743	0.010635
1033.983983	0.010146
1034.152206	0.010839
1034.320410	0.010369
1034.488596	0.009900
1034.656764	0.009473
1034.824914	0.008303
1034.993045	0.008687
1035.161158	0.008418
1035.329253	0.009060
1035.497330	0.008234
1035.665388	0.008814
1035.833428	0.010362
1036.001450	0.011014
1036.169454	0.009021
1036.337440	0.009172
1036.505407	0.010459
1036.673356	0.009885
1036.841287	0.008878
1037.009200	0.008396
1037.177094	0.007683
1037.344970	0.007509
1037.512828	0.006923
1037.680668	0.008282
1037.848489	0.008864
1038.016293	0.007513
1038.184078	0.009396
1038.351845	0.010911
1038.519593	0.010020
1038.687324	0.010151
1038.855036	0.010329
1039.022730	0.009446
1039.190406	0.010426
1039.358063	0.009695
1039.525702	0.010814
1039.693323	0.009719
1039.860926	0.009970
1040.028511	0.009349
1040.196077	0.009206
1040.363625	0.008217
1040.531155	0.009741
1040.698667	0.007864
1040.866161	0.007046
1041.033636	0.006822
1041.201093	0.005183
1041.368532	0.004634
1041.535952	0.005584
1041.703355	0.006354
1041.870739	0.007423
1042.038105	0.006690
1042.205452	0.008381
1042.372782	0.009769
1042.540093	0.009282
1042.707386	0.009643
1042.874661	0.010726
1043.041918	0.011644
1043.209156	0.011300
1043.376376	0.009375
1043.543578	0.007058
1043.710762	0.007183
1043.877927	0.005467
1044.045074	0.006076
1044.212203	0.007820
1044.379314	0.006292
1044.546407	0.006451
1044.713481	0.007225
1044.880537	0.007926
1045.047575	0.009485
1045.214595	0.009301
1045.381596	0.010938
1045.548579	0.009828
1045.715544	0.010495
1045.882491	0.012069
1046.049420	0.012257
1046.216330	0.011579
1046.383222	0.011714
1046.550096	0.010737
1046.716951	0.011146
1046.883789	0.010450
1047.050608	0.009699
1047.217409	0.009041
1047.384192	0.008145
1047.550956	0.007186
1047.717703	0.008185
1047.884431	0.007132
1048.051140	0.007334
1048.217832	0.006023
1048.384505	0.005663
1048.551161	0.007495
1048.717798	0.007427
1048.884416	0.007859
1049.051017	0.009164
1049.217599	0.008858
1049.384163	0.009618
1049.550709	0.011009
1049.717237	0.010405
1049.883746	0.011679
1050.050237	0.011758
1050.216710	0.011085
1050.383165	0.009456
1050.549601	0.008365
1050.716019	0.006569
1050.882420	0.007178
1051.048801	0.008498
1051.215165	0.008599
1051.381510	0.008799
1051.547837	0.008341
1051.714146	0.006644
1051.880437	0.008535
1052.046709	0.009800
1052.212964	0.009933
1052.379200	0.009835
1052.545417	0.008016
1052.711617	0.010582
1052.877798	0.008427
1053.043961	0.007994
1053.210106	0.010137
1053.376233	0.009542
1053.542341	0.007720
1053.708432	0.008135
1053.874504	0.007294
1054.040557	0.007537
1054.206593	0.006465
1054.372610	0.007740
1054.538609	0.008223
1054.704590	0.007132
1054.870553	0.006828
1055.036497	0.005660
1055.202424	0.007160
1055.368331	0.008680
1055.534221	0.007674
1055.700093	0.007117
1055.865946	0.006410
1056.031781	0.004460
1056.197598	0.006494
1056.363397	0.006479
1056.529177	0.007350
1056.694939	0.005882
1056.860683	0.003720
1057.026409	0.004262
1057.192116	0.003652
1057.357806	0.003747
1057.523477	0.005143
1057.689130	0.003584
1057.854764	0.004522
1058.020381	0.006091
1058.185979	0.006099
1058.351559	0.007532
1058.517120	0.009541
1058.682664	0.011134
1058.848189	0.011012
1059.013696	0.012245
1059.179185	0.010972
1059.344656	0.010183
1059.510108	0.008280
1059.675542	0.008791
1059.840958	0.008429
1060.006356	0.008159
1060.171735	0.007627
1060.337096	0.006862
1060.502439	0.006775
1060.667764	0.007622
1060.833071	0.007659
1060.998359	0.008655
1061.163629	0.007384
1061.328881	0.007024
1061.494115	0.005707
1061.659330	0.004662
1061.824527	0.003179
1061.989706	0.000949
1062.154867	0.002201
1062.320010	0.002508
1062.485134	0.002120
1062.650240	0.003138
1062.815328	0.003492
1062.980398	0.002374
1063.145449	0.004142
1063.310482	0.005967
1063.475497	0.008512
1063.640494	0.008447
1063.805473	0.008812
1063.970433	0.009551
1064.135375	0.009270
1064.300299	0.008808
1064.465204	0.010509
1064.630092	0.008201
1064.794961	0.009253
1064.959812	0.007741
1065.124645	0.005486
1065.289459	0.003671
1065.454256	0.001634
1065.619034	0.001677
1065.783793	0.001810
1065.948535	0.001592
1066.113258	0.002679
1066.277964	0.001834
1066.442651	0.003215
1066.607319	0.004043
1066.771970	0.005475
1066.936602	0.006295
1067.101216	0.006624
1067.265812	0.007255
1067.430389	0.005501
1067.594949	0.004562
1067.759490	0.004868
1067.924013	0.004195
1068.088518	0.004509
1068.253004	0.003772
1068.417472	0.005337
1068.581922	0.005024
1068.746354	0.005899
1068.910768	0.008146
1069.075163	0.009895
1069.239540	0.010451
1069.403899	0.010067
1069.568240	0.010598
1069.732562	0.009169
1069.896866	0.006518
1070.061152	0.005306
1070.225420	0.001919
1070.389670	0.002695
1070.553901	0.001670
1070.718114	0.000066
1070.882309	-0.000045
1071.046486	0.000836
1071.210644	0.001536
1071.374784	0.004077
1071.538906	0.005112
1071.703010	0.007509
1071.867096	0.004517
1072.031163	0.003848
1072.195212	0.004327
1072.359243	0.004396
1072.523256	0.002626
1072.687250	0.003116
1072.851226	0.001378
1073.015184	0.000930
1073.179124	0.001628
1073.343045	0.004923
1073.506949	0.003886
1073.670834	0.005656
1073.834701	0.005150
1073.998549	0.003480
1074.162380	0.002750
1074.326192	0.003931
1074.489986	0.003724
1074.653761	0.003474
1074.817519	0.001761
1074.981258	0.002874
1075.144979	0.003621
1075.308682	0.003871
1075.472367	0.006241
1075.636033	0.007723
1075.799681	0.007472
1075.963311	0.007596
1076.126923	0.007395
1076.290516	0.006211
1076.454092	0.005817
1076.617649	0.004289
1076.781187	0.005145
1076.944708	0.005450
1077.108210	0.004391
1077.271695	0.004181
1077.435160	0.004578
1077.598608	0.002214
1077.762038	0.003548
1077.925449	0.006017
1078.088842	0.002814
1078.252217	0.001751
1078.415573	0.000580
1078.578912	-0.000417
1078.742232	0.000762
1078.905534	0.000554
1079.068817	0.000805
1079.232083	-0.002058
1079.395330	-0.002806
1079.558559	0.000619
1079.721770	0.001690
1079.884962	0.002118
1080.048136	0.002936
1080.211293	0.001288
1080.374430	0.001472
1080.537550	0.003147
1080.700651	0.006769
1080.863735	0.007808
1081.026800	0.005740
1081.189846	0.003760
1081.352875	0.004211
1081.515885	0.004072
1081.678877	0.005382
1081.841851	0.006097
1082.004807	0.007709
1082.167744	0.004321
1082.330663	0.003312
1082.493564	0.003631
1082.656447	0.003884
1082.819312	0.004428
1082.982158	0.006755
1083.144986	0.007824
1083.307796	0.007522
1083.470587	0.006883
1083.633361	0.006794
1083.796116	0.004198
1083.958853	0.006705
1084.121571	0.007057
1084.284272	0.004942
1084.446954	0.002680
1084.609618	-0.001074
1084.772264	0.000322
1084.934892	-0.001715
1085.097501	0.000638
1085.260092	0.001101
1085.422665	0.001767
1085.585220	0.001539
1085.747756	0.003259
1085.910274	0.004381
1086.072774	0.007035
1086.235256	0.005724
1086.397720	0.005817
1086.560165	0.005760
1086.722592	0.006734
1086.885001	0.003703
1087.047392	0.004572
1087.209764	0.005165
1087.372119	0.004794
1087.534455	0.003346
1087.696772	0.005058
1087.859072	0.004904
1088.021353	0.004413
1088.183616	0.004155
1088.345861	0.007775
1088.508088	0.008294
1088.670296	0.006385
1088.832486	0.004992
1088.994658	0.006647
1089.156812	0.004025
1089.318948	0.005957
1089.481065	0.007849
1089.643164	0.010709
1089.805245	0.008260
1089.967308	0.009113
1090.129352	0.011268
1090.291378	0.013156
1090.453386	0.011691
1090.615376	0.012041
1090.777347	0.013974
1090.939301	0.012040
1091.101236	0.010778
1091.263153	0.012455
1091.425051	0.011724
1091.586932	0.011154
1091.748794	0.012038
1091.910638	0.012352
1092.072463	0.012690
1092.234271	0.010837
1092.396060	0.013659
1092.557831	0.012283
1092.719584	0.010333
1092.881319	0.009143
1093.043035	0.011074
1093.204733	0.008840
1093.366413	0.010299
1093.528075	0.009579
1093.689718	0.006661
1093.851343	0.002943
1094.012950	0.001756
1094.174539	0.002964
1094.336110	0.002046
1094.497662	-0.000076
1094.659196	0.001856
1094.820712	0.001199
1094.982210	0.000501
1095.143689	0.002481
1095.305151	0.002829
1095.466594	0.003842
1095.628018	0.001664
1095.789425	0.001621
1095.950813	0.002032
1096.112183	0.001352
1096.273535	0.000768
1096.434869	0.001939
1096.596184	0.002081
1096.757482	0.001810
1096.918761	0.003202
1097.080021	0.003225
1097.241264	0.004923
1097.402488	0.004488
1097.563694	0.003245
1097.724882	0.001911
1097.886052	-0.000894
1098.047203	-0.003250
1098.208336	-0.004275
1098.369451	-0.005852
1098.530548	-0.004329
1098.691627	-0.005101
1098.852687	-0.007249
1099.013729	-0.007287
1099.174753	-0.004198
1099.335758	-0.002437
1099.496746	-0.000835
1099.657715	0.002387
1099.818666	0.003637
1099.979599	0.002569
1100.140513	0.000704
1100.301409	0.001348
1100.462287	0.001165
1100.623147	-0.002572
1100.783989	-0.003755
1100.944812	-0.005456
1101.105617	-0.005149
1101.266404	-0.006251
1101.427173	-0.007301
1101.587923	-0.003714
1101.748656	-0.002368
1101.909370	-0.001060
1102.070066	-0.000197
1102.230743	-0.000952
1102.391403	0.000798
1102.552044	0.001126
1102.712667	0.001638
1102.873271	0.003116
1103.033858	0.004595
1103.194426	0.007417
1103.354976	0.006337
1103.515508	0.005288
1103.676021	0.008329
1103.836517	0.008703
1103.996994	0.008166
1104.157453	0.009106
1104.317893	0.008907
1104.478316	0.004920
1104.638720	0.004254
1104.799106	0.004397
1104.959474	0.006733
1105.119823	0.005053
1105.280155	0.003664
1105.440468	0.005268
1105.600763	0.005761
1105.761039	0.006450
1105.921298	0.007164
1106.081538	0.006422
1106.241760	0.009328
1106.401964	0.008721
1106.562149	0.009978
1106.722316	0.012811
1106.882465	0.011410
1107.042596	0.008549
1107.202709	0.004367
1107.362803	0.005104
1107.522879	0.003667
1107.682937	0.000361
1107.842977	0.002792
1108.002999	0.003195
1108.163002	0.002393
1108.322987	0.001429
1108.482954	-0.000061
1108.642902	0.003681
1108.802833	0.001144
1108.962745	-0.000733
1109.122639	-0.001172
1109.282515	0.000741
1109.442372	-0.001555
1109.602211	-0.001926
1109.762032	-0.002806
1109.921835	-0.004742
1110.081620	-0.002431
1110.241386	0.001432
1110.401134	0.002347
1110.560864	0.004967
1110.720576	0.000595
1110.880269	0.005642
1111.039945	0.003631
1111.199602	0.003389
1111.359240	0.007719
1111.518861	0.002546
1111.678463	-0.001075
1111.838047	-0.002377
1111.997613	-0.002228
1112.157161	-0.000828
1112.316690	-0.009104
1112.476202	-0.007615
1112.635695	-0.007043
1112.795169	-0.008545
1112.954626	-0.003182
1113.114064	-0.000258
1113.273484	0.001810
1113.432886	0.002447
1113.592270	0.003390
1113.751635	0.009284
1113.910983	0.008344
1114.070312	0.007471
1114.229622	0.006355
1114.388915	0.004400
1114.548189	0.001864
1114.707445	0.002377
1114.866683	-0.002848
1115.025903	-0.004178
1115.185104	-0.003982
1115.344287	-0.005004
1115.503452	-0.003875
1115.662599	0.002458
1115.821727	-0.003764
1115.980838	-0.000060
1116.139930	0.000480
1116.299004	0.003486
1116.458059	0.002963
1116.617097	0.001535
1116.776116	0.003530
1116.935117	0.006559
1117.094099	0.004578
1117.253064	0.007255
1117.412010	0.001720
1117.570938	-0.001662
1117.729848	-0.002914
1117.888740	-0.005577
1118.047613	-0.002979
1118.206468	-0.000370
1118.365305	-0.003466
1118.524124	-0.005918
1118.682924	-0.004205
1118.841707	0.000285
1119.000471	-0.000536
1119.159216	-0.001455
1119.317944	0.001249
1119.476653	0.003326
1119.635344	-0.001256
1119.794017	0.001361
1119.952672	0.002621
1120.111308	0.002611
1120.269927	0.003134
1120.428527	0.004665
1120.587108	0.007914
1120.745672	0.009664
1120.904217	0.004865
1121.062744	0.007291
1121.221253	0.004446
1121.379744	0.003267
1121.538216	0.006916
1121.696671	0.005225
1121.855107	0.005694
1122.013524	0.003733
1122.171924	0.000520
1122.330305	-0.001602
1122.488668	-0.000898
1122.647013	0.001365
1122.805340	0.001048
1122.963648	0.000278
1123.121938	-0.000291
1123.280210	0.000433
1123.438464	0.000989
1123.596700	0.004726
1123.754917	0.005831
1123.913116	0.008621
1124.071297	0.003609
1124.229459	0.006244
1124.387604	0.004393
1124.545730	0.002973
1124.703838	0.003835
1124.861928	0.001592
1125.019999	0.001955
1125.178052	0.004218
1125.336088	0.002350
1125.494104	0.001992
1125.652103	0.001239
1125.810083	0.002765
1125.968045	0.003954
1126.125989	0.002509
1126.283915	0.009126
1126.441823	0.006087
1126.599712	0.005639
1126.757583	0.004402
1126.915436	0.007147
1127.073270	0.005955
1127.231087	0.003867
1127.388885	0.004954
1127.546665	0.004872
1127.704426	0.000353
1127.862170	0.001469
1128.019895	-0.003792
1128.177602	-0.005772
1128.335291	-0.005003
1128.492961	-0.005892
1128.650614	-0.004089
1128.808248	-0.001986
1128.965864	-0.004945
1129.123461	-0.002994
1129.281041	-0.003154
1129.438602	0.000413
1129.596145	0.000990
1129.753670	0.001099
1129.911176	0.006999
1130.068665	0.003593
1130.226135	0.000841
1130.383587	-0.000217
1130.541020	-0.004929
1130.698436	-0.002414
1130.855833	0.000101
1131.013212	0.001727
1131.170573	0.002918
1131.327915	0.002581
1131.485239	0.003570
1131.642545	0.006739
1131.799833	0.012449
1131.957103	0.017030
1132.114354	0.010160
1132.271588	0.011246
1132.428803	0.011890
1132.585999	0.011784
1132.743178	0.006021
1132.900338	0.006931
1133.057480	0.003737
1133.214604	0.002647
1133.371710	-0.000049
1133.528797	0.001546
1133.685866	-0.001089
1133.842917	-0.003700
1133.999950	-0.002697
1134.156964	-0.000646
1134.313960	-0.004555
1134.470938	-0.003176
1134.627898	-0.001411
1134.784840	0.003259
1134.941763	0.006176
1135.098668	0.007152
1135.255555	0.008381
1135.412424	0.001492
1135.569274	0.002583
1135.726107	0.007456
1135.882921	0.007593
1136.039716	0.003839
1136.196494	0.004167
1136.353253	0.001632
1136.509995	-0.001308
1136.666717	-0.002206
1136.823422	0.000891
1136.980109	-0.003730
1137.136777	-0.003107
1137.293427	-0.002879
1137.450059	-0.000927
1137.606672	-0.009219
1137.763267	-0.004094
1137.919844	-0.002250
1138.076403	-0.000253
1138.232944	0.006753
1138.389466	0.010135
1138.545971	0.011224
1138.702457	0.006322
1138.858924	0.002740
1139.015374	0.010583
1139.171805	0.007078
1139.328218	0.006642
1139.484613	0.009626
1139.640990	0.004759
1139.797348	0.002659
1139.953688	-0.000495
1140.110010	0.004711
1140.266314	0.010094
1140.422600	0.005223
1140.578867	0.001893
1140.735116	0.003052
1140.891347	-0.004391
1141.047559	-0.001351
1141.203754	-0.002280
1141.359930	-0.003296
1141.516088	-0.002684
1141.672228	-0.004111
1141.828349	-0.002941
1141.984452	0.002391
1142.140537	0.004099
1142.296604	0.010432
1142.452653	0.010763
1142.608683	0.013818
1142.764695	0.017516
1142.920689	0.015817
1143.076665	0.015362
1143.232622	0.010012
1143.388562	0.010638
1143.544483	0.008312
1143.700385	0.003627
1143.856270	-0.003715
1144.012136	-0.002993
1144.167985	-0.002517
1144.323814	0.001400
1144.479626	-0.000135
1144.635420	0.003625
1144.791195	-0.002120
1144.946952	-0.002194
1145.102691	-0.004326
1145.258411	-0.008693
1145.414113	-0.007735
1145.569798	-0.009251
1145.725463	-0.015038
1145.881111	-0.017464
1146.036741	-0.011194
1146.192352	-0.008359
1146.347945	-0.003601
1146.503519	-0.002641
1146.659076	0.009487
1146.814614	0.009943
1146.970134	0.010390
1147.125636	0.012160
1147.281120	0.021340
1147.436585	0.013491
1147.592032	0.019278
1147.747461	0.017829
1147.902872	0.013785
1148.058265	0.013761
1148.213639	0.007023
1148.368995	0.006118
1148.524333	0.010856
1148.679653	0.008235
1148.834954	0.014806
1148.990237	0.010911
1149.145502	0.006948
1149.300749	0.015776
1149.455977	0.009487
1149.611188	0.013891
1149.766380	0.013933
1149.921553	0.011951
1150.076709	0.009424
1150.231846	0.004272
1150.386966	0.002153
1150.542066	0.000876
1150.697149	-0.004852
1150.852214	0.000658
1151.007260	-0.003196
1151.162288	0.001914
1151.317298	-0.000172
1151.472289	0.004690
1151.627263	0.004912
1151.782218	0.001137
1151.937155	0.007274
1152.092073	0.004011
1152.246974	0.001993
1152.401856	0.009282
1152.556720	0.005771
1152.711566	0.004388
1152.866393	-0.002011
1153.021203	0.004045
1153.175994	0.003786
1153.330767	0.002449
1153.485521	0.020215
1153.640258	0.018144
1153.794976	0.012291
1153.949676	0.007499
1154.104358	0.009510
1154.259021	0.016233
1154.413667	0.009713
1154.568294	0.018151
1154.722903	0.016624
1154.877493	0.010018
1155.032066	0.007266
1155.186620	0.009645
1155.341156	0.012989
1155.495674	0.010724
1155.650173	0.008856
1155.804654	0.017301
1155.959118	0.013836
1156.113562	0.013551
1156.267989	0.005826
1156.422397	0.001593
1156.576788	0.000822
1156.731160	-0.003617
1156.885513	-0.007239
1157.039849	-0.011461
1157.194166	-0.020259
1157.348465	-0.023419
1157.502746	-0.031003
1157.657009	-0.026441
1157.811253	-0.019526
1157.965479	-0.018538
1158.119687	-0.014332
1158.273877	-0.015831
1158.428048	-0.015866
1158.582201	-0.013659
1158.736337	-0.015848
1158.890453	-0.003014
1159.044552	-0.008314
1159.198632	-0.008227
1159.352694	-0.008071
1159.506738	-0.016725
1159.660764	-0.008925
1159.814771	-0.006981
1159.968761	-0.003918
1160.122732	0.007842
1160.276685	-0.001170
1160.430619	0.008189
1160.584535	0.012123
1160.738434	0.010450
1160.892313	0.023808
1161.046175	0.021405
1161.200019	0.019913
1161.353844	0.017917
1161.507651	0.004190
1161.661440	0.007767
1161.815210	0.005111
1161.968962	-0.002836
1162.122697	-0.000708
1162.276412	-0.004801
1162.430110	-0.001365
1162.583789	0.003918
1162.737451	-0.005084
1162.891094	0.004543
1163.044718	0.004003
1163.198325	0.005334
1163.351913	0.008337
1163.505483	0.000705
1163.659035	0.010385
1163.812569	0.008892
1163.966084	0.009445
1164.119581	0.021963
1164.273060	0.019916
1164.426521	0.024584
1164.579964	0.022745
1164.733388	0.029058
1164.886794	0.043468
1165.040182	0.038501
1165.193551	0.030778
1165.346903	0.023131
1165.500236	0.012179
1165.653551	0.008779
1165.806848	0.001643
1165.960126	-0.002753
1166.113386	-0.005643
1166.266628	-0.015493
1166.419852	-0.012133
1166.573058	-0.009246
1166.726245	0.001478
1166.879414	0.008115
1167.032565	0.016576
1167.185698	0.017469
1167.338812	0.016202
1167.491909	0.020275
1167.644987	0.020041
1167.798046	0.011502
1167.951088	0.018800
1168.104111	0.008552
1168.257117	0.017369
1168.410103	0.010477
1168.563072	0.014178
1168.716023	0.029505
1168.868955	0.036477
1169.021869	0.043131
1169.174765	0.040351
1169.327642	0.033297
1169.480501	0.039015
1169.633343	0.039642
1169.786165	0.036246
1169.938970	0.027314
1170.091757	0.018373
1170.244525	0.005585
1170.397275	0.001553
1170.550007	0.003454
1170.702720	-0.003715
1170.855415	-0.005841
1171.008092	-0.012534
1171.160751	-0.005474
1171.313392	0.004407
1171.466014	0.015740
1171.618619	0.021995
1171.771205	0.021995
1171.923772	0.021995
