sample name	sample
index	9
start time	 02-11-2021  11:28:33 AM


Wavelength (nm)	Absorbance
494.344910	-0.162123
494.563924	-0.162123
494.782919	-0.162123
495.001897	-0.165494
495.220856	-0.125418
495.439797	-0.096305
495.658719	-0.072205
495.877624	-0.068485
496.096510	-0.058520
496.315378	-0.032023
496.534227	-0.005335
496.753059	-0.001774
496.971872	0.023545
497.190667	0.041096
497.409444	0.026770
497.628203	0.023858
497.846943	0.026806
498.065665	0.028971
498.284369	0.027398
498.503055	0.026326
498.721723	0.024624
498.940372	0.024152
499.159003	0.023186
499.377616	0.023251
499.596210	0.023223
499.814787	0.023857
500.033345	0.023586
500.251885	0.023313
500.470406	0.022903
500.688910	0.024739
500.907395	0.025036
501.125862	0.023709
501.344311	0.025556
501.562742	0.026441
501.781154	0.026757
501.999548	0.024715
502.217924	0.024983
502.436282	0.025034
502.654621	0.024187
502.872942	0.024782
503.091245	0.025302
503.309530	0.023912
503.527797	0.024220
503.746045	0.023672
503.964275	0.025534
504.182487	0.026106
504.400681	0.027046
504.618856	0.027207
504.837013	0.026643
505.055152	0.026551
505.273273	0.027544
505.491376	0.028399
505.709460	0.028785
505.927526	0.028841
506.145574	0.029297
506.363604	0.028726
506.581615	0.028124
506.799608	0.028168
507.017583	0.028416
507.235540	0.026646
507.453478	0.026090
507.671399	0.025499
507.889301	0.026015
508.107185	0.025808
508.325050	0.025492
508.542898	0.025639
508.760727	0.026411
508.978538	0.027301
509.196330	0.028613
509.414105	0.027083
509.631861	0.027266
509.849599	0.027033
510.067319	0.027876
510.285021	0.028321
510.502704	0.028304
510.720369	0.027254
510.938016	0.026455
511.155645	0.025704
511.373255	0.027609
511.590848	0.028080
511.808422	0.027337
512.025977	0.025279
512.243515	0.024705
512.461034	0.025276
512.678536	0.024521
512.896018	0.025362
513.113483	0.025744
513.330930	0.023540
513.548358	0.024497
513.765768	0.023363
513.983160	0.025650
514.200533	0.025818
514.417889	0.024939
514.635226	0.025863
514.852545	0.026170
515.069845	0.025102
515.287128	0.025623
515.504392	0.024221
515.721638	0.026307
515.938866	0.024210
516.156075	0.023500
516.373267	0.024935
516.590440	0.025363
516.807594	0.025117
517.024731	0.026032
517.241850	0.027190
517.458950	0.027681
517.676032	0.026977
517.893095	0.028864
518.110141	0.030593
518.327168	0.029473
518.544177	0.029621
518.761168	0.028995
518.978141	0.028635
519.195095	0.028256
519.412031	0.026765
519.628949	0.026812
519.845849	0.024794
520.062731	0.024796
520.279594	0.025272
520.496439	0.024817
520.713266	0.024906
520.930074	0.025582
521.146865	0.024999
521.363637	0.026493
521.580391	0.027103
521.797127	0.028798
522.013844	0.028390
522.230543	0.028474
522.447224	0.027839
522.663887	0.027471
522.880532	0.027226
523.097158	0.027580
523.313766	0.026999
523.530356	0.027897
523.746928	0.025774
523.963481	0.026191
524.180017	0.026074
524.396534	0.027553
524.613032	0.027561
524.829513	0.027720
525.045975	0.027662
525.262420	0.027433
525.478845	0.025631
525.695253	0.027337
525.911643	0.027079
526.128014	0.026380
526.344367	0.024876
526.560702	0.025649
526.777018	0.026074
526.993316	0.025584
527.209597	0.025979
527.425858	0.027221
527.642102	0.027062
527.858328	0.026989
528.074535	0.027447
528.290724	0.028133
528.506894	0.027484
528.723047	0.026977
528.939181	0.027974
529.155297	0.028052
529.371395	0.027322
529.587475	0.026938
529.803536	0.026160
530.019579	0.025926
530.235604	0.025689
530.451611	0.025781
530.667600	0.026329
530.883570	0.025816
531.099522	0.026284
531.315456	0.026896
531.531372	0.027291
531.747269	0.028310
531.963148	0.028958
532.179009	0.029657
532.394852	0.029772
532.610676	0.029474
532.826482	0.029963
533.042271	0.029609
533.258040	0.028987
533.473792	0.029411
533.689525	0.029045
533.905240	0.029442
534.120937	0.028972
534.336616	0.029245
534.552277	0.029516
534.767919	0.029574
534.983543	0.029310
535.199149	0.029425
535.414736	0.029771
535.630306	0.029873
535.845857	0.029108
536.061390	0.029720
536.276904	0.030023
536.492401	0.030771
536.707879	0.030639
536.923339	0.030912
537.138781	0.031555
537.354204	0.031522
537.569610	0.032418
537.784997	0.033405
538.000366	0.032957
538.215716	0.033192
538.431049	0.032521
538.646363	0.032311
538.861659	0.032585
539.076937	0.032634
539.292196	0.032058
539.507438	0.031487
539.722661	0.031118
539.937866	0.031230
540.153052	0.031270
540.368221	0.031625
540.583371	0.032153
540.798503	0.032528
541.013617	0.032511
541.228712	0.032580
541.443789	0.032707
541.658848	0.032340
541.873889	0.033276
542.088912	0.033592
542.303916	0.033369
542.518902	0.032736
542.733870	0.032684
542.948820	0.032893
543.163752	0.033270
543.378665	0.033314
543.593560	0.033788
543.808437	0.033926
544.023295	0.032420
544.238136	0.032495
544.452958	0.033020
544.667762	0.032655
544.882548	0.032980
545.097315	0.033152
545.312064	0.033266
545.526795	0.033180
545.741508	0.032358
545.956203	0.033242
546.170879	0.032919
546.385537	0.032509
546.600177	0.032594
546.814799	0.031887
547.029402	0.031473
547.243988	0.030944
547.458555	0.030764
547.673103	0.031675
547.887634	0.031790
548.102146	0.031836
548.316640	0.032252
548.531116	0.031893
548.745574	0.032401
548.960013	0.032894
549.174435	0.033448
549.388838	0.033472
549.603222	0.033383
549.817589	0.033967
550.031937	0.034292
550.246267	0.034680
550.460579	0.034985
550.674873	0.034963
550.889148	0.034722
551.103405	0.034100
551.317644	0.034614
551.531865	0.033719
551.746068	0.033759
551.960252	0.033863
552.174418	0.033728
552.388566	0.034140
552.602696	0.034255
552.816807	0.034388
553.030900	0.035182
553.244975	0.035185
553.459032	0.035656
553.673070	0.035040
553.887091	0.034856
554.101093	0.034434
554.315077	0.034374
554.529042	0.034593
554.742990	0.034423
554.956919	0.034687
555.170830	0.034220
555.384722	0.034294
555.598597	0.034860
555.812453	0.035102
556.026291	0.035504
556.240111	0.034938
556.453913	0.034208
556.667696	0.034993
556.881461	0.034155
557.095208	0.034427
557.308937	0.033991
557.522647	0.033488
557.736339	0.033035
557.950013	0.033347
558.163669	0.034225
558.377307	0.034361
558.590926	0.033665
558.804527	0.034158
559.018110	0.035002
559.231675	0.035171
559.445221	0.035449
559.658749	0.036789
559.872259	0.036840
560.085751	0.036887
560.299225	0.037325
560.512680	0.037757
560.726117	0.038153
560.939536	0.037124
561.152937	0.037302
561.366319	0.037302
561.579683	0.036575
561.793029	0.036860
562.006357	0.036533
562.219667	0.036052
562.432958	0.035758
562.646231	0.036155
562.859486	0.036562
563.072723	0.037213
563.285941	0.036870
563.499141	0.037496
563.712323	0.037755
563.925487	0.038306
564.138632	0.039060
564.351760	0.039179
564.564869	0.038878
564.777960	0.038764
564.991032	0.038309
565.204087	0.038813
565.417123	0.038202
565.630141	0.037578
565.843140	0.037411
566.056122	0.037590
566.269085	0.036826
566.482030	0.036793
566.694957	0.037197
566.907866	0.036951
567.120756	0.036743
567.333628	0.036941
567.546482	0.036810
567.759318	0.036331
567.972135	0.036353
568.184935	0.037420
568.397716	0.037124
568.610478	0.037041
568.823223	0.037654
569.035949	0.038240
569.248657	0.038160
569.461347	0.038517
569.674019	0.039180
569.886672	0.038427
570.099308	0.038630
570.311925	0.039175
570.524523	0.038674
570.737104	0.038259
570.949666	0.038057
571.162210	0.037858
571.374736	0.037519
571.587244	0.037553
571.799733	0.037841
572.012205	0.037340
572.224658	0.037564
572.437092	0.038249
572.649509	0.038721
572.861907	0.038479
573.074287	0.038924
573.286649	0.039406
573.498993	0.039689
573.711318	0.039652
573.923625	0.040022
574.135914	0.039764
574.348185	0.040051
574.560438	0.039997
574.772672	0.040299
574.984888	0.039578
575.197086	0.039032
575.409266	0.038711
575.621427	0.038499
575.833570	0.038121
576.045695	0.037548
576.257802	0.037027
576.469890	0.036699
576.681961	0.036291
576.894013	0.036367
577.106046	0.037129
577.318062	0.036774
577.530059	0.037274
577.742039	0.037703
577.954000	0.037608
578.165942	0.037012
578.377867	0.037276
578.589773	0.037544
578.801661	0.037618
579.013531	0.037015
579.225382	0.037073
579.437216	0.036538
579.649031	0.035783
579.860828	0.036773
580.072606	0.037194
580.284367	0.037073
580.496109	0.037136
580.707833	0.037662
580.919539	0.037944
581.131227	0.037891
581.342896	0.038551
581.554547	0.039070
581.766180	0.038482
581.977795	0.038699
582.189391	0.038850
582.400969	0.038849
582.612529	0.038148
582.824071	0.037765
583.035595	0.037727
583.247100	0.038027
583.458587	0.038356
583.670056	0.038172
583.881506	0.038131
584.092939	0.037551
584.304353	0.038072
584.515749	0.039121
584.727127	0.039462
584.938486	0.040024
585.149828	0.039277
585.361151	0.038752
585.572456	0.039286
585.783742	0.039280
585.995011	0.039895
586.206261	0.039477
586.417493	0.039204
586.628706	0.039480
586.839902	0.039656
587.051079	0.040229
587.262238	0.040763
587.473379	0.040448
587.684502	0.040777
587.895606	0.040294
588.106692	0.040317
588.317760	0.040197
588.528810	0.040037
588.739841	0.039847
588.950855	0.039759
589.161850	0.039929
589.372827	0.040362
589.583785	0.040110
589.794726	0.040776
590.005648	0.040881
590.216552	0.040967
590.427437	0.041825
590.638305	0.041739
590.849154	0.041560
591.059985	0.041026
591.270798	0.040731
591.481592	0.040898
591.692369	0.040756
591.903127	0.041176
592.113867	0.040881
592.324588	0.040187
592.535292	0.040255
592.745977	0.040157
592.956644	0.040322
593.167293	0.040536
593.377923	0.040303
593.588536	0.040194
593.799130	0.039662
594.009706	0.039962
594.220263	0.040236
594.430803	0.040152
594.641324	0.040044
594.851827	0.040123
595.062312	0.040476
595.272778	0.040423
595.483227	0.040024
595.693657	0.040353
595.904069	0.040762
596.114462	0.040470
596.324838	0.040927
596.535195	0.041067
596.745534	0.040464
596.955855	0.039880
597.166157	0.040593
597.376441	0.041643
597.586707	0.041465
597.796955	0.041248
598.007185	0.041423
598.217396	0.041033
598.427589	0.041613
598.637764	0.042545
598.847921	0.042628
599.058060	0.042101
599.268180	0.041703
599.478282	0.041495
599.688366	0.041617
599.898431	0.042071
600.108479	0.042351
600.318508	0.042070
600.528519	0.041753
600.738511	0.042102
600.948486	0.042737
601.158442	0.042857
601.368380	0.043028
601.578300	0.042988
601.788202	0.042868
601.998085	0.043061
602.207950	0.042994
602.417797	0.043178
602.627626	0.043129
602.837436	0.042757
603.047228	0.042703
603.257002	0.043501
603.466758	0.043748
603.676496	0.043347
603.886215	0.042893
604.095916	0.043184
604.305599	0.043514
604.515264	0.043446
604.724910	0.043783
604.934538	0.043954
605.144148	0.043612
605.353740	0.043265
605.563314	0.043240
605.772869	0.043502
605.982406	0.043413
606.191925	0.043146
606.401425	0.043274
606.610908	0.042739
606.820372	0.042725
607.029818	0.043005
607.239246	0.043225
607.448655	0.043274
607.658047	0.043018
607.867420	0.042896
608.076775	0.042821
608.286111	0.042603
608.495430	0.043005
608.704730	0.042712
608.914012	0.042463
609.123275	0.042344
609.332521	0.042624
609.541748	0.042725
609.750957	0.043089
609.960148	0.043328
610.169321	0.043211
610.378475	0.042567
610.587611	0.042491
610.796729	0.042070
611.005829	0.042243
611.214910	0.042073
611.423974	0.042013
611.633019	0.041562
611.842045	0.041547
612.051054	0.041710
612.260044	0.042428
612.469017	0.042700
612.677970	0.042910
612.886906	0.043126
613.095824	0.043408
613.304723	0.043579
613.513604	0.043785
613.722467	0.043723
613.931311	0.043732
614.140138	0.043705
614.348946	0.043677
614.557736	0.043908
614.766507	0.043535
614.975261	0.043204
615.183996	0.043522
615.392713	0.043670
615.601412	0.043445
615.810092	0.043998
616.018754	0.044014
616.227399	0.044331
616.436024	0.043890
616.644632	0.044426
616.853222	0.044633
617.061793	0.044516
617.270346	0.044387
617.478880	0.044621
617.687397	0.044421
617.895895	0.044550
618.104375	0.044545
618.312837	0.044823
618.521281	0.044204
618.729706	0.043912
618.938113	0.043540
619.146502	0.043471
619.354873	0.043331
619.563226	0.043270
619.771560	0.042965
619.979876	0.042541
620.188174	0.042132
620.396453	0.042516
620.604715	0.042600
620.812958	0.042817
621.021183	0.042880
621.229390	0.042720
621.437578	0.042695
621.645748	0.042660
621.853900	0.042717
622.062034	0.043073
622.270150	0.043145
622.478247	0.043145
622.686326	0.043102
622.894387	0.043329
623.102430	0.043738
623.310454	0.043926
623.518461	0.044117
623.726449	0.044374
623.934418	0.044544
624.142370	0.044219
624.350303	0.044446
624.558218	0.044781
624.766115	0.044732
624.973994	0.044360
625.181855	0.044064
625.389697	0.044143
625.597521	0.044254
625.805327	0.044377
626.013114	0.044591
626.220883	0.044669
626.428634	0.044834
626.636367	0.044962
626.844082	0.045279
627.051778	0.045742
627.259457	0.045805
627.467117	0.046198
627.674758	0.046487
627.882382	0.046415
628.089987	0.046293
628.297574	0.045853
628.505143	0.045829
628.712694	0.045867
628.920226	0.045521
629.127740	0.045658
629.335236	0.045169
629.542714	0.044558
629.750174	0.044513
629.957615	0.044718
630.165038	0.044616
630.372443	0.044660
630.579829	0.045030
630.787198	0.044907
630.994548	0.044861
631.201880	0.045378
631.409194	0.045874
631.616489	0.045783
631.823766	0.045602
632.031025	0.046014
632.238266	0.045937
632.445489	0.045701
632.652693	0.045728
632.859879	0.045517
633.067047	0.044864
633.274197	0.044848
633.481329	0.045034
633.688442	0.045039
633.895537	0.044524
634.102614	0.044775
634.309672	0.045186
634.516713	0.045539
634.723735	0.045425
634.930739	0.045654
635.137724	0.045433
635.344692	0.045618
635.551641	0.045656
635.758572	0.046169
635.965485	0.046030
636.172379	0.045610
636.379256	0.045493
636.586114	0.045817
636.792954	0.045854
636.999775	0.046072
637.206579	0.046268
637.413364	0.046803
637.620131	0.047025
637.826880	0.047239
638.033610	0.047643
638.240323	0.047832
638.447017	0.048262
638.653692	0.048558
638.860350	0.048557
639.066990	0.048424
639.273611	0.047930
639.480214	0.047550
639.686798	0.047465
639.893365	0.047024
640.099913	0.047215
640.306443	0.046854
640.512955	0.046337
640.719449	0.046232
640.925924	0.046578
641.132381	0.047191
641.338820	0.047334
641.545241	0.047359
641.751644	0.047642
641.958028	0.047709
642.164394	0.047817
642.370742	0.048319
642.577071	0.048647
642.783383	0.048536
642.989676	0.048263
643.195951	0.048607
643.402207	0.048505
643.608446	0.048661
643.814666	0.048459
644.020868	0.048257
644.227052	0.048261
644.433218	0.047911
644.639365	0.047590
644.845494	0.047520
645.051605	0.047260
645.257698	0.047428
645.463772	0.047187
645.669828	0.047106
645.875866	0.047287
646.081886	0.047203
646.287888	0.047671
646.493871	0.047755
646.699836	0.047619
646.905783	0.047578
647.111712	0.047653
647.317622	0.047573
647.523514	0.047775
647.729388	0.047833
647.935244	0.047895
648.141082	0.047648
648.346901	0.047941
648.552702	0.047942
648.758485	0.047867
648.964250	0.047816
649.169996	0.048286
649.375724	0.048268
649.581434	0.048578
649.787126	0.048539
649.992800	0.048745
650.198455	0.048683
650.404092	0.049021
650.609711	0.049399
650.815311	0.049579
651.020894	0.049189
651.226458	0.048940
651.432004	0.048746
651.637532	0.048946
651.843041	0.048825
652.048532	0.048934
652.254006	0.049121
652.459460	0.048780
652.664897	0.048953
652.870315	0.049258
653.075716	0.049595
653.281097	0.049830
653.486461	0.049698
653.691807	0.050005
653.897134	0.049822
654.102443	0.049699
654.307734	0.049970
654.513006	0.049521
654.718261	0.049553
654.923497	0.049468
655.128715	0.049162
655.333915	0.049056
655.539096	0.049074
655.744259	0.049073
655.949404	0.048882
656.154531	0.049107
656.359640	0.049539
656.564730	0.049271
656.769802	0.049474
656.974856	0.049902
657.179892	0.049951
657.384909	0.049942
657.589908	0.050004
657.794889	0.050285
657.999852	0.050321
658.204797	0.050169
658.409723	0.050327
658.614631	0.050352
658.819521	0.049855
659.024393	0.049958
659.229246	0.049869
659.434081	0.050337
659.638898	0.050130
659.843697	0.049964
660.048478	0.050218
660.253240	0.050263
660.457984	0.050248
660.662710	0.050837
660.867417	0.051155
661.072107	0.051384
661.276778	0.051024
661.481431	0.051511
661.686066	0.051784
661.890682	0.051657
662.095281	0.051623
662.299861	0.051777
662.504422	0.051522
662.708966	0.051795
662.913491	0.051498
663.117999	0.051596
663.322488	0.051422
663.526958	0.051328
663.731411	0.051728
663.935845	0.052124
664.140261	0.051774
664.344659	0.051886
664.549038	0.052129
664.753400	0.052428
664.957743	0.052611
665.162068	0.052767
665.366375	0.052833
665.570663	0.052553
665.774933	0.052741
665.979185	0.053107
666.183419	0.053155
666.387635	0.052865
666.591832	0.052857
666.796011	0.053096
667.000172	0.053164
667.204315	0.053496
667.408439	0.053838
667.612545	0.053521
667.816634	0.053546
668.020703	0.053658
668.224755	0.053558
668.428788	0.053731
668.632803	0.053525
668.836800	0.053604
669.040779	0.053297
669.244739	0.052916
669.448681	0.053275
669.652605	0.053386
669.856511	0.053260
670.060399	0.053418
670.264268	0.053200
670.468119	0.053217
670.671952	0.052932
670.875767	0.052929
671.079563	0.052941
671.283341	0.052850
671.487101	0.052861
671.690843	0.052818
671.894567	0.052829
672.098272	0.053054
672.301959	0.053316
672.505628	0.053380
672.709278	0.053511
672.912911	0.053773
673.116525	0.053688
673.320121	0.053973
673.523699	0.054301
673.727258	0.054184
673.930799	0.054230
674.134322	0.054345
674.337827	0.054504
674.541314	0.054625
674.744782	0.054629
674.948232	0.054902
675.151664	0.054859
675.355078	0.054887
675.558474	0.054971
675.761851	0.054893
675.965210	0.054909
676.168551	0.055097
676.371873	0.055231
676.575178	0.055031
676.778464	0.055005
676.981732	0.054906
677.184981	0.055083
677.388213	0.054995
677.591426	0.055202
677.794621	0.055087
677.997798	0.055002
678.200956	0.055152
678.404097	0.055691
678.607219	0.056163
678.810323	0.056131
679.013408	0.056002
679.216476	0.056179
679.419525	0.055975
679.622556	0.056270
679.825569	0.056322
680.028563	0.056248
680.231540	0.056435
680.434498	0.056071
680.637438	0.056434
680.840359	0.056429
681.043263	0.056600
681.246148	0.057100
681.449015	0.057138
681.651864	0.057277
681.854694	0.057364
682.057506	0.057287
682.260301	0.057126
682.463076	0.056845
682.665834	0.057078
682.868573	0.056981
683.071295	0.056758
683.273998	0.056445
683.476682	0.056650
683.679349	0.056835
683.881997	0.056872
684.084627	0.057139
684.287239	0.057201
684.489833	0.057295
684.692408	0.057290
684.894965	0.057523
685.097504	0.057846
685.300025	0.057750
685.502527	0.057568
685.705012	0.057618
685.907478	0.057472
686.109925	0.057493
686.312355	0.057318
686.514766	0.057630
686.717159	0.057691
686.919534	0.057756
687.121891	0.057733
687.324230	0.057861
687.526550	0.057635
687.728852	0.057762
687.931136	0.057981
688.133401	0.058130
688.335649	0.057934
688.537878	0.057894
688.740089	0.057820
688.942281	0.058070
689.144456	0.058079
689.346612	0.058145
689.548750	0.058247
689.750870	0.058257
689.952971	0.058340
690.155055	0.058450
690.357120	0.058467
690.559167	0.058565
690.761195	0.058573
690.963206	0.058636
691.165198	0.058970
691.367172	0.059247
691.569128	0.059321
691.771065	0.059504
691.972984	0.059548
692.174885	0.059593
692.376768	0.059630
692.578633	0.059616
692.780479	0.059535
692.982308	0.059180
693.184118	0.059032
693.385909	0.059013
693.587683	0.058826
693.789438	0.059115
693.991175	0.059083
694.192894	0.059239
694.394595	0.058782
694.596277	0.058823
694.797941	0.059079
694.999587	0.059175
695.201215	0.059471
695.402824	0.059897
695.604416	0.059902
695.805989	0.060230
696.007543	0.060195
696.209080	0.060721
696.410598	0.060797
696.612099	0.060976
696.813580	0.060809
697.015044	0.060579
697.216490	0.060026
697.417917	0.059983
697.619326	0.059508
697.820717	0.059213
698.022089	0.059183
698.223444	0.059011
698.424780	0.058579
698.626098	0.058556
698.827397	0.058392
699.028679	0.058485
699.229942	0.058385
699.431187	0.058763
699.632414	0.058889
699.833622	0.059148
700.034813	0.059526
700.235985	0.059820
700.437139	0.059864
700.638274	0.060053
700.839392	0.060294
701.040491	0.060577
701.241572	0.060438
701.442635	0.060561
701.643679	0.060238
701.844706	0.060310
702.045714	0.060109
702.246704	0.060352
702.447675	0.060310
702.648629	0.060365
702.849564	0.060292
703.050481	0.060245
703.251380	0.060269
703.452260	0.060685
703.653122	0.060482
703.853966	0.060669
704.054792	0.060840
704.255600	0.060982
704.456389	0.060656
704.657160	0.060941
704.857913	0.061142
705.058648	0.061357
705.259365	0.061243
705.460063	0.061670
705.660743	0.061824
705.861405	0.061619
706.062048	0.061840
706.262674	0.062432
706.463281	0.062332
706.663870	0.062158
706.864441	0.062224
707.064993	0.062249
707.265527	0.062025
707.466043	0.062255
707.666541	0.062172
707.867021	0.061926
708.067482	0.061396
708.267925	0.061483
708.468350	0.061906
708.668757	0.061638
708.869145	0.061761
709.069516	0.061749
709.269868	0.061387
709.470201	0.061386
709.670517	0.061503
709.870814	0.061544
710.071093	0.061414
710.271354	0.061160
710.471597	0.061302
710.671821	0.060899
710.872028	0.060815
711.072216	0.061051
711.272385	0.061234
711.472537	0.061262
711.672670	0.061139
711.872785	0.061307
712.072882	0.061010
712.272961	0.060748
712.473021	0.060882
712.673063	0.060735
712.873087	0.060372
713.073093	0.060051
713.273081	0.059539
713.473050	0.059637
713.673001	0.059341
713.872934	0.059601
714.072849	0.059670
714.272745	0.059664
714.472623	0.059828
714.672483	0.059930
714.872325	0.059863
715.072148	0.059952
715.271954	0.059919
715.471741	0.059675
715.671509	0.059250
715.871260	0.058985
716.070992	0.058589
716.270707	0.058080
716.470403	0.057666
716.670080	0.057719
716.869740	0.057856
717.069381	0.058216
717.269004	0.058227
717.468609	0.058593
717.668195	0.058601
717.867764	0.059067
718.067314	0.059449
718.266846	0.059940
718.466360	0.060179
718.665855	0.060171
718.865332	0.059838
719.064791	0.060011
719.264232	0.059865
719.463655	0.060218
719.663059	0.059854
719.862445	0.059794
720.061813	0.059513
720.261163	0.059348
720.460494	0.059337
720.659807	0.059397
720.859102	0.058962
721.058379	0.058787
721.257638	0.058230
721.456878	0.058469
721.656100	0.058422
721.855304	0.058619
722.054490	0.058704
722.253657	0.058500
722.452806	0.058316
722.651937	0.058467
722.851050	0.058596
723.050145	0.058827
723.249221	0.058819
723.448279	0.058383
723.647319	0.057869
723.846340	0.057606
724.045344	0.057581
724.244329	0.057372
724.443296	0.057200
724.642245	0.057034
724.841175	0.057010
725.040088	0.056819
725.238982	0.057180
725.437857	0.057146
725.636715	0.057213
725.835554	0.056945
726.034376	0.056893
726.233179	0.056774
726.431963	0.056409
726.630730	0.056327
726.829478	0.056128
727.028208	0.055842
727.226920	0.055765
727.425614	0.055544
727.624289	0.055748
727.822946	0.055637
728.021585	0.055764
728.220206	0.056012
728.418808	0.055848
728.617392	0.055696
728.815958	0.055734
729.014506	0.055817
729.213036	0.055728
729.411547	0.055822
729.610040	0.056000
729.808515	0.055797
730.006972	0.055416
730.205410	0.055397
730.403831	0.055292
730.602233	0.055179
730.800616	0.055460
730.998982	0.055763
731.197329	0.055506
731.395658	0.055414
731.593969	0.055089
731.792262	0.055148
731.990536	0.054930
732.188793	0.055010
732.387031	0.054670
732.585250	0.054262
732.783452	0.053694
732.981635	0.053824
733.179800	0.053534
733.377947	0.053704
733.576076	0.053719
733.774186	0.053910
733.972278	0.053860
734.170352	0.054246
734.368408	0.054232
734.566446	0.054235
734.764465	0.053851
734.962466	0.054123
735.160449	0.054379
735.358413	0.054742
735.556360	0.054506
735.754288	0.054393
735.952198	0.054109
736.150090	0.053939
736.347963	0.053863
736.545818	0.054027
736.743655	0.053755
736.941474	0.053543
737.139275	0.053289
737.337057	0.053300
737.534821	0.053192
737.732567	0.053243
737.930295	0.053385
738.128005	0.053567
738.325696	0.053585
738.523369	0.053633
738.721024	0.053467
738.918660	0.053327
739.116279	0.053670
739.313879	0.053449
739.511461	0.053334
739.709024	0.053496
739.906570	0.053116
740.104097	0.052931
740.301606	0.052656
740.499097	0.052784
740.696569	0.053312
740.894024	0.052620
741.091460	0.052921
741.288878	0.052755
741.486277	0.052216
741.683659	0.052326
741.881022	0.052337
742.078367	0.052738
742.275694	0.052730
742.473002	0.051593
742.670293	0.051616
742.867565	0.051541
743.064819	0.051769
743.262054	0.052108
743.459272	0.052174
743.656471	0.052215
743.853652	0.051861
744.050815	0.051758
744.247959	0.052403
744.445085	0.052729
744.642194	0.052463
744.839283	0.052320
745.036355	0.052299
745.233408	0.052297
745.430444	0.052243
745.627461	0.052242
745.824459	0.051977
746.021440	0.051656
746.218402	0.051512
746.415346	0.051635
746.612272	0.051232
746.809180	0.050750
747.006069	0.050601
747.202940	0.050232
747.399793	0.050344
747.596628	0.050611
747.793444	0.050792
747.990243	0.050815
748.187023	0.050328
748.383784	0.050933
748.580528	0.050934
748.777253	0.050906
748.973960	0.050954
749.170649	0.050861
749.367320	0.050849
749.563973	0.050535
749.760607	0.050498
749.957223	0.050784
750.153821	0.050543
750.350400	0.050893
750.546962	0.051078
750.743505	0.051086
750.940030	0.050838
751.136536	0.050778
751.333025	0.051070
751.529495	0.050858
751.725947	0.050937
751.922381	0.050901
752.118796	0.051051
752.315194	0.050617
752.511573	0.050815
752.707934	0.050966
752.904276	0.050752
753.100601	0.050711
753.296907	0.050772
753.493195	0.050910
753.689465	0.050563
753.885716	0.050376
754.081949	0.050538
754.278164	0.050293
754.474361	0.050486
754.670540	0.050646
754.866700	0.050573
755.062843	0.050517
755.258967	0.050269
755.455072	0.050763
755.651160	0.050492
755.847229	0.050569
756.043280	0.050727
756.239313	0.050461
756.435328	0.050276
756.631324	0.050145
756.827302	0.050247
757.023262	0.050648
757.219204	0.050451
757.415127	0.050620
757.611033	0.050659
757.806920	0.050691
758.002788	0.050652
758.198639	0.050545
758.394471	0.050609
758.590286	0.050408
758.786081	0.050131
758.981859	0.050177
759.177619	0.050329
759.373360	0.049977
759.569083	0.049973
759.764788	0.050228
759.960474	0.050532
760.156143	0.050560
760.351793	0.050887
760.547425	0.050537
760.743038	0.050504
760.938634	0.050484
761.134211	0.050638
761.329770	0.050521
761.525311	0.050272
761.720833	0.050350
761.916338	0.050304
762.111824	0.050064
762.307292	0.050185
762.502741	0.050163
762.698173	0.049957
762.893586	0.049858
763.088981	0.050197
763.284358	0.050493
763.479716	0.050390
763.675057	0.050320
763.870379	0.050312
764.065683	0.050265
764.260968	0.050031
764.456236	0.050204
764.651485	0.050156
764.846716	0.049720
765.041929	0.049371
765.237123	0.049426
765.432299	0.049546
765.627457	0.049506
765.822597	0.049342
766.017719	0.049618
766.212822	0.049282
766.407907	0.049142
766.602974	0.049084
766.798023	0.049571
766.993054	0.049265
767.188066	0.048848
767.383060	0.048741
767.578036	0.049115
767.772993	0.049086
767.967933	0.049064
768.162854	0.049071
768.357757	0.049195
768.552642	0.048610
768.747508	0.048654
768.942356	0.048863
769.137186	0.048595
769.331998	0.048443
769.526792	0.048092
769.721567	0.048075
769.916324	0.048234
770.111063	0.048039
770.305784	0.048191
770.500486	0.047939
770.695171	0.047796
770.889837	0.047869
771.084484	0.047898
771.279114	0.048098
771.473725	0.047638
771.668318	0.047294
771.862893	0.047444
772.057450	0.047115
772.251988	0.047292
772.446509	0.047377
772.641011	0.047203
772.835494	0.046913
773.029960	0.046705
773.224407	0.046848
773.418836	0.047492
773.613247	0.047515
773.807640	0.047522
774.002014	0.047624
774.196370	0.047507
774.390708	0.047860
774.585028	0.047828
774.779330	0.047641
774.973613	0.047901
775.167878	0.047651
775.362125	0.047645
775.556354	0.047649
775.750564	0.047528
775.944756	0.047628
776.138930	0.047704
776.333086	0.048166
776.527223	0.048310
776.721343	0.048130
776.915444	0.047938
777.109526	0.047703
777.303591	0.047832
777.497637	0.047646
777.691666	0.047601
777.885676	0.047500
778.079667	0.047244
778.273641	0.047497
778.467596	0.047905
778.661533	0.047952
778.855452	0.048116
779.049352	0.048430
779.243235	0.048657
779.437099	0.048498
779.630945	0.048429
779.824773	0.048820
780.018582	0.048531
780.212373	0.048188
780.406146	0.048502
780.599901	0.048525
780.793638	0.048490
780.987356	0.048673
781.181056	0.049115
781.374738	0.049360
781.568402	0.048686
781.762047	0.049219
781.955674	0.049236
782.149283	0.049407
782.342874	0.049460
782.536447	0.049366
782.730001	0.049297
782.923537	0.049147
783.117055	0.048856
783.310555	0.048937
783.504036	0.048746
783.697499	0.048832
783.890944	0.048388
784.084371	0.048385
784.277780	0.048339
784.471170	0.048062
784.664542	0.048151
784.857896	0.048468
785.051231	0.048813
785.244549	0.048778
785.437848	0.049229
785.631129	0.049176
785.824392	0.048837
786.017636	0.048677
786.210863	0.048889
786.404071	0.048642
786.597260	0.048571
786.790432	0.048332
786.983585	0.048550
787.176721	0.048130
787.369838	0.048333
787.562936	0.048676
787.756017	0.048886
787.949079	0.048996
788.142123	0.049304
788.335149	0.049281
788.528156	0.049341
788.721146	0.049197
788.914117	0.049488
789.107070	0.049481
789.300005	0.049742
789.492921	0.049912
789.685819	0.049562
789.878699	0.049742
790.071561	0.049716
790.264405	0.050215
790.457230	0.050416
790.650037	0.050546
790.842826	0.050425
791.035597	0.049971
791.228349	0.049800
791.421084	0.050048
791.613800	0.049851
791.806497	0.049686
791.999177	0.049447
792.191838	0.049077
792.384481	0.048768
792.577106	0.048873
792.769713	0.049436
792.962301	0.049514
793.154871	0.049517
793.347423	0.049599
793.539957	0.049801
793.732473	0.049469
793.924970	0.049385
794.117449	0.049457
794.309910	0.049510
794.502353	0.049310
794.694777	0.049137
794.887183	0.049012
795.079571	0.049049
795.271941	0.048940
795.464293	0.049451
795.656626	0.049844
795.848941	0.049921
796.041238	0.049829
796.233516	0.049819
796.425777	0.049839
796.618019	0.049857
796.810243	0.049706
797.002449	0.049888
797.194636	0.049554
797.386805	0.049220
797.578956	0.049130
797.771089	0.049249
797.963204	0.049277
798.155300	0.049420
798.347378	0.049837
798.539438	0.049859
798.731480	0.049895
798.923503	0.050221
799.115509	0.050622
799.307496	0.050873
799.499465	0.050771
799.691415	0.050960
799.883348	0.050699
800.075262	0.050405
800.267158	0.050488
800.459035	0.050711
800.650895	0.050430
800.842736	0.050189
801.034559	0.050318
801.226364	0.050512
801.418150	0.050434
801.609919	0.050785
801.801669	0.050971
801.993401	0.050792
802.185114	0.050681
802.376810	0.050767
802.568487	0.051007
802.760146	0.051019
802.951787	0.051384
803.143409	0.051311
803.335014	0.051476
803.526600	0.051653
803.718168	0.051817
803.909717	0.051921
804.101249	0.052334
804.292762	0.052289
804.484257	0.052054
804.675734	0.051842
804.867192	0.051994
805.058632	0.052032
805.250054	0.052004
805.441458	0.051892
805.632844	0.052041
805.824211	0.052152
806.015561	0.052067
806.206891	0.052320
806.398204	0.052157
806.589499	0.052290
806.780775	0.052406
806.972033	0.052383
807.163273	0.053101
807.354495	0.053054
807.545698	0.052662
807.736883	0.052622
807.928050	0.052551
808.119199	0.052792
808.310329	0.052611
808.501441	0.052700
808.692535	0.052688
808.883611	0.052487
809.074669	0.052605
809.265708	0.052825
809.456729	0.053077
809.647732	0.053092
809.838717	0.053192
810.029683	0.053231
810.220632	0.053182
810.411562	0.052965
810.602474	0.052677
810.793367	0.052545
810.984242	0.052363
811.175100	0.052466
811.365938	0.052708
811.556759	0.052743
811.747562	0.052923
811.938346	0.053047
812.129112	0.053585
812.319860	0.053934
812.510589	0.053846
812.701300	0.054294
812.891994	0.054377
813.082668	0.054361
813.273325	0.054428
813.463964	0.054140
813.654584	0.054024
813.845186	0.053965
814.035769	0.054054
814.226335	0.054501
814.416882	0.054430
814.607411	0.054593
814.797922	0.054669
814.988415	0.054429
815.178889	0.054719
815.369345	0.054849
815.559783	0.054939
815.750203	0.055085
815.940605	0.054612
816.130988	0.054853
816.321353	0.054779
816.511700	0.054640
816.702028	0.054488
816.892339	0.054620
817.082631	0.054398
817.272905	0.054400
817.463161	0.054430
817.653398	0.055185
817.843617	0.054875
818.033819	0.055028
818.224001	0.055149
818.414166	0.055718
818.604312	0.055742
818.794440	0.056411
818.984550	0.056463
819.174642	0.056517
819.364716	0.056427
819.554771	0.056746
819.744808	0.056630
819.934827	0.056845
820.124827	0.056740
820.314810	0.056849
820.504774	0.056475
820.694720	0.056530
820.884647	0.056485
821.074557	0.056343
821.264448	0.056245
821.454321	0.056246
821.644176	0.055840
821.834012	0.056032
822.023831	0.055862
822.213631	0.055673
822.403413	0.055672
822.593176	0.055275
822.782922	0.055134
822.972649	0.054991
823.162358	0.055170
823.352049	0.055290
823.541721	0.055169
823.731376	0.055147
823.921012	0.055302
824.110629	0.055203
824.300229	0.055394
824.489811	0.055283
824.679374	0.055983
824.868919	0.056369
825.058445	0.057051
825.247954	0.057233
825.437444	0.057929
825.626916	0.057994
825.816370	0.058386
826.005806	0.058629
826.195223	0.059263
826.384622	0.058788
826.574003	0.058680
826.763366	0.058544
826.952711	0.059027
827.142037	0.059033
827.331345	0.059427
827.520635	0.059583
827.709906	0.059268
827.899160	0.058739
828.088395	0.059002
828.277612	0.059030
828.466810	0.059147
828.655991	0.058674
828.845153	0.058210
829.034297	0.058125
829.223423	0.057968
829.412531	0.058618
829.601620	0.058729
829.790691	0.058376
829.979744	0.058317
830.168779	0.058013
830.357795	0.058029
830.546793	0.058507
830.735773	0.058206
830.924735	0.057925
831.113679	0.057576
831.302604	0.058093
831.491511	0.058495
831.680400	0.058532
831.869271	0.058338
832.058123	0.058258
832.246957	0.058395
832.435773	0.058614
832.624571	0.059093
832.813351	0.059526
833.002112	0.059633
833.190855	0.059566
833.379580	0.059634
833.568287	0.060111
833.756975	0.060739
833.945645	0.060494
834.134297	0.060665
834.322931	0.060478
834.511547	0.060514
834.700144	0.060193
834.888723	0.060380
835.077284	0.060002
835.265826	0.059997
835.454351	0.059632
835.642857	0.059503
835.831345	0.059532
836.019815	0.059646
836.208266	0.059568
836.396699	0.059976
836.585114	0.059635
836.773511	0.060067
836.961890	0.060405
837.150250	0.060753
837.338592	0.061243
837.526916	0.061492
837.715222	0.061471
837.903510	0.061296
838.091779	0.061199
838.280030	0.062038
838.468263	0.062419
838.656477	0.062426
838.844674	0.062558
839.032852	0.062384
839.221012	0.062882
839.409153	0.063125
839.597277	0.063950
839.785382	0.064770
839.973469	0.064370
840.161538	0.064287
840.349589	0.064460
840.537621	0.064441
840.725635	0.064633
840.913631	0.064676
841.101609	0.064807
841.289568	0.064213
841.477509	0.063770
841.665432	0.063876
841.853337	0.063821
842.041224	0.064044
842.229092	0.064395
842.416942	0.064438
842.604774	0.064238
842.792588	0.064385
842.980383	0.065043
843.168160	0.065267
843.355919	0.065396
843.543660	0.065768
843.731382	0.066246
843.919087	0.066086
844.106773	0.066282
844.294441	0.066627
844.482090	0.066746
844.669722	0.066647
844.857335	0.066684
845.044930	0.066984
845.232507	0.066745
845.420065	0.066184
845.607605	0.066744
845.795127	0.066883
845.982631	0.066721
846.170117	0.066664
846.357584	0.066923
846.545033	0.067442
846.732464	0.067764
846.919877	0.068312
847.107272	0.068874
847.294648	0.068817
847.482006	0.069003
847.669346	0.069741
847.856667	0.070416
848.043971	0.070258
848.231256	0.069977
848.418523	0.069713
848.605771	0.069595
848.793002	0.069550
848.980214	0.069522
849.167408	0.069667
849.354584	0.068909
849.541742	0.068377
849.728881	0.068551
849.916002	0.068776
850.103105	0.068766
850.290190	0.069075
850.477256	0.068986
850.664304	0.069264
850.851334	0.069079
851.038346	0.069528
851.225340	0.070033
851.412315	0.070246
851.599272	0.070365
851.786211	0.070850
851.973132	0.071002
852.160034	0.071318
852.346918	0.071391
852.533784	0.071693
852.720632	0.071887
852.907462	0.072135
853.094273	0.072485
853.281066	0.072190
853.467841	0.071877
853.654598	0.072051
853.841336	0.072020
854.028056	0.072204
854.214758	0.072284
854.401442	0.071929
854.588107	0.072045
854.774755	0.071911
854.961384	0.072404
855.147995	0.072935
855.334587	0.072678
855.521162	0.072715
855.707718	0.072865
855.894256	0.073095
856.080775	0.073820
856.267277	0.073764
856.453760	0.073495
856.640225	0.073272
856.826672	0.073137
857.013101	0.073660
857.199511	0.073655
857.385903	0.073340
857.572277	0.073054
857.758633	0.072929
857.944970	0.072709
858.131290	0.073335
858.317591	0.074021
858.503873	0.074211
858.690138	0.074427
858.876384	0.074615
859.062612	0.075203
859.248822	0.075555
859.435014	0.075281
859.621188	0.075767
859.807343	0.075895
859.993480	0.075586
860.179599	0.075860
860.365699	0.075604
860.551781	0.075889
860.737846	0.075186
860.923891	0.075645
861.109919	0.076314
861.295929	0.076515
861.481920	0.076251
861.667893	0.076685
861.853848	0.076531
862.039784	0.076711
862.225702	0.076543
862.411603	0.077192
862.597484	0.076781
862.783348	0.077074
862.969193	0.076943
863.155021	0.077125
863.340830	0.076672
863.526620	0.077149
863.712393	0.077281
863.898147	0.077765
864.083883	0.077791
864.269601	0.078371
864.455301	0.078545
864.640982	0.079152
864.826645	0.078707
865.012290	0.079270
865.197917	0.079488
865.383526	0.079529
865.569116	0.079442
865.754688	0.080045
865.940242	0.079625
866.125777	0.078631
866.311295	0.078134
866.496794	0.079305
866.682275	0.078556
866.867737	0.078563
867.053182	0.078427
867.238608	0.078303
867.424016	0.077912
867.609406	0.078314
867.794778	0.079011
867.980131	0.079329
868.165466	0.079019
868.350783	0.079734
868.536082	0.079704
868.721362	0.079832
868.906625	0.080311
869.091869	0.080714
869.277094	0.080496
869.462302	0.081018
869.647491	0.081039
869.832662	0.081213
870.017815	0.081890
870.202950	0.081824
870.388066	0.082179
870.573165	0.081839
870.758245	0.081548
870.943306	0.081923
871.128350	0.081589
871.313375	0.082016
871.498382	0.081812
871.683371	0.080886
871.868342	0.080933
872.053294	0.080895
872.238229	0.080741
872.423144	0.080722
872.608042	0.081039
872.792922	0.081128
872.977783	0.080128
873.162626	0.080059
873.347451	0.080613
873.532258	0.081253
873.717046	0.081189
873.901816	0.081838
874.086568	0.082010
874.271302	0.081684
874.456017	0.081132
874.640715	0.081874
874.825394	0.082216
875.010055	0.082446
875.194697	0.081661
875.379322	0.081997
875.563928	0.082264
875.748516	0.082411
875.933085	0.082584
876.117637	0.083194
876.302170	0.083409
876.486685	0.083277
876.671182	0.082834
876.855661	0.083159
877.040121	0.082729
877.224563	0.081598
877.408987	0.081500
877.593393	0.081216
877.777780	0.081269
877.962150	0.080918
878.146501	0.080911
878.330833	0.081155
878.515148	0.081023
878.699444	0.080875
878.883722	0.081600
879.067982	0.081585
879.252224	0.081315
879.436447	0.080915
879.620653	0.080957
879.804840	0.081357
879.989008	0.080573
880.173159	0.080758
880.357291	0.081272
880.541405	0.081753
880.725501	0.081637
880.909579	0.082128
881.093638	0.082232
881.277680	0.082841
881.461703	0.082726
881.645707	0.083656
881.829694	0.083588
882.013662	0.083806
882.197612	0.083295
882.381544	0.083632
882.565458	0.083790
882.749353	0.083937
882.933230	0.083955
883.117089	0.084511
883.300930	0.084611
883.484753	0.084486
883.668557	0.084490
883.852343	0.085058
884.036111	0.084744
884.219861	0.084505
884.403592	0.085514
884.587305	0.085173
884.771000	0.084687
884.954677	0.083982
885.138335	0.084663
885.321976	0.084422
885.505598	0.083855
885.689201	0.084499
885.872787	0.084755
886.056354	0.083910
886.239904	0.083819
886.423434	0.083801
886.606947	0.084806
886.790442	0.084810
886.973918	0.085118
887.157376	0.085541
887.340816	0.085480
887.524237	0.085311
887.707641	0.085235
887.891026	0.085315
888.074393	0.085208
888.257741	0.084774
888.441072	0.084364
888.624384	0.083998
888.807678	0.083942
888.990954	0.083800
889.174211	0.083875
889.357451	0.083632
889.540672	0.083577
889.723875	0.083729
889.907059	0.083402
890.090226	0.083269
890.273374	0.083170
890.456504	0.082731
890.639616	0.082643
890.822709	0.082539
891.005785	0.083042
891.188842	0.082906
891.371881	0.082954
891.554901	0.082626
891.737904	0.082271
891.920888	0.082880
892.103854	0.082864
892.286802	0.082700
892.469731	0.082673
892.652643	0.082433
892.835536	0.083106
893.018410	0.083199
893.201267	0.083385
893.384106	0.083632
893.566926	0.083089
893.749728	0.083737
893.932511	0.083775
894.115277	0.083784
894.298024	0.084456
894.480753	0.083470
894.663464	0.083815
894.846157	0.083889
895.028831	0.083940
895.211487	0.084355
895.394125	0.083832
895.576745	0.083674
895.759346	0.083634
895.941930	0.082945
896.124495	0.083484
896.307041	0.081922
896.489570	0.081581
896.672080	0.081727
896.854573	0.081266
897.037046	0.081768
897.219502	0.081568
897.401940	0.081853
897.584359	0.081019
897.766760	0.080577
897.949143	0.081364
898.131507	0.082460
898.313854	0.082131
898.496182	0.082519
898.678492	0.081875
898.860783	0.082294
899.043057	0.082042
899.225312	0.082816
899.407549	0.082558
899.589768	0.082576
899.771968	0.082149
899.954151	0.082525
900.136315	0.082245
900.318461	0.082099
900.500588	0.081310
900.682698	0.081741
900.864789	0.081917
901.046862	0.081462
901.228917	0.081662
901.410953	0.081374
901.592971	0.081548
901.774972	0.081286
901.956953	0.080725
902.138917	0.081241
902.320862	0.080586
902.502790	0.079724
902.684699	0.080079
902.866589	0.079899
903.048462	0.079686
903.230316	0.078998
903.412152	0.078188
903.593970	0.079013
903.775770	0.078348
903.957551	0.078777
904.139314	0.079228
904.321059	0.079592
904.502786	0.079423
904.684494	0.079356
904.866185	0.079360
905.047857	0.080228
905.229510	0.080362
905.411146	0.080866
905.592763	0.081229
905.774363	0.080743
905.955943	0.080450
906.137506	0.080375
906.319051	0.080193
906.500577	0.080048
906.682085	0.079329
906.863575	0.078534
907.045046	0.077946
907.226500	0.076615
907.407935	0.076857
907.589352	0.076805
907.770750	0.076011
907.952131	0.075107
908.133493	0.075353
908.314837	0.075936
908.496163	0.076389
908.677470	0.076854
908.858760	0.077064
909.040031	0.076739
909.221284	0.076595
909.402518	0.076786
909.583735	0.077730
909.764933	0.077772
909.946113	0.077834
910.127275	0.077523
910.308418	0.077338
910.489544	0.077453
910.670651	0.077500
910.851740	0.077655
911.032810	0.077755
911.213863	0.077412
911.394897	0.077722
911.575913	0.077566
911.756911	0.077131
911.937890	0.077119
912.118851	0.077074
912.299794	0.076737
912.480719	0.076237
912.661626	0.076194
912.842514	0.076368
913.023384	0.074859
913.204236	0.074166
913.385070	0.074331
913.565886	0.073810
913.746683	0.072967
913.927462	0.073087
914.108223	0.074130
914.288965	0.073879
914.469690	0.073421
914.650396	0.074180
914.831084	0.073903
915.011754	0.073545
915.192405	0.073514
915.373038	0.074414
915.553653	0.074179
915.734250	0.072284
915.914829	0.072254
916.095389	0.072276
916.275931	0.071288
916.456455	0.070748
916.636961	0.070482
916.817448	0.069917
916.997917	0.069172
917.178368	0.068742
917.358801	0.069368
917.539216	0.069234
917.719612	0.068907
917.899990	0.069056
918.080350	0.069076
918.260692	0.068716
918.441015	0.068443
918.621320	0.068040
918.801607	0.068920
918.981876	0.068281
919.162127	0.067376
919.342359	0.066215
919.522573	0.065828
919.702769	0.066079
919.882947	0.065838
920.063106	0.065998
920.243247	0.065667
920.423370	0.064880
920.603475	0.064293
920.783562	0.064861
920.963630	0.066121
921.143680	0.066169
921.323712	0.065323
921.503725	0.064742
921.683721	0.063695
921.863698	0.063147
922.043657	0.062515
922.223598	0.062279
922.403520	0.061934
922.583424	0.061852
922.763311	0.061628
922.943178	0.062695
923.123028	0.063142
923.302859	0.063770
923.482673	0.064477
923.662467	0.063978
923.842244	0.064368
924.022003	0.063590
924.201743	0.062388
924.381465	0.061991
924.561169	0.061005
924.740854	0.060157
924.920522	0.059907
925.100171	0.059166
925.279802	0.059498
925.459414	0.059313
925.639009	0.059159
925.818585	0.058949
925.998143	0.058709
926.177683	0.057926
926.357205	0.058321
926.536708	0.057029
926.716193	0.056637
926.895660	0.056174
927.075109	0.056398
927.254539	0.056587
927.433951	0.056144
927.613345	0.055483
927.792721	0.055230
927.972079	0.054622
928.151418	0.056606
928.330739	0.056978
928.510042	0.056127
928.689327	0.055400
928.868593	0.054712
929.047841	0.054637
929.227071	0.054944
929.406283	0.054731
929.585476	0.054950
929.764652	0.052903
929.943809	0.052055
930.122948	0.052733
930.302068	0.051686
930.481171	0.051972
930.660255	0.053099
930.839321	0.052818
931.018369	0.051803
931.197398	0.051790
931.376409	0.052363
931.555402	0.052372
931.734377	0.051140
931.913334	0.051819
932.092272	0.050399
932.271192	0.047227
932.450094	0.047773
932.628978	0.049052
932.807844	0.047485
932.986691	0.046726
933.165520	0.046540
933.344331	0.045863
933.523123	0.044166
933.701898	0.045018
933.880654	0.046623
934.059392	0.045507
934.238111	0.043896
934.416813	0.043092
934.595496	0.042561
934.774161	0.040565
934.952808	0.041340
935.131437	0.041721
935.310047	0.041502
935.488639	0.041205
935.667213	0.040147
935.845769	0.039936
936.024306	0.040639
936.202825	0.038742
936.381326	0.039384
936.559809	0.039360
936.738274	0.038520
936.916720	0.038024
937.095148	0.038189
937.273558	0.037530
937.451950	0.037655
937.630323	0.036818
937.808678	0.039234
937.987015	0.038988
938.165334	0.036127
938.343635	0.036010
938.521917	0.036425
938.700181	0.035878
938.878427	0.035354
939.056655	0.036309
939.234864	0.036426
939.413055	0.036378
939.591228	0.035948
939.769383	0.038661
939.947519	0.038994
940.125638	0.037737
940.303738	0.036759
940.481820	0.037903
940.659883	0.038491
940.837929	0.038065
941.015956	0.037841
941.193965	0.036767
941.371955	0.035559
941.549928	0.035437
941.727882	0.033892
941.905818	0.033600
942.083736	0.033620
942.261636	0.031400
942.439517	0.031224
942.617380	0.030292
942.795225	0.031182
942.973052	0.029966
943.150860	0.030448
943.328651	0.031184
943.506423	0.029850
943.684176	0.029409
943.861912	0.028960
944.039629	0.029976
944.217328	0.028676
944.395009	0.028116
944.572672	0.027342
944.750317	0.026215
944.927943	0.025569
945.105551	0.026142
945.283141	0.024846
945.460712	0.023339
945.638265	0.020631
945.815801	0.019800
945.993317	0.019256
946.170816	0.019768
946.348297	0.019548
946.525759	0.018403
946.703203	0.016206
946.880629	0.015971
947.058036	0.016010
947.235425	0.016651
947.412797	0.017578
947.590149	0.016665
947.767484	0.017786
947.944800	0.018127
948.122099	0.018106
948.299379	0.020890
948.476640	0.021337
948.653884	0.019680
948.831109	0.019707
949.008316	0.019289
949.185505	0.019389
949.362676	0.021897
949.539828	0.020150
949.716962	0.021184
949.894078	0.019664
950.071176	0.018326
950.248256	0.018026
950.425317	0.020289
950.602360	0.020359
950.779385	0.020272
950.956391	0.015040
951.133380	0.015805
951.310350	0.016650
951.487302	0.017273
951.664235	0.021352
951.841151	0.023162
952.018048	0.018124
952.194927	0.019583
952.371788	0.018384
952.548631	0.020592
952.725455	0.018027
952.902261	0.014481
953.079049	0.012072
953.255819	0.008106
953.432570	0.010261
953.609303	0.011792
953.786018	0.008660
953.962715	0.009076
954.139394	0.007492
954.316054	0.008946
954.492696	0.007072
954.669320	0.008346
954.845926	0.006319
955.022513	0.002602
955.199083	0.002752
955.375634	0.003001
955.552166	0.007107
955.728681	0.003628
955.905177	0.001795
956.081655	0.002878
956.258115	0.004770
956.434557	0.005734
956.610980	0.007230
956.787385	0.007018
956.963772	0.009200
957.140141	0.004926
957.316492	0.008798
957.492824	0.011092
957.669138	0.012890
957.845434	0.010877
958.021712	0.010939
958.197971	0.007510
958.374212	0.009887
958.550435	0.010526
958.726640	0.011313
958.902826	0.011060
959.078995	0.011101
959.255145	0.011701
959.431277	0.009668
959.607390	0.008823
959.783486	0.014137
959.959563	0.008574
960.135622	0.007612
960.311662	0.007446
960.487685	0.006028
960.663689	0.004326
960.839675	0.003499
961.015643	0.005185
961.191593	0.008874
961.367524	0.004967
961.543437	0.008469
961.719332	0.009260
961.895209	0.008593
962.071067	0.014018
962.246907	0.017129
962.422730	0.019868
962.598533	0.018910
962.774319	0.019241
962.950086	0.022432
963.125835	0.022214
963.301566	0.020301
963.477279	0.023140
963.652973	0.019265
963.828650	0.020924
964.004308	0.018088
964.179947	0.019577
964.355569	0.016981
964.531172	0.016425
964.706757	0.018052
964.882324	0.017259
965.057873	0.014986
965.233403	0.019693
965.408916	0.014807
965.584410	0.016600
965.759885	0.016072
965.935343	0.018376
966.110782	0.017777
966.286203	0.017911
966.461606	0.019075
966.636991	0.022155
966.812357	0.018815
966.987705	0.019998
967.163035	0.022780
967.338347	0.021808
967.513641	0.020015
967.688916	0.020164
967.864173	0.022056
968.039412	0.022454
968.214632	0.019937
968.389835	0.017898
968.565019	0.018406
968.740185	0.016364
968.915333	0.019147
969.090462	0.019173
969.265573	0.021390
969.440667	0.021543
969.615741	0.021258
969.790798	0.022255
969.965836	0.021263
970.140856	0.025548
970.315858	0.023512
970.490842	0.017178
970.665808	0.017008
970.840755	0.014014
971.015684	0.012042
971.190595	0.013664
971.365487	0.016325
971.540362	0.018670
971.715218	0.017248
971.890056	0.015307
972.064875	0.022186
972.239677	0.023403
972.414460	0.023259
972.589225	0.021259
972.763972	0.018523
972.938700	0.015690
973.113411	0.014781
973.288103	0.015476
973.462777	0.017601
973.637432	0.016962
973.812070	0.012127
973.986689	0.013437
974.161290	0.014659
974.335873	0.013167
974.510437	0.011586
974.684984	0.014223
974.859512	0.012454
975.034022	0.011704
975.208513	0.013524
975.382987	0.015378
975.557442	0.016751
975.731879	0.017901
975.906298	0.021293
976.080698	0.022584
976.255080	0.015764
976.429445	0.013598
976.603790	0.017925
976.778118	0.012998
976.952427	0.016374
977.126719	0.013760
977.300992	0.012499
977.475246	0.009342
977.649483	0.008080
977.823701	0.010625
977.997901	0.009710
978.172083	0.006078
978.346247	0.006164
978.520392	0.007059
978.694519	0.008363
978.868628	0.007320
979.042719	0.009775
979.216791	0.012435
979.390845	0.012635
979.564882	0.013713
979.738899	0.018028
979.912899	0.020180
980.086880	0.014996
980.260843	0.015632
980.434788	0.014467
980.608715	0.013706
980.782623	0.016306
980.956514	0.017893
981.130386	0.019313
981.304240	0.015179
981.478075	0.017877
981.651892	0.015854
981.825692	0.015548
981.999472	0.020487
982.173235	0.019041
982.346980	0.015846
982.520706	0.018801
982.694414	0.015830
982.868104	0.013641
983.041775	0.009047
983.215428	0.013233
983.389064	0.014061
983.562680	0.011774
983.736279	0.013481
983.909860	0.011646
984.083422	0.009984
984.256966	0.014301
984.430491	0.014900
984.603999	0.019468
984.777488	0.021604
984.950959	0.023612
985.124412	0.021168
985.297847	0.019320
985.471263	0.023621
985.644661	0.023548
985.818041	0.023598
985.991403	0.022973
986.164747	0.020694
986.338072	0.020762
986.511379	0.017634
986.684668	0.015325
986.857938	0.012707
987.031191	0.010257
987.204425	0.011859
987.377641	0.010017
987.550839	0.010237
987.724018	0.007286
987.897179	0.006062
988.070322	0.006551
988.243447	0.012065
988.416554	0.018819
988.589642	0.015881
988.762712	0.017913
988.935764	0.016319
989.108798	0.014546
989.281813	0.018569
989.454811	0.018712
989.627790	0.021183
989.800751	0.020179
989.973693	0.017547
990.146617	0.018572
990.319524	0.015059
990.492412	0.015851
990.665281	0.021144
990.838133	0.020493
991.010966	0.018384
991.183781	0.016407
991.356578	0.020387
991.529356	0.022494
991.702117	0.022333
991.874859	0.022608
992.047583	0.025083
992.220288	0.023647
992.392976	0.020958
992.565645	0.025298
992.738296	0.024268
992.910929	0.020095
993.083543	0.019186
993.256139	0.020756
993.428718	0.022410
993.601277	0.019738
993.773819	0.017683
993.946342	0.020043
994.118848	0.018485
994.291335	0.018070
994.463803	0.018779
994.636254	0.019839
994.808686	0.020679
994.981100	0.018330
995.153496	0.019951
995.325874	0.023592
995.498233	0.025434
995.670574	0.022901
995.842897	0.022843
996.015202	0.025491
996.187488	0.022930
996.359757	0.023067
996.532007	0.022444
996.704239	0.022633
996.876452	0.021538
997.048648	0.021773
997.220825	0.025390
997.392984	0.025853
997.565124	0.021470
997.737247	0.026844
997.909351	0.027313
998.081437	0.026019
998.253505	0.027501
998.425554	0.027938
998.597586	0.022860
998.769599	0.019774
998.941594	0.021328
999.113571	0.024853
999.285529	0.021670
999.457469	0.022230
999.629391	0.026386
999.801295	0.023538
999.973181	0.021747
1000.145048	0.023036
1000.316897	0.023921
1000.488728	0.023304
1000.660541	0.022149
1000.832335	0.023705
1001.004111	0.025565
1001.175869	0.023840
1001.347609	0.025039
1001.519331	0.026343
1001.691034	0.025668
1001.862719	0.027552
1002.034386	0.029448
1002.206035	0.027405
1002.377665	0.023241
1002.549277	0.017710
1002.720871	0.015880
1002.892447	0.016877
1003.064004	0.017973
1003.235544	0.016503
1003.407065	0.015751
1003.578568	0.015249
1003.750052	0.017896
1003.921519	0.020867
1004.092967	0.020998
1004.264397	0.024083
1004.435809	0.022723
1004.607202	0.019769
1004.778577	0.022189
1004.949934	0.021030
1005.121273	0.019184
1005.292594	0.017406
1005.463896	0.014329
1005.635180	0.012445
1005.806446	0.009353
1005.977694	0.010130
1006.148923	0.013376
1006.320135	0.012462
1006.491328	0.014923
1006.662503	0.014914
1006.833659	0.013436
1007.004798	0.014793
1007.175918	0.020410
1007.347020	0.020799
1007.518103	0.021608
1007.689169	0.022191
1007.860216	0.026939
1008.031245	0.026563
1008.202256	0.026680
1008.373248	0.031081
1008.544223	0.028992
1008.715179	0.023958
1008.886117	0.021778
1009.057036	0.021314
1009.227938	0.018851
1009.398821	0.017954
1009.569686	0.019407
1009.740533	0.018592
1009.911361	0.017109
1010.082172	0.019349
1010.252964	0.026167
1010.423738	0.026959
1010.594493	0.026516
1010.765231	0.028925
1010.935950	0.026086
1011.106651	0.020969
1011.277334	0.022130
1011.447998	0.020083
1011.618645	0.019413
1011.789273	0.012578
1011.959882	0.017213
1012.130474	0.013016
1012.301048	0.015042
1012.471603	0.014845
1012.642140	0.016405
1012.812658	0.013989
1012.983159	0.013297
1013.153641	0.013057
1013.324105	0.014237
1013.494551	0.012673
1013.664979	0.014194
1013.835388	0.012039
1014.005779	0.014610
1014.176152	0.015237
1014.346507	0.015919
1014.516843	0.016902
1014.687162	0.015889
1014.857462	0.013603
1015.027744	0.013063
1015.198007	0.016147
1015.368252	0.013568
1015.538480	0.012692
1015.708689	0.010203
1015.878879	0.017296
1016.049052	0.016746
1016.219206	0.015470
1016.389342	0.019809
1016.559460	0.017859
1016.729559	0.016948
1016.899641	0.020435
1017.069704	0.017529
1017.239749	0.019711
1017.409775	0.014372
1017.579784	0.016841
1017.749774	0.016062
1017.919746	0.016590
1018.089700	0.017735
1018.259635	0.014408
1018.429553	0.013309
1018.599452	0.016828
1018.769333	0.016126
1018.939195	0.016186
1019.109040	0.012681
1019.278866	0.017816
1019.448674	0.016207
1019.618464	0.016367
1019.788235	0.022271
1019.957989	0.023742
1020.127724	0.021642
1020.297441	0.021166
1020.467139	0.019458
1020.636820	0.022548
1020.806482	0.021238
1020.976126	0.020101
1021.145752	0.019335
1021.315359	0.015518
1021.484948	0.010838
1021.654519	0.011431
1021.824072	0.011713
1021.993607	0.010865
1022.163123	0.008747
1022.332621	0.009959
1022.502101	0.013263
1022.671563	0.012905
1022.841007	0.016891
1023.010432	0.017976
1023.179839	0.016956
1023.349228	0.018747
1023.518598	0.017850
1023.687951	0.020022
1023.857285	0.017761
1024.026601	0.013384
1024.195899	0.017477
1024.365178	0.014191
1024.534439	0.014030
1024.703682	0.014842
1024.872907	0.016910
1025.042114	0.020581
1025.211302	0.018015
1025.380472	0.018435
1025.549624	0.024014
1025.718758	0.022829
1025.887873	0.024897
1026.056970	0.025014
1026.226049	0.025661
1026.395110	0.023334
1026.564153	0.024246
1026.733177	0.026945
1026.902183	0.026866
1027.071171	0.024096
1027.240141	0.020238
1027.409092	0.018155
1027.578026	0.023470
1027.746940	0.022942
1027.915837	0.021576
1028.084716	0.021337
1028.253576	0.018708
1028.422418	0.018524
1028.591242	0.018907
1028.760048	0.022996
1028.928835	0.025856
1029.097604	0.021306
1029.266355	0.022453
1029.435088	0.022160
1029.603803	0.019172
1029.772499	0.019154
1029.941177	0.021548
1030.109837	0.022470
1030.278478	0.020339
1030.447102	0.015253
1030.615707	0.014103
1030.784294	0.012339
1030.952863	0.012951
1031.121413	0.012350
1031.289945	0.017276
1031.458460	0.015255
1031.626955	0.013090
1031.795433	0.014248
1031.963892	0.015977
1032.132334	0.016995
1032.300756	0.019584
1032.469161	0.018698
1032.637548	0.019731
1032.805916	0.012660
1032.974266	0.013859
1033.142598	0.012903
1033.310911	0.010774
1033.479207	0.012098
1033.647484	0.011869
1033.815743	0.011187
1033.983983	0.011498
1034.152206	0.011216
1034.320410	0.015910
1034.488596	0.014953
1034.656764	0.015676
1034.824914	0.018124
1034.993045	0.016078
1035.161158	0.012635
1035.329253	0.012668
1035.497330	0.013039
1035.665388	0.015116
1035.833428	0.013478
1036.001450	0.012563
1036.169454	0.012491
1036.337440	0.012621
1036.505407	0.012756
1036.673356	0.015582
1036.841287	0.015489
1037.009200	0.015826
1037.177094	0.015199
1037.344970	0.019010
1037.512828	0.018164
1037.680668	0.020208
1037.848489	0.019103
1038.016293	0.019490
1038.184078	0.017237
1038.351845	0.014038
1038.519593	0.010615
1038.687324	0.012957
1038.855036	0.009893
1039.022730	0.012033
1039.190406	0.010801
1039.358063	0.010014
1039.525702	0.009952
1039.693323	0.012237
1039.860926	0.011710
1040.028511	0.014023
1040.196077	0.014517
1040.363625	0.014372
1040.531155	0.010987
1040.698667	0.010394
1040.866161	0.008365
1041.033636	0.006529
1041.201093	0.003414
1041.368532	0.006591
1041.535952	0.006410
1041.703355	0.005466
1041.870739	0.002203
1042.038105	0.001272
1042.205452	0.002408
1042.372782	0.005091
1042.540093	0.007510
1042.707386	0.011865
1042.874661	0.011448
1043.041918	0.010573
1043.209156	0.008155
1043.376376	0.009999
1043.543578	0.012468
1043.710762	0.011516
1043.877927	0.012102
1044.045074	0.011980
1044.212203	0.012823
1044.379314	0.010336
1044.546407	0.011391
1044.713481	0.013804
1044.880537	0.010830
1045.047575	0.010831
1045.214595	0.010466
1045.381596	0.008724
1045.548579	0.009255
1045.715544	0.009312
1045.882491	0.012084
1046.049420	0.008369
1046.216330	0.008196
1046.383222	0.013508
1046.550096	0.013920
1046.716951	0.015026
1046.883789	0.012850
1047.050608	0.012328
1047.217409	0.011268
1047.384192	0.012605
1047.550956	0.012296
1047.717703	0.010089
1047.884431	0.009955
1048.051140	0.010841
1048.217832	0.010686
1048.384505	0.012825
1048.551161	0.016550
1048.717798	0.013618
1048.884416	0.010634
1049.051017	0.016399
1049.217599	0.016177
1049.384163	0.013735
1049.550709	0.016138
1049.717237	0.018299
1049.883746	0.022277
1050.050237	0.020565
1050.216710	0.022035
1050.383165	0.021868
1050.549601	0.018685
1050.716019	0.016945
1050.882420	0.019858
1051.048801	0.016723
1051.215165	0.011445
1051.381510	0.009353
1051.547837	0.005047
1051.714146	0.007633
1051.880437	0.008703
1052.046709	0.007818
1052.212964	0.010084
1052.379200	0.007832
1052.545417	0.006361
1052.711617	0.007056
1052.877798	0.007929
1053.043961	0.006914
1053.210106	0.003534
1053.376233	0.000443
1053.542341	0.004161
1053.708432	0.003378
1053.874504	0.000444
1054.040557	0.001631
1054.206593	0.004822
1054.372610	0.000912
1054.538609	0.004720
1054.704590	0.005033
1054.870553	0.008928
1055.036497	0.005840
1055.202424	0.007089
1055.368331	0.010745
1055.534221	0.012035
1055.700093	0.011740
1055.865946	0.014176
1056.031781	0.012761
1056.197598	0.013901
1056.363397	0.013553
1056.529177	0.016250
1056.694939	0.017040
1056.860683	0.016710
1057.026409	0.014791
1057.192116	0.017218
1057.357806	0.020968
1057.523477	0.019491
1057.689130	0.022457
1057.854764	0.023474
1058.020381	0.023306
1058.185979	0.022415
1058.351559	0.021929
1058.517120	0.022109
1058.682664	0.018897
1058.848189	0.013631
1059.013696	0.020005
1059.179185	0.014047
1059.344656	0.008914
1059.510108	0.010434
1059.675542	0.010549
1059.840958	0.011747
1060.006356	0.011758
1060.171735	0.010685
1060.337096	0.010475
1060.502439	0.005031
1060.667764	0.005955
1060.833071	0.007361
1060.998359	0.005483
1061.163629	-0.000305
1061.328881	0.000455
1061.494115	0.002621
1061.659330	0.002728
1061.824527	0.000339
1061.989706	0.002433
1062.154867	0.005923
1062.320010	0.006240
1062.485134	0.009744
1062.650240	0.017691
1062.815328	0.017380
1062.980398	0.015187
1063.145449	0.018337
1063.310482	0.021468
1063.475497	0.018520
1063.640494	0.014096
1063.805473	0.014781
1063.970433	0.012978
1064.135375	0.010609
1064.300299	0.008027
1064.465204	0.007045
1064.630092	0.003506
1064.794961	0.004202
1064.959812	0.004760
1065.124645	0.007340
1065.289459	0.008311
1065.454256	0.009684
1065.619034	0.006491
1065.783793	0.004451
1065.948535	0.008747
1066.113258	0.007169
1066.277964	0.009125
1066.442651	0.012867
1066.607319	0.007985
1066.771970	0.007633
1066.936602	0.003584
1067.101216	0.006516
1067.265812	0.010112
1067.430389	0.011999
1067.594949	0.012199
1067.759490	0.013423
1067.924013	0.014574
1068.088518	0.019627
1068.253004	0.018753
1068.417472	0.018697
1068.581922	0.018367
1068.746354	0.018820
1068.910768	0.017891
1069.075163	0.018393
1069.239540	0.011756
1069.403899	0.007153
1069.568240	0.005404
1069.732562	0.011611
1069.896866	0.010894
1070.061152	0.010612
1070.225420	0.013263
1070.389670	0.009040
1070.553901	0.009609
1070.718114	0.011480
1070.882309	0.012342
1071.046486	0.015387
1071.210644	0.009674
1071.374784	0.009571
1071.538906	0.006910
1071.703010	0.008264
1071.867096	0.006204
1072.031163	0.008609
1072.195212	0.010513
1072.359243	0.009134
1072.523256	0.008893
1072.687250	0.008920
1072.851226	0.011127
1073.015184	0.011845
1073.179124	0.003960
1073.343045	0.003042
1073.506949	0.005441
1073.670834	0.003404
1073.834701	0.005771
1073.998549	0.004255
1074.162380	0.006955
1074.326192	0.008263
1074.489986	0.012438
1074.653761	0.014422
1074.817519	0.015495
1074.981258	0.011088
1075.144979	0.008936
1075.308682	0.008224
1075.472367	0.011730
1075.636033	0.012469
1075.799681	0.013516
1075.963311	0.011076
1076.126923	0.012912
1076.290516	0.010311
1076.454092	0.008895
1076.617649	0.014769
1076.781187	0.013513
1076.944708	0.011695
1077.108210	0.008014
1077.271695	0.003608
1077.435160	0.005086
1077.598608	0.007010
1077.762038	0.009729
1077.925449	0.010129
1078.088842	0.002861
1078.252217	0.009321
1078.415573	0.007693
1078.578912	0.009259
1078.742232	0.010365
1078.905534	0.012412
1079.068817	0.013519
1079.232083	0.014491
1079.395330	0.015156
1079.558559	0.023052
1079.721770	0.017068
1079.884962	0.015691
1080.048136	0.011788
1080.211293	0.017248
1080.374430	0.014059
1080.537550	0.010701
1080.700651	0.014401
1080.863735	0.018060
1081.026800	0.013958
1081.189846	0.004139
1081.352875	0.008800
1081.515885	0.012795
1081.678877	0.007854
1081.841851	0.008268
1082.004807	0.009692
1082.167744	0.009617
1082.330663	0.010542
1082.493564	0.016073
1082.656447	0.026267
1082.819312	0.021237
1082.982158	0.018784
1083.144986	0.020065
1083.307796	0.018664
1083.470587	0.019538
1083.633361	0.020721
1083.796116	0.017219
1083.958853	0.014167
1084.121571	0.013827
1084.284272	0.021881
1084.446954	0.023963
1084.609618	0.021720
1084.772264	0.022693
1084.934892	0.021915
1085.097501	0.018712
1085.260092	0.014580
1085.422665	0.014991
1085.585220	0.017041
1085.747756	0.007293
1085.910274	0.006397
1086.072774	0.007358
1086.235256	0.009801
1086.397720	0.009809
1086.560165	0.013808
1086.722592	0.014895
1086.885001	0.013678
1087.047392	0.010282
1087.209764	0.015679
1087.372119	0.020642
1087.534455	0.021728
1087.696772	0.017349
1087.859072	0.008151
1088.021353	0.002273
1088.183616	0.007716
1088.345861	0.002975
1088.508088	0.007535
1088.670296	0.000845
1088.832486	-0.001546
1088.994658	0.001388
1089.156812	0.007805
1089.318948	0.019083
1089.481065	0.022821
1089.643164	0.022311
1089.805245	0.028629
1089.967308	0.029321
1090.129352	0.041028
1090.291378	0.036441
1090.453386	0.032035
1090.615376	0.028971
1090.777347	0.021521
1090.939301	0.018543
1091.101236	0.018199
1091.263153	0.013429
1091.425051	0.012225
1091.586932	0.008491
1091.748794	0.011492
1091.910638	0.013441
1092.072463	0.010048
1092.234271	0.012800
1092.396060	0.016156
1092.557831	0.008039
1092.719584	0.010112
1092.881319	0.007356
1093.043035	0.004414
1093.204733	0.009002
1093.366413	0.009793
1093.528075	0.018547
1093.689718	0.016613
1093.851343	0.016298
1094.012950	0.021294
1094.174539	0.022802
1094.336110	0.023253
1094.497662	0.023352
1094.659196	0.018046
1094.820712	0.012884
1094.982210	0.004571
1095.143689	0.010288
1095.305151	0.002455
1095.466594	0.003685
1095.628018	0.004049
1095.789425	-0.000842
1095.950813	0.002395
1096.112183	0.006573
1096.273535	0.008161
1096.434869	0.007880
1096.596184	0.002560
1096.757482	0.012006
1096.918761	0.018799
1097.080021	0.020863
1097.241264	0.029971
1097.402488	0.024626
1097.563694	0.020300
1097.724882	0.014810
1097.886052	0.018417
1098.047203	0.016799
1098.208336	0.014121
1098.369451	0.009485
1098.530548	0.011251
1098.691627	0.005065
1098.852687	0.001837
1099.013729	-0.006549
1099.174753	-0.000651
1099.335758	0.002192
1099.496746	0.002481
1099.657715	0.009748
1099.818666	0.014583
1099.979599	0.003789
1100.140513	0.012916
1100.301409	0.026671
1100.462287	0.032882
1100.623147	0.040376
1100.783989	0.037875
1100.944812	0.036602
1101.105617	0.028085
1101.266404	0.019606
1101.427173	0.020063
1101.587923	0.013894
1101.748656	0.006851
1101.909370	-0.000753
1102.070066	-0.007463
1102.230743	-0.008784
1102.391403	-0.009410
1102.552044	-0.011533
1102.712667	-0.009762
1102.873271	-0.004674
1103.033858	-0.009460
1103.194426	-0.004449
1103.354976	0.007414
1103.515508	0.001716
1103.676021	-0.003686
1103.836517	0.001894
1103.996994	-0.000724
1104.157453	0.001970
1104.317893	-0.010242
1104.478316	-0.010241
1104.638720	-0.012144
1104.799106	-0.015244
1104.959474	-0.007819
1105.119823	-0.001249
1105.280155	-0.001369
1105.440468	0.003240
1105.600763	-0.003060
1105.761039	0.010233
1105.921298	0.018060
1106.081538	0.019934
1106.241760	0.024452
1106.401964	0.017759
1106.562149	0.013284
1106.722316	0.012499
1106.882465	0.014714
1107.042596	0.020904
1107.202709	0.019467
1107.362803	0.016246
1107.522879	0.011746
1107.682937	0.008334
1107.842977	0.007966
1108.002999	0.000693
1108.163002	-0.004120
1108.322987	-0.008560
1108.482954	-0.016283
1108.642902	-0.010945
1108.802833	-0.016781
1108.962745	-0.019166
1109.122639	-0.015668
1109.282515	-0.009194
1109.442372	0.006047
1109.602211	0.005544
1109.762032	0.005338
1109.921835	0.008018
1110.081620	0.009898
1110.241386	0.017638
1110.401134	0.018135
1110.560864	0.008582
1110.720576	-0.000162
1110.880269	-0.007882
1111.039945	0.002456
1111.199602	0.006837
1111.359240	0.017643
1111.518861	0.003433
1111.678463	0.002413
1111.838047	0.002158
1111.997613	0.007976
1112.157161	0.002467
1112.316690	-0.001203
1112.476202	-0.006708
1112.635695	-0.004220
1112.795169	-0.008432
1112.954626	0.006716
1113.114064	0.006120
1113.273484	0.004879
1113.432886	0.002081
1113.592270	0.016213
1113.751635	0.025324
1113.910983	0.023231
1114.070312	0.024304
1114.229622	0.012967
1114.388915	0.008059
1114.548189	0.012279
1114.707445	0.016660
1114.866683	0.017588
1115.025903	0.016560
1115.185104	0.017363
1115.344287	0.019555
1115.503452	0.012402
1115.662599	0.021016
1115.821727	0.021321
1115.980838	0.010985
1116.139930	0.006861
1116.299004	0.006416
1116.458059	-0.005433
1116.617097	-0.010771
1116.776116	-0.007837
1116.935117	-0.005002
1117.094099	-0.004548
1117.253064	-0.012130
1117.412010	-0.004467
1117.570938	0.005398
1117.729848	0.000203
1117.888740	0.003969
1118.047613	0.007773
1118.206468	0.001767
1118.365305	-0.005223
1118.524124	-0.014745
1118.682924	-0.014466
1118.841707	-0.017636
1119.000471	-0.028284
1119.159216	-0.024109
1119.317944	-0.019155
1119.476653	-0.023088
1119.635344	-0.023674
1119.794017	-0.016791
1119.952672	-0.008419
1120.111308	-0.001106
1120.269927	0.009065
1120.428527	0.010557
1120.587108	0.017085
1120.745672	0.022444
1120.904217	0.022345
1121.062744	0.022416
1121.221253	0.015138
1121.379744	0.006949
1121.538216	0.005301
1121.696671	-0.006951
1121.855107	-0.004710
1122.013524	-0.015791
1122.171924	-0.024573
1122.330305	-0.028086
1122.488668	-0.021988
1122.647013	-0.015141
1122.805340	-0.007040
1122.963648	-0.009376
1123.121938	-0.005075
1123.280210	-0.007476
1123.438464	-0.009060
1123.596700	-0.003000
1123.754917	0.002756
1123.913116	-0.002895
1124.071297	-0.007866
1124.229459	-0.003058
1124.387604	-0.007048
1124.545730	-0.009813
1124.703838	-0.017324
1124.861928	-0.004297
1125.019999	-0.015277
1125.178052	-0.013942
1125.336088	-0.006392
1125.494104	-0.000498
1125.652103	-0.007739
1125.810083	-0.002123
1125.968045	-0.000390
1126.125989	0.017461
1126.283915	0.011996
1126.441823	0.027149
1126.599712	0.036381
1126.757583	0.029358
1126.915436	0.017970
1127.073270	0.027130
1127.231087	0.027460
1127.388885	0.024902
1127.546665	0.008286
1127.704426	0.009934
1127.862170	0.007188
1128.019895	-0.010219
1128.177602	-0.006050
1128.335291	-0.001820
1128.492961	-0.017611
1128.650614	-0.017711
1128.808248	-0.023085
1128.965864	-0.017331
1129.123461	-0.013287
1129.281041	-0.011287
1129.438602	-0.010650
1129.596145	-0.007217
1129.753670	-0.004718
1129.911176	0.006410
1130.068665	0.007087
1130.226135	0.021278
1130.383587	0.028846
1130.541020	0.020322
1130.698436	0.009852
1130.855833	0.014989
1131.013212	0.009464
1131.170573	0.006632
1131.327915	0.001950
1131.485239	0.002053
1131.642545	-0.009029
1131.799833	-0.017774
1131.957103	-0.011048
1132.114354	-0.010169
1132.271588	-0.016569
1132.428803	-0.028355
1132.585999	-0.023384
1132.743178	-0.025162
1132.900338	-0.029069
1133.057480	-0.019089
1133.214604	-0.013538
1133.371710	-0.020495
1133.528797	-0.012148
1133.685866	-0.007979
1133.842917	0.011087
1133.999950	0.005353
1134.156964	0.001560
1134.313960	0.005305
1134.470938	0.007517
1134.627898	-0.002525
1134.784840	0.000920
1134.941763	-0.002262
1135.098668	-0.001572
1135.255555	-0.020300
1135.412424	-0.018099
1135.569274	0.000073
1135.726107	-0.003361
1135.882921	-0.005590
1136.039716	-0.005807
1136.196494	-0.005121
1136.353253	-0.003392
1136.509995	0.001915
1136.666717	0.012376
1136.823422	0.020988
1136.980109	0.012388
1137.136777	0.011135
1137.293427	0.012195
1137.450059	0.008574
1137.606672	0.005146
1137.763267	-0.014290
1137.919844	-0.008583
1138.076403	-0.014318
1138.232944	-0.015759
1138.389466	-0.022103
1138.545971	-0.012026
1138.702457	-0.030028
1138.858924	-0.017444
1139.015374	-0.018434
1139.171805	-0.007420
1139.328218	-0.015017
1139.484613	-0.008458
1139.640990	-0.009738
1139.797348	-0.003158
1139.953688	-0.013621
1140.110010	-0.007289
1140.266314	-0.005847
1140.422600	-0.002671
1140.578867	-0.002705
1140.735116	-0.007406
1140.891347	-0.004634
1141.047559	-0.011167
1141.203754	-0.013365
1141.359930	-0.002879
1141.516088	0.001986
1141.672228	0.005466
1141.828349	0.007581
1141.984452	0.019585
1142.140537	0.021067
1142.296604	0.022762
1142.452653	0.018657
1142.608683	0.019172
1142.764695	0.007485
1142.920689	0.019094
1143.076665	0.008678
1143.232622	0.010524
1143.388562	-0.002756
1143.544483	0.002526
1143.700385	-0.002847
1143.856270	0.015499
1144.012136	0.014107
1144.167985	0.002075
1144.323814	-0.009711
1144.479626	-0.011741
1144.635420	-0.017004
1144.791195	-0.009016
1144.946952	-0.024490
1145.102691	-0.025699
1145.258411	-0.046151
1145.414113	-0.049349
1145.569798	-0.036007
1145.725463	-0.033669
1145.881111	-0.026755
1146.036741	-0.016193
1146.192352	-0.015343
1146.347945	0.006752
1146.503519	0.010499
1146.659076	0.011439
1146.814614	0.002914
1146.970134	0.007267
1147.125636	0.011764
1147.281120	0.002128
1147.436585	-0.015243
1147.592032	-0.018205
1147.747461	-0.033616
1147.902872	-0.030289
1148.058265	-0.023869
1148.213639	-0.012047
1148.368995	-0.026169
1148.524333	-0.026694
1148.679653	-0.021661
1148.834954	-0.012784
1148.990237	-0.010215
1149.145502	-0.013737
1149.300749	-0.021451
1149.455977	-0.023344
1149.611188	-0.025373
1149.766380	-0.009480
1149.921553	-0.015186
1150.076709	-0.013597
1150.231846	-0.009944
1150.386966	-0.027233
1150.542066	-0.019931
1150.697149	-0.024670
1150.852214	-0.026853
1151.007260	-0.026549
1151.162288	-0.038786
1151.317298	-0.037568
1151.472289	-0.035177
1151.627263	-0.031933
1151.782218	-0.017597
1151.937155	-0.018207
1152.092073	-0.016410
1152.246974	-0.006137
1152.401856	-0.001633
1152.556720	0.005345
1152.711566	0.017934
1152.866393	0.002487
1153.021203	0.005421
1153.175994	0.012672
1153.330767	0.016091
1153.485521	0.035874
1153.640258	0.027722
1153.794976	0.032174
1153.949676	0.025767
1154.104358	0.010444
1154.259021	0.025541
1154.413667	0.005457
1154.568294	0.010637
1154.722903	0.006646
1154.877493	-0.013181
1155.032066	-0.007105
1155.186620	-0.009812
1155.341156	-0.004940
1155.495674	-0.002378
1155.650173	-0.022128
1155.804654	-0.008768
1155.959118	-0.030949
1156.113562	-0.027813
1156.267989	-0.013442
1156.422397	-0.022375
1156.576788	-0.031693
1156.731160	-0.037856
1156.885513	-0.035917
1157.039849	-0.044182
1157.194166	-0.059145
1157.348465	-0.044073
1157.502746	-0.039567
1157.657009	-0.040858
1157.811253	-0.037745
1157.965479	-0.043336
1158.119687	-0.029196
1158.273877	-0.031334
1158.428048	-0.005353
1158.582201	0.008688
1158.736337	0.001003
1158.890453	-0.009014
1159.044552	-0.016843
1159.198632	-0.023788
1159.352694	-0.016818
1159.506738	-0.011589
1159.660764	-0.018329
1159.814771	-0.026475
1159.968761	-0.023013
1160.122732	-0.013922
1160.276685	0.003470
1160.430619	0.013501
1160.584535	0.014138
1160.738434	0.014630
1160.892313	0.001823
1161.046175	0.015159
1161.200019	0.028715
1161.353844	0.018278
1161.507651	0.010872
1161.661440	-0.003953
1161.815210	-0.021605
1161.968962	-0.013495
1162.122697	-0.025911
1162.276412	-0.024928
1162.430110	-0.031427
1162.583789	-0.048350
1162.737451	-0.054081
1162.891094	-0.036153
1163.044718	-0.033589
1163.198325	-0.022897
1163.351913	-0.024191
1163.505483	-0.024749
1163.659035	-0.047941
1163.812569	-0.046811
1163.966084	-0.030769
1164.119581	-0.025702
1164.273060	-0.033298
1164.426521	-0.037738
1164.579964	-0.033548
1164.733388	-0.035045
1164.886794	-0.025348
1165.040182	-0.007117
1165.193551	-0.012843
1165.346903	-0.019967
1165.500236	-0.009829
1165.653551	-0.016255
1165.806848	-0.012413
1165.960126	-0.017712
1166.113386	0.002643
1166.266628	-0.003960
1166.419852	0.007856
1166.573058	0.024380
1166.726245	0.025991
1166.879414	0.027775
1167.032565	0.041610
1167.185698	0.033185
1167.338812	0.029547
1167.491909	0.011105
1167.644987	0.021624
1167.798046	0.018359
1167.951088	-0.000192
1168.104111	0.011242
1168.257117	0.012494
1168.410103	-0.008656
1168.563072	-0.003390
1168.716023	0.009800
1168.868955	0.006167
1169.021869	0.004438
1169.174765	-0.022359
1169.327642	-0.030723
1169.480501	-0.050137
1169.633343	-0.054175
1169.786165	-0.048556
1169.938970	-0.050566
1170.091757	-0.058186
1170.244525	-0.052770
1170.397275	-0.050105
1170.550007	-0.048817
1170.702720	-0.035625
1170.855415	-0.025340
1171.008092	-0.042616
1171.160751	-0.056704
1171.313392	-0.067705
1171.466014	0.006349
1171.618619	-0.131867
1171.771205	-0.131867
1171.923772	-0.131867
