sample name	sample
index	737
start time	 03-25-2021  03:34:05 PM
880	-0.044098
Peak Time (s)	90.537
Peak Height 	-0.0441
calc peak height	90,93
Baseline Time (s)	10.534
Baseline Value 	-0.004546
subtract baseline	10,4
Abs	-0.003441
Peak Time (s)	92.035
Peak Height 	-0.003441
calc peak height	90,93
Baseline Time (s)	9.537
Baseline Value 	0.002874
subtract baseline	10,3
PK_550	-0.004518
Peak Time (s)	92.035
Peak Height 	-0.004518
calc peak height	90,93
Baseline Time (s)	10.534
Baseline Value 	1.6648E-4
subtract baseline	10,2
PK_880	-0.010819
Peak Time (s)	92.035
Peak Height 	-0.01082
calc peak height	90,93
Baseline Time (s)	10.534
Baseline Value 	0.001981
subtract baseline	10,1


Time (s)	A880-A510	A880-A775	A880-A975	A880	I510	I775	I975	I880	
0.034000	-0.005462	0.000707	-0.001654	0.008157	7083.982364	43652.053115	3944.718837	23249.189100
0.537000	-0.001876	-0.000527	0.000794	0.004835	7151.116641	43848.263698	3959.109651	23405.477574
1.037500	-0.002077	0.000499	-0.001457	0.004917	7148.344877	43937.320356	3953.269518	23401.615704
1.535000	-0.000932	-0.000151	-0.005869	0.002966	7178.766401	44060.454541	3947.138852	23493.985578
2.035000	-0.002341	-0.000484	-0.000382	0.003369	7160.929160	43990.718304	3959.838896	23474.840914
2.535500	-0.002072	0.000023	0.002874	0.001938	7177.660591	44174.367231	3971.681280	23542.787610
3.036000	0.000115	-0.000026	-0.002591	-0.001247	7230.942320	44473.298339	3965.905028	23694.828277
3.536500	-0.002686	-0.000156	-0.001961	0.002225	7168.790440	44130.225074	3958.749539	23529.170651
4.036500	-0.000472	-0.000527	-0.003608	0.001294	7199.832683	44183.335673	3956.952594	23573.445393
4.537000	-0.002918	-0.000121	0.001236	0.000991	7178.656567	44250.667919	3969.926113	23587.871849
5.037000	0.000087	0.000774	-0.002880	0.001381	7204.507859	44298.797647	3958.559379	23569.287558
5.537500	-0.002166	0.000012	0.002093	0.002855	7167.708790	44086.361295	3967.377459	23499.243376
6.034500	0.000413	0.000633	0.004372	0.001177	7209.779494	44304.789103	3977.434707	23579.030434
6.535000	-0.000512	-0.000109	0.003265	-0.000191	7214.183862	44364.471679	3978.101518	23644.301004
7.035500	-0.001309	0.000080	0.000854	0.000531	7199.100401	44313.624482	3970.124312	23609.803126
7.535500	-0.000711	0.000271	-0.003202	0.000357	7206.757426	44348.457086	3960.321690	23618.101260
8.036000	0.001003	0.000279	0.002835	0.000656	7220.825593	44320.740322	3974.842641	23603.857298
8.535500	0.000265	0.000749	0.002219	0.000839	7211.667836	44348.092466	3972.812105	23595.147816
9.036500	-0.000326	-0.000681	-0.000717	-0.000523	7219.329654	44341.557476	3968.813105	23660.141132
9.536500	0.001126	-0.000523	0.000000	-0.000276	7231.340009	44333.124530	3970.006209	23648.348925
10.037000	0.002490	0.001004	-0.003337	0.000776	7234.450419	44378.365474	3958.929406	23598.116770
10.534500	0.000000	0.000000	0.004072	0.000000	7217.369373	44356.672337	3979.675700	23635.165456
11.035000	-0.000335	0.000181	0.003573	-0.000079	7214.819453	44381.486767	3978.601147	23638.939852
11.535500	-0.002080	-0.000158	-0.001581	0.000177	7194.969063	44324.641010	3964.859326	23626.691382
12.035500	-0.002000	0.000150	-0.003812	0.000459	7192.976421	44327.252497	3958.535194	23613.257016
12.535500	-0.002621	-0.000909	-0.002741	-0.000358	7194.916690	44304.215118	3963.284541	23652.294450
13.039000	0.000023	-0.000462	0.005282	-0.000260	7220.183580	44337.344757	3983.442313	23647.569804
13.536500	-0.002690	0.000274	-0.001855	0.000743	7183.348443	44311.966578	3962.742015	23599.699494
14.037000	-0.001687	0.000413	-0.002092	0.003345	7167.594311	44077.916776	3955.611555	23476.007714
14.537000	-0.002652	-0.000325	-0.006257	0.004120	7150.513265	43934.752961	3943.316793	23439.293556
15.045000	-0.000842	-0.000475	-0.002945	0.000383	7205.194834	44274.831533	3960.903894	23616.865576
15.535000	-0.000414	-0.000056	-0.004387	0.000562	7207.678696	44297.777944	3956.836143	23608.359498
16.035000	-0.000348	0.000601	0.001095	0.001056	7203.420330	44313.321787	3969.404398	23584.785008
16.535000	-0.002482	-0.000221	0.004329	0.003597	7157.305841	43994.014135	3971.163473	23464.035864
17.035500	-0.002303	0.000113	-0.001739	0.001119	7183.462181	44260.781090	3962.086257	23581.780914
17.536000	-0.001195	0.000366	0.001492	-0.000499	7210.453425	44439.254906	3974.365165	23659.028451
18.036000	-0.002005	0.000187	0.000817	0.001390	7183.720488	44242.101818	3967.856209	23568.872116
18.539000	-0.001170	0.000149	-0.001046	0.003227	7173.841614	44064.107155	3958.530081	23481.592694
19.037000	-0.002474	-0.000259	0.001878	0.001449	7178.517778	44194.046761	3970.394035	23566.063759
19.536500	-0.002301	-0.000392	0.000498	0.001814	7176.622124	44146.735044	3965.975191	23548.699053
20.034500	0.000305	0.000315	0.000655	0.001799	7202.535276	44215.407614	3966.412834	23549.433801
20.535000	-0.004515	-0.000871	-0.001234	0.002386	7149.260662	44047.179043	3960.170295	23521.522770
21.035500	-0.000945	0.000213	0.001632	0.002245	7185.744901	44163.199731	3967.753580	23528.184816
21.535500	-0.000600	0.000634	0.001568	0.002182	7189.776284	44209.291884	3967.751928	23531.190385
22.036000	-0.004039	-0.000189	0.001272	0.001429	7163.312969	44202.638973	3968.908968	23567.029889
22.536000	-0.002433	-0.000690	-0.000533	0.002081	7172.697216	44093.230546	3962.700908	23536.016100
23.036000	-0.000976	-0.000425	-0.001165	0.001439	7193.410671	44179.225201	3962.726385	23566.544930
23.536500	0.000259	0.000399	-0.000390	0.002091	7199.174316	44195.584784	3963.036009	23535.506411
24.037000	-0.000228	-0.000530	0.003152	0.001184	7203.344784	44193.467082	3974.306725	23578.687604
24.537000	-0.002236	-0.000273	-0.001422	0.001320	7182.132056	44204.984443	3962.378443	23572.195036
25.034500	-0.002510	-0.000488	0.003068	0.001369	7178.951189	44179.932249	3973.621806	23569.890106
25.535000	-0.000773	-0.000061	-0.000121	0.001463	7195.187202	44211.586652	3965.299155	23565.418349
26.035500	-0.003462	-0.000280	-0.005710	0.001328	7169.977626	44203.650107	3951.612624	23571.849196
26.535500	-0.001188	-0.000287	0.001202	0.001400	7191.701287	44196.103050	3968.805738	23568.416272
27.036000	-0.000204	-0.000115	0.006240	0.001755	7197.924133	44178.678297	3980.732952	23551.495679
27.536500	-0.005377	-0.000487	-0.001912	0.004977	7115.580946	43838.688367	3951.983254	23398.794623
28.036000	-0.001553	-0.000689	-0.003378	0.000163	7200.330325	44275.486671	3960.367220	23627.384412
28.536500	-0.002768	-0.000241	0.000617	0.000371	7186.249015	44298.332044	3969.928747	23617.434464
29.037000	-0.000120	-0.000208	0.001135	0.000350	7212.691678	44303.446088	3971.298188	23618.450224
29.537500	-0.006156	0.000004	-0.001332	0.006128	7096.873622	43776.591363	3950.561070	23344.525376
30.034500	-0.000111	0.000514	0.001248	0.000845	7207.870796	44325.151090	3970.330171	23594.862199
30.535000	-0.001172	-0.000603	0.002614	0.000218	7203.566282	44278.455820	3975.395840	23624.763002
31.035500	-0.002686	-0.000382	0.000182	0.002015	7170.852798	44128.592146	3964.669613	23539.123547
31.535000	-0.003511	-0.000050	-0.003292	0.005687	7126.816823	43812.986290	3946.781305	23365.267717
32.036000	0.000538	-0.000340	0.001771	0.000162	7221.111520	44308.760469	3973.391985	23627.407485
32.536000	-0.004151	-0.000195	0.002704	0.004482	7132.325075	43912.922768	3964.809285	23422.165403
33.036500	-0.002318	0.000105	-0.001017	0.000646	7187.984289	44305.153724	3965.100646	23604.347526
33.537000	-0.004023	-0.000215	-0.003583	0.004510	7133.306179	43908.351599	3948.984856	23420.860506
34.034500	0.001897	0.000372	-0.002395	-0.000894	7245.229120	44477.695027	3965.509525	23677.929100
34.537500	-0.005068	-0.000045	-0.001971	0.004120	7126.920087	43961.314541	3953.976660	23439.312987
35.035000	-0.001102	0.000085	0.001074	0.002725	7179.469286	44105.591792	3965.131459	23505.427407
35.535000	-0.002651	-0.000836	0.002193	0.003771	7153.948981	43919.541896	3965.315146	23455.820514
36.035500	-0.000098	0.000430	0.001938	0.002744	7189.185903	44136.538816	3967.264916	23504.503994
36.536000	-0.002760	-0.000315	-0.002906	0.003300	7157.501300	44013.266037	3953.688915	23478.137903
37.036000	-0.001466	0.000377	0.006073	0.002831	7174.836552	44123.225689	3977.554860	23500.396874
37.536500	-0.003278	-0.000331	-0.002729	0.003666	7148.836836	43977.130792	3953.216173	23460.779033
38.036500	-0.000977	0.000124	0.003430	0.002349	7184.405981	44144.980771	3972.050413	23523.281617
38.537000	-0.001532	0.000074	-0.001646	0.003846	7164.191896	43998.338147	3955.473311	23452.248951
39.034500	-0.001607	-0.000381	-0.000176	0.001683	7184.753372	44160.211868	3964.602668	23554.908265
39.535000	-0.001842	0.000289	0.001599	0.002521	7174.180754	44144.223789	3966.970251	23515.080580
40.037500	-0.003159	-0.000019	-0.004011	0.002512	7161.307381	44115.879518	3952.896341	23515.498045
40.535500	-0.001733	-0.000062	-0.001392	0.004266	7158.103589	43945.913759	3955.058804	23432.399524
41.036000	-0.003068	0.000217	0.003179	0.002222	7165.057285	44165.770422	3971.733507	23529.284055
41.536000	-0.001244	-0.000899	-0.000465	0.001452	7190.630458	44133.007217	3964.459244	23565.919583
42.036500	-0.001065	-0.000433	-0.001855	0.001796	7188.991876	44144.520569	3960.090509	23549.535839
42.536500	-0.002902	-0.001561	-0.002399	0.002653	7162.457956	43956.582128	3956.575130	23508.816263
43.037000	-0.000850	0.000732	0.001647	0.003056	7178.684136	44135.537185	3965.740705	23489.691059
43.537000	-0.001298	0.000991	0.002283	0.003238	7172.477743	44142.870795	3966.888657	23481.076238
44.034500	-0.001801	-0.000124	-0.002148	0.001906	7180.645257	44163.407411	3959.078099	23544.305597
44.535000	-0.001661	0.000141	0.001444	0.002147	7179.650961	44165.792450	3967.528407	23532.881486
45.034500	-0.000975	-0.001115	-0.000692	-0.000459	7212.240727	44294.153418	3968.716777	23657.092914
45.543500	-0.002966	-0.000788	-0.003405	0.005852	7130.524977	43728.141784	3946.092857	23357.523006
46.035000	-0.001516	-0.000593	0.003797	0.000338	7198.962057	44267.978743	3978.108954	23619.025154
46.536000	-0.002791	-0.000081	-0.005662	0.004088	7149.470451	43960.860601	3944.868201	23440.810008
47.036500	-0.000778	-0.000677	-0.005286	0.000371	7205.952117	44256.780573	3955.059183	23617.437802
47.539500	-0.003388	-0.000663	-0.002995	0.005814	7126.777840	43743.400714	3947.202870	23359.294394
48.036500	-0.002538	0.000202	0.003937	0.003219	7160.471242	44069.842976	3971.126584	23481.950862
48.537000	-0.004730	0.000134	0.001483	0.004773	7123.845893	43916.480314	3960.997658	23408.403428
49.035000	0.000311	0.000274	0.002235	0.000924	7211.281560	44294.694609	3972.635543	23591.089698
49.535000	-0.005406	-0.001221	0.003566	0.005571	7109.522037	43713.782019	3964.234673	23370.741761
50.035500	-0.000285	0.000164	0.006103	0.000072	7213.819327	44365.475653	3984.698454	23631.723755
50.535500	-0.002717	-0.000313	-0.004408	0.003461	7156.340992	43998.270324	3949.541223	23470.517036
51.036000	-0.000342	-0.000443	0.000820	-0.000362	7217.562758	44348.927286	3972.306312	23652.457575
51.536000	-0.007265	-0.001096	-0.001130	0.007529	7072.662838	43541.974224	3947.574394	23278.606150
52.036500	-0.061496	-0.013885	-0.002080	0.282134	4855.157408	23882.314966	3440.640101	13723.956910
52.536500	-0.057267	-0.010888	-0.011799	0.105124	5869.443658	34644.570547	3709.487975	19175.248240
53.037000	-0.073102	-0.027048	-0.009769	-0.117390	7681.236920	53936.792039	4278.861276	30073.534631
53.537000	-0.049361	-0.071091	-0.000235	-0.244346	9665.908576	64666.937154	4799.663016	39303.361789
54.038000	-0.023420	-0.049091	0.004850	-0.214566	9606.340758	63570.738672	4692.919312	36890.148474
54.534500	-0.023594	-0.024377	-0.003831	-0.162266	8842.694840	59838.513044	4453.920407	33032.669975
55.035500	-0.019912	-0.027678	-0.005079	-0.175296	9075.957627	61127.823924	4497.518565	33950.696508
55.535500	-0.014787	-0.023147	-0.002760	-0.164746	8999.251796	60326.823974	4466.936668	33205.277104
56.036000	-0.004045	-0.025887	-0.005610	-0.177369	9336.558900	61647.917119	4503.312634	34099.285424
56.536000	0.008421	-0.028011	-0.004439	-0.187060	9673.655031	62680.031889	4544.717224	34803.584398
57.036500	0.010375	-0.018250	-0.003914	-0.167062	9397.835608	61287.929640	4471.216080	33367.329027
57.537000	0.005209	-0.012997	-0.007551	-0.149428	9065.344741	59647.832414	4394.612481	32154.685757
58.036500	0.004992	-0.007856	-0.005651	-0.122579	8692.635294	56882.305155	4309.413497	30400.254229
58.537500	0.002147	-0.007510	-0.007091	-0.117830	8592.161181	56337.994604	4289.022134	30101.053172
59.035500	-0.001592	-0.005604	-0.002369	-0.102441	8346.769410	54705.339663	4254.560700	29153.783879
59.535500	-0.005767	-0.004700	-0.009768	-0.082224	8049.086798	52453.175601	4169.164704	27959.153735
60.035500	-0.002236	-0.003472	-0.005251	-0.080071	8065.470492	52347.826980	4176.267363	27835.221096
60.536000	-0.002881	-0.004860	-0.006245	-0.078936	8044.331185	52061.581766	4169.870503	27770.098436
61.036000	-0.006492	-0.006408	-0.010287	-0.079676	8010.409318	51970.305927	4160.013038	27812.529805
61.536500	-0.008923	-0.006090	-0.006655	-0.074471	7921.275087	51421.445960	4155.343321	27515.612080
62.036500	-0.010064	-0.006417	-0.007850	-0.074860	7912.587253	51428.383784	4152.957853	27537.678085
62.537000	-0.007867	-0.006102	-0.006072	-0.082646	8029.217090	52341.614899	4181.557155	27983.534293
63.037500	-0.004759	-0.006316	-0.007636	-0.082556	8065.012080	52306.994699	4176.566625	27978.338137
63.535000	-0.004584	-0.004773	-0.011921	-0.075802	7987.305432	51718.054066	4143.737367	27591.183486
64.054500	-0.003500	-0.003947	-0.004608	-0.073043	7967.721700	51501.446413	4157.179857	27434.796952
64.535500	-0.006001	-0.003314	-0.009027	-0.063498	7828.993340	50514.794421	4116.405791	26901.243382
65.035500	-0.003098	-0.003651	-0.005170	-0.063123	7857.790019	50436.852253	4126.449285	26880.493494
65.536000	-0.006496	-0.003370	-0.008224	-0.054715	7724.734293	49556.034482	4093.685474	26420.517228
66.036500	-0.007475	-0.003726	-0.007764	-0.054494	7711.417628	49494.101908	4094.359187	26408.546493
66.537000	-0.011158	-0.003163	-0.011595	-0.045043	7567.988054	48550.751503	4057.437613	25902.274545
67.036500	-0.008189	-0.002417	-0.010291	-0.045973	7610.118937	48727.241101	4063.568504	25951.612250
67.537500	-0.009246	-0.001890	-0.011133	-0.040059	7535.064732	48162.563417	4045.121126	25639.696591
68.037500	-0.007008	-0.001826	-0.007525	-0.039749	7555.697602	48136.982319	4054.088949	25623.452333
68.534500	-0.010843	-0.002040	-0.009880	-0.032552	7438.835398	47372.074694	4028.300072	25249.838660
69.038000	-0.009734	-0.001338	-0.005015	-0.034401	7469.880309	47633.894013	4046.368625	25345.245240
69.536000	-0.009739	-0.000752	-0.007719	-0.029294	7416.369177	47170.997810	4025.374557	25082.747840
70.035500	-0.008775	-0.001749	-0.010116	-0.030638	7440.441667	47206.182804	4022.570382	25151.488934
70.536000	-0.013413	-0.001956	-0.012876	-0.023765	7321.594131	46490.216473	3997.253334	24801.957425
71.036500	-0.009645	-0.000885	-0.004433	-0.026276	7386.037723	46851.059409	4026.087792	24929.062003
71.537000	-0.011538	-0.001661	-0.007613	-0.022719	7330.046237	46415.016348	4008.268150	24749.260498
72.037000	-0.012087	-0.001516	-0.007331	-0.024243	7340.012219	46582.416763	4013.017497	24826.106243
72.540000	-0.013133	-0.002265	-0.005499	-0.018955	7275.680685	45979.777601	4003.947269	24560.619404
73.037500	-0.012863	-0.001830	-0.005927	-0.023135	7320.782795	46439.735819	4013.797901	24770.222422
73.535500	-0.010628	-0.002140	-0.010303	-0.021811	7330.076475	46276.340297	3998.866660	24703.620514
74.036000	-0.011426	-0.002283	-0.012226	-0.023433	7338.485745	46424.162825	3998.081523	24785.231874
74.535500	-0.015991	-0.003251	-0.012538	-0.019476	7252.184001	45933.729925	3987.032452	24586.652113
75.036000	-0.011582	-0.003332	-0.008714	-0.024355	7346.329237	46411.447963	4009.673499	24831.759266
75.536500	-0.011211	-0.003190	-0.009407	-0.023759	7344.028236	46366.032774	4006.290735	24801.672289
76.037000	-0.011705	-0.002379	-0.004972	-0.025312	7354.888214	46603.202734	4022.087812	24880.190851
76.537000	-0.014981	-0.002010	-0.010223	-0.020250	7270.106918	46133.699306	3995.016559	24625.335528
77.037500	-0.011270	-0.002819	-0.007095	-0.026103	7367.484010	46638.477963	4018.553342	24920.241042
77.537500	-0.012797	-0.002865	-0.003481	-0.025785	7348.542193	46601.880062	4027.318387	24904.148086
78.034500	-0.012354	-0.002837	-0.003245	-0.027393	7369.617516	46766.761385	4032.248738	24985.811816
78.535000	-0.014084	-0.002496	-0.006406	-0.028143	7359.527668	46876.880506	4025.804316	25023.963407
79.035500	-0.015601	-0.003413	-0.006852	-0.029118	7353.958644	46882.773212	4027.216051	25073.731203
79.535500	-0.012436	-0.002703	-0.004644	-0.029244	7387.876805	46967.582433	4033.460174	25080.191440
80.036000	-0.013621	-0.003135	-0.004545	-0.029644	7379.761467	46964.294366	4034.798511	25100.615675
80.536500	-0.017854	-0.003837	-0.010995	-0.025633	7295.461161	46488.974881	4007.041531	24896.422056
81.037000	-0.015536	-0.003387	-0.007963	-0.030574	7369.601557	47033.108294	4028.136283	25148.227443
81.537000	-0.014566	-0.003624	-0.005204	-0.031794	7392.214422	47132.999820	4038.810593	25210.846891
82.037000	-0.016663	-0.004202	-0.002046	-0.032311	7375.894761	47126.844026	4048.754316	25237.444991
82.534500	-0.019353	-0.004699	-0.009106	-0.028126	7305.533716	46652.884658	4018.587684	25023.112308
83.035000	-0.014291	-0.004408	-0.000542	-0.033720	7415.050465	47249.358761	4056.695975	25310.034030
83.535000	-0.016131	-0.004084	0.000168	-0.034066	7399.543129	47317.876643	4059.592037	25327.933417
84.035500	-0.012187	-0.004423	-0.006201	-0.034810	7448.406358	47359.268847	4044.262211	25366.376521
84.536000	-0.018032	-0.004355	-0.005236	-0.030702	7345.275504	46947.814591	4035.783500	25154.772024
85.036500	-0.015160	-0.004977	-0.002139	-0.036548	7435.475376	47480.496195	4060.068308	25456.496637
85.536000	-0.015219	-0.004856	-0.003893	-0.036664	7436.076232	47504.926558	4055.586496	25462.560047
86.036500	-0.012336	-0.005001	-0.003258	-0.038140	7481.862748	47641.648860	4061.368549	25539.365548
86.537000	-0.013203	-0.004920	-0.001423	-0.039148	7483.352858	47753.921535	4069.202020	25591.995065
87.037000	-0.012970	-0.004239	-0.002939	-0.038982	7484.068589	47807.142877	4064.563476	25583.361173
87.535000	-0.014076	-0.005088	0.000500	-0.040585	7489.326982	47885.215435	4078.528681	25667.282572
88.035500	-0.015010	-0.004619	-0.002972	-0.040683	7480.488749	47943.829034	4069.163925	25672.393844
88.535000	-0.015457	-0.005529	-0.005347	-0.042512	7495.090922	48039.179456	4067.654209	25768.536645
89.036000	-0.013558	-0.005434	-0.003168	-0.042755	7517.835214	48074.360660	4074.362725	25781.348827
89.535500	-0.013008	-0.004632	-0.002769	-0.042886	7525.085163	48171.394035	4075.833366	25788.243845
90.035500	-0.015927	-0.005425	-0.004622	-0.044101	7506.960858	48215.464542	4074.062276	25852.419482
90.537000	-0.012303	-0.005381	-0.003853	-0.044098	7545.553652	48219.720695	4076.188228	25852.235087
91.037000	-0.013522	-0.005185	-0.005314	-0.044673	7538.674217	48300.180764	4073.730033	25882.690190
91.534000	-0.012997	-0.005074	-0.003787	-0.045053	7548.350170	48351.469816	4079.031839	25902.796983
92.035000	-0.010819	-0.004518	-0.003441	-0.045207	7573.404900	48425.840065	4080.428255	25910.976268
92.535000	-0.012980	-0.005764	-0.008908	-0.046366	7562.620517	48416.723196	4068.465047	25972.496660
93.035500	-0.013860	-0.004360	-0.006080	-0.046043	7549.716067	48530.080578	4075.406620	25955.301426
93.535500	-0.011126	-0.005164	-0.006557	-0.045800	7576.478106	48420.343272	4073.406741	25942.415518
94.036000	-0.010572	-0.004465	-0.005359	-0.046492	7589.925999	48566.228128	4078.660762	25979.155362
94.536000	-0.012900	-0.005509	-0.007618	-0.047801	7578.933854	48594.170003	4076.018569	26048.896458
95.036500	-0.011784	-0.005419	-0.006076	-0.047757	7590.504671	48599.017627	4080.189706	26046.546260
95.536500	-0.012158	-0.005880	-0.005181	-0.047754	7586.426399	48550.118136	4082.679076	26046.341770
96.034000	-0.011536	-0.005246	-0.004047	-0.047778	7593.409789	48619.333581	4085.922098	26047.656504
96.534500	-0.013856	-0.005641	-0.007410	-0.042900	7516.203697	48067.926873	4063.040247	25789.009341
97.035000	-0.010304	-0.005830	-0.003394	-0.048116	7610.422552	48593.427011	4088.704859	26065.682079
