sample name	sample
index	818
start time	 03-31-2021  03:50:38 PM
880	-0.015795
Peak Time (s)	92.038
Peak Height 	-0.0158
calc peak height	90,93
Baseline Time (s)	9.037
Baseline Value 	-0.0025
subtract baseline	10,4
Abs	-0.009300
Peak Time (s)	90.537
Peak Height 	-0.0093
calc peak height	90,93
Baseline Time (s)	11.538
Baseline Value 	-4.6957E-4
subtract baseline	10,3
PK_550	-0.001307
Peak Time (s)	91.537
Peak Height 	-0.001307
calc peak height	90,93
Baseline Time (s)	9.537
Baseline Value 	1.8692E-4
subtract baseline	10,2
PK_880	-0.015888
Peak Time (s)	90.537
Peak Height 	-0.01589
calc peak height	90,93
Baseline Time (s)	8.537
Baseline Value 	4.4496E-4
subtract baseline	10,1


Time (s)	A880-A510	A880-A775	A880-A975	A880	I510	I775	I975	I880	
0.034000	-0.000671	-0.000448	0.000516	0.002241	6615.599033	39177.335044	4041.153680	21497.288675
0.537000	-0.001827	-0.000372	0.000204	0.003155	6599.110197	39107.966979	4038.543194	21458.717457
1.037500	-0.002522	-0.000531	0.005285	0.003546	6590.483432	39062.479043	4048.570611	21442.214895
1.535000	-0.001653	0.000059	0.000628	0.002440	6606.180250	39202.904862	4040.969527	21488.909353
2.035000	-0.000219	-0.000320	0.003092	0.001963	6621.430762	39211.036305	4047.260143	21509.066293
2.535500	0.000739	0.000131	0.005390	0.002915	6621.481011	39169.496865	4050.154105	21468.820365
3.036000	0.002651	0.001116	0.007442	0.000002	6660.293573	39493.988765	4060.906256	21592.202139
3.536000	-0.001362	-0.000427	0.004875	0.000068	6627.451528	39359.729194	4055.188668	21589.391796
4.036500	-0.000613	-0.000259	0.004086	0.002610	6613.117790	39162.500830	4048.005689	21481.716773
4.537000	-0.000330	0.000542	0.003072	0.001270	6626.087558	39340.244911	4048.706462	21538.394029
5.034500	0.000475	-0.000114	0.000586	0.000747	6636.740910	39329.177205	4044.493702	21560.544262
5.537000	0.001277	-0.000616	-0.001044	-0.000126	6650.224723	39360.030588	4042.876021	21597.612080
6.035000	-0.003519	-0.000377	-0.000479	0.001702	6597.207873	39227.931477	4040.182289	21520.090001
6.535000	0.001819	-0.000111	0.006781	0.000260	6651.482613	39369.998354	4058.906602	21581.213711
7.035000	0.000076	0.000795	0.003254	0.000699	6633.919638	39408.927277	4050.326157	21562.581111
7.536000	0.001939	0.000964	0.001103	0.001458	6642.803030	39359.801833	4044.080313	21530.449494
8.036000	0.000564	0.000013	-0.002782	-0.000074	6644.064675	39408.276626	4039.060709	21595.436317
8.536500	0.000000	0.000311	0.003986	0.000198	6637.335343	39410.315446	4052.985702	21583.848777
9.036500	0.000887	0.000371	0.001977	0.000000	6646.065322	39431.917323	4049.082789	21592.275323
9.537000	0.001158	0.000000	-0.000163	0.000420	6644.865734	39365.950614	4043.593232	21574.445180
10.034500	-0.000263	-0.000531	-0.002803	0.000008	6636.754546	39356.060998	4038.840940	21591.951205
10.537500	0.001268	-0.000614	0.000345	-0.000006	6649.183094	39350.258948	4045.592061	21592.516603
11.035000	-0.000324	0.000021	-0.001412	-0.000194	6637.881652	39418.884771	4042.236184	21600.514258
11.538000	-0.000741	-0.000392	0.000000	-0.000678	6638.419759	39424.736864	4046.291766	21621.088717
12.035500	0.000677	-0.000268	0.000657	-0.000527	6648.618207	39422.579280	4047.377352	21614.674863
12.535500	0.000823	-0.000021	0.000726	0.000198	6643.961016	39382.714644	4045.970798	21583.871339
13.039000	0.000943	0.000514	0.003480	0.000656	6641.237919	39389.131566	4050.907156	21564.434650
13.539500	-0.000224	-0.001051	0.002405	0.000018	6636.981529	39311.857281	4049.963876	21591.508688
14.037000	-0.001460	-0.000662	0.000365	0.001997	6611.256425	39179.882480	4041.352774	21507.638277
14.539000	-0.002243	0.000482	-0.000002	0.002717	6599.286931	39215.070093	4039.037866	21477.204438
15.034500	-0.002292	0.000182	0.002308	0.000900	6613.362461	39341.052870	4047.859562	21554.061317
15.534500	-0.000250	-0.000106	0.001685	0.000513	6632.802661	39349.370038	4047.352943	21570.489971
16.035000	-0.000919	-0.000460	0.000431	0.000385	6628.457237	39330.535930	4044.938178	21575.917028
16.539500	0.001539	-0.000232	-0.000305	0.000583	6646.624082	39333.069323	4042.941381	21567.529464
17.035500	0.000676	-0.000545	0.000959	-0.001959	6660.181712	39519.095214	4051.109194	21675.712787
17.538500	-0.001065	-0.000755	-0.002562	0.000303	6627.953468	39312.883539	4038.727794	21579.422624
18.036000	-0.000784	-0.000337	-0.001440	0.002998	6608.661494	39123.906901	4035.387480	21465.348610
18.536500	-0.002257	-0.000874	-0.004802	0.000731	6614.993483	39267.386246	4033.069783	21561.261474
19.036500	-0.001371	-0.000257	0.002594	0.000958	6620.254693	39299.755808	4048.349879	21551.608873
19.537500	0.000236	-0.000600	0.001208	0.001122	6631.818247	39257.597339	4045.024058	21544.663975
20.034500	-0.002045	-0.000736	0.003082	0.000619	6617.578336	39288.078942	4050.127510	21565.986388
20.535000	0.000023	-0.000532	0.006834	0.000451	6635.493494	39319.011171	4058.607719	21573.118928
21.035000	-0.001126	-0.000453	0.000141	0.000709	6624.214335	39304.160735	4043.624337	21562.189163
21.535500	-0.001451	-0.000099	0.004415	0.000933	6619.813574	39314.938968	4052.324538	21552.675439
22.038500	-0.001459	-0.000851	0.001161	0.000477	6623.402308	39290.347306	4046.306036	21572.018215
22.535500	-0.001766	-0.000143	0.000460	0.001052	6616.354291	39301.482212	4043.574831	21547.648005
23.036500	-0.002674	-0.000855	0.006108	0.000266	6615.369481	39307.598034	4057.431674	21580.969039
23.536500	-0.000609	-0.000214	-0.000386	0.000443	6630.480315	39346.197530	4043.066026	21573.444039
24.037000	-0.001862	-0.000749	-0.001755	0.000580	6619.351951	39290.310867	4039.855382	21567.659893
24.537000	-0.001401	-0.000523	0.005610	0.000493	6623.736457	39316.300165	4055.860952	21571.350847
25.034500	0.000672	-0.000327	0.001059	0.000740	6638.385767	39312.092133	4045.522482	21560.858726
25.535000	-0.003525	-0.000699	0.003160	0.000677	6605.316986	39286.398278	4050.171164	21563.542910
26.035000	-0.002003	-0.000350	-0.000902	0.000785	6616.584336	39306.395718	4041.234223	21558.943612
26.536000	-0.001476	-0.001278	0.000263	0.000309	6624.607627	39268.830794	4044.742234	21579.148983
27.036000	0.000835	-0.000441	0.006713	0.001302	6635.173921	39255.836383	4056.497552	21537.037876
27.536000	-0.001031	-0.000307	-0.000179	-0.000937	6638.177065	39453.577903	4046.463749	21632.137002
28.036500	-0.004415	-0.000798	-0.000176	0.005765	6558.043374	38857.677492	4032.205910	21348.933333
28.537000	0.000369	-0.000039	0.002686	0.000450	6638.273906	39360.161876	4049.639827	21573.157161
29.037000	-0.000925	-0.000481	0.004919	0.000156	6630.252987	39347.876619	4055.093700	21585.643178
29.534500	0.002475	0.000781	0.010106	0.000955	6651.175540	39386.461320	4064.641093	21551.759969
30.035000	0.001066	0.000410	0.004847	0.000667	6642.137400	39379.543820	4053.833118	21563.956038
30.535000	-0.001272	-0.000242	0.003304	0.000231	6626.862925	39361.517360	4051.440680	21582.442452
31.035500	-0.001942	-0.000048	-0.000350	0.001669	6610.027094	39258.068399	4040.528045	21521.512663
31.536000	0.000340	0.000130	0.000928	0.000550	6637.246309	39365.941055	4045.651190	21568.940517
32.036000	-0.003019	-0.000581	0.003603	0.005893	6568.010047	38864.998376	4039.948767	21343.556692
32.536500	-0.002103	-0.001064	0.004906	-0.000275	6624.264732	39335.152236	4055.997836	21603.949138
33.037000	0.001614	-0.000584	0.001084	0.000008	6651.863651	39351.595426	4047.147979	21591.946241
33.537500	0.000382	0.000547	0.003916	-0.001598	6654.887399	39580.325829	4056.720091	21660.300710
34.037500	-0.003237	-0.000808	-0.000484	0.000723	6607.238826	39273.468834	4042.258356	21561.561678
34.537500	-0.001817	-0.000230	-0.004607	0.001096	6615.586137	39290.483464	4032.709447	21545.761380
35.035000	-0.002896	-0.000186	0.003810	0.000996	6607.777626	39302.459490	4050.884468	21549.987855
35.535500	0.000041	-0.000571	0.000574	0.000847	6632.455270	39282.874388	4044.256203	21556.333215
36.038500	-0.004746	-0.000527	-0.001827	0.003029	6576.981980	39105.619843	4034.500988	21464.039053
36.535500	-0.003000	-0.000614	0.000700	0.001261	6604.839503	39244.875776	4043.638315	21538.755242
37.036000	-0.001019	0.000676	-0.003503	0.001424	6619.342415	39338.586898	4034.349369	21531.852787
37.536000	0.000501	-0.000253	-0.002605	0.001015	6634.801826	39295.337258	4037.121165	21549.190570
38.036500	-0.001046	-0.000699	0.005005	0.000785	6624.240818	39277.386806	4053.919153	21558.959766
38.537000	-0.001207	-0.000653	0.003272	0.001190	6619.712682	39247.583284	4049.307739	21541.776416
39.037000	-0.001356	-0.000694	-0.004307	0.000798	6621.655323	39276.739633	4033.973179	21558.402341
39.535000	-0.001755	-0.000012	-0.000675	0.001662	6611.562708	39261.587199	4039.849306	21521.775596
40.035000	-0.001222	-0.000457	0.002995	0.001024	6620.920175	39277.650864	4049.068295	21548.814921
40.538000	-0.004000	-0.000366	0.000814	0.000689	6601.435458	39313.092116	4045.107304	21563.017823
41.035500	-0.000945	-0.000912	-0.001162	0.000663	6626.022833	39269.851540	4040.939471	21564.118444
41.536000	-0.002452	-0.001272	0.001533	0.000697	6613.703725	39237.105163	4046.631067	21562.677582
42.036000	0.000212	0.000351	0.001399	0.001916	6625.255075	39270.648422	4043.733352	21511.033473
42.536500	-0.001230	-0.000414	0.000489	0.001626	6616.046130	39231.268414	4042.408391	21523.330495
43.037000	-0.000867	-0.000687	-0.001019	0.001096	6623.190148	39252.534326	4040.323459	21545.778313
43.537000	0.001624	0.000298	0.007153	-0.000178	6653.438941	39440.613192	4060.668087	21599.821319
44.037000	-0.000638	0.000336	0.000181	-0.002974	6657.754127	39678.088244	4051.618670	21719.060839
44.535000	-0.000541	-0.000712	0.004260	-0.000353	6637.418695	39370.991287	4054.767551	21607.260983
45.035000	0.000543	-0.000295	0.002450	-0.000092	6644.038143	39384.039092	4050.298804	21596.173021
45.535500	-0.000864	-0.000373	0.002119	-0.000057	6632.450527	39374.646410	4049.511051	21594.702471
46.036000	-0.001586	-0.001130	0.003311	-0.000703	6631.841172	39365.390178	4053.473919	21622.188223
46.536500	-0.003034	-0.000993	0.007040	-0.000439	6618.131858	39354.820358	4060.991757	21610.943903
47.036500	-0.000522	-0.000381	0.002274	0.001247	6624.734112	39265.420778	4047.041959	21539.359769
47.536500	-0.003677	-0.000750	0.001642	0.001105	6600.696357	39246.592493	4045.990870	21545.386212
48.037000	-0.004030	-0.000823	0.005235	0.005310	6564.643850	38892.974694	4044.678818	21368.011939
48.537500	-0.000558	0.000737	0.003495	0.000523	6630.249281	39418.827495	4051.224372	21570.078616
49.035000	-0.000442	-0.000219	-0.006255	-0.000083	6636.049982	39389.646206	4031.720482	21595.816206
49.535000	0.003104	0.000115	0.007054	-0.002190	6681.744746	39593.715110	4064.842753	21685.556312
50.035500	-0.002440	-0.000685	-0.001532	-0.000275	6621.571033	39366.768588	4042.152715	21603.961289
50.536000	-0.000428	-0.000932	0.003482	-0.002784	6657.920139	39555.813434	4058.353024	21710.961932
51.039000	-0.032338	0.000045	-0.001553	0.043866	6077.062865	35924.475176	3952.508808	19819.472441
51.536500	-0.042239	-0.003942	-0.014230	-0.011120	6397.519118	40004.670730	4038.205322	22070.881155
52.036000	-0.050349	-0.071817	-0.027322	-0.303608	9402.890192	64946.745103	4871.681659	40265.073570
52.537000	-0.042727	-0.145141	-0.014715	-0.381047	10756.262744	65535.000000	5276.422880	47511.939054
53.037000	-0.046522	-0.122685	-0.017877	-0.358592	10310.007829	65535.000000	5152.613410	45275.938909
53.534000	-0.044722	-0.114514	-0.019785	-0.350421	10205.689541	65535.000000	5105.869229	44490.568787
54.035000	-0.027975	-0.074907	-0.018843	-0.309305	9820.561527	65318.783609	4929.970031	40755.331550
54.538000	-0.027016	-0.059310	-0.013307	-0.286740	9496.714619	64329.633803	4860.181415	38850.766287
55.035000	-0.027177	-0.059782	-0.017578	-0.287096	9499.548984	64313.343122	4844.518675	38880.008566
55.536000	-0.025919	-0.043388	-0.016168	-0.262392	9165.748199	63154.777774	4754.199179	36903.773680
56.036000	-0.024867	-0.027545	-0.011507	-0.226242	8698.516679	60414.924979	4639.552718	34207.033990
56.536500	-0.026029	-0.018850	-0.012764	-0.183202	8161.349075	56062.905427	4491.719384	31275.741994
57.037000	-0.024173	-0.013048	-0.016100	-0.137401	7678.849701	51409.879270	4344.446082	28459.584085
57.537000	-0.024575	-0.011197	-0.012144	-0.108880	7386.907856	48537.075550	4276.831721	26850.136573
58.037500	-0.027532	-0.009918	-0.020919	-0.080356	7090.483873	45778.976805	4181.214928	25342.876603
58.537000	-0.027341	-0.009190	-0.017091	-0.060532	6916.219275	43946.497576	4142.659509	24352.156624
59.038000	-0.030077	-0.008774	-0.016549	-0.053748	6834.508862	43353.059018	4127.994909	24023.364684
59.535000	-0.031364	-0.007862	-0.016582	-0.037357	6687.439021	41946.377422	4090.400673	23249.822450
60.036000	-0.025655	-0.003412	-0.022327	-0.018253	6579.929244	40660.189446	4036.158261	22384.391445
60.536000	-0.020411	-0.002596	-0.026412	-0.026920	6691.650351	41487.549358	4045.929106	22772.307523
61.036000	-0.021693	-0.001734	-0.015259	-0.001522	6480.483469	39383.282311	4015.888927	21657.042137
61.536500	-0.026303	-0.002912	-0.020443	-0.016548	6561.382595	40556.277317	4036.537755	22308.980064
62.036500	-0.013808	-0.001999	-0.024573	-0.055932	6994.530980	44190.414563	4114.464818	24128.643118
62.537000	-0.016514	-0.004184	-0.024422	-0.056895	6979.120978	44075.125808	4117.031339	24175.224417
63.037500	-0.014222	-0.002357	-0.022909	-0.050395	6942.177339	43637.471974	4105.589553	23862.726640
63.540000	-0.013044	-0.002331	-0.021516	-0.045200	6907.242155	43158.784935	4096.954644	23616.299550
64.035000	-0.011778	-0.001542	-0.023953	-0.039803	6871.655569	42736.900020	4079.403898	23363.442484
64.535500	-0.012322	-0.000717	-0.019594	-0.036711	6840.601072	42530.878300	4082.219864	23219.950671
65.035500	-0.011693	-0.000287	-0.020567	-0.033710	6820.483087	42298.552833	4073.408910	23081.642802
65.536000	-0.011398	0.000483	-0.026861	-0.031700	6806.007991	42187.094287	4055.257936	22989.574241
66.036000	-0.011280	0.000810	-0.022885	-0.029514	6788.633905	42020.536493	4059.142671	22889.931830
66.537000	-0.010356	0.000574	-0.019397	-0.028864	6790.935153	41941.389886	4065.332020	22860.391241
67.037000	-0.010815	0.000629	-0.021385	-0.027375	6774.624385	41813.506625	4057.752487	22792.858184
67.537500	-0.009083	0.000780	-0.024612	-0.026334	6780.405470	41734.503115	4048.534393	22745.837683
68.037500	-0.011444	0.001274	-0.018197	-0.022070	6725.411146	41401.265229	4053.170234	22554.270078
68.534500	-0.011020	0.000962	-0.021272	-0.025018	6753.289272	41633.927942	4052.894262	22686.490678
69.035500	-0.009621	0.001258	-0.014765	-0.024254	6758.565255	41592.425050	4065.378824	22652.128644
69.535500	-0.011482	0.001021	-0.020883	-0.024970	6749.064405	41634.938948	4053.631614	22684.357602
70.035500	-0.011076	0.000585	-0.017940	-0.023749	6742.308392	41488.423875	4057.359996	22629.458166
70.539000	-0.010106	0.000512	-0.015162	-0.025668	6766.304595	41651.683330	4067.609281	22715.793514
71.036500	-0.010737	-0.000061	-0.018207	-0.026231	6765.731308	41650.683091	4062.177648	22741.157648
71.536500	-0.012323	-0.000069	-0.010172	-0.026642	6755.954907	41686.392174	4080.778073	22759.717185
72.037000	-0.011279	0.000665	-0.021838	-0.026681	6764.966959	41755.088346	4055.266354	22761.490254
72.534500	-0.008948	0.001126	-0.017875	-0.026445	6782.457057	41775.063227	4063.369702	22750.833382
73.035000	-0.013295	-0.000806	-0.018517	-0.028067	6759.731047	41747.556816	4065.514434	22824.234356
73.535000	-0.010467	-0.000557	-0.019926	-0.027615	6779.541267	41729.543851	4061.449988	22803.761331
74.035500	-0.010677	0.000133	-0.021577	-0.027355	6775.615469	41767.641982	4057.294033	22791.971074
74.536000	-0.010448	0.000454	-0.022053	-0.027304	6777.100737	41791.667954	4056.151417	22789.682785
75.036000	-0.010776	0.000675	-0.023034	-0.026983	6771.683693	41782.786946	4053.333041	22775.157842
75.536500	-0.010082	0.000599	-0.021123	-0.026561	6773.950651	41738.468695	4056.555407	22756.056942
76.037000	-0.011124	0.000403	-0.020824	-0.026519	6764.909942	41717.398231	4057.113719	22754.184156
76.536500	-0.010220	0.000353	-0.012562	-0.025852	6766.885094	41653.908225	4073.734388	22724.094651
77.037000	-0.012122	0.000503	-0.019965	-0.025422	6747.504086	41629.032930	4056.596049	22704.680043
77.537500	-0.009522	0.000841	-0.015137	-0.024698	6763.089488	41594.898090	4065.539308	22672.122696
78.037500	-0.010321	0.000878	-0.018197	-0.024300	6753.133932	41562.995651	4057.999677	22654.222225
78.535000	-0.012766	0.000326	-0.021749	-0.024604	6735.405537	41540.988322	4050.971622	22667.861142
79.035500	-0.013118	-0.001079	-0.017136	-0.025036	6736.064497	41455.188511	4061.908528	22687.295188
79.536000	-0.012718	0.000319	-0.013907	-0.023636	6727.812841	41455.051803	4065.906701	22624.417558
80.036000	-0.013405	-0.001074	-0.018136	-0.025124	6734.417961	41463.392390	4059.923075	22691.269407
80.536500	-0.013571	-0.000076	-0.017661	-0.024256	6725.894212	41474.913378	4059.069185	22652.252487
81.036500	-0.014402	0.000043	-0.021837	-0.024736	6723.001248	41527.746753	4051.066522	22673.808535
81.537000	-0.014523	0.000242	-0.019804	-0.023279	6710.036323	41416.820150	4052.309889	22608.379440
82.040500	-0.012390	-0.001264	-0.016031	-0.022379	6720.155915	41205.501610	4058.530033	22568.063336
82.534500	-0.013064	0.000079	-0.024019	-0.022585	6716.316137	41341.408573	4041.775096	22577.308109
83.035000	-0.011724	-0.000316	-0.018988	-0.022015	6722.650893	41256.702148	4051.344059	22551.803825
83.535500	-0.013231	-0.001011	-0.018875	-0.022294	6712.549385	41220.266956	4052.189599	22564.274772
84.036000	-0.017197	-0.000379	-0.021405	-0.020110	6662.429945	41084.542037	4042.071948	22466.850208
84.539000	-0.014579	-0.001089	-0.024391	-0.021597	6695.806491	41152.434370	4038.875730	22533.115273
85.036500	-0.015057	-0.000571	-0.023522	-0.020782	6685.258330	41126.505388	4038.991888	22496.765483
85.536500	-0.013457	-0.000361	-0.016064	-0.020171	6693.322975	41091.437326	4053.674218	22469.562308
86.037500	-0.017892	-0.001280	-0.015235	-0.019867	6654.846093	40984.886408	4054.810000	22456.033755
86.535000	-0.016757	-0.000343	-0.017969	-0.019774	6663.266381	41058.431980	4048.711867	22451.898207
87.040500	-0.013209	-0.001229	-0.014356	-0.020306	6696.448801	41027.495411	4057.664955	22475.546454
87.535000	-0.016099	-0.001632	-0.021625	-0.020010	6670.511784	40966.646775	4041.389215	22462.398094
88.035000	-0.016668	-0.002253	-0.019523	-0.018768	6655.854619	40804.868434	4043.225460	22407.207481
88.535500	-0.015498	-0.001302	-0.015937	-0.019454	6670.878790	40946.989016	4052.400124	22437.674011
89.036000	-0.013150	-0.001402	-0.013899	-0.018729	6684.072724	40875.322907	4055.238175	22405.481965
89.536000	-0.016211	-0.001160	-0.013766	-0.018525	6657.585644	40878.621100	4055.084456	22396.432692
90.036500	-0.016061	-0.001355	-0.015334	-0.017405	6649.745807	40764.559325	4049.283846	22346.817313
90.537000	-0.015888	-0.001546	-0.009300	-0.017679	6653.361715	40771.840785	4062.954591	22358.969611
91.037000	-0.017390	-0.001341	-0.014873	-0.017015	6635.916184	40732.141147	4049.438615	22329.606138
91.537000	-0.017481	-0.001307	-0.015933	-0.016731	6632.909482	40710.509974	4046.550971	22317.055837
92.037500	-0.019353	-0.002221	-0.020111	-0.015795	6610.449585	40550.940486	4035.645635	22275.768073
92.535000	-0.016427	-0.001582	-0.013723	-0.016266	6637.637228	40646.593658	4050.300164	22296.534687
93.035500	-0.017249	-0.001487	-0.014883	-0.015326	6623.507646	40573.817390	4045.788608	22255.108966
93.538500	-0.015991	-0.002293	-0.021341	-0.015778	6637.217602	40543.321871	4033.004646	22275.001950
94.039000	-0.018573	-0.002338	-0.021140	-0.015223	6612.110006	40491.724961	4032.258430	22250.588962
94.536500	-0.017742	-0.002077	-0.017708	-0.014707	6614.616497	40469.831414	4038.437863	22227.894242
95.037000	-0.019962	-0.002472	-0.019230	-0.014144	6592.473753	40387.624121	4034.013150	22203.142182
95.537000	-0.017639	-0.002233	-0.013965	-0.013222	6603.607058	40329.201393	4043.250850	22162.724681
96.040000	-0.020855	-0.002620	-0.019177	-0.012783	6574.633349	40258.517158	4031.249548	22143.474732
