sample name	sample
index	18
start time	 02-11-2021  11:57:32 AM


Wavelength (nm)	Absorbance
494.344910	-0.026345
494.563924	-0.026345
494.782919	-0.026345
495.001897	0.279860
495.220856	-0.145224
495.439797	-0.143083
495.658719	-0.126078
495.877624	-0.096434
496.096510	-0.147138
496.315378	-0.128015
496.534227	-0.110055
496.753059	-0.093762
496.971872	-0.091609
497.190667	0.046107
497.409444	0.060508
497.628203	0.059341
497.846943	0.058551
498.065665	0.064201
498.284369	0.065353
498.503055	0.064703
498.721723	0.063583
498.940372	0.066490
499.159003	0.063242
499.377616	0.064243
499.596210	0.065513
499.814787	0.066530
500.033345	0.067024
500.251885	0.067942
500.470406	0.069425
500.688910	0.071141
500.907395	0.070489
501.125862	0.072590
501.344311	0.071660
501.562742	0.071265
501.781154	0.068147
501.999548	0.067583
502.217924	0.065303
502.436282	0.063957
502.654621	0.063292
502.872942	0.063083
503.091245	0.060615
503.309530	0.059470
503.527797	0.059509
503.746045	0.061331
503.964275	0.061703
504.182487	0.063263
504.400681	0.063023
504.618856	0.063937
504.837013	0.063071
505.055152	0.064410
505.273273	0.065097
505.491376	0.064934
505.709460	0.064311
505.927526	0.062571
506.145574	0.062507
506.363604	0.062049
506.581615	0.063014
506.799608	0.062055
507.017583	0.061531
507.235540	0.061080
507.453478	0.060886
507.671399	0.060624
507.889301	0.061319
508.107185	0.062397
508.325050	0.063489
508.542898	0.062256
508.760727	0.064106
508.978538	0.064799
509.196330	0.064405
509.414105	0.063603
509.631861	0.064295
509.849599	0.063536
510.067319	0.062659
510.285021	0.062033
510.502704	0.062200
510.720369	0.061777
510.938016	0.061387
511.155645	0.062021
511.373255	0.063117
511.590848	0.062720
511.808422	0.063417
512.025977	0.062078
512.243515	0.062648
512.461034	0.061778
512.678536	0.060395
512.896018	0.060434
513.113483	0.060705
513.330930	0.059241
513.548358	0.060217
513.765768	0.060574
513.983160	0.060395
514.200533	0.058654
514.417889	0.059729
514.635226	0.060432
514.852545	0.059714
515.069845	0.058884
515.287128	0.060544
515.504392	0.059738
515.721638	0.059861
515.938866	0.060878
516.156075	0.061857
516.373267	0.060308
516.590440	0.060985
516.807594	0.061776
517.024731	0.062144
517.241850	0.061603
517.458950	0.062826
517.676032	0.062767
517.893095	0.062471
518.110141	0.062481
518.327168	0.063279
518.544177	0.062704
518.761168	0.062990
518.978141	0.062920
519.195095	0.063481
519.412031	0.062643
519.628949	0.063478
519.845849	0.063152
520.062731	0.063652
520.279594	0.063165
520.496439	0.063655
520.713266	0.063608
520.930074	0.064543
521.146865	0.065661
521.363637	0.066168
521.580391	0.065157
521.797127	0.065624
522.013844	0.065544
522.230543	0.065341
522.447224	0.065048
522.663887	0.064630
522.880532	0.063487
523.097158	0.063046
523.313766	0.062147
523.530356	0.062349
523.746928	0.062004
523.963481	0.062491
524.180017	0.062293
524.396534	0.061157
524.613032	0.060315
524.829513	0.060562
525.045975	0.059169
525.262420	0.060561
525.478845	0.059436
525.695253	0.059062
525.911643	0.057888
526.128014	0.058802
526.344367	0.059803
526.560702	0.060812
526.777018	0.060058
526.993316	0.059949
527.209597	0.057253
527.425858	0.057505
527.642102	0.057439
527.858328	0.057427
528.074535	0.056816
528.290724	0.056773
528.506894	0.056480
528.723047	0.056981
528.939181	0.057375
529.155297	0.059297
529.371395	0.059634
529.587475	0.060421
529.803536	0.061474
530.019579	0.062286
530.235604	0.063245
530.451611	0.063330
530.667600	0.063450
530.883570	0.063138
531.099522	0.063307
531.315456	0.064622
531.531372	0.064997
531.747269	0.064134
531.963148	0.064242
532.179009	0.063502
532.394852	0.063939
532.610676	0.063488
532.826482	0.064082
533.042271	0.063619
533.258040	0.062496
533.473792	0.062270
533.689525	0.062376
533.905240	0.061978
534.120937	0.061593
534.336616	0.061248
534.552277	0.061748
534.767919	0.061409
534.983543	0.061698
535.199149	0.062746
535.414736	0.062754
535.630306	0.062394
535.845857	0.062796
536.061390	0.063351
536.276904	0.063326
536.492401	0.064333
536.707879	0.064838
536.923339	0.064512
537.138781	0.063577
537.354204	0.063846
537.569610	0.065299
537.784997	0.065088
538.000366	0.064613
538.215716	0.064689
538.431049	0.064065
538.646363	0.064150
538.861659	0.064461
539.076937	0.064912
539.292196	0.064788
539.507438	0.064331
539.722661	0.064816
539.937866	0.065106
540.153052	0.064185
540.368221	0.064017
540.583371	0.063407
540.798503	0.063040
541.013617	0.063044
541.228712	0.063349
541.443789	0.062612
541.658848	0.062877
541.873889	0.063577
542.088912	0.064874
542.303916	0.064559
542.518902	0.065219
542.733870	0.066136
542.948820	0.065742
543.163752	0.065818
543.378665	0.066395
543.593560	0.066142
543.808437	0.065562
544.023295	0.064975
544.238136	0.065317
544.452958	0.065421
544.667762	0.064695
544.882548	0.064841
545.097315	0.064967
545.312064	0.065288
545.526795	0.064750
545.741508	0.064455
545.956203	0.065395
546.170879	0.065285
546.385537	0.064546
546.600177	0.064631
546.814799	0.064940
547.029402	0.064031
547.243988	0.064118
547.458555	0.064831
547.673103	0.064666
547.887634	0.063846
548.102146	0.064028
548.316640	0.064315
548.531116	0.064331
548.745574	0.064212
548.960013	0.064541
549.174435	0.063812
549.388838	0.063492
549.603222	0.063848
549.817589	0.063993
550.031937	0.063423
550.246267	0.063495
550.460579	0.062978
550.674873	0.062393
550.889148	0.062028
551.103405	0.062099
551.317644	0.061157
551.531865	0.061082
551.746068	0.060306
551.960252	0.060268
552.174418	0.060422
552.388566	0.060274
552.602696	0.059720
552.816807	0.060260
553.030900	0.060470
553.244975	0.061622
553.459032	0.061469
553.673070	0.062319
553.887091	0.062910
554.101093	0.062835
554.315077	0.063502
554.529042	0.063525
554.742990	0.062956
554.956919	0.063051
555.170830	0.062315
555.384722	0.062484
555.598597	0.062406
555.812453	0.061964
556.026291	0.061449
556.240111	0.061426
556.453913	0.061791
556.667696	0.062006
556.881461	0.061178
557.095208	0.061130
557.308937	0.061376
557.522647	0.061263
557.736339	0.061713
557.950013	0.062522
558.163669	0.062454
558.377307	0.062274
558.590926	0.062221
558.804527	0.062795
559.018110	0.063456
559.231675	0.062374
559.445221	0.062232
559.658749	0.061485
559.872259	0.060960
560.085751	0.060804
560.299225	0.061257
560.512680	0.061377
560.726117	0.061375
560.939536	0.061178
561.152937	0.061491
561.366319	0.061191
561.579683	0.061537
561.793029	0.061353
562.006357	0.061142
562.219667	0.061272
562.432958	0.061161
562.646231	0.061851
562.859486	0.062139
563.072723	0.062927
563.285941	0.063295
563.499141	0.063193
563.712323	0.063027
563.925487	0.063040
564.138632	0.063166
564.351760	0.063477
564.564869	0.062937
564.777960	0.063342
564.991032	0.062647
565.204087	0.062249
565.417123	0.062022
565.630141	0.062496
565.843140	0.062979
566.056122	0.062603
566.269085	0.062783
566.482030	0.062970
566.694957	0.062800
566.907866	0.063722
567.120756	0.063978
567.333628	0.064701
567.546482	0.064724
567.759318	0.064633
567.972135	0.065501
568.184935	0.065414
568.397716	0.065435
568.610478	0.065370
568.823223	0.064900
569.035949	0.065497
569.248657	0.065281
569.461347	0.065427
569.674019	0.065544
569.886672	0.064834
570.099308	0.064559
570.311925	0.064391
570.524523	0.064022
570.737104	0.064423
570.949666	0.064143
571.162210	0.064447
571.374736	0.064053
571.587244	0.064053
571.799733	0.063842
572.012205	0.063790
572.224658	0.063616
572.437092	0.063539
572.649509	0.063562
572.861907	0.063511
573.074287	0.063460
573.286649	0.064106
573.498993	0.064274
573.711318	0.064626
573.923625	0.065032
574.135914	0.065196
574.348185	0.065571
574.560438	0.064776
574.772672	0.064591
574.984888	0.064199
575.197086	0.063554
575.409266	0.063439
575.621427	0.062648
575.833570	0.062236
576.045695	0.061830
576.257802	0.061080
576.469890	0.061352
576.681961	0.061037
576.894013	0.060721
577.106046	0.060821
577.318062	0.060087
577.530059	0.059850
577.742039	0.059760
577.954000	0.059641
578.165942	0.059839
578.377867	0.059915
578.589773	0.060197
578.801661	0.060096
579.013531	0.059586
579.225382	0.059550
579.437216	0.059591
579.649031	0.058963
579.860828	0.058771
580.072606	0.057971
580.284367	0.057766
580.496109	0.057191
580.707833	0.057470
580.919539	0.057389
581.131227	0.057608
581.342896	0.058431
581.554547	0.058703
581.766180	0.058713
581.977795	0.059023
582.189391	0.058686
582.400969	0.059614
582.612529	0.060270
582.824071	0.060406
583.035595	0.060373
583.247100	0.060097
583.458587	0.060455
583.670056	0.060955
583.881506	0.061284
584.092939	0.061759
584.304353	0.061319
584.515749	0.060428
584.727127	0.060934
584.938486	0.061145
585.149828	0.060772
585.361151	0.061228
585.572456	0.061229
585.783742	0.061461
585.995011	0.061274
586.206261	0.061567
586.417493	0.061910
586.628706	0.061883
586.839902	0.061641
587.051079	0.061756
587.262238	0.061550
587.473379	0.061953
587.684502	0.062095
587.895606	0.062277
588.106692	0.061855
588.317760	0.062389
588.528810	0.062225
588.739841	0.062600
588.950855	0.062830
589.161850	0.062640
589.372827	0.062489
589.583785	0.062346
589.794726	0.062607
590.005648	0.063060
590.216552	0.063517
590.427437	0.063710
590.638305	0.063775
590.849154	0.064139
591.059985	0.064266
591.270798	0.064591
591.481592	0.064396
591.692369	0.064643
591.903127	0.064765
592.113867	0.063687
592.324588	0.063842
592.535292	0.063843
592.745977	0.063740
592.956644	0.063530
593.167293	0.062789
593.377923	0.062528
593.588536	0.061924
593.799130	0.061762
594.009706	0.061611
594.220263	0.061254
594.430803	0.060865
594.641324	0.060883
594.851827	0.060502
595.062312	0.060150
595.272778	0.060341
595.483227	0.060661
595.693657	0.060574
595.904069	0.060630
596.114462	0.060840
596.324838	0.061306
596.535195	0.060974
596.745534	0.061091
596.955855	0.061639
597.166157	0.062134
597.376441	0.061740
597.586707	0.061680
597.796955	0.061924
598.007185	0.061578
598.217396	0.061169
598.427589	0.061870
598.637764	0.062556
598.847921	0.062720
599.058060	0.061998
599.268180	0.062432
599.478282	0.062407
599.688366	0.062782
599.898431	0.063165
600.108479	0.063226
600.318508	0.062617
600.528519	0.062506
600.738511	0.062180
600.948486	0.062298
601.158442	0.061673
601.368380	0.061972
601.578300	0.061748
601.788202	0.061953
601.998085	0.062265
602.207950	0.062148
602.417797	0.062269
602.627626	0.062908
602.837436	0.063223
603.047228	0.063980
603.257002	0.063607
603.466758	0.063216
603.676496	0.062675
603.886215	0.062169
604.095916	0.062613
604.305599	0.062385
604.515264	0.061587
604.724910	0.061108
604.934538	0.060491
605.144148	0.060455
605.353740	0.060335
605.563314	0.060188
605.772869	0.060365
605.982406	0.060027
606.191925	0.059876
606.401425	0.059988
606.610908	0.059919
606.820372	0.059747
607.029818	0.059415
607.239246	0.059143
607.448655	0.059370
607.658047	0.059706
607.867420	0.059443
608.076775	0.059034
608.286111	0.058799
608.495430	0.059029
608.704730	0.059162
608.914012	0.059486
609.123275	0.059651
609.332521	0.059092
609.541748	0.058591
609.750957	0.059002
609.960148	0.059221
610.169321	0.059532
610.378475	0.059605
610.587611	0.059756
610.796729	0.059715
611.005829	0.059975
611.214910	0.060304
611.423974	0.060437
611.633019	0.060022
611.842045	0.059850
612.051054	0.059916
612.260044	0.060258
612.469017	0.060110
612.677970	0.060347
612.886906	0.060579
613.095824	0.060325
613.304723	0.060252
613.513604	0.060216
613.722467	0.060406
613.931311	0.060230
614.140138	0.059458
614.348946	0.059378
614.557736	0.058855
614.766507	0.058536
614.975261	0.059002
615.183996	0.058851
615.392713	0.059039
615.601412	0.059207
615.810092	0.059084
616.018754	0.059609
616.227399	0.059587
616.436024	0.059373
616.644632	0.059400
616.853222	0.059247
617.061793	0.059515
617.270346	0.059630
617.478880	0.059412
617.687397	0.059487
617.895895	0.059095
618.104375	0.059034
618.312837	0.059142
618.521281	0.059333
618.729706	0.059175
618.938113	0.059236
619.146502	0.059054
619.354873	0.058893
619.563226	0.058752
619.771560	0.059013
619.979876	0.058798
620.188174	0.059417
620.396453	0.059280
620.604715	0.059525
620.812958	0.059288
621.021183	0.059093
621.229390	0.059396
621.437578	0.059221
621.645748	0.058972
621.853900	0.058934
622.062034	0.058673
622.270150	0.058178
622.478247	0.058079
622.686326	0.058070
622.894387	0.058003
623.102430	0.057979
623.310454	0.058495
623.518461	0.058356
623.726449	0.058824
623.934418	0.058973
624.142370	0.059438
624.350303	0.059596
624.558218	0.059865
624.766115	0.060383
624.973994	0.060481
625.181855	0.060643
625.389697	0.060917
625.597521	0.060997
625.805327	0.060839
626.013114	0.060872
626.220883	0.061249
626.428634	0.061140
626.636367	0.060819
626.844082	0.060631
627.051778	0.060510
627.259457	0.060494
627.467117	0.060159
627.674758	0.060205
627.882382	0.060127
628.089987	0.059469
628.297574	0.059428
628.505143	0.059616
628.712694	0.059607
628.920226	0.059290
629.127740	0.059324
629.335236	0.059783
629.542714	0.059722
629.750174	0.059830
629.957615	0.060082
630.165038	0.060186
630.372443	0.060270
630.579829	0.060278
630.787198	0.060717
630.994548	0.060883
631.201880	0.060665
631.409194	0.060925
631.616489	0.060946
631.823766	0.061054
632.031025	0.060712
632.238266	0.060687
632.445489	0.060753
632.652693	0.060406
632.859879	0.060194
633.067047	0.059953
633.274197	0.059577
633.481329	0.059574
633.688442	0.059270
633.895537	0.059205
634.102614	0.059125
634.309672	0.058900
634.516713	0.058963
634.723735	0.059434
634.930739	0.059511
635.137724	0.059402
635.344692	0.059326
635.551641	0.059451
635.758572	0.059988
635.965485	0.059884
636.172379	0.060225
636.379256	0.060116
636.586114	0.059875
636.792954	0.060044
636.999775	0.060138
637.206579	0.060124
637.413364	0.059931
637.620131	0.059694
637.826880	0.059789
638.033610	0.059354
638.240323	0.059352
638.447017	0.059443
638.653692	0.059033
638.860350	0.058862
639.066990	0.058590
639.273611	0.058786
639.480214	0.058797
639.686798	0.058573
639.893365	0.058841
640.099913	0.058894
640.306443	0.058737
640.512955	0.058711
640.719449	0.058977
640.925924	0.059232
641.132381	0.059187
641.338820	0.059053
641.545241	0.059175
641.751644	0.059206
641.958028	0.059235
642.164394	0.058900
642.370742	0.059148
642.577071	0.058997
642.783383	0.058676
642.989676	0.058736
643.195951	0.058779
643.402207	0.058880
643.608446	0.058552
643.814666	0.058320
644.020868	0.058518
644.227052	0.058456
644.433218	0.058123
644.639365	0.058205
644.845494	0.057744
645.051605	0.057671
645.257698	0.057224
645.463772	0.057118
645.669828	0.056950
645.875866	0.056511
646.081886	0.056445
646.287888	0.056611
646.493871	0.056674
646.699836	0.056784
646.905783	0.056460
647.111712	0.056590
647.317622	0.056756
647.523514	0.056837
647.729388	0.057035
647.935244	0.057187
648.141082	0.056861
648.346901	0.056770
648.552702	0.056588
648.758485	0.056393
648.964250	0.056484
649.169996	0.056184
649.375724	0.056191
649.581434	0.056044
649.787126	0.055784
649.992800	0.056406
650.198455	0.056313
650.404092	0.056252
650.609711	0.056671
650.815311	0.056664
651.020894	0.057051
651.226458	0.057189
651.432004	0.057462
651.637532	0.057513
651.843041	0.057438
652.048532	0.057778
652.254006	0.058027
652.459460	0.058147
652.664897	0.058009
652.870315	0.058208
653.075716	0.058316
653.281097	0.058472
653.486461	0.058684
653.691807	0.058875
653.897134	0.058873
654.102443	0.059048
654.307734	0.059024
654.513006	0.059441
654.718261	0.059347
654.923497	0.059383
655.128715	0.059223
655.333915	0.059181
655.539096	0.059207
655.744259	0.058923
655.949404	0.058899
656.154531	0.058886
656.359640	0.058925
656.564730	0.058969
656.769802	0.059157
656.974856	0.059162
657.179892	0.059251
657.384909	0.059239
657.589908	0.059752
657.794889	0.059833
657.999852	0.059829
658.204797	0.059516
658.409723	0.059393
658.614631	0.059251
658.819521	0.059259
659.024393	0.059339
659.229246	0.059134
659.434081	0.058921
659.638898	0.058807
659.843697	0.058785
660.048478	0.059020
660.253240	0.059269
660.457984	0.059342
660.662710	0.059526
660.867417	0.059430
661.072107	0.059927
661.276778	0.060034
661.481431	0.060474
661.686066	0.060591
661.890682	0.060760
662.095281	0.060378
662.299861	0.059983
662.504422	0.059875
662.708966	0.059890
662.913491	0.059689
663.117999	0.059559
663.322488	0.059149
663.526958	0.059147
663.731411	0.058924
663.935845	0.059208
664.140261	0.059181
664.344659	0.059165
664.549038	0.059242
664.753400	0.058955
664.957743	0.058973
665.162068	0.058914
665.366375	0.058571
665.570663	0.058464
665.774933	0.058098
665.979185	0.058125
666.183419	0.057936
666.387635	0.057640
666.591832	0.057610
666.796011	0.057602
667.000172	0.057668
667.204315	0.058110
667.408439	0.058146
667.612545	0.058494
667.816634	0.058764
668.020703	0.059077
668.224755	0.059080
668.428788	0.059312
668.632803	0.059523
668.836800	0.059653
669.040779	0.059870
669.244739	0.059858
669.448681	0.059815
669.652605	0.059931
669.856511	0.060126
670.060399	0.060544
670.264268	0.060560
670.468119	0.060234
670.671952	0.060464
670.875767	0.060335
671.079563	0.060483
671.283341	0.060286
671.487101	0.060002
671.690843	0.059702
671.894567	0.059446
672.098272	0.059428
672.301959	0.059327
672.505628	0.058859
672.709278	0.058489
672.912911	0.058342
673.116525	0.058384
673.320121	0.058160
673.523699	0.058160
673.727258	0.058141
673.930799	0.058064
674.134322	0.058168
674.337827	0.058127
674.541314	0.058118
674.744782	0.057728
674.948232	0.057534
675.151664	0.057801
675.355078	0.057660
675.558474	0.057483
675.761851	0.057334
675.965210	0.057376
676.168551	0.057525
676.371873	0.057413
676.575178	0.057632
676.778464	0.057859
676.981732	0.057893
677.184981	0.058249
677.388213	0.058485
677.591426	0.058425
677.794621	0.058121
677.997798	0.057800
678.200956	0.057995
678.404097	0.058163
678.607219	0.058082
678.810323	0.058183
679.013408	0.057859
679.216476	0.057631
679.419525	0.057820
679.622556	0.058064
679.825569	0.058526
680.028563	0.058612
680.231540	0.058467
680.434498	0.058551
680.637438	0.058529
680.840359	0.058240
681.043263	0.058489
681.246148	0.058136
681.449015	0.058090
681.651864	0.057687
681.854694	0.057596
682.057506	0.057503
682.260301	0.057557
682.463076	0.057682
682.665834	0.057897
682.868573	0.057466
683.071295	0.057471
683.273998	0.057593
683.476682	0.057848
683.679349	0.058158
683.881997	0.058470
684.084627	0.058110
684.287239	0.057847
684.489833	0.057846
684.692408	0.058133
684.894965	0.058262
685.097504	0.058149
685.300025	0.058316
685.502527	0.057912
685.705012	0.057846
685.907478	0.058183
686.109925	0.058311
686.312355	0.058523
686.514766	0.058736
686.717159	0.058812
686.919534	0.058832
687.121891	0.058888
687.324230	0.058998
687.526550	0.058724
687.728852	0.058651
687.931136	0.058354
688.133401	0.058198
688.335649	0.057918
688.537878	0.057862
688.740089	0.057828
688.942281	0.057627
689.144456	0.057583
689.346612	0.057490
689.548750	0.057374
689.750870	0.057597
689.952971	0.057771
690.155055	0.057848
690.357120	0.057806
690.559167	0.057746
690.761195	0.057523
690.963206	0.057496
691.165198	0.057737
691.367172	0.058071
691.569128	0.057973
691.771065	0.057929
691.972984	0.057917
692.174885	0.057695
692.376768	0.057665
692.578633	0.057766
692.780479	0.057601
692.982308	0.057460
693.184118	0.056889
693.385909	0.056615
693.587683	0.056351
693.789438	0.055870
693.991175	0.056071
694.192894	0.055868
694.394595	0.055651
694.596277	0.055904
694.797941	0.055828
694.999587	0.056478
695.201215	0.056567
695.402824	0.056691
695.604416	0.057104
695.805989	0.056895
696.007543	0.057069
696.209080	0.057402
696.410598	0.057119
696.612099	0.057464
696.813580	0.056660
697.015044	0.056748
697.216490	0.056863
697.417917	0.057086
697.619326	0.057179
697.820717	0.057076
698.022089	0.056981
698.223444	0.057326
698.424780	0.057136
698.626098	0.057328
698.827397	0.057416
699.028679	0.057356
699.229942	0.056923
699.431187	0.057226
699.632414	0.057372
699.833622	0.057437
700.034813	0.057295
700.235985	0.057127
700.437139	0.057406
700.638274	0.057627
700.839392	0.057795
701.040491	0.058294
701.241572	0.058303
701.442635	0.058526
701.643679	0.058518
701.844706	0.058487
702.045714	0.058764
702.246704	0.058649
702.447675	0.058616
702.648629	0.058556
702.849564	0.058278
703.050481	0.058095
703.251380	0.058054
703.452260	0.057878
703.653122	0.057878
703.853966	0.058098
704.054792	0.058322
704.255600	0.058390
704.456389	0.058272
704.657160	0.058281
704.857913	0.058424
705.058648	0.058497
705.259365	0.058853
705.460063	0.058929
705.660743	0.058750
705.861405	0.058668
706.062048	0.058526
706.262674	0.058616
706.463281	0.058914
706.663870	0.058770
706.864441	0.058431
707.064993	0.058135
707.265527	0.058203
707.466043	0.058242
707.666541	0.058203
707.867021	0.058461
708.067482	0.058290
708.267925	0.058175
708.468350	0.058257
708.668757	0.058336
708.869145	0.058105
709.069516	0.057799
709.269868	0.057789
709.470201	0.057579
709.670517	0.057010
709.870814	0.057048
710.071093	0.056798
710.271354	0.056862
710.471597	0.056868
710.671821	0.057279
710.872028	0.057329
711.072216	0.057061
711.272385	0.057289
711.472537	0.057396
711.672670	0.057347
711.872785	0.057428
712.072882	0.057151
712.272961	0.056988
712.473021	0.056894
712.673063	0.056838
712.873087	0.056886
713.073093	0.056784
713.273081	0.056688
713.473050	0.056509
713.673001	0.056192
713.872934	0.056170
714.072849	0.055989
714.272745	0.055662
714.472623	0.055587
714.672483	0.055532
714.872325	0.055176
715.072148	0.055155
715.271954	0.055095
715.471741	0.054923
715.671509	0.054772
715.871260	0.054891
716.070992	0.054905
716.270707	0.054762
716.470403	0.054644
716.670080	0.054699
716.869740	0.054593
717.069381	0.054674
717.269004	0.054819
717.468609	0.054484
717.668195	0.054501
717.867764	0.054522
718.067314	0.054525
718.266846	0.054442
718.466360	0.054805
718.665855	0.054505
718.865332	0.054480
719.064791	0.054234
719.264232	0.054470
719.463655	0.054249
719.663059	0.054041
719.862445	0.053961
720.061813	0.053860
720.261163	0.053173
720.460494	0.052991
720.659807	0.052676
720.859102	0.052580
721.058379	0.052400
721.257638	0.052308
721.456878	0.052058
721.656100	0.052131
721.855304	0.051812
722.054490	0.051704
722.253657	0.051617
722.452806	0.051575
722.651937	0.051644
722.851050	0.051676
723.050145	0.051560
723.249221	0.051368
723.448279	0.051012
723.647319	0.051167
723.846340	0.051098
724.045344	0.051139
724.244329	0.051325
724.443296	0.050988
724.642245	0.050953
724.841175	0.050531
725.040088	0.050635
725.238982	0.050336
725.437857	0.050525
725.636715	0.050554
725.835554	0.050466
726.034376	0.050283
726.233179	0.050357
726.431963	0.050285
726.630730	0.050399
726.829478	0.050449
727.028208	0.050677
727.226920	0.050408
727.425614	0.050424
727.624289	0.050490
727.822946	0.050238
728.021585	0.050072
728.220206	0.049764
728.418808	0.050126
728.617392	0.050123
728.815958	0.050090
729.014506	0.049868
729.213036	0.049901
729.411547	0.049851
729.610040	0.049669
729.808515	0.049878
730.006972	0.050049
730.205410	0.049699
730.403831	0.049460
730.602233	0.049357
730.800616	0.049408
730.998982	0.049246
731.197329	0.049246
731.395658	0.049199
731.593969	0.049042
731.792262	0.049113
731.990536	0.048964
732.188793	0.048901
732.387031	0.048930
732.585250	0.048724
732.783452	0.048692
732.981635	0.048611
733.179800	0.048564
733.377947	0.048600
733.576076	0.048624
733.774186	0.048717
733.972278	0.049000
734.170352	0.048968
734.368408	0.049261
734.566446	0.049378
734.764465	0.049687
734.962466	0.049871
735.160449	0.049711
735.358413	0.049544
735.556360	0.049531
735.754288	0.049728
735.952198	0.049904
736.150090	0.049835
736.347963	0.049614
736.545818	0.049159
736.743655	0.049262
736.941474	0.049410
737.139275	0.049492
737.337057	0.049592
737.534821	0.049476
737.732567	0.049845
737.930295	0.049605
738.128005	0.049919
738.325696	0.050281
738.523369	0.050262
738.721024	0.050388
738.918660	0.050460
739.116279	0.050639
739.313879	0.050202
739.511461	0.049990
739.709024	0.050425
739.906570	0.050723
740.104097	0.050729
740.301606	0.050587
740.499097	0.050836
740.696569	0.050877
740.894024	0.050853
741.091460	0.051159
741.288878	0.051299
741.486277	0.051337
741.683659	0.051125
741.881022	0.051345
742.078367	0.051635
742.275694	0.051439
742.473002	0.051451
742.670293	0.051766
742.867565	0.052074
743.064819	0.051609
743.262054	0.051607
743.459272	0.051824
743.656471	0.051551
743.853652	0.051919
744.050815	0.051904
744.247959	0.051955
744.445085	0.051700
744.642194	0.051858
744.839283	0.052483
745.036355	0.052356
745.233408	0.052241
745.430444	0.052371
745.627461	0.051866
745.824459	0.051807
746.021440	0.051684
746.218402	0.051438
746.415346	0.050971
746.612272	0.050064
746.809180	0.049879
747.006069	0.049589
747.202940	0.049254
747.399793	0.049323
747.596628	0.049325
747.793444	0.048894
747.990243	0.049027
748.187023	0.049023
748.383784	0.049432
748.580528	0.049600
748.777253	0.049462
748.973960	0.049524
749.170649	0.049118
749.367320	0.049018
749.563973	0.048857
749.760607	0.048807
749.957223	0.048626
750.153821	0.048593
750.350400	0.048283
750.546962	0.048164
750.743505	0.047994
750.940030	0.048168
751.136536	0.047973
751.333025	0.048233
751.529495	0.048261
751.725947	0.047968
751.922381	0.047564
752.118796	0.047830
752.315194	0.047801
752.511573	0.047956
752.707934	0.047907
752.904276	0.047872
753.100601	0.047702
753.296907	0.047878
753.493195	0.048131
753.689465	0.048115
753.885716	0.047642
754.081949	0.047745
754.278164	0.047500
754.474361	0.047527
754.670540	0.047378
754.866700	0.047671
755.062843	0.047093
755.258967	0.046824
755.455072	0.046815
755.651160	0.046960
755.847229	0.046552
756.043280	0.046549
756.239313	0.046287
756.435328	0.046188
756.631324	0.045980
756.827302	0.046003
757.023262	0.046036
757.219204	0.045777
757.415127	0.045550
757.611033	0.045820
757.806920	0.045463
758.002788	0.045442
758.198639	0.045796
758.394471	0.045707
758.590286	0.045795
758.786081	0.045944
758.981859	0.046487
759.177619	0.046479
759.373360	0.046561
759.569083	0.046904
759.764788	0.047118
759.960474	0.046882
760.156143	0.046879
760.351793	0.047141
760.547425	0.047086
760.743038	0.046980
760.938634	0.047164
761.134211	0.047360
761.329770	0.047637
761.525311	0.047716
761.720833	0.047946
761.916338	0.048280
762.111824	0.047922
762.307292	0.048139
762.502741	0.048192
762.698173	0.048172
762.893586	0.047784
763.088981	0.047432
763.284358	0.047529
763.479716	0.047415
763.675057	0.047028
763.870379	0.047158
764.065683	0.046751
764.260968	0.046500
764.456236	0.046198
764.651485	0.046452
764.846716	0.046660
765.041929	0.046473
765.237123	0.046686
765.432299	0.047150
765.627457	0.047295
765.822597	0.047457
766.017719	0.047838
766.212822	0.048227
766.407907	0.048234
766.602974	0.048229
766.798023	0.048144
766.993054	0.047753
767.188066	0.047486
767.383060	0.047339
767.578036	0.047319
767.772993	0.047119
767.967933	0.047246
768.162854	0.046952
768.357757	0.047069
768.552642	0.047177
768.747508	0.047445
768.942356	0.047541
769.137186	0.047742
769.331998	0.047933
769.526792	0.047980
769.721567	0.047784
769.916324	0.047674
770.111063	0.047143
770.305784	0.047238
770.500486	0.047288
770.695171	0.046994
770.889837	0.046878
771.084484	0.046525
771.279114	0.046378
771.473725	0.045992
771.668318	0.046247
771.862893	0.046285
772.057450	0.045723
772.251988	0.045463
772.446509	0.045519
772.641011	0.045269
772.835494	0.045400
773.029960	0.045509
773.224407	0.045797
773.418836	0.045303
773.613247	0.045425
773.807640	0.045467
774.002014	0.045430
774.196370	0.045083
774.390708	0.044990
774.585028	0.044762
774.779330	0.044044
774.973613	0.043880
775.167878	0.043976
775.362125	0.043997
775.556354	0.043969
775.750564	0.043759
775.944756	0.043719
776.138930	0.043673
776.333086	0.043667
776.527223	0.043994
776.721343	0.043671
776.915444	0.043778
777.109526	0.043928
777.303591	0.043918
777.497637	0.043964
777.691666	0.044185
777.885676	0.044222
778.079667	0.044285
778.273641	0.044334
778.467596	0.044827
778.661533	0.044762
778.855452	0.044494
779.049352	0.044612
779.243235	0.044792
779.437099	0.044863
779.630945	0.044691
779.824773	0.044615
780.018582	0.044716
780.212373	0.044693
780.406146	0.044889
780.599901	0.045045
780.793638	0.045064
780.987356	0.045015
781.181056	0.045054
781.374738	0.045220
781.568402	0.045500
781.762047	0.045630
781.955674	0.045751
782.149283	0.045386
782.342874	0.045033
782.536447	0.044830
782.730001	0.044831
782.923537	0.044582
783.117055	0.044048
783.310555	0.043512
783.504036	0.042875
783.697499	0.042392
783.890944	0.042464
784.084371	0.042448
784.277780	0.042486
784.471170	0.042509
784.664542	0.042498
784.857896	0.043034
785.051231	0.043344
785.244549	0.043656
785.437848	0.043758
785.631129	0.043708
785.824392	0.043595
786.017636	0.043662
786.210863	0.043268
786.404071	0.043246
786.597260	0.042837
786.790432	0.042713
786.983585	0.042810
787.176721	0.042900
787.369838	0.042733
787.562936	0.043091
787.756017	0.043132
787.949079	0.043346
788.142123	0.043289
788.335149	0.043610
788.528156	0.043553
788.721146	0.042996
788.914117	0.043042
789.107070	0.043209
789.300005	0.043424
789.492921	0.043165
789.685819	0.042843
789.878699	0.042977
790.071561	0.042934
790.264405	0.043136
790.457230	0.044030
790.650037	0.044071
790.842826	0.044398
791.035597	0.044195
791.228349	0.044379
791.421084	0.044511
791.613800	0.044487
791.806497	0.044804
791.999177	0.044895
792.191838	0.044346
792.384481	0.044698
792.577106	0.044637
792.769713	0.044389
792.962301	0.044424
793.154871	0.044491
793.347423	0.044854
793.539957	0.044632
793.732473	0.044330
793.924970	0.044355
794.117449	0.043676
794.309910	0.043463
794.502353	0.043792
794.694777	0.043574
794.887183	0.043330
795.079571	0.042666
795.271941	0.042457
795.464293	0.042552
795.656626	0.042572
795.848941	0.042629
796.041238	0.042780
796.233516	0.042673
796.425777	0.042777
796.618019	0.043490
796.810243	0.044054
797.002449	0.044648
797.194636	0.045081
797.386805	0.045278
797.578956	0.045608
797.771089	0.045741
797.963204	0.045917
798.155300	0.046056
798.347378	0.045863
798.539438	0.045480
798.731480	0.045147
798.923503	0.044946
799.115509	0.044688
799.307496	0.044508
799.499465	0.044582
799.691415	0.044330
799.883348	0.044781
800.075262	0.044971
800.267158	0.045274
800.459035	0.045509
800.650895	0.045170
800.842736	0.045559
801.034559	0.045844
801.226364	0.045669
801.418150	0.045950
801.609919	0.045676
801.801669	0.045547
801.993401	0.045689
802.185114	0.045219
802.376810	0.045418
802.568487	0.045529
802.760146	0.045548
802.951787	0.045826
803.143409	0.045875
803.335014	0.045815
803.526600	0.045743
803.718168	0.045839
803.909717	0.046002
804.101249	0.046156
804.292762	0.046275
804.484257	0.046300
804.675734	0.046334
804.867192	0.046152
805.058632	0.046295
805.250054	0.046434
805.441458	0.046451
805.632844	0.046375
805.824211	0.046302
806.015561	0.046175
806.206891	0.045881
806.398204	0.045507
806.589499	0.045536
806.780775	0.045330
806.972033	0.045086
807.163273	0.044645
807.354495	0.044674
807.545698	0.044844
807.736883	0.044687
807.928050	0.044901
808.119199	0.045052
808.310329	0.044961
808.501441	0.044859
808.692535	0.044991
808.883611	0.045394
809.074669	0.045561
809.265708	0.045215
809.456729	0.045092
809.647732	0.045075
809.838717	0.045161
810.029683	0.045071
810.220632	0.045378
810.411562	0.045281
810.602474	0.045138
810.793367	0.045072
810.984242	0.045054
811.175100	0.045262
811.365938	0.045004
811.556759	0.044925
811.747562	0.045371
811.938346	0.045248
812.129112	0.045535
812.319860	0.045398
812.510589	0.045498
812.701300	0.045810
812.891994	0.045819
813.082668	0.046014
813.273325	0.045926
813.463964	0.045763
813.654584	0.045623
813.845186	0.045451
814.035769	0.045694
814.226335	0.045293
814.416882	0.045222
814.607411	0.044927
814.797922	0.044717
814.988415	0.045056
815.178889	0.044919
815.369345	0.045110
815.559783	0.044965
815.750203	0.044945
815.940605	0.045427
816.130988	0.045689
816.321353	0.045956
816.511700	0.045938
816.702028	0.046025
816.892339	0.046201
817.082631	0.046033
817.272905	0.046023
817.463161	0.045951
817.653398	0.045771
817.843617	0.045586
818.033819	0.045272
818.224001	0.045381
818.414166	0.044939
818.604312	0.044488
818.794440	0.044574
818.984550	0.044820
819.174642	0.044948
819.364716	0.045075
819.554771	0.045001
819.744808	0.045373
819.934827	0.045830
820.124827	0.045783
820.314810	0.046125
820.504774	0.046080
820.694720	0.045998
820.884647	0.045894
821.074557	0.045587
821.264448	0.045557
821.454321	0.045438
821.644176	0.044966
821.834012	0.044930
822.023831	0.044775
822.213631	0.044763
822.403413	0.044434
822.593176	0.044358
822.782922	0.044346
822.972649	0.044159
823.162358	0.044034
823.352049	0.043856
823.541721	0.044105
823.731376	0.043742
823.921012	0.043306
824.110629	0.043272
824.300229	0.042998
824.489811	0.043035
824.679374	0.042820
824.868919	0.042262
825.058445	0.042083
825.247954	0.041494
825.437444	0.041693
825.626916	0.041943
825.816370	0.041804
826.005806	0.041892
826.195223	0.041978
826.384622	0.042346
826.574003	0.042395
826.763366	0.042355
826.952711	0.042955
827.142037	0.042830
827.331345	0.042806
827.520635	0.042900
827.709906	0.042590
827.899160	0.042267
828.088395	0.042059
828.277612	0.042155
828.466810	0.042243
828.655991	0.041565
828.845153	0.041231
829.034297	0.041192
829.223423	0.041369
829.412531	0.041612
829.601620	0.042041
829.790691	0.041779
829.979744	0.041800
830.168779	0.042064
830.357795	0.042156
830.546793	0.042628
830.735773	0.042632
830.924735	0.042069
831.113679	0.042096
831.302604	0.041805
831.491511	0.041833
831.680400	0.041805
831.869271	0.041815
832.058123	0.041892
832.246957	0.041888
832.435773	0.042036
832.624571	0.042391
832.813351	0.042574
833.002112	0.042336
833.190855	0.042078
833.379580	0.041957
833.568287	0.041568
833.756975	0.041335
833.945645	0.041040
834.134297	0.040816
834.322931	0.040961
834.511547	0.040864
834.700144	0.040958
834.888723	0.041266
835.077284	0.041873
835.265826	0.041880
835.454351	0.042257
835.642857	0.042463
835.831345	0.042793
836.019815	0.042849
836.208266	0.042458
836.396699	0.042699
836.585114	0.042890
836.773511	0.042888
836.961890	0.042768
837.150250	0.042731
837.338592	0.042475
837.526916	0.042195
837.715222	0.042275
837.903510	0.042343
838.091779	0.042113
838.280030	0.042142
838.468263	0.041949
838.656477	0.042495
838.844674	0.042321
839.032852	0.042752
839.221012	0.042928
839.409153	0.042861
839.597277	0.043231
839.785382	0.043030
839.973469	0.043023
840.161538	0.043326
840.349589	0.043274
840.537621	0.043356
840.725635	0.043115
840.913631	0.043195
841.101609	0.043616
841.289568	0.043462
841.477509	0.043838
841.665432	0.043726
841.853337	0.043173
842.041224	0.042935
842.229092	0.043021
842.416942	0.043402
842.604774	0.043235
842.792588	0.043118
842.980383	0.043131
843.168160	0.043382
843.355919	0.043301
843.543660	0.043201
843.731382	0.043819
843.919087	0.044190
844.106773	0.044005
844.294441	0.043718
844.482090	0.043435
844.669722	0.043582
844.857335	0.043309
845.044930	0.043463
845.232507	0.043910
845.420065	0.043915
845.607605	0.043765
845.795127	0.044042
845.982631	0.043894
846.170117	0.044266
846.357584	0.044619
846.545033	0.045168
846.732464	0.045424
846.919877	0.045445
847.107272	0.045262
847.294648	0.045636
847.482006	0.045606
847.669346	0.046563
847.856667	0.046543
848.043971	0.046366
848.231256	0.046239
848.418523	0.046185
848.605771	0.046033
848.793002	0.045803
848.980214	0.045621
849.167408	0.045577
849.354584	0.045440
849.541742	0.045325
849.728881	0.045235
849.916002	0.045125
850.103105	0.045064
850.290190	0.045094
850.477256	0.045160
850.664304	0.044917
850.851334	0.044878
851.038346	0.045056
851.225340	0.044988
851.412315	0.045185
851.599272	0.045421
851.786211	0.045868
851.973132	0.046428
852.160034	0.046576
852.346918	0.046758
852.533784	0.046974
852.720632	0.046728
852.907462	0.047018
853.094273	0.047123
853.281066	0.046886
853.467841	0.046781
853.654598	0.046563
853.841336	0.046599
854.028056	0.046889
854.214758	0.046997
854.401442	0.046953
854.588107	0.047083
854.774755	0.046932
854.961384	0.047074
855.147995	0.047125
855.334587	0.047043
855.521162	0.047149
855.707718	0.047103
855.894256	0.047134
856.080775	0.047106
856.267277	0.046673
856.453760	0.046890
856.640225	0.047056
856.826672	0.046690
857.013101	0.046734
857.199511	0.046239
857.385903	0.046116
857.572277	0.045826
857.758633	0.045705
857.944970	0.045919
858.131290	0.045522
858.317591	0.045278
858.503873	0.045249
858.690138	0.045314
858.876384	0.045671
859.062612	0.045639
859.248822	0.045446
859.435014	0.045356
859.621188	0.045492
859.807343	0.045588
859.993480	0.045613
860.179599	0.046176
860.365699	0.046334
860.551781	0.046177
860.737846	0.046376
860.923891	0.046563
861.109919	0.047142
861.295929	0.046610
861.481920	0.046432
861.667893	0.046355
861.853848	0.046070
862.039784	0.046232
862.225702	0.046807
862.411603	0.046730
862.597484	0.046479
862.783348	0.046091
862.969193	0.046154
863.155021	0.046232
863.340830	0.046521
863.526620	0.046656
863.712393	0.046415
863.898147	0.045932
864.083883	0.045806
864.269601	0.046104
864.455301	0.046120
864.640982	0.046663
864.826645	0.046758
865.012290	0.046363
865.197917	0.046224
865.383526	0.045810
865.569116	0.045496
865.754688	0.045586
865.940242	0.045828
866.125777	0.045679
866.311295	0.045526
866.496794	0.045064
866.682275	0.045060
866.867737	0.044908
867.053182	0.045161
867.238608	0.045441
867.424016	0.045196
867.609406	0.044924
867.794778	0.045149
867.980131	0.044919
868.165466	0.045216
868.350783	0.045579
868.536082	0.045527
868.721362	0.045751
868.906625	0.046132
869.091869	0.046346
869.277094	0.045829
869.462302	0.045931
869.647491	0.046048
869.832662	0.046614
870.017815	0.046381
870.202950	0.046837
870.388066	0.046457
870.573165	0.046369
870.758245	0.046100
870.943306	0.046761
871.128350	0.046354
871.313375	0.046620
871.498382	0.046226
871.683371	0.046179
871.868342	0.045478
872.053294	0.045381
872.238229	0.045676
872.423144	0.046042
872.608042	0.046620
872.792922	0.047410
872.977783	0.047167
873.162626	0.047121
873.347451	0.047569
873.532258	0.047753
873.717046	0.048458
873.901816	0.048178
874.086568	0.048402
874.271302	0.048140
874.456017	0.047924
874.640715	0.048012
874.825394	0.048635
875.010055	0.048545
875.194697	0.048582
875.379322	0.048190
875.563928	0.048450
875.748516	0.048083
875.933085	0.047622
876.117637	0.047366
876.302170	0.047385
876.486685	0.046742
876.671182	0.046393
876.855661	0.047207
877.040121	0.047486
877.224563	0.046996
877.408987	0.046978
877.593393	0.047174
877.777780	0.047156
877.962150	0.047168
878.146501	0.047065
878.330833	0.047522
878.515148	0.046398
878.699444	0.046438
878.883722	0.046375
879.067982	0.046402
879.252224	0.046379
879.436447	0.046844
879.620653	0.046731
879.804840	0.047143
879.989008	0.046766
880.173159	0.047458
880.357291	0.047612
880.541405	0.048184
880.725501	0.048750
880.909579	0.049019
881.093638	0.048697
881.277680	0.048742
881.461703	0.049008
881.645707	0.049771
881.829694	0.049544
882.013662	0.049468
882.197612	0.049574
882.381544	0.049313
882.565458	0.049036
882.749353	0.049460
882.933230	0.049643
883.117089	0.049307
883.300930	0.048936
883.484753	0.049590
883.668557	0.049929
883.852343	0.049717
884.036111	0.049364
884.219861	0.049994
884.403592	0.049453
884.587305	0.049480
884.771000	0.049896
884.954677	0.049753
885.138335	0.049682
885.321976	0.049099
885.505598	0.048904
885.689201	0.049339
885.872787	0.048757
886.056354	0.049102
886.239904	0.049071
886.423434	0.049183
886.606947	0.049307
886.790442	0.049247
886.973918	0.049185
887.157376	0.049473
887.340816	0.049651
887.524237	0.049823
887.707641	0.049704
887.891026	0.049950
888.074393	0.049860
888.257741	0.049958
888.441072	0.049798
888.624384	0.049973
888.807678	0.049900
888.990954	0.049450
889.174211	0.049539
889.357451	0.049761
889.540672	0.049227
889.723875	0.048736
889.907059	0.048617
890.090226	0.048844
890.273374	0.048876
890.456504	0.048671
890.639616	0.048851
890.822709	0.048590
891.005785	0.047557
891.188842	0.047449
891.371881	0.047958
891.554901	0.048356
891.737904	0.047772
891.920888	0.047763
892.103854	0.047395
892.286802	0.047379
892.469731	0.047875
892.652643	0.048782
892.835536	0.049351
893.018410	0.048774
893.201267	0.048445
893.384106	0.048580
893.566926	0.048680
893.749728	0.049647
893.932511	0.049938
894.115277	0.049573
894.298024	0.049603
894.480753	0.049064
894.663464	0.048987
894.846157	0.048964
895.028831	0.049080
895.211487	0.049361
895.394125	0.048832
895.576745	0.048545
895.759346	0.048090
895.941930	0.047449
896.124495	0.047348
896.307041	0.047751
896.489570	0.047499
896.672080	0.047200
896.854573	0.046534
897.037046	0.046557
897.219502	0.046124
897.401940	0.046015
897.584359	0.046124
897.766760	0.046221
897.949143	0.045949
898.131507	0.045730
898.313854	0.045270
898.496182	0.045051
898.678492	0.045068
898.860783	0.044822
899.043057	0.045200
899.225312	0.045326
899.407549	0.045198
899.589768	0.044678
899.771968	0.044628
899.954151	0.045667
900.136315	0.045716
900.318461	0.044629
900.500588	0.044766
900.682698	0.044001
900.864789	0.043906
901.046862	0.043940
901.228917	0.044514
901.410953	0.044774
901.592971	0.044397
901.774972	0.044250
901.956953	0.044517
902.138917	0.044430
902.320862	0.044955
902.502790	0.045066
902.684699	0.044375
902.866589	0.043916
903.048462	0.043142
903.230316	0.042642
903.412152	0.042843
903.593970	0.043076
903.775770	0.043646
903.957551	0.043540
904.139314	0.042784
904.321059	0.043451
904.502786	0.043345
904.684494	0.043332
904.866185	0.043166
905.047857	0.043084
905.229510	0.042717
905.411146	0.042432
905.592763	0.042615
905.774363	0.043287
905.955943	0.043677
906.137506	0.044105
906.319051	0.044820
906.500577	0.044971
906.682085	0.044697
906.863575	0.045548
907.045046	0.045421
907.226500	0.045649
907.407935	0.044976
907.589352	0.044758
907.770750	0.044319
907.952131	0.043969
908.133493	0.043559
908.314837	0.043302
908.496163	0.042689
908.677470	0.041687
908.858760	0.041397
909.040031	0.041669
909.221284	0.041393
909.402518	0.040733
909.583735	0.040930
909.764933	0.041638
909.946113	0.042388
910.127275	0.042404
910.308418	0.042969
910.489544	0.043836
910.670651	0.044171
910.851740	0.043564
911.032810	0.043713
911.213863	0.044084
911.394897	0.043663
911.575913	0.042926
911.756911	0.042779
911.937890	0.042831
912.118851	0.041883
912.299794	0.041610
912.480719	0.042242
912.661626	0.042859
912.842514	0.041937
913.023384	0.042458
913.204236	0.042850
913.385070	0.042489
913.565886	0.042357
913.746683	0.041942
913.927462	0.042550
914.108223	0.042477
914.288965	0.042022
914.469690	0.042615
914.650396	0.042390
914.831084	0.041741
915.011754	0.042554
915.192405	0.043244
915.373038	0.043212
915.553653	0.042664
915.734250	0.042379
915.914829	0.042534
916.095389	0.042266
916.275931	0.041724
916.456455	0.042219
916.636961	0.041717
916.817448	0.040959
916.997917	0.040715
917.178368	0.040445
917.358801	0.040358
917.539216	0.040449
917.719612	0.040560
917.899990	0.041193
918.080350	0.041817
918.260692	0.041411
918.441015	0.041694
918.621320	0.041556
918.801607	0.041601
918.981876	0.041082
919.162127	0.040352
919.342359	0.039431
919.522573	0.038921
919.702769	0.038619
919.882947	0.038715
920.063106	0.038658
920.243247	0.038847
920.423370	0.038298
920.603475	0.038379
920.783562	0.039031
920.963630	0.039049
921.143680	0.039318
921.323712	0.037994
921.503725	0.038907
921.683721	0.038593
921.863698	0.038097
922.043657	0.039235
922.223598	0.039463
922.403520	0.039971
922.583424	0.040833
922.763311	0.040223
922.943178	0.040329
923.123028	0.038825
923.302859	0.038859
923.482673	0.039165
923.662467	0.038140
923.842244	0.037748
924.022003	0.036720
924.201743	0.036185
924.381465	0.036056
924.561169	0.036291
924.740854	0.037090
924.920522	0.036622
925.100171	0.036690
925.279802	0.036785
925.459414	0.036624
925.639009	0.036580
925.818585	0.036310
925.998143	0.036243
926.177683	0.035645
926.357205	0.034742
926.536708	0.034840
926.716193	0.034704
926.895660	0.034153
927.075109	0.034627
927.254539	0.034955
927.433951	0.033935
927.613345	0.034156
927.792721	0.034619
927.972079	0.035461
928.151418	0.035203
928.330739	0.034534
928.510042	0.034687
928.689327	0.034474
928.868593	0.034221
929.047841	0.034398
929.227071	0.032776
929.406283	0.033003
929.585476	0.032604
929.764652	0.031879
929.943809	0.031717
930.122948	0.031194
930.302068	0.030325
930.481171	0.030363
930.660255	0.030562
930.839321	0.031585
931.018369	0.030730
931.197398	0.030024
931.376409	0.030599
931.555402	0.031630
931.734377	0.031662
931.913334	0.031918
932.092272	0.030925
932.271192	0.030510
932.450094	0.031006
932.628978	0.030855
932.807844	0.030763
932.986691	0.031147
933.165520	0.030965
933.344331	0.030076
933.523123	0.029270
933.701898	0.029035
933.880654	0.029743
934.059392	0.028607
934.238111	0.028596
934.416813	0.028154
934.595496	0.026525
934.774161	0.024759
934.952808	0.024605
935.131437	0.025874
935.310047	0.025779
935.488639	0.024181
935.667213	0.023041
935.845769	0.022337
936.024306	0.023031
936.202825	0.023532
936.381326	0.024285
936.559809	0.025572
936.738274	0.024359
936.916720	0.023883
937.095148	0.024464
937.273558	0.024846
937.451950	0.024584
937.630323	0.024442
937.808678	0.022997
937.987015	0.023399
938.165334	0.024217
938.343635	0.024905
938.521917	0.025271
938.700181	0.024903
938.878427	0.025438
939.056655	0.027009
939.234864	0.028192
939.413055	0.027796
939.591228	0.027642
939.769383	0.025118
939.947519	0.023878
940.125638	0.023521
940.303738	0.023555
940.481820	0.023623
940.659883	0.022586
940.837929	0.020847
941.015956	0.021557
941.193965	0.019978
941.371955	0.019673
941.549928	0.019922
941.727882	0.019826
941.905818	0.018914
942.083736	0.017752
942.261636	0.018439
942.439517	0.019501
942.617380	0.021914
942.795225	0.021662
942.973052	0.022701
943.150860	0.023495
943.328651	0.023172
943.506423	0.023322
943.684176	0.023977
943.861912	0.022022
944.039629	0.020674
944.217328	0.018826
944.395009	0.018974
944.572672	0.017345
944.750317	0.016592
944.927943	0.018961
945.105551	0.019680
945.283141	0.020887
945.460712	0.023061
945.638265	0.021892
945.815801	0.020777
945.993317	0.019686
946.170816	0.022048
946.348297	0.022541
946.525759	0.020148
946.703203	0.018189
946.880629	0.018965
947.058036	0.016760
947.235425	0.020314
947.412797	0.020902
947.590149	0.023285
947.767484	0.021642
947.944800	0.021013
948.122099	0.021575
948.299379	0.023285
948.476640	0.021977
948.653884	0.020517
948.831109	0.018454
949.008316	0.020563
949.185505	0.019993
949.362676	0.020247
949.539828	0.018956
949.716962	0.019633
949.894078	0.018068
950.071176	0.016620
950.248256	0.018510
950.425317	0.016811
950.602360	0.017361
950.779385	0.017767
950.956391	0.015580
951.133380	0.019056
951.310350	0.018135
951.487302	0.019337
951.664235	0.020913
951.841151	0.018891
952.018048	0.019406
952.194927	0.017495
952.371788	0.015985
952.548631	0.020133
952.725455	0.021376
952.902261	0.020209
953.079049	0.022765
953.255819	0.021055
953.432570	0.022117
953.609303	0.022966
953.786018	0.022586
953.962715	0.026084
954.139394	0.025008
954.316054	0.023365
954.492696	0.024601
954.669320	0.019407
954.845926	0.016428
955.022513	0.017656
955.199083	0.017119
955.375634	0.014697
955.552166	0.013086
955.728681	0.012806
955.905177	0.012380
956.081655	0.012969
956.258115	0.015224
956.434557	0.018408
956.610980	0.021710
956.787385	0.026828
956.963772	0.026836
957.140141	0.024432
957.316492	0.023411
957.492824	0.021613
957.669138	0.018736
957.845434	0.020108
958.021712	0.023034
958.197971	0.021094
958.374212	0.013123
958.550435	0.019633
958.726640	0.020845
958.902826	0.023999
959.078995	0.023083
959.255145	0.027683
959.431277	0.030127
959.607390	0.031514
959.783486	0.033822
959.959563	0.036031
960.135622	0.034334
960.311662	0.035156
960.487685	0.034092
960.663689	0.036796
960.839675	0.037921
961.015643	0.035689
961.191593	0.031765
961.367524	0.028759
961.543437	0.032795
961.719332	0.031074
961.895209	0.031131
962.071067	0.032737
962.246907	0.026325
962.422730	0.019330
962.598533	0.017821
962.774319	0.016578
962.950086	0.015243
963.125835	0.013642
963.301566	0.016124
963.477279	0.019609
963.652973	0.016725
963.828650	0.020608
964.004308	0.019703
964.179947	0.023036
964.355569	0.023571
964.531172	0.022396
964.706757	0.021982
964.882324	0.020265
965.057873	0.015421
965.233403	0.017327
965.408916	0.020177
965.584410	0.027991
965.759885	0.032985
965.935343	0.041316
966.110782	0.047736
966.286203	0.049144
966.461606	0.054365
966.636991	0.052571
966.812357	0.050656
966.987705	0.046362
967.163035	0.043221
967.338347	0.037605
967.513641	0.029510
967.688916	0.031832
967.864173	0.027663
968.039412	0.021001
968.214632	0.029081
968.389835	0.031727
968.565019	0.033582
968.740185	0.032781
968.915333	0.030200
969.090462	0.029664
969.265573	0.025180
969.440667	0.026411
969.615741	0.031142
969.790798	0.030457
969.965836	0.026144
970.140856	0.029397
970.315858	0.028693
970.490842	0.031393
970.665808	0.035618
970.840755	0.036196
971.015684	0.033348
971.190595	0.032260
971.365487	0.032666
971.540362	0.031191
971.715218	0.025750
971.890056	0.029010
972.064875	0.030201
972.239677	0.028345
972.414460	0.026366
972.589225	0.035627
972.763972	0.033758
972.938700	0.029454
973.113411	0.038307
973.288103	0.042633
973.462777	0.040248
973.637432	0.039664
973.812070	0.043119
973.986689	0.046955
974.161290	0.043548
974.335873	0.047706
974.510437	0.045823
974.684984	0.046469
974.859512	0.046539
975.034022	0.047670
975.208513	0.050892
975.382987	0.050346
975.557442	0.048058
975.731879	0.043817
975.906298	0.042226
976.080698	0.045926
976.255080	0.040938
976.429445	0.040662
976.603790	0.045716
976.778118	0.044279
976.952427	0.043795
977.126719	0.046560
977.300992	0.046249
977.475246	0.047430
977.649483	0.046255
977.823701	0.046840
977.997901	0.052096
978.172083	0.048045
978.346247	0.046329
978.520392	0.045625
978.694519	0.044503
978.868628	0.047910
979.042719	0.041744
979.216791	0.042507
979.390845	0.041268
979.564882	0.038216
979.738899	0.035550
979.912899	0.030556
980.086880	0.030106
980.260843	0.026610
980.434788	0.026032
980.608715	0.028052
980.782623	0.028060
980.956514	0.025537
981.130386	0.021894
981.304240	0.020964
981.478075	0.024441
981.651892	0.026521
981.825692	0.026085
981.999472	0.023033
982.173235	0.021202
982.346980	0.021225
982.520706	0.024288
982.694414	0.024021
982.868104	0.023429
983.041775	0.025193
983.215428	0.020527
983.389064	0.023492
983.562680	0.026775
983.736279	0.027457
983.909860	0.026388
984.083422	0.027034
984.256966	0.027149
984.430491	0.028563
984.603999	0.031367
984.777488	0.034870
984.950959	0.038736
985.124412	0.036242
985.297847	0.039400
985.471263	0.039841
985.644661	0.044228
985.818041	0.045331
985.991403	0.043506
986.164747	0.045849
986.338072	0.047805
986.511379	0.041440
986.684668	0.046885
986.857938	0.040440
987.031191	0.043640
987.204425	0.036957
987.377641	0.037535
987.550839	0.040861
987.724018	0.036444
987.897179	0.030664
988.070322	0.030994
988.243447	0.026409
988.416554	0.029640
988.589642	0.030721
988.762712	0.031506
988.935764	0.026272
989.108798	0.023110
989.281813	0.020666
989.454811	0.022943
989.627790	0.022671
989.800751	0.024351
989.973693	0.026377
990.146617	0.018164
990.319524	0.019352
990.492412	0.024854
990.665281	0.026086
990.838133	0.027435
991.010966	0.026592
991.183781	0.027433
991.356578	0.024678
991.529356	0.027449
991.702117	0.032527
991.874859	0.031364
992.047583	0.032461
992.220288	0.031981
992.392976	0.032278
992.565645	0.036987
992.738296	0.035228
992.910929	0.039348
993.083543	0.034052
993.256139	0.034120
993.428718	0.036857
993.601277	0.036005
993.773819	0.037268
993.946342	0.038079
994.118848	0.031472
994.291335	0.032716
994.463803	0.035383
994.636254	0.035397
994.808686	0.031252
994.981100	0.031861
995.153496	0.034775
995.325874	0.034597
995.498233	0.034285
995.670574	0.034151
995.842897	0.036355
996.015202	0.038192
996.187488	0.041935
996.359757	0.043204
996.532007	0.041800
996.704239	0.034130
996.876452	0.038077
997.048648	0.038574
997.220825	0.040295
997.392984	0.038325
997.565124	0.033362
997.737247	0.035017
997.909351	0.037466
998.081437	0.037505
998.253505	0.040875
998.425554	0.037929
998.597586	0.035343
998.769599	0.036900
998.941594	0.037494
999.113571	0.037529
999.285529	0.036588
999.457469	0.034175
999.629391	0.035061
999.801295	0.033341
999.973181	0.033830
1000.145048	0.034106
1000.316897	0.034450
1000.488728	0.034770
1000.660541	0.035076
1000.832335	0.037005
1001.004111	0.038271
1001.175869	0.035172
1001.347609	0.036090
1001.519331	0.032786
1001.691034	0.033090
1001.862719	0.033784
1002.034386	0.036370
1002.206035	0.037010
1002.377665	0.031046
1002.549277	0.030418
1002.720871	0.029390
1002.892447	0.032804
1003.064004	0.039237
1003.235544	0.040188
1003.407065	0.036595
1003.578568	0.035464
1003.750052	0.034648
1003.921519	0.038673
1004.092967	0.039507
1004.264397	0.043813
1004.435809	0.042273
1004.607202	0.037796
1004.778577	0.032860
1004.949934	0.032870
1005.121273	0.030783
1005.292594	0.030002
1005.463896	0.028462
1005.635180	0.030646
1005.806446	0.028365
1005.977694	0.026232
1006.148923	0.025744
1006.320135	0.032459
1006.491328	0.033200
1006.662503	0.033431
1006.833659	0.033472
1007.004798	0.029728
1007.175918	0.028750
1007.347020	0.030894
1007.518103	0.029184
1007.689169	0.030262
1007.860216	0.024944
1008.031245	0.026217
1008.202256	0.026737
1008.373248	0.027616
1008.544223	0.026265
1008.715179	0.026254
1008.886117	0.023878
1009.057036	0.029219
1009.227938	0.030516
1009.398821	0.034811
1009.569686	0.035298
1009.740533	0.039395
1009.911361	0.035473
1010.082172	0.041327
1010.252964	0.041549
1010.423738	0.042934
1010.594493	0.039844
1010.765231	0.037355
1010.935950	0.037077
1011.106651	0.035287
1011.277334	0.027676
1011.447998	0.029300
1011.618645	0.025351
1011.789273	0.025519
1011.959882	0.024898
1012.130474	0.022221
1012.301048	0.023065
1012.471603	0.018127
1012.642140	0.018634
1012.812658	0.022353
1012.983159	0.022887
1013.153641	0.027750
1013.324105	0.028133
1013.494551	0.026977
1013.664979	0.031608
1013.835388	0.031313
1014.005779	0.036727
1014.176152	0.036205
1014.346507	0.039477
1014.516843	0.042869
1014.687162	0.039708
1014.857462	0.039929
1015.027744	0.038922
1015.198007	0.036286
1015.368252	0.035291
1015.538480	0.034174
1015.708689	0.035060
1015.878879	0.029625
1016.049052	0.028641
1016.219206	0.028565
1016.389342	0.026414
1016.559460	0.025096
1016.729559	0.027783
1016.899641	0.028440
1017.069704	0.026902
1017.239749	0.026117
1017.409775	0.028198
1017.579784	0.024858
1017.749774	0.029437
1017.919746	0.033549
1018.089700	0.038333
1018.259635	0.037382
1018.429553	0.040133
1018.599452	0.041736
1018.769333	0.044831
1018.939195	0.042401
1019.109040	0.044715
1019.278866	0.041033
1019.448674	0.036975
1019.618464	0.033437
1019.788235	0.032476
1019.957989	0.032222
1020.127724	0.033068
1020.297441	0.027146
1020.467139	0.027064
1020.636820	0.026495
1020.806482	0.024278
1020.976126	0.026621
1021.145752	0.028745
1021.315359	0.030592
1021.484948	0.028461
1021.654519	0.028259
1021.824072	0.035215
1021.993607	0.033873
1022.163123	0.036247
1022.332621	0.038117
1022.502101	0.033742
1022.671563	0.032577
1022.841007	0.031214
1023.010432	0.033810
1023.179839	0.028734
1023.349228	0.022158
1023.518598	0.024485
1023.687951	0.022381
1023.857285	0.020010
1024.026601	0.023369
1024.195899	0.022579
1024.365178	0.021955
1024.534439	0.021207
1024.703682	0.026277
1024.872907	0.027239
1025.042114	0.030648
1025.211302	0.028672
1025.380472	0.028848
1025.549624	0.029777
1025.718758	0.031583
1025.887873	0.031268
1026.056970	0.028779
1026.226049	0.032490
1026.395110	0.035181
1026.564153	0.029186
1026.733177	0.028910
1026.902183	0.031352
1027.071171	0.031807
1027.240141	0.032907
1027.409092	0.032070
1027.578026	0.032926
1027.746940	0.026702
1027.915837	0.028419
1028.084716	0.029963
1028.253576	0.029549
1028.422418	0.029200
1028.591242	0.026031
1028.760048	0.024928
1028.928835	0.025475
1029.097604	0.026424
1029.266355	0.028709
1029.435088	0.026964
1029.603803	0.027939
1029.772499	0.031614
1029.941177	0.032289
1030.109837	0.028242
1030.278478	0.026262
1030.447102	0.026828
1030.615707	0.029167
1030.784294	0.029413
1030.952863	0.026351
1031.121413	0.031156
1031.289945	0.029393
1031.458460	0.028065
1031.626955	0.029389
1031.795433	0.027872
1031.963892	0.030034
1032.132334	0.027065
1032.300756	0.028184
1032.469161	0.031871
1032.637548	0.030542
1032.805916	0.030072
1032.974266	0.032211
1033.142598	0.037187
1033.310911	0.041098
1033.479207	0.038927
1033.647484	0.039187
1033.815743	0.038241
1033.983983	0.037717
1034.152206	0.035863
1034.320410	0.036447
1034.488596	0.036594
1034.656764	0.035992
1034.824914	0.032547
1034.993045	0.034383
1035.161158	0.036599
1035.329253	0.033162
1035.497330	0.034649
1035.665388	0.036884
1035.833428	0.035256
1036.001450	0.035312
1036.169454	0.034122
1036.337440	0.039556
1036.505407	0.039190
1036.673356	0.036486
1036.841287	0.038407
1037.009200	0.040449
1037.177094	0.036046
1037.344970	0.036910
1037.512828	0.033600
1037.680668	0.033127
1037.848489	0.028461
1038.016293	0.026016
1038.184078	0.027289
1038.351845	0.029936
1038.519593	0.024081
1038.687324	0.026352
1038.855036	0.026831
1039.022730	0.026439
1039.190406	0.024658
1039.358063	0.028441
1039.525702	0.031901
1039.693323	0.029665
1039.860926	0.025042
1040.028511	0.031407
1040.196077	0.028668
1040.363625	0.029838
1040.531155	0.029464
1040.698667	0.032273
1040.866161	0.025121
1041.033636	0.023700
1041.201093	0.026211
1041.368532	0.028177
1041.535952	0.024100
1041.703355	0.031604
1041.870739	0.030772
1042.038105	0.033864
1042.205452	0.032333
1042.372782	0.039793
1042.540093	0.039597
1042.707386	0.035966
1042.874661	0.033923
1043.041918	0.032119
1043.209156	0.025719
1043.376376	0.028359
1043.543578	0.022350
1043.710762	0.024473
1043.877927	0.019297
1044.045074	0.020904
1044.212203	0.027351
1044.379314	0.030888
1044.546407	0.030847
1044.713481	0.032333
1044.880537	0.027321
1045.047575	0.033634
1045.214595	0.032753
1045.381596	0.035426
1045.548579	0.034481
1045.715544	0.031556
1045.882491	0.030312
1046.049420	0.029304
1046.216330	0.030558
1046.383222	0.031847
1046.550096	0.031434
1046.716951	0.030703
1046.883789	0.031744
1047.050608	0.030554
1047.217409	0.027394
1047.384192	0.030582
1047.550956	0.030942
1047.717703	0.027437
1047.884431	0.031559
1048.051140	0.030298
1048.217832	0.034350
1048.384505	0.037529
1048.551161	0.037908
1048.717798	0.039993
1048.884416	0.039900
1049.051017	0.045026
1049.217599	0.043758
1049.384163	0.044464
1049.550709	0.044502
1049.717237	0.041132
1049.883746	0.035383
1050.050237	0.034508
1050.216710	0.037869
1050.383165	0.034494
1050.549601	0.030252
1050.716019	0.032003
1050.882420	0.026348
1051.048801	0.027260
1051.215165	0.022694
1051.381510	0.021100
1051.547837	0.019467
1051.714146	0.011377
1051.880437	0.013041
1052.046709	0.014976
1052.212964	0.017427
1052.379200	0.015710
1052.545417	0.014766
1052.711617	0.017374
1052.877798	0.023130
1053.043961	0.023087
1053.210106	0.023499
1053.376233	0.018442
1053.542341	0.017880
1053.708432	0.018050
1053.874504	0.016485
1054.040557	0.014876
1054.206593	0.015433
1054.372610	0.012212
1054.538609	0.013387
1054.704590	0.014150
1054.870553	0.012971
1055.036497	0.013578
1055.202424	0.011383
1055.368331	0.011855
1055.534221	0.016745
1055.700093	0.019460
1055.865946	0.019698
1056.031781	0.019473
1056.197598	0.021815
1056.363397	0.031192
1056.529177	0.026675
1056.694939	0.028828
1056.860683	0.034142
1057.026409	0.032790
1057.192116	0.032908
1057.357806	0.034121
1057.523477	0.036038
1057.689130	0.038664
1057.854764	0.034658
1058.020381	0.042347
1058.185979	0.040001
1058.351559	0.037542
1058.517120	0.036763
1058.682664	0.030901
1058.848189	0.027546
1059.013696	0.027573
1059.179185	0.028050
1059.344656	0.029183
1059.510108	0.025854
1059.675542	0.028534
1059.840958	0.030616
1060.006356	0.031801
1060.171735	0.034499
1060.337096	0.036732
1060.502439	0.037136
1060.667764	0.033006
1060.833071	0.032159
1060.998359	0.037581
1061.163629	0.033247
1061.328881	0.031874
1061.494115	0.030189
1061.659330	0.034815
1061.824527	0.038990
1061.989706	0.036334
1062.154867	0.039135
1062.320010	0.032151
1062.485134	0.025559
1062.650240	0.029301
1062.815328	0.030482
1062.980398	0.032104
1063.145449	0.026896
1063.310482	0.025147
1063.475497	0.026879
1063.640494	0.031839
1063.805473	0.040709
1063.970433	0.041165
1064.135375	0.036892
1064.300299	0.036243
1064.465204	0.032845
1064.630092	0.035239
1064.794961	0.032535
1064.959812	0.032285
1065.124645	0.028779
1065.289459	0.025225
1065.454256	0.023164
1065.619034	0.030318
1065.783793	0.029189
1065.948535	0.031485
1066.113258	0.033063
1066.277964	0.032632
1066.442651	0.030165
1066.607319	0.030597
1066.771970	0.035049
1066.936602	0.037931
1067.101216	0.034403
1067.265812	0.039598
1067.430389	0.039532
1067.594949	0.032642
1067.759490	0.033738
1067.924013	0.036919
1068.088518	0.038293
1068.253004	0.033166
1068.417472	0.036206
1068.581922	0.030911
1068.746354	0.028189
1068.910768	0.029467
1069.075163	0.034592
1069.239540	0.037782
1069.403899	0.039068
1069.568240	0.035970
1069.732562	0.037428
1069.896866	0.033848
1070.061152	0.037978
1070.225420	0.035470
1070.389670	0.031708
1070.553901	0.035248
1070.718114	0.034335
1070.882309	0.028403
1071.046486	0.024519
1071.210644	0.020264
1071.374784	0.018308
1071.538906	0.015926
1071.703010	0.016231
1071.867096	0.018116
1072.031163	0.013751
1072.195212	0.010618
1072.359243	0.011734
1072.523256	0.013496
1072.687250	0.016880
1072.851226	0.021001
1073.015184	0.023373
1073.179124	0.024984
1073.343045	0.020774
1073.506949	0.021292
1073.670834	0.019176
1073.834701	0.023342
1073.998549	0.022747
1074.162380	0.019758
1074.326192	0.019337
1074.489986	0.019406
1074.653761	0.020986
1074.817519	0.026023
1074.981258	0.028054
1075.144979	0.028116
1075.308682	0.023334
1075.472367	0.026014
1075.636033	0.026432
1075.799681	0.024033
1075.963311	0.025554
1076.126923	0.027618
1076.290516	0.024360
1076.454092	0.020359
1076.617649	0.016813
1076.781187	0.022021
1076.944708	0.022733
1077.108210	0.021665
1077.271695	0.021096
1077.435160	0.019170
1077.598608	0.012824
1077.762038	0.011659
1077.925449	0.013003
1078.088842	0.020587
1078.252217	0.018600
1078.415573	0.015103
1078.578912	0.017077
1078.742232	0.019522
1078.905534	0.013001
1079.068817	0.016187
1079.232083	0.018683
1079.395330	0.023860
1079.558559	0.020063
1079.721770	0.018780
1079.884962	0.017648
1080.048136	0.019164
1080.211293	0.021742
1080.374430	0.028233
1080.537550	0.027719
1080.700651	0.027897
1080.863735	0.026286
1081.026800	0.022240
1081.189846	0.019655
1081.352875	0.020833
1081.515885	0.022949
1081.678877	0.021939
1081.841851	0.020795
1082.004807	0.019608
1082.167744	0.017297
1082.330663	0.014917
1082.493564	0.015926
1082.656447	0.015786
1082.819312	0.018000
1082.982158	0.018311
1083.144986	0.005054
1083.307796	0.002565
1083.470587	-0.000349
1083.633361	0.003561
1083.796116	0.005632
1083.958853	0.010745
1084.121571	0.013169
1084.284272	0.010232
1084.446954	0.011598
1084.609618	0.021056
1084.772264	0.021663
1084.934892	0.019228
1085.097501	0.015299
1085.260092	0.008476
1085.422665	0.002692
1085.585220	0.011379
1085.747756	0.018842
1085.910274	0.010273
1086.072774	0.011164
1086.235256	0.015686
1086.397720	0.015400
1086.560165	0.011008
1086.722592	0.014833
1086.885001	0.020262
1087.047392	0.013239
1087.209764	0.003700
1087.372119	0.005989
1087.534455	-0.001947
1087.696772	-0.007105
1087.859072	-0.002612
1088.021353	0.007492
1088.183616	0.006120
1088.345861	0.010999
1088.508088	0.011540
1088.670296	0.011281
1088.832486	0.008491
1088.994658	0.007730
1089.156812	0.009262
1089.318948	0.009625
1089.481065	0.003734
1089.643164	0.004341
1089.805245	0.000610
1089.967308	-0.005178
1090.129352	0.002928
1090.291378	0.002107
1090.453386	0.009616
1090.615376	0.015803
1090.777347	0.020897
1090.939301	0.022847
1091.101236	0.024996
1091.263153	0.024820
1091.425051	0.029141
1091.586932	0.037109
1091.748794	0.044823
1091.910638	0.046061
1092.072463	0.034345
1092.234271	0.035083
1092.396060	0.039043
1092.557831	0.037117
1092.719584	0.028172
1092.881319	0.030826
1093.043035	0.015268
1093.204733	0.012192
1093.366413	0.005128
1093.528075	0.011340
1093.689718	0.012943
1093.851343	0.005368
1094.012950	0.004616
1094.174539	0.016095
1094.336110	0.011871
1094.497662	0.013212
1094.659196	0.011702
1094.820712	0.019068
1094.982210	0.009224
1095.143689	0.002981
1095.305151	0.007456
1095.466594	0.001359
1095.628018	0.001037
1095.789425	0.004905
1095.950813	-0.000703
1096.112183	-0.003022
1096.273535	-0.007080
1096.434869	0.004248
1096.596184	0.004923
1096.757482	0.002421
1096.918761	0.005267
1097.080021	0.001331
1097.241264	-0.001513
1097.402488	0.009664
1097.563694	0.016937
1097.724882	0.019857
1097.886052	0.018614
1098.047203	0.019514
1098.208336	0.020552
1098.369451	0.012421
1098.530548	0.015879
1098.691627	0.017064
1098.852687	0.010389
1099.013729	0.001207
1099.174753	-0.002132
1099.335758	-0.001679
1099.496746	-0.006490
1099.657715	-0.004346
1099.818666	0.001069
1099.979599	-0.005065
1100.140513	-0.010967
1100.301409	-0.003356
1100.462287	0.001978
1100.623147	-0.000542
1100.783989	0.002015
1100.944812	-0.001708
1101.105617	0.006910
1101.266404	0.007321
1101.427173	0.011686
1101.587923	0.014793
1101.748656	0.007122
1101.909370	0.006852
1102.070066	0.020257
1102.230743	0.011550
1102.391403	0.018069
1102.552044	0.004246
1102.712667	0.012555
1102.873271	0.009045
1103.033858	0.011434
1103.194426	0.015331
1103.354976	0.013466
1103.515508	0.008100
1103.676021	0.014226
1103.836517	0.012731
1103.996994	0.024977
1104.157453	0.020391
1104.317893	0.018579
1104.478316	0.024541
1104.638720	0.014720
1104.799106	0.029053
1104.959474	0.018387
1105.119823	0.021306
1105.280155	0.013371
1105.440468	-0.002670
1105.600763	-0.008112
1105.761039	-0.005980
1105.921298	-0.008164
1106.081538	0.009695
1106.241760	-0.003423
1106.401964	0.001188
1106.562149	0.000791
1106.722316	0.007651
1106.882465	0.013449
1107.042596	0.025778
1107.202709	0.029757
1107.362803	0.034126
1107.522879	0.032496
1107.682937	0.037642
1107.842977	0.040014
1108.002999	0.040240
1108.163002	0.045866
1108.322987	0.046516
1108.482954	0.034796
1108.642902	0.046204
1108.802833	0.041016
1108.962745	0.020826
1109.122639	0.023039
1109.282515	0.016586
1109.442372	0.019555
1109.602211	0.021502
1109.762032	0.015125
1109.921835	0.018690
1110.081620	0.005240
1110.241386	0.009807
1110.401134	0.018029
1110.560864	0.012730
1110.720576	0.017002
1110.880269	0.011921
1111.039945	-0.005013
1111.199602	-0.000503
1111.359240	0.004305
1111.518861	0.018172
1111.678463	0.007472
1111.838047	0.019364
1111.997613	0.011635
1112.157161	0.011377
1112.316690	0.005520
1112.476202	0.033762
1112.635695	0.034329
1112.795169	0.028254
1112.954626	0.011026
1113.114064	0.010511
1113.273484	0.004500
1113.432886	-0.009564
1113.592270	-0.001380
1113.751635	0.009146
1113.910983	-0.001492
1114.070312	0.011325
1114.229622	0.025038
1114.388915	0.029219
1114.548189	0.031256
1114.707445	0.018586
1114.866683	0.044769
1115.025903	0.041106
1115.185104	0.035424
1115.344287	0.036179
1115.503452	0.024910
1115.662599	0.010765
1115.821727	0.015509
1115.980838	0.010736
1116.139930	0.016134
1116.299004	0.012606
1116.458059	0.012279
1116.617097	0.006660
1116.776116	0.010213
1116.935117	0.012762
1117.094099	0.028103
1117.253064	0.013336
1117.412010	0.013038
1117.570938	0.019735
1117.729848	0.021882
1117.888740	0.022017
1118.047613	0.029444
1118.206468	0.034739
1118.365305	0.026643
1118.524124	0.013599
1118.682924	0.020585
1118.841707	0.036460
1119.000471	0.021834
1119.159216	0.013970
1119.317944	0.001939
1119.476653	0.000733
1119.635344	-0.009672
1119.794017	0.003537
1119.952672	0.005013
1120.111308	0.008644
1120.269927	-0.003277
1120.428527	0.007216
1120.587108	0.014593
1120.745672	0.025311
1120.904217	0.034932
1121.062744	0.026651
1121.221253	0.017998
1121.379744	0.003815
1121.538216	0.004230
1121.696671	-0.008720
1121.855107	-0.006217
1122.013524	-0.001188
1122.171924	-0.005518
1122.330305	-0.012200
1122.488668	-0.010071
1122.647013	-0.008050
1122.805340	-0.005255
1122.963648	-0.019834
1123.121938	-0.005665
1123.280210	-0.021743
1123.438464	-0.022017
1123.596700	0.002596
1123.754917	-0.000604
1123.913116	-0.008823
1124.071297	-0.024976
1124.229459	-0.006381
1124.387604	0.003716
1124.545730	0.027277
1124.703838	0.042657
1124.861928	0.039071
1125.019999	0.023166
1125.178052	0.017830
1125.336088	0.022287
1125.494104	0.027426
1125.652103	0.026421
1125.810083	0.033303
1125.968045	0.008844
1126.125989	0.002914
1126.283915	0.001201
1126.441823	-0.000858
1126.599712	0.000333
1126.757583	0.013288
1126.915436	0.018326
1127.073270	0.002100
1127.231087	-0.004815
1127.388885	-0.000614
1127.546665	0.003498
1127.704426	-0.001733
1127.862170	-0.008141
1128.019895	0.004196
1128.177602	-0.005201
1128.335291	0.003013
1128.492961	0.009301
1128.650614	0.012721
1128.808248	0.007674
1128.965864	0.009975
1129.123461	0.034062
1129.281041	0.045688
1129.438602	0.014010
1129.596145	0.013996
1129.753670	0.003627
1129.911176	0.016457
1130.068665	0.009898
1130.226135	-0.004362
1130.383587	-0.013380
1130.541020	-0.022186
1130.698436	-0.020618
1130.855833	-0.004520
1131.013212	0.000288
1131.170573	-0.004253
1131.327915	-0.020092
1131.485239	-0.001884
1131.642545	0.005186
1131.799833	0.003173
1131.957103	-0.000021
1132.114354	-0.007898
1132.271588	-0.022195
1132.428803	-0.016863
1132.585999	-0.001992
1132.743178	0.004844
1132.900338	-0.011521
1133.057480	-0.000244
1133.214604	0.003595
1133.371710	-0.006492
1133.528797	-0.006306
1133.685866	0.018330
1133.842917	-0.014834
1133.999950	-0.030660
1134.156964	-0.045686
1134.313960	-0.043646
1134.470938	-0.058579
1134.627898	-0.046123
1134.784840	-0.043104
1134.941763	-0.025553
1135.098668	-0.031830
1135.255555	-0.016020
1135.412424	-0.001663
1135.569274	0.002737
1135.726107	0.004524
1135.882921	0.012594
1136.039716	0.005269
1136.196494	-0.000176
1136.353253	-0.022010
1136.509995	-0.024454
1136.666717	-0.020568
1136.823422	-0.035800
1136.980109	-0.031439
1137.136777	-0.030754
1137.293427	-0.025325
1137.450059	-0.024681
1137.606672	-0.012753
1137.763267	-0.012461
1137.919844	-0.029583
1138.076403	-0.016987
1138.232944	0.004180
1138.389466	0.005550
1138.545971	0.001859
1138.702457	-0.001693
1138.858924	0.008636
1139.015374	0.013475
1139.171805	0.007344
1139.328218	0.015984
1139.484613	0.001165
1139.640990	-0.025213
1139.797348	-0.018251
1139.953688	-0.009260
1140.110010	-0.013420
1140.266314	-0.025595
1140.422600	-0.029173
1140.578867	0.000284
1140.735116	-0.009589
1140.891347	-0.004195
1141.047559	0.003058
1141.203754	0.006256
1141.359930	0.006009
1141.516088	0.030744
1141.672228	0.050465
1141.828349	0.037766
1141.984452	0.023753
1142.140537	0.060837
1142.296604	0.066492
1142.452653	0.089097
1142.608683	0.097063
1142.764695	0.104030
1142.920689	0.066881
1143.076665	0.053289
1143.232622	0.077364
1143.388562	0.081531
1143.544483	0.074468
1143.700385	0.072628
1143.856270	0.060027
1144.012136	0.038456
1144.167985	0.047093
1144.323814	0.058925
1144.479626	0.068547
1144.635420	0.051357
1144.791195	0.033294
1144.946952	0.023991
1145.102691	0.014867
1145.258411	0.025583
1145.414113	0.033079
1145.569798	0.010853
1145.725463	0.002935
1145.881111	-0.019197
1146.036741	-0.020977
1146.192352	-0.022109
1146.347945	-0.036318
1146.503519	-0.028551
1146.659076	-0.043851
1146.814614	-0.037310
1146.970134	-0.033363
1147.125636	-0.035289
1147.281120	-0.022764
1147.436585	-0.006369
1147.592032	-0.017607
1147.747461	-0.001095
1147.902872	0.001422
1148.058265	0.003998
1148.213639	0.006250
1148.368995	0.009581
1148.524333	0.026794
1148.679653	0.029800
1148.834954	0.010951
1148.990237	0.029274
1149.145502	0.051120
1149.300749	0.050084
1149.455977	0.055708
1149.611188	0.041821
1149.766380	0.038349
1149.921553	0.034663
1150.076709	0.042673
1150.231846	0.052006
1150.386966	0.056119
1150.542066	0.026709
1150.697149	0.008517
1150.852214	0.014418
1151.007260	0.013362
1151.162288	0.034139
1151.317298	0.030402
1151.472289	0.009066
1151.627263	0.013783
1151.782218	0.011082
1151.937155	0.021906
1152.092073	0.030707
1152.246974	0.019684
1152.401856	0.030546
1152.556720	0.004215
1152.711566	0.017856
1152.866393	0.024061
1153.021203	-0.000031
1153.175994	-0.014875
1153.330767	-0.001133
1153.485521	0.016442
1153.640258	0.018080
1153.794976	0.017159
1153.949676	0.028768
1154.104358	0.009024
1154.259021	0.030961
1154.413667	0.023727
1154.568294	0.030167
1154.722903	0.007383
1154.877493	-0.017463
1155.032066	0.004412
1155.186620	0.001115
1155.341156	-0.021742
1155.495674	0.004808
1155.650173	-0.026315
1155.804654	-0.002551
1155.959118	-0.007384
1156.113562	0.001751
1156.267989	0.032095
1156.422397	0.003985
1156.576788	-0.015956
1156.731160	0.024815
1156.885513	0.028371
1157.039849	0.050273
1157.194166	0.013476
1157.348465	0.052139
1157.502746	0.028498
1157.657009	0.022522
1157.811253	0.027452
1157.965479	0.036133
1158.119687	0.050265
1158.273877	0.005798
1158.428048	-0.028712
1158.582201	-0.006224
1158.736337	-0.026242
1158.890453	0.010929
1159.044552	0.007870
1159.198632	-0.001695
1159.352694	0.010016
1159.506738	-0.027138
1159.660764	-0.010200
1159.814771	0.001975
1159.968761	0.018068
1160.122732	0.006814
1160.276685	0.001926
1160.430619	-0.000328
1160.584535	0.015676
1160.738434	0.017409
1160.892313	0.024066
1161.046175	0.025553
1161.200019	0.013795
1161.353844	-0.000478
1161.507651	-0.017828
1161.661440	0.001661
1161.815210	0.001229
1161.968962	-0.019951
1162.122697	-0.020815
1162.276412	-0.048997
1162.430110	-0.058171
1162.583789	-0.044326
1162.737451	-0.026984
1162.891094	0.019306
1163.044718	-0.016100
1163.198325	-0.024398
1163.351913	-0.004019
1163.505483	-0.019886
1163.659035	0.033666
1163.812569	0.045129
1163.966084	0.071598
1164.119581	0.060253
1164.273060	0.026705
1164.426521	0.035297
1164.579964	0.038093
1164.733388	0.059379
1164.886794	0.083435
1165.040182	0.050560
1165.193551	0.031202
1165.346903	0.000271
1165.500236	0.013136
1165.653551	0.008110
1165.806848	0.000203
1165.960126	0.000206
1166.113386	-0.013687
1166.266628	-0.012512
1166.419852	0.001320
1166.573058	0.005613
1166.726245	0.046452
1166.879414	0.008865
1167.032565	0.025104
1167.185698	0.032222
1167.338812	0.046200
1167.491909	0.042349
1167.644987	0.061012
1167.798046	0.063858
1167.951088	0.081854
1168.104111	0.063098
1168.257117	0.104770
1168.410103	0.100824
1168.563072	0.082276
1168.716023	0.070272
1168.868955	0.071819
1169.021869	0.056958
1169.174765	0.038503
1169.327642	0.024411
1169.480501	0.026104
1169.633343	0.025990
1169.786165	0.026007
1169.938970	0.017107
1170.091757	0.008283
1170.244525	-0.024214
1170.397275	-0.047275
1170.550007	-0.049218
1170.702720	-0.036584
1170.855415	-0.043321
1171.008092	-0.044098
1171.160751	-0.036740
1171.313392	-0.002619
1171.466014	0.094420
1171.618619	0.155913
1171.771205	0.155913
1171.923772	0.155913
