sample name	sample
index	1363
start time	 05-03-2021  02:03:07 PM
880	-0.020872
Peak Time (s)	91.035
Peak Height 	-0.02087
calc peak height	90,93
Baseline Time (s)	9.535
Baseline Value 	-0.003475
subtract baseline	10,4
Abs	-0.003116
Peak Time (s)	91.536
Peak Height 	-0.003116
calc peak height	90,93
Baseline Time (s)	11.537
Baseline Value 	0.001749
subtract baseline	10,3
PK_550	0.000088
Peak Time (s)	90.038
Peak Height 	8.8121E-5
calc peak height	90,93
Baseline Time (s)	9.035
Baseline Value 	3.5309E-4
subtract baseline	10,2
PK_880	-0.004401
Peak Time (s)	91.536
Peak Height 	-0.004401
calc peak height	90,93
Baseline Time (s)	9.535
Baseline Value 	5.4624E-4
subtract baseline	10,1


Time (s)	A880-A510	A880-A775	A880-A975	A880	I510	I775	I975	I880	
0.034500	-0.001476	-0.000921	-0.001915	0.002294	6133.409993	42488.946956	3918.514091	22109.372537
0.535000	-0.001479	-0.001282	-0.003156	0.003555	6124.255200	42341.720642	3913.037754	22053.908794
1.036000	-0.001107	-0.000220	0.000906	0.004486	6120.218035	42353.618061	3919.895032	22013.088027
1.536000	-0.002738	-0.000975	-0.004191	0.005415	6101.789868	42201.364404	3906.741267	21972.406507
2.036000	0.000807	-0.000040	-0.000175	0.002648	6147.419315	42536.829490	3921.558088	22093.771910
2.537000	-0.000442	-0.000404	-0.002152	0.001730	6145.006700	42587.310181	3919.231458	22134.214416
3.040000	-0.002579	-0.000281	-0.001277	0.003836	6114.285612	42406.984386	3916.531651	22041.576127
3.537000	-0.002641	-0.000273	-0.007408	0.005533	6101.642433	42254.122027	3899.542744	21967.271140
4.037500	0.001401	-0.001024	-0.002780	0.000644	6166.395125	42629.758307	3920.236656	22182.155236
4.535000	-0.001635	-0.001218	-0.000629	0.000290	6146.801215	42644.344411	3925.758076	22197.787262
5.035000	0.001498	0.000509	0.001392	0.001416	6161.453489	42699.206701	3927.740603	22148.052316
5.536000	0.000240	0.000453	0.001247	0.001036	6155.029452	42728.750925	3928.259771	22164.805630
6.036000	-0.000947	-0.000746	-0.002805	-0.000068	6154.429880	42720.162063	3921.747422	22213.654977
6.536000	-0.000731	-0.000554	-0.001064	-0.000025	6155.697108	42733.783597	3925.494585	22211.759982
7.036500	-0.001891	-0.000463	-0.004730	0.000276	6145.050130	42714.554144	3916.764863	22198.432795
7.539000	0.000924	-0.000142	-0.002169	0.000193	6166.194675	42751.511703	3922.573356	22202.078236
8.036500	-0.000699	-0.000631	-0.000687	0.000187	6154.375481	42707.337063	3925.857244	22202.338374
8.537000	0.000746	-0.000277	-0.001152	0.000160	6165.140200	42742.189352	3924.890743	22203.555767
9.035000	-0.000395	0.000000	-0.000945	0.000560	6153.872602	42730.884943	3924.462344	22185.838394
9.535000	0.000000	0.000185	0.000161	0.000000	6160.850657	42799.091707	3928.149774	22210.633164
10.035000	0.003885	0.000592	-0.000355	0.000724	6184.049654	42770.079884	3925.405779	22178.614896
10.536000	0.001101	-0.000687	0.000246	-0.000425	6172.024131	42758.183180	3929.279841	22229.449562
11.036000	-0.001089	0.000396	0.001955	-0.000067	6153.388943	42824.551790	3932.282594	22213.592440
11.536500	-0.000398	-0.000238	0.000000	-0.000519	6161.736995	42807.921043	3928.944982	22233.643554
12.039000	-0.000705	-0.000532	0.004856	-0.000381	6158.477569	42768.320887	3939.466915	22227.488424
12.537000	-0.000442	-0.000592	-0.001070	-0.000272	6159.606502	42752.933472	3926.026680	22222.688608
13.037000	0.000286	0.000120	0.002805	0.001024	6155.461281	42699.447816	3931.748778	22165.359954
13.535000	0.000191	-0.000612	0.002657	-0.000112	6163.066132	42736.401493	3933.947527	22215.597853
14.035000	-0.001147	-0.000056	-0.001435	0.000395	6149.596498	42740.871862	3923.747456	22193.146904
14.534500	0.000643	0.000185	-0.001365	0.002285	6148.870095	42590.394524	3919.738679	22109.749989
15.035500	-0.002417	-0.000296	-0.000766	0.003978	6114.430082	42392.761402	3917.338115	22035.332049
15.567000	-0.001201	-0.000714	-0.004696	-0.000607	6156.510668	42772.352185	3918.773899	22237.511021
16.036000	0.001318	0.000051	-0.002537	0.000016	6170.384462	42785.404292	3922.152841	22209.932197
16.540000	-0.001620	-0.000052	0.002573	0.000010	6148.953892	42776.522387	3933.490639	22210.201087
17.036500	-0.001331	-0.000479	-0.001845	0.003496	6125.754104	42419.862048	3916.032537	22056.502167
17.537000	0.001711	0.000072	0.002115	0.000078	6172.817729	42781.646117	3932.318725	22207.187369
18.037000	0.000480	-0.000163	-0.000214	-0.000544	6168.347253	42817.061368	3928.523107	22234.710210
18.537500	-0.002295	-0.000964	-0.002505	0.000173	6142.855012	42678.188532	3921.877404	22202.973795
19.035000	0.001919	0.000127	-0.000285	0.001888	6161.076947	42621.251935	3922.991169	22127.246567
19.535500	-0.001044	0.000095	-0.002290	0.001609	6141.506951	42643.809116	3919.191711	22139.535890
20.036000	-0.001882	-0.000399	0.001968	0.000903	6140.554850	42663.109523	3930.156418	22170.699751
20.536000	-0.001131	-0.000352	-0.007208	0.001348	6142.775167	42626.826036	3909.021093	22151.051263
21.038000	-0.003105	-0.000956	-0.004098	0.000988	6131.060868	42604.537326	3916.588748	22166.936453
21.536500	-0.001139	-0.000719	-0.003128	0.000394	6149.661520	42680.425511	3920.021174	22193.211878
22.036500	0.000081	-0.000380	-0.001234	0.001302	6151.937026	42628.523838	3922.190109	22153.096323
22.536500	-0.000050	-0.000432	-0.008720	0.000624	6155.929674	42685.572167	3907.310854	22183.030158
23.035000	-0.001931	-0.000623	0.002426	0.001103	6138.743388	42624.543078	3930.731031	22161.890216
23.537500	0.000050	-0.000483	-0.004712	0.000661	6156.389568	42677.561208	3915.961840	22181.398859
24.035500	-0.000263	-0.000920	0.001506	0.000849	6152.729093	42620.512056	3929.250165	22173.092873
24.536000	-0.000147	-0.000122	-0.001305	0.001196	6151.045500	42661.640293	3922.268019	22157.751062
25.036000	-0.002195	-0.000669	-0.000861	0.000902	6138.283149	42638.583139	3923.894186	22170.740689
25.539000	-0.001634	-0.000469	-0.000994	0.001074	6141.113808	42641.121731	3923.222281	22163.154114
26.036000	0.000106	-0.000489	-0.004622	0.001073	6153.790633	42639.434348	3915.256488	22163.190813
26.536500	-0.001508	0.000015	0.004106	0.001646	6137.874343	42633.087958	3933.258339	22137.903530
27.039500	0.000741	-0.000397	-0.001775	0.000896	6159.719450	42664.002261	3921.894531	22171.028559
27.537500	-0.001033	0.000197	0.001390	0.001636	6141.395288	42650.616441	3927.246379	22138.331910
28.035000	0.000748	0.000169	0.003838	-0.001758	6179.231243	42958.969822	3940.273157	22288.618397
28.534500	-0.001268	0.000008	0.004824	0.000382	6148.809520	42747.938484	3937.686427	22193.742173
29.035000	-0.001159	-0.000207	-0.000243	-0.000300	6154.574301	42790.667551	3927.919265	22223.924682
29.535500	-0.001829	-0.000414	0.002650	0.004122	6117.638074	42369.067256	3924.537998	22029.037831
30.039000	-0.002029	-0.000500	0.002133	-0.000173	6147.308936	42752.243929	3932.916336	22218.290340
30.536500	-0.000016	0.000455	-0.003560	0.000085	6160.110320	42816.047194	3919.750625	22206.850947
31.036500	0.000716	0.000199	0.003364	0.000629	6161.491138	42742.815376	3933.873525	22182.828891
31.546000	0.000626	0.000304	-0.000709	0.003125	6142.632179	42524.793021	3919.336341	22072.814347
32.037000	-0.003118	-0.000640	0.001573	0.001799	6125.099393	42559.431276	3927.291083	22131.141018
32.537500	0.000651	-0.000557	-0.002155	-0.000198	6167.064066	42749.308178	3923.465856	22219.385668
33.040000	0.000577	-0.000559	0.004783	-0.000041	6165.372073	42734.768071	3938.540677	22212.443718
33.535000	-0.005122	-0.000862	0.002289	0.002385	6106.431545	42486.055352	3927.580790	22105.358007
34.035000	0.001404	0.000501	-0.002132	0.000290	6169.012291	42801.503663	3922.442996	22197.821647
34.538500	-0.000180	-0.000963	0.000021	-0.000430	6162.675607	42733.373767	3928.793432	22229.668670
35.036000	-0.000773	0.000224	0.001629	0.000027	6155.006526	42800.190824	3931.347938	22209.427594
35.536500	-0.001824	-0.000847	-0.003097	0.001246	6138.479646	42591.018936	3918.217395	22155.552921
36.037000	-0.004273	0.000005	-0.003515	0.001620	6118.047818	42634.515696	3916.480181	22139.033273
36.537000	0.000244	-0.000481	0.000152	0.000928	6155.855067	42653.361724	3926.074913	22169.591248
37.037500	-0.003911	0.000323	0.000447	0.002114	6117.096113	42618.464080	3924.105761	22117.262837
37.536500	-0.001169	-0.000428	-0.003362	0.000994	6145.072710	42652.217343	3918.190421	22166.680707
38.035000	-0.000232	-0.000159	-0.001949	0.001670	6146.979481	42615.141241	3919.808928	22136.867195
38.535000	-0.000814	-0.000058	0.000397	0.001311	6145.349990	42657.045998	3925.771072	22152.683677
39.038000	-0.001861	-0.000296	0.002763	0.000891	6140.788503	42673.569682	3931.949903	22171.218881
39.535500	-0.000964	0.000363	-0.006122	0.001980	6139.395382	42634.420041	3910.006616	22123.180268
40.036000	-0.000887	-0.001030	-0.003409	0.000955	6147.409977	42600.822492	3918.172691	22168.398616
40.536500	-0.001047	-0.000053	-0.002547	0.001925	6139.191226	42601.533331	3917.936018	22125.615413
41.036500	-0.002501	-0.000748	0.001717	0.000934	6135.829970	42628.391525	3929.528460	22169.314689
41.537000	-0.001873	0.000057	-0.004179	0.001888	6133.472248	42614.877128	3914.443861	22127.248193
42.037500	-0.001334	-0.000566	-0.003017	0.000875	6144.739005	42650.438223	3919.209304	22171.945930
42.535000	-0.000648	-0.000180	-0.000872	0.001504	6145.158631	42628.313503	3922.544575	22144.186590
43.035000	-0.001651	0.000436	0.002435	0.002453	6130.985471	42597.896921	3927.752773	22102.348199
43.538000	0.000678	-0.000435	-0.000632	0.001524	6154.667634	42603.181218	3923.027387	22143.283692
44.035500	-0.000348	-0.000628	-0.000979	0.001414	6147.990032	42595.617517	3922.504828	22148.136964
44.536000	-0.000141	0.000363	-0.000646	0.002282	6143.177846	42606.791553	3921.325926	22109.859123
45.036500	-0.001309	-0.000304	0.000919	0.001824	6138.018863	42587.819658	3925.789405	22130.046110
45.536500	0.000767	0.000411	-0.000495	-0.002244	6182.944980	43025.983810	3931.676118	22310.238577
46.037000	0.002095	-0.000323	-0.000023	0.000459	6172.838531	42710.685335	3926.726385	22190.330909
46.537000	-0.001248	-0.000631	-0.003579	-0.000495	6155.349124	42769.725793	3920.982425	22232.547897
47.035000	-0.004892	-0.000421	0.001162	0.005354	6086.807694	42256.860279	3918.549036	21975.072973
47.535000	-0.001015	-0.000191	0.001239	0.001858	6139.909774	42595.002955	3926.422321	22128.561270
48.038500	-0.001352	-0.000230	-0.001497	-0.000203	6152.462930	42779.690848	3924.930042	22219.637260
48.535500	0.000923	-0.000857	0.003899	-0.000596	6171.979861	42758.304543	3937.805288	22237.041040
49.064500	-0.001190	-0.000214	0.003564	0.000903	6145.583840	42680.029030	3933.707034	22170.697673
49.536000	-0.001008	0.000197	0.001152	0.002995	6131.715036	42526.877472	3923.718451	22078.520430
50.036000	0.000049	-0.000037	-0.002409	0.002219	6145.022807	42576.148249	3917.595065	22112.672926
50.563500	0.000599	-0.000378	-0.000588	-0.000370	6167.944524	42781.473338	3927.310689	22227.034840
51.037000	-0.001704	0.000220	-0.006950	0.002135	6132.905236	42607.193015	3907.871713	22116.349499
51.537000	-0.000775	0.000354	-0.003147	0.001477	6144.427534	42679.428788	3917.602433	22145.356790
52.035000	0.002661	0.000238	0.003970	-0.002339	6197.625367	43018.830780	3941.875294	22314.470078
52.538000	0.001759	-0.000630	0.005454	0.007237	6121.047059	42068.345180	3923.849482	21892.911468
53.035000	0.003338	-0.003208	0.001250	0.021797	6028.706961	40557.452221	3883.327029	21269.571645
53.535500	0.022142	-0.015871	-0.023386	0.282102	4730.525478	23041.030058	3441.733502	13026.327743
54.036000	0.015429	-0.030815	-0.021988	-0.092796	7059.538372	48881.920300	4098.200491	26790.329156
54.536500	0.010574	-0.122094	-0.020048	-0.318604	9761.752425	65535.000000	4879.155843	43023.516384
55.036500	0.013418	-0.094688	-0.012990	-0.289297	9361.156997	65261.899875	4783.584426	40410.770627
55.536500	0.013662	-0.076036	-0.010537	-0.265477	9024.268629	64525.765357	4696.303212	38413.433454
56.037000	0.012454	-0.046612	-0.011116	-0.221303	8425.068813	62471.752023	4526.830190	34987.097616
56.537000	0.002821	-0.031543	-0.013734	-0.175887	7777.445601	58459.202525	4363.348988	31809.582387
57.040500	-0.004361	-0.028701	-0.017732	-0.176726	7707.959629	58931.048914	4353.216688	31865.300012
57.535000	-0.002715	-0.032863	-0.017659	-0.193093	7907.963363	60524.716997	4406.756917	32974.465619
58.035500	0.001257	-0.027208	-0.012717	-0.162685	7617.253271	57338.809558	4324.677428	30946.597570
58.536000	-0.001805	-0.019607	-0.011457	-0.115813	7114.143556	52642.446913	4189.167707	28085.950050
59.035500	-0.003607	-0.011402	-0.008201	-0.063434	6629.876050	47843.215134	4058.300057	25234.116029
59.536500	-0.002785	-0.011809	-0.011982	-0.045197	6486.616441	45959.673428	4004.275450	24319.177817
60.037000	-0.003719	-0.007725	-0.013823	-0.031742	6372.515378	45043.084427	3968.327746	23668.407470
60.537000	-0.005100	-0.005596	-0.013640	-0.015698	6239.295468	43717.972839	3932.363361	22918.256202
61.037500	-0.001482	-0.004875	-0.011269	-0.018389	6286.918842	44038.968993	3943.700935	23042.165677
61.537500	-0.001165	-0.004914	-0.010140	-0.003029	6174.511254	42609.962981	3912.166737	22345.197440
62.035000	-0.007359	-0.003824	-0.012504	-0.011246	6189.393425	43467.513502	3925.008399	22714.943493
62.535000	-0.005589	-0.003913	-0.015602	-0.009176	6187.185510	43266.938221	3913.658276	22621.144068
63.035500	-0.004953	-0.001795	-0.013750	0.001852	6111.482324	42449.680824	3893.836947	22128.828297
63.535000	-0.005568	-0.002764	-0.011877	0.003609	6094.453010	42202.984807	3894.084585	22051.554173
64.036000	-0.011284	-0.002941	-0.017983	0.010254	6007.206182	41592.288507	3867.218831	21762.053246
64.536500	-0.009068	-0.000532	-0.015837	-0.001557	6106.397503	42876.064929	3896.666736	22279.668779
65.036500	-0.012516	-0.002569	-0.016586	-0.008878	6134.357499	43363.973592	3910.862967	22607.667161
65.537000	-0.011470	-0.001948	-0.021897	-0.012324	6167.101073	43743.593067	3906.813100	22764.000667
66.086500	-0.012457	-0.001971	-0.021466	-0.016732	6192.266378	44156.951359	3917.361561	22965.786783
66.538000	-0.009583	-0.002058	-0.014594	-0.019253	6232.351456	44388.152568	3938.172234	23082.100960
67.038500	-0.010508	-0.002262	-0.015684	-0.022549	6250.124022	44683.704331	3943.123912	23235.178390
67.535500	-0.009753	-0.000657	-0.018396	-0.021817	6250.300756	44767.581850	3935.403072	23201.094961
68.036000	-0.007038	-0.001513	-0.015730	-0.021230	6266.339629	44628.986531	3940.057985	23173.772937
68.536000	-0.008106	-0.001468	-0.016678	-0.019851	6247.904298	44501.451429	3934.850320	23109.790989
69.036500	-0.008093	-0.001806	-0.016238	-0.019900	6248.364587	44473.766416	3935.939522	23112.024355
69.537000	-0.009855	-0.002471	-0.022137	-0.022315	6253.281074	44641.209019	3928.187558	23224.287005
70.037000	-0.006554	-0.001616	-0.020165	-0.022007	6275.876695	44693.667245	3931.883940	23209.919023
70.539500	-0.007437	-0.001325	-0.012954	-0.022799	6275.187842	44797.669847	3949.856768	23246.844133
71.034500	-0.012320	-0.002208	-0.018128	-0.021579	6229.282993	44595.846016	3935.470619	23190.001285
71.535000	-0.010331	-0.003697	-0.020992	-0.025540	6274.034699	44833.239494	3937.923770	23375.129260
72.035500	-0.008628	-0.002682	-0.019264	-0.025266	6284.875160	44904.618528	3941.184970	23362.285551
72.535500	-0.008810	-0.002195	-0.011578	-0.024678	6279.024211	44894.864759	3957.261392	23334.679750
73.035500	-0.011021	-0.002623	-0.020152	-0.023337	6252.195768	44724.648473	3934.875418	23271.959867
73.536500	-0.008917	-0.002277	-0.018764	-0.023701	6270.814256	44792.920423	3938.795458	23288.985982
74.036500	-0.006706	-0.001779	-0.018383	-0.023794	6288.294769	44849.840889	3939.857754	23293.335704
74.536500	-0.006492	-0.000169	-0.013128	-0.022809	6282.433345	44910.090308	3949.484727	23247.318415
75.040000	-0.009034	-0.001288	-0.014283	-0.021642	6254.398248	44690.109974	3944.239261	23192.949366
75.537000	-0.007791	-0.001290	-0.019136	-0.023163	6275.259188	44836.027679	3936.755454	23263.810995
76.035000	-0.008741	-0.000457	-0.014546	-0.023120	6267.748906	44912.183841	3946.979952	23261.819054
76.535000	-0.007704	-0.000067	-0.012631	-0.022745	6272.760405	44913.706191	3950.465946	23244.310959
77.035500	-0.010396	-0.001034	-0.013129	-0.022382	6249.716945	44785.596079	3948.516487	23227.417136
77.536000	-0.007630	-0.000375	-0.011831	-0.020354	6255.266355	44654.113854	3946.865153	23133.094481
78.036000	-0.010278	-0.000664	-0.014444	-0.019899	6231.990428	44582.915344	3939.956251	23112.017137
78.536000	-0.009370	-0.000150	-0.010581	-0.019140	6233.098857	44559.466140	3946.945610	23076.866272
79.036500	-0.010727	-0.000550	-0.011722	-0.019246	6223.758486	44531.306844	3944.610338	23081.772962
79.539500	-0.009203	-0.000122	-0.015589	-0.018853	6232.203033	44534.604633	3935.051377	23063.574333
80.037500	-0.010163	0.000187	-0.012846	-0.018923	6225.548801	44570.860088	3941.351238	23066.802944
80.537000	-0.010705	0.001653	-0.009713	-0.017977	6214.470586	44620.683169	3946.278731	23023.129543
81.038000	-0.008751	0.000403	-0.009000	-0.019305	6238.966408	44628.124885	3950.899389	23084.476516
81.535000	-0.011688	-0.000519	-0.016187	-0.020130	6223.187225	44618.856642	3936.570630	23122.722080
82.035500	-0.011550	-0.000535	-0.015399	-0.019996	6223.209262	44604.474538	3938.033990	23116.491269
82.536000	-0.008951	-0.000254	-0.012510	-0.019612	6239.765293	44594.591844	3943.658262	23098.689072
83.036000	-0.011382	0.000129	-0.010999	-0.018381	6212.445284	44513.619369	3944.290351	23041.794962
83.536000	-0.008832	-0.001753	-0.015794	-0.019081	6236.685219	44400.733780	3935.104275	23074.124691
84.039500	-0.006967	-0.001145	-0.014336	-0.019028	6250.277139	44453.689123	3938.246838	23071.686683
84.537000	-0.008844	-0.000935	-0.012742	-0.018505	6232.285495	44423.850829	3940.648228	23047.495965
85.037500	-0.009117	-0.000518	-0.010186	-0.017595	6223.451610	44376.802859	3944.348654	23005.490562
85.535000	-0.008036	0.000159	-0.011215	-0.019269	6244.060666	44601.313731	3945.804423	23082.818081
86.035000	-0.008732	-0.000162	-0.012990	-0.019865	6243.310003	44627.712437	3943.148183	23110.434956
86.535000	-0.006844	-0.000141	-0.011474	-0.020760	6264.254987	44715.511499	3948.590644	23151.932174
87.036000	-0.009502	-0.000737	-0.013221	-0.021204	6247.574546	44700.913641	3945.644249	23172.554521
87.586500	-0.007794	-0.000301	-0.016628	-0.022090	6267.122753	44828.007602	3939.971210	23213.785467
88.038500	-0.006923	-0.000167	-0.012966	-0.022958	6280.296182	44924.581233	3950.190819	23254.266651
88.536000	-0.007709	-0.000452	-0.001797	-0.023217	6276.292615	44922.009242	3976.444382	23266.337615
89.036500	-0.010293	-0.001134	-0.012536	-0.020543	6236.688134	44599.441922	3945.697440	23141.848849
89.536500	-0.007898	-0.000933	-0.009249	-0.023933	6280.290550	44944.755957	3960.886233	23299.828516
90.037500	-0.008397	0.000088	-0.008585	-0.023584	6273.863597	45009.685750	3961.606612	23283.492898
90.534500	-0.006333	-0.000066	-0.014896	-0.024097	6293.439819	45044.484004	3948.399502	23307.508071
91.035000	-0.009093	-0.000525	-0.007502	-0.020872	6248.159838	44689.410140	3957.878006	23157.144155
91.536000	-0.004401	-0.000699	-0.003116	-0.024116	6308.334441	44985.071712	3975.468344	23308.395718
92.035500	-0.008355	-0.000899	-0.007839	-0.025130	6285.908785	45063.821088	3966.879637	23355.890714
92.536000	-0.006584	-0.001019	-0.007787	-0.025506	6302.266293	45088.606312	3967.865005	23373.526533
93.039000	-0.011193	-0.000826	-0.008427	-0.020033	6226.154203	44580.166435	3953.855854	23118.209745
93.537000	-0.009551	-0.001616	-0.006186	-0.025376	6278.696831	45018.156783	3971.265791	23367.419085
94.037000	-0.004977	-0.001027	-0.003985	-0.025033	6310.943702	45041.990328	3975.579011	23351.342252
94.534500	-0.009698	-0.001820	-0.008832	-0.025611	6279.363054	45021.178100	3965.697051	23378.436836
95.037500	-0.010073	-0.001011	-0.011739	-0.021492	6245.457838	44702.294009	3949.649032	23185.969365
95.537500	-0.007769	-0.002132	-0.007960	-0.025209	6290.969199	44952.198368	3966.783705	23359.607537
96.035500	-0.005714	-0.001865	-0.009791	-0.025082	6305.679231	44965.738145	3962.278672	23353.640591
96.535500	-0.007707	-0.001441	-0.013039	-0.024306	6284.578512	44931.819242	3953.085831	23317.294231
97.036000	-0.009466	-0.001521	-0.011529	-0.023500	6265.146711	44846.286621	3954.687124	23279.573211
97.538500	-0.005922	-0.001848	-0.005866	-0.024633	6300.662495	44924.048209	3970.289306	23332.597144
98.038500	-0.008081	-0.001330	-0.008077	-0.024056	6279.833620	44918.363549	3963.858036	23305.572406
98.539500	-0.008683	-0.002269	-0.012328	-0.024813	6281.015718	44900.806757	3955.858882	23341.019603
99.071000	-0.008337	-0.001735	-0.009327	-0.024092	6278.173398	44882.777185	3961.072038	23307.266402
99.539500	-0.008899	-0.001787	-0.009405	-0.023716	6271.061693	44841.487026	3960.030709	23289.679639
