sample name	sample
index	631
start time	 03-19-2021  03:08:29 PM
880	-0.001885
Peak Time (s)	90.537
Peak Height 	-0.001885
calc peak height	90,93
Baseline Time (s)	9.534
Baseline Value 	-0.005385
subtract baseline	10,4
Abs	-0.015899
Peak Time (s)	92.035
Peak Height 	-0.0159
calc peak height	90,93
Baseline Time (s)	8.54
Baseline Value 	0.00437
subtract baseline	10,3
PK_550	0.000120
Peak Time (s)	91.051
Peak Height 	1.2001E-4
calc peak height	90,93
Baseline Time (s)	10.035
Baseline Value 	2.1581E-4
subtract baseline	10,2
PK_880	-0.010543
Peak Time (s)	92.035
Peak Height 	-0.01054
calc peak height	90,93
Baseline Time (s)	9.534
Baseline Value 	8.5967E-4
subtract baseline	10,1


Time (s)	A880-A510	A880-A775	A880-A975	A880	I510	I775	I975	I880	
0.034500	-0.000885	-0.000182	-0.003834	0.002568	7365.582476	45429.762413	4045.592061	24164.080027
0.535000	0.000224	0.000155	-0.005591	0.005122	7350.975559	45213.783933	4034.752533	24039.818969
1.035000	-0.000828	0.000541	-0.005091	0.008482	7306.680338	44925.742642	4027.619215	23877.463558
1.535500	-0.000615	0.000541	-0.003781	0.002857	7365.389833	45472.142716	4044.996258	24149.978407
2.035500	-0.000382	-0.000662	-0.005019	0.001610	7380.406445	45476.387736	4045.017224	24210.858919
2.536000	-0.002765	0.000550	-0.001729	0.002385	7348.432704	45519.152930	4051.390037	24172.990570
3.036500	-0.001367	-0.000830	-0.005237	0.002473	7361.670512	45375.753364	4042.293593	24168.720415
3.536500	-0.000776	-0.000436	-0.000107	0.000212	7390.618480	45635.451061	4061.072679	24279.333017
4.037000	-0.000450	0.000012	-0.002422	0.000193	7394.129790	45681.388781	4055.203920	24280.275775
4.534500	0.001264	0.000040	-0.002691	0.000609	7407.376443	45643.222388	4053.457152	24259.855963
5.035000	-0.000485	-0.000081	-0.002196	0.000483	7390.815966	45643.750486	4055.040510	24266.046974
5.535000	0.002523	0.000293	-0.005654	0.001710	7408.997386	45560.073121	4043.164299	24205.980206
6.035500	0.002100	0.000111	-0.000902	0.000855	7413.414502	45626.086229	4057.392083	24247.809210
6.535500	0.002732	-0.000321	-0.001631	0.000229	7426.306847	45645.108589	4057.129262	24278.490579
7.036000	0.001066	0.000365	-0.002718	0.000475	7406.724993	45688.304944	4053.732297	24266.451410
7.535500	0.000418	0.000164	-0.000374	0.000275	7402.141272	45688.186584	4060.225847	24276.225929
8.036500	0.000363	0.000537	0.000899	0.000293	7401.405086	45723.147162	4063.444685	24275.367971
8.539500	-0.000767	-0.000219	0.000000	0.000452	7388.262092	45633.204945	4060.730676	24267.545050
9.034500	0.001080	0.000507	-0.000448	0.000983	7401.672089	45652.374523	4058.226950	24241.535445
9.534500	0.000000	-0.000385	0.002998	0.000000	7400.687478	45661.273787	4069.605544	24289.739985
10.035000	0.000426	0.000000	-0.001647	-0.000129	7406.347908	45711.767662	4058.002827	24296.050449
10.535000	0.000885	0.000091	-0.002149	-0.000063	7410.376870	45714.329252	4056.552773	24292.844125
11.035500	-0.000268	-0.000200	0.000232	-0.000271	7400.719297	45706.164557	4063.181573	24303.067776
11.535500	-0.000569	0.000380	0.000322	0.000415	7390.664924	45695.740599	4061.652852	24269.404156
12.036000	-0.000087	0.000465	-0.004904	0.000157	7398.196748	45729.378506	4048.983758	24282.014254
12.536000	0.002115	0.000228	-0.000714	0.000469	7417.519159	45675.372057	4058.858369	24266.709050
13.039500	0.000455	-0.000134	-0.000271	0.000775	7397.423951	45609.910686	4059.212921	24251.757446
13.537000	-0.000910	0.000758	0.001599	0.002396	7367.064927	45538.440593	4059.847265	24172.447313
14.037500	-0.001023	0.000579	-0.003448	0.003631	7353.435606	45400.234448	4043.880840	24112.248635
14.534500	-0.001583	0.000286	-0.003801	0.002519	7359.012486	45480.187019	4045.798075	24166.439910
15.035000	-0.000240	-0.000309	-0.002598	0.000780	7390.296534	45592.312366	4053.261294	24251.512377
15.535000	-0.000008	0.000747	-0.000115	0.002133	7378.891828	45563.080284	4056.138645	24185.295529
16.035500	0.000688	0.000509	-0.003760	0.001381	7393.611347	45613.439612	4048.782719	24222.038717
16.536000	0.001240	0.001391	-0.000256	0.001960	7393.339107	45643.248078	4056.222114	24193.743795
17.036500	0.001921	0.000082	-0.006137	0.000389	7416.348574	45669.001076	4045.277926	24270.651511
17.536000	-0.000630	-0.000657	-0.003970	0.001614	7377.834537	45476.499724	4047.659107	24210.646975
18.039500	-0.000417	0.000551	0.002095	0.002240	7373.651864	45533.386992	4061.518361	24180.066347
18.537000	0.000414	0.000882	-0.000081	0.002442	7380.041613	45546.073472	4055.438182	24170.220080
19.037500	-0.000494	-0.000221	-0.000950	0.002147	7373.812145	45466.982383	4053.975580	24184.602504
19.534500	-0.001030	0.000891	-0.000102	0.002676	7363.018622	45524.037413	4054.786555	24158.778884
20.035500	0.001392	0.000377	-0.005741	0.002782	7386.522519	45463.382210	4040.242692	24153.599753
20.535500	-0.000471	0.000243	0.001548	0.002160	7373.915014	45511.187803	4060.322623	24183.991448
21.035500	-0.001875	0.000468	-0.001734	0.002384	7357.426870	45511.205014	4051.380277	24173.052175
21.536000	-0.000379	0.000693	-0.001518	0.002643	7369.948701	45507.909807	4051.268628	24160.404775
22.036000	-0.000096	0.000412	0.000449	0.002444	7374.835296	45499.847322	4056.783575	24170.096212
22.536500	0.000216	0.001576	0.002042	0.003322	7369.096603	45527.804432	4058.611781	24127.281611
23.037000	0.000385	0.000078	0.000611	0.002171	7382.486985	45493.831605	4057.895620	24183.422139
23.534000	-0.000829	0.000239	-0.000268	0.002627	7365.550904	45465.068258	4054.489634	24161.193582
24.034500	-0.001755	-0.000479	-0.002908	0.001705	7365.511229	45485.068316	4050.123379	24206.227077
24.535000	0.002140	0.000564	-0.004786	0.003034	7391.566529	45457.025658	4042.012595	24141.318738
25.035500	0.000477	-0.000486	0.000008	0.001605	7389.186870	45494.124594	4057.800944	24211.102605
25.535500	0.000157	-0.000119	-0.001845	0.002271	7379.159573	45464.868653	4051.383582	24178.560480
26.035500	0.000169	-0.000156	-0.000080	0.002142	7380.594197	45473.885252	4056.207018	24184.867722
26.536000	-0.000419	0.000273	0.000305	0.002544	7370.548569	45476.560204	4056.162830	24165.252808
27.036500	-0.000198	-0.000383	-0.001054	0.002380	7374.451392	45428.441884	4053.117559	24173.246675
27.537000	0.000603	0.000450	-0.005543	0.001461	7391.940255	45599.926862	4044.071293	24218.149084
28.037000	-0.001091	0.000030	-0.000675	0.001626	7373.034704	45542.516220	4056.004756	24210.057182
28.537000	0.001685	0.000678	0.000354	0.002145	7396.003507	45555.235000	4057.308458	24184.736453
29.034500	0.002218	0.000554	0.001779	0.001875	7404.194193	45569.453883	4061.644882	24197.907405
29.535500	0.001053	0.001019	0.000561	0.002271	7388.279780	45576.285231	4057.514094	24178.582798
30.035500	0.000435	0.000514	-0.000820	0.001821	7386.564368	45570.851903	4055.137199	24200.526738
30.535500	0.003012	-0.000291	-0.000197	0.001612	7414.991817	45512.474275	4057.259846	24210.744584
31.035500	-0.001979	-0.000183	-0.002639	0.003731	7342.787590	45316.162397	4045.672070	24107.384510
31.536000	0.000861	0.000410	0.006433	0.002485	7384.135696	45495.697976	4072.061261	24168.105235
32.039500	0.000090	-0.000017	-0.002629	0.001452	7386.800491	45554.910810	4051.472388	24218.568918
32.537000	0.002186	0.001016	-0.000185	0.002125	7401.311062	45590.289128	4055.981913	24185.711275
33.037000	-0.000353	0.000854	-0.003797	0.002339	7373.294641	45553.376393	4046.264344	24175.224624
33.537500	0.000122	0.000828	0.001700	0.001698	7384.626668	45613.685341	4061.895756	24206.549630
34.035000	0.000888	0.000131	0.000776	0.002815	7381.071581	45436.226357	4056.673442	24152.038299
34.535500	0.001850	0.000758	0.000955	0.003308	7385.828330	45449.149650	4055.870351	24127.961131
35.035500	0.000331	0.000311	-0.000961	0.003046	7373.057481	45431.149813	4051.660672	24140.746572
35.535500	0.000022	0.000472	-0.001355	0.003295	7367.406636	45422.544600	4050.028634	24128.628049
36.036000	-0.001172	0.000959	-0.000182	0.003218	7356.100401	45477.607611	4053.202991	24132.354800
36.536500	0.000124	0.000091	-0.003515	0.002913	7372.309881	45422.671218	4045.524737	24147.223834
37.036500	0.000166	0.000448	-0.002600	0.003354	7368.266541	45414.507091	4046.724606	24125.765816
37.537000	0.001567	0.000928	-0.004397	0.003089	7385.174459	45487.275448	4042.854520	24138.642642
38.034500	-0.001343	-0.000527	0.002827	0.002433	7362.310550	45409.169749	4062.900954	24170.636460
38.534500	0.000350	0.000585	0.003422	0.003125	7372.456328	45450.241772	4062.651888	24136.916857
39.035000	0.000810	-0.000254	-0.003011	0.002819	7380.223880	45398.112460	4047.039033	24151.816335
39.535000	0.000848	0.000854	-0.000240	0.003825	7370.408299	45408.189962	4051.515508	24102.839958
40.035000	-0.000321	0.000366	0.002254	0.003121	7365.692608	45429.229371	4059.668965	24137.110639
40.536000	0.000049	0.000040	0.000023	0.002883	7371.849395	45420.596435	4054.578664	24148.684699
41.036500	0.000864	0.000389	-0.008126	0.002953	7379.422228	45447.936640	4033.835606	24145.303245
41.536000	0.001252	0.000304	-0.003348	0.003362	7379.207351	45399.688534	4044.814067	24125.368605
42.037000	0.000929	-0.000248	-0.004668	0.002658	7383.070894	45414.500719	4043.259268	24159.674267
42.537000	-0.000052	-0.000144	-0.000233	0.003323	7366.372764	45359.745144	4052.808693	24127.264166
43.037000	0.001541	0.000440	-0.004015	0.002940	7386.432201	45454.113180	4044.195422	24145.917676
43.535000	0.002314	-0.000015	0.000094	-0.000395	7428.432448	45736.479863	4063.145578	24309.152096
44.035000	0.003349	-0.000499	0.000817	-0.000815	7443.396292	45730.250589	4066.084244	24329.797364
44.535500	0.001670	0.000484	0.001352	0.002151	7395.786110	45535.637484	4059.843737	24184.428428
45.035500	-0.000692	0.000294	-0.001252	0.002048	7372.812514	45527.064845	4053.458289	24189.459863
45.536000	0.002256	0.000395	0.005003	0.002765	7395.491932	45466.857522	4067.645275	24154.457023
46.039000	0.000175	0.000097	-0.000404	0.001806	7384.067364	45531.484055	4056.236316	24201.280076
46.536500	0.001880	-0.000091	-0.003102	0.002132	7398.116015	45481.284964	4048.547923	24185.369170
47.037000	0.000048	0.000863	-0.002301	0.004278	7357.712056	45364.703730	4045.144261	24080.763696
47.537000	0.000705	0.000590	-0.006530	0.004205	7365.108303	45345.288772	4034.697535	24084.352283
48.035000	0.000266	0.000043	-0.003268	0.001930	7383.727088	45514.052216	4048.638089	24195.195999
48.535000	0.001942	0.000643	0.006571	0.002621	7393.761599	45505.129184	4072.067802	24161.473838
49.035500	0.001386	0.000298	0.000724	0.002287	7391.492664	45504.055482	4057.889233	24177.764998
49.535500	0.002559	0.001493	-0.001953	0.004005	7385.954618	45452.906305	4046.714536	24094.061196
50.036000	0.003237	0.000657	-0.005307	0.001449	7418.976016	45621.345485	4044.696704	24218.721816
50.538500	-0.007576	-0.003625	0.003470	-0.001635	7340.458130	45503.957831	4075.060261	24370.142040
51.036500	-0.052254	-0.009890	-0.016990	0.238022	5239.841388	27133.212313	3567.230835	15295.321380
51.536000	-0.066242	-0.022483	-0.000082	-0.025837	7006.881215	46030.095675	4129.941976	25596.444589
52.037000	-0.024411	-0.017351	0.002214	-0.104194	8294.630499	55147.776062	4371.128373	30069.691498
52.537000	-0.045565	-0.016431	-0.020965	-0.066280	7617.253221	50890.939042	4184.390249	27804.468498
53.034500	-0.037811	-0.014912	-0.025937	-0.094317	8016.648815	54262.581727	4251.821284	29460.411571
53.535000	-0.018076	-0.015006	-0.022471	-0.125656	8646.712362	58085.497271	4360.607850	31442.433794
54.035500	0.002444	-0.013851	-0.012843	-0.136804	9076.273693	59667.952627	4429.824263	32182.678427
54.538500	0.004221	-0.011201	-0.014598	-0.126000	8950.624541	58614.115021	4387.588178	31465.005578
55.036000	0.003533	-0.009894	-0.011955	-0.117608	8826.845646	57714.474567	4368.659659	30919.739357
55.539000	-0.008991	-0.009220	-0.017062	-0.100802	8444.214291	55719.817623	4298.755935	29858.884414
56.036500	-0.012208	-0.007447	-0.017013	-0.081963	8173.033433	53688.831634	4241.565320	28717.524866
56.536500	-0.014674	-0.004639	-0.020975	-0.051279	7790.510480	50538.419298	4142.385811	26961.387885
57.037000	-0.039668	-0.013785	-0.018942	-0.061233	7626.360138	50626.897888	4175.810406	27517.539588
57.537500	-0.004952	-0.005606	-0.012788	-0.069253	8108.088098	52436.477178	4216.540837	27975.034831
58.035000	-0.018269	-0.005927	-0.019299	-0.038377	7610.757443	49010.763352	4111.910604	26259.215970
58.538000	-0.020780	-0.005573	-0.017194	-0.032993	7527.122422	48481.128261	4103.157729	25972.309828
59.036000	-0.023543	-0.004150	-0.016039	-0.011294	7277.408350	46407.098225	4049.787004	24851.376403
59.535500	-0.024182	-0.005520	-0.022442	-0.006421	7223.056286	45787.802186	4021.550759	24607.258696
60.036000	-0.024860	-0.005523	-0.018128	-0.000637	7160.213034	45221.605577	4017.921855	24321.025009
60.539000	-0.028799	-0.005554	-0.023189	0.007465	7045.569318	44438.525226	3985.981723	23926.433649
61.036500	-0.026137	-0.006111	-0.016728	0.004564	7098.147124	44662.704364	4008.600909	24066.898873
61.537000	-0.023847	-0.005288	-0.019468	-0.001143	7174.895595	45293.678586	4015.871265	24345.910201
62.037500	-0.019843	-0.004682	-0.019248	-0.007618	7277.648426	45988.693876	4032.460381	24666.968656
62.538000	-0.018173	-0.003851	-0.027649	-0.008173	7299.782622	46126.106399	4013.045229	24694.715295
63.035000	-0.016372	-0.004718	-0.018539	-0.013599	7372.480637	46581.032476	4049.292643	24967.811750
63.541000	-0.014897	-0.004034	-0.019089	-0.013263	7384.039992	46615.915087	4047.048500	24950.777723
64.035500	-0.016062	-0.004717	-0.021597	-0.012511	7364.585809	46472.058689	4038.828168	24912.743958
64.536000	-0.020834	-0.004811	-0.022000	-0.009085	7282.367328	46121.209061	4029.255453	24740.356393
65.039500	-0.016588	-0.004220	-0.018168	-0.011235	7346.389071	46394.269983	4044.251917	24848.424144
65.536500	-0.017493	-0.004167	-0.019372	-0.011727	7342.213711	46448.606116	4042.453766	24873.173883
66.037000	-0.017179	-0.004719	-0.024079	-0.012446	7352.636671	46465.354564	4032.452050	24909.477022
66.537000	-0.019649	-0.004010	-0.022088	-0.007977	7283.141411	46090.884765	4026.281705	24684.915358
67.037000	-0.016967	-0.004317	-0.019678	-0.012738	7357.727273	46534.823355	4044.232155	24924.234729
67.535000	-0.015155	-0.003723	-0.026578	-0.013403	7382.838329	46661.215999	4028.608714	24957.886587
68.035500	-0.016696	-0.003333	-0.023745	-0.014224	7375.528299	46783.050401	4037.738003	24999.458767
68.538500	-0.016751	-0.002700	-0.021552	-0.014103	7373.739367	46834.745291	4042.947991	24993.340185
69.036000	-0.015482	-0.003732	-0.023217	-0.014788	7393.602009	46799.752925	4040.480638	25028.086353
69.539500	-0.015371	-0.002552	-0.016632	-0.013811	7384.799696	46820.233584	4054.680466	24978.549543
70.036500	-0.014160	-0.002553	-0.019194	-0.014357	7402.690842	46875.172925	4049.551847	25006.203117
70.536500	-0.018069	-0.003106	-0.018872	-0.009530	7314.387909	46335.222531	4038.186989	24762.699469
71.037000	-0.014280	-0.002736	-0.018964	-0.014988	7407.918948	46920.463802	4051.740526	25038.269066
71.537500	-0.014517	-0.001730	-0.019928	-0.014215	7397.605675	46944.022577	4047.335282	24999.014716
72.037500	-0.013321	-0.002390	-0.020255	-0.014547	7413.224675	46910.921943	4047.348054	25015.882968
72.535000	-0.015472	-0.003135	-0.023919	-0.011293	7358.234649	46508.484103	4029.973130	24851.302470
73.035500	-0.012511	-0.002317	-0.019673	-0.014253	7418.504412	46888.576268	4048.076989	25000.954614
73.538500	-0.013921	-0.002268	-0.017793	-0.013694	7398.369283	46837.058442	4051.426994	24972.596077
74.036000	-0.012250	-0.001476	-0.017117	-0.013785	7416.384049	46926.298225	4053.379329	24977.242897
74.539000	-0.017650	-0.002133	-0.020651	-0.009094	7314.211767	46388.803971	4032.641900	24740.823786
75.036000	-0.013499	-0.001737	-0.020486	-0.013480	7400.485298	46869.014568	4044.066490	24961.757362
75.536000	-0.013617	-0.002099	-0.018343	-0.013861	7403.182407	46870.947205	4050.453436	24981.070389
76.037000	-0.013174	-0.002174	-0.012580	-0.013619	7405.229597	46838.968045	4064.556195	24968.789429
76.537500	-0.010920	-0.001351	-0.013832	-0.012546	7417.316535	46813.811534	4058.597648	24914.560645
77.035000	-0.013532	-0.002407	-0.021288	-0.013304	7398.366417	46783.698965	4041.602442	24952.881440
77.538000	-0.013072	-0.002062	-0.017969	-0.012634	7396.209936	46750.905345	4048.291421	24918.959066
78.035500	-0.012486	-0.001692	-0.016973	-0.011931	7395.028580	46717.438625	4049.035004	24883.483418
78.538000	-0.014860	-0.001430	-0.024317	-0.006798	7319.156714	46229.952463	4017.853861	24626.024288
79.038500	-0.012912	-0.001457	-0.016528	-0.011564	7386.952817	46704.170763	4049.231929	24864.968072
79.539000	-0.012685	-0.001621	-0.022995	-0.011457	7388.172218	46676.912828	4032.689841	24859.598374
80.036000	-0.012062	-0.001886	-0.020789	-0.011237	7392.272329	46628.212319	4037.659560	24848.495793
80.540000	-0.011875	-0.001326	-0.021530	-0.011369	7395.521626	46697.658259	4036.133008	24855.128487
81.037500	-0.012961	-0.001063	-0.019676	-0.011235	7383.101725	46710.678378	4040.452012	24848.398878
81.540500	-0.013447	-0.001871	-0.019961	-0.010892	7374.682475	46595.023244	4038.872269	24831.115330
82.035500	-0.012275	-0.001971	-0.018670	-0.011178	7389.498440	46613.685799	4042.838976	24845.518628
82.538500	-0.016091	-0.001260	-0.020542	-0.005165	7290.561918	46084.661112	4023.142895	24544.784844
83.036000	-0.009951	-0.000905	-0.018460	-0.009987	7401.048505	46601.126083	4040.370040	24785.617597
83.536000	-0.013382	-0.001801	-0.013441	-0.009660	7362.865110	46478.581905	4052.234906	24769.216439
84.036000	-0.012090	-0.000283	-0.018241	-0.009399	7373.304573	46604.577225	4039.441632	24756.101434
84.539500	-0.016526	-0.001777	-0.023892	-0.004619	7280.804292	45979.444255	4013.542380	24517.686861
85.037000	-0.011253	-0.001254	-0.013277	-0.009815	7386.037674	46548.974616	4053.048291	24777.010780
85.537000	-0.010662	-0.001140	-0.020906	-0.009963	7393.555664	46575.196698	4034.175889	24784.408629
86.037500	-0.011569	-0.001080	-0.019302	-0.009469	7379.307601	46531.703618	4036.955413	24759.626162
86.537500	-0.015403	-0.001406	-0.020049	-0.003843	7284.253249	45939.320322	4021.091995	24479.201071
87.035000	-0.011617	-0.000177	-0.016401	-0.008592	7369.913423	46534.268084	4042.042340	24715.664556
87.535000	-0.012259	-0.000296	-0.017989	-0.008557	7363.068969	46518.908061	4037.962350	24713.933357
88.036000	-0.010894	-0.000820	-0.020759	-0.008481	7376.129649	46458.784106	4030.843458	24710.133153
88.539000	-0.015527	-0.001109	-0.023999	-0.003186	7276.502595	45903.782939	4009.771549	24446.710087
89.036000	-0.012535	-0.000769	-0.022405	-0.008482	7359.511561	46464.009278	4026.748956	24710.155623
89.539500	-0.010529	-0.000549	-0.020680	-0.008004	7374.986782	46438.189152	4029.849827	24686.240892
90.037000	-0.013208	-0.000708	-0.019317	-0.008124	7349.101398	46434.267957	4033.551372	24692.272268
90.537000	-0.015137	-0.000202	-0.018884	-0.001885	7267.472557	45864.864214	4019.137354	24382.472332
91.051000	-0.012725	0.000120	-0.021061	-0.007150	7344.152647	46419.722595	4026.779011	24643.616069
91.537500	-0.010879	-0.000734	-0.021356	-0.007756	7368.928120	46394.926677	4027.552047	24673.857510
92.035500	-0.010543	-0.000476	-0.015899	-0.006894	7363.596108	46334.569096	4039.032082	24630.805843
92.535500	-0.011905	-0.001082	-0.018598	-0.007364	7354.587366	46321.123510	4033.450104	24654.302063
93.036000	-0.011808	-0.000929	-0.018897	-0.007561	7357.557012	46356.019086	4033.193378	24664.128649
93.536000	-0.010969	-0.001719	-0.015260	-0.007307	7363.469870	46251.855972	4041.678631	24651.425541
94.036500	-0.011335	-0.000617	-0.019585	-0.006606	7352.681139	46291.799215	4029.096553	24616.462829
94.537000	-0.009257	-0.000089	-0.020516	-0.005832	7365.860547	46267.320145	4024.860502	24577.922804
95.037000	-0.010525	-0.000274	-0.022997	-0.005799	7352.704361	46245.604724	4018.644558	24576.280887
95.537000	-0.012254	-0.000930	-0.017824	-0.006339	7340.727653	46234.082620	4032.822680	24603.187464
96.035000	-0.012114	-0.000595	-0.021411	-0.005678	7335.478450	46201.642818	4022.262342	24570.247793
