sample name	sample
index	67
start time	 02-11-2021  03:32:53 PM
880	-0.031511
Peak Time (s)	92.035
Peak Height 	-0.03151
calc peak height	90,93
Baseline Time (s)	9.534
Baseline Value 	-0.006029
subtract baseline	10,4
Abs	0.009654
Peak Time (s)	90.04
Peak Height 	0.009654
calc peak height	90,93
Baseline Time (s)	10.537
Baseline Value 	0.003613
subtract baseline	10,3
PK_550	0.001642
Peak Time (s)	91.537
Peak Height 	0.001642
calc peak height	90,93
Baseline Time (s)	11.536
Baseline Value 	9.6559E-4
subtract baseline	10,2
PK_880	-0.001620
Peak Time (s)	92.035
Peak Height 	-0.00162
calc peak height	90,93
Baseline Time (s)	9.534
Baseline Value 	0.0036
subtract baseline	10,1


Time (s)	A880-A510	A880-A775	A880-A975	A880	I510	I775	I975	I880	
0.038000	0.001658	0.000992	-0.011524	0.003075	4657.667972	20719.497933	3311.477286	11148.474343
0.540500	-0.002599	-0.001767	-0.013379	0.003032	4641.035012	20608.648748	3309.852392	11149.294281
1.035500	-0.005897	-0.001060	-0.016369	0.004258	4623.349701	20587.493249	3306.098465	11126.106537
1.539000	0.002737	0.002670	0.005108	0.003568	4659.998371	20768.096249	3326.250006	11139.155515
2.036000	0.002001	-0.000799	0.005306	0.000428	4669.570518	20754.586521	3329.374615	11198.728694
2.536000	-0.002166	0.000057	-0.000607	0.000760	4651.692761	20776.094903	3323.548528	11192.412906
3.036500	-0.003318	-0.000315	-0.012689	0.003755	4635.375669	20638.295933	3309.823163	11135.613579
3.536000	0.002558	0.000434	-0.005421	0.000519	4671.434007	20801.481121	3319.335096	11196.990483
4.036500	0.004298	-0.000688	0.010438	-0.000168	4681.166533	20783.603325	3334.792649	11210.078657
4.537000	0.001385	-0.000769	-0.001915	-0.000328	4670.131946	20786.868613	3323.344924	11213.133344
5.035500	-0.003449	-0.001247	-0.007180	0.003726	4634.976943	20601.535543	3314.809407	11136.163786
5.535000	-0.003251	-0.001414	-0.002248	-0.001128	4654.869626	20793.222913	3323.777385	11228.404888
6.035500	-0.000227	0.000710	-0.004662	0.000592	4660.039676	20809.839030	3319.963434	11195.593629
6.535500	0.004482	0.000213	0.000141	-0.000418	4682.911343	20830.974808	3325.336092	11214.851368
7.036000	-0.000493	-0.000076	-0.001129	-0.000881	4664.845192	20838.148455	3324.586639	11223.692607
7.536500	-0.004407	-0.000328	-0.001674	-0.000722	4648.696385	20821.220032	3323.933359	11220.657473
8.037000	-0.000669	0.000605	-0.010036	-0.000475	4662.528380	20849.479598	3316.029640	11215.935866
8.537000	0.001778	0.000453	-0.013685	0.000230	4669.472047	20814.161522	3312.092317	11202.504984
9.034500	0.001703	0.000788	-0.001872	0.002073	4661.827176	20752.184398	3321.167055	11167.451338
9.534500	0.000000	0.000341	0.000568	0.000000	4663.299300	20819.038095	3325.344802	11206.879040
10.038000	-0.002707	-0.000150	0.003312	-0.000684	4655.268055	20826.975829	3328.546804	11219.933219
10.537500	-0.001220	-0.000161	0.000000	0.000174	4657.762836	20791.231004	3324.655236	11203.568485
11.035500	-0.003648	-0.000417	-0.001304	-0.000967	4652.660771	20827.613864	3324.503841	11225.329413
11.536000	0.001548	0.000000	0.010943	-0.001410	4675.115233	20863.107686	3336.460060	11233.807428
12.035500	-0.000218	0.000637	-0.013747	-0.000201	4663.231463	20839.522452	3312.424181	11210.716125
12.537000	0.001407	-0.000412	-0.005400	-0.000707	4671.731643	20817.111518	3320.478693	11220.357505
13.036500	-0.001866	-0.000801	-0.007204	-0.000719	4658.739493	20801.606805	3318.835691	11220.588375
13.540500	0.000318	0.000170	0.005796	-0.000336	4665.902039	20825.793087	3330.554119	11213.277099
14.037500	-0.002215	0.000135	0.002900	0.003116	4642.209303	20682.754865	3324.615937	11147.692395
14.540000	-0.001359	0.000113	0.001339	0.002116	4649.522099	20722.728742	3324.095272	11166.635670
15.035000	-0.001374	-0.000557	-0.009384	0.001729	4650.996201	20711.182816	3314.622104	11173.994268
15.535500	-0.001787	0.000045	-0.006882	0.000093	4655.831361	20802.985526	3318.387375	11205.100373
16.036000	0.001179	0.000811	0.004083	0.000901	4664.407038	20801.271848	3327.784355	11189.722100
16.537500	-0.000903	-0.000766	-0.003439	0.000399	4658.128113	20757.118155	3321.265999	11199.282147
17.036500	0.000776	-0.000232	-0.008969	0.002281	4657.317617	20701.882273	3314.497235	11163.506715
17.537000	-0.001586	-0.001231	0.000228	0.000172	4656.318281	20747.372535	3324.868687	11203.609667
18.037000	-0.003392	-0.000389	-0.006892	0.000937	4646.155506	20750.514116	3317.606748	11189.036355
18.537000	-0.001046	0.000176	-0.002908	0.001830	4651.888023	20737.065270	3320.437965	11172.064262
19.034500	-0.002968	-0.000292	-0.002585	0.000721	4648.678351	20763.364715	3321.756093	11193.143805
19.535000	-0.001182	-0.000846	-0.007095	0.001120	4654.162492	20724.256786	3317.255053	11185.553649
20.035500	-0.002040	0.000951	-0.007350	0.001810	4648.043848	20769.677047	3316.394262	11172.441652
20.535500	0.000950	-0.000077	-0.000971	0.001930	4659.403493	20722.594506	3322.129735	11170.166203
21.036000	-0.002570	0.000849	-0.005912	0.001654	4646.570043	20771.919922	3317.847173	11175.415425
21.536000	0.001228	0.000371	-0.016295	0.002069	4659.954842	20735.237554	3308.108190	11167.527202
22.035500	-0.002014	-0.000075	-0.007900	0.001218	4650.486108	20751.886795	3316.433251	11183.700049
22.536500	-0.001887	0.000105	-0.005443	0.000953	4652.034272	20770.150634	3318.917060	11188.738075
23.037000	-0.000608	0.000724	0.001814	0.002419	4651.293837	20735.402112	3324.255153	11160.906697
23.537500	-0.000137	-0.000059	0.010286	0.001957	4654.985143	20722.225894	3332.630410	11169.660279
24.037500	-0.001659	-0.000322	0.002572	0.000432	4654.996062	20773.998184	3326.809436	11198.644229
24.535500	-0.004053	0.001039	-0.002560	0.002133	4638.851702	20760.010675	3320.479899	11166.321419
25.035500	-0.001117	0.000008	0.004273	0.001442	4653.145913	20746.104703	3327.455572	11179.445086
25.536000	-0.002032	-0.000478	-0.005701	0.000734	4652.326128	20755.204928	3318.881445	11192.902105
26.036000	0.000268	-0.000200	0.008405	0.001416	4658.738653	20738.616991	3331.363373	11179.938110
26.536500	-0.001350	-0.000707	0.001805	0.000740	4655.003572	20745.559118	3325.807990	11192.790267
27.036500	-0.000256	-0.000158	-0.012343	0.001095	4657.930479	20753.495003	3312.521250	11186.028381
27.537000	-0.001914	0.000821	0.003121	0.000545	4653.537919	20816.330916	3327.217178	11196.492349
28.034500	-0.000632	0.000331	0.001956	0.000584	4658.465375	20794.582554	3326.093274	11195.748635
28.537500	-0.000298	0.000323	0.001592	0.000313	4660.866478	20805.375857	3326.006345	11200.909841
29.035000	-0.004327	0.000276	-0.004246	0.006100	4622.293843	20566.959581	3315.317386	11091.421560
29.535000	0.000289	-0.001694	0.006909	-0.000782	4667.567153	20767.510143	3332.026792	11221.799123
30.035500	-0.001779	-0.000144	-0.001404	-0.000644	4658.790829	20825.577827	3324.111573	11219.169082
30.535500	-0.002751	0.000347	-0.006822	-0.000068	4652.655139	20822.072211	3318.590240	11208.182975
31.036000	0.000321	0.000117	-0.005289	0.003546	4650.510812	20664.453616	3316.690356	11139.567558
31.541000	-0.000928	0.000423	-0.005332	0.000547	4657.441039	20799.903509	3319.391523	11196.466541
32.036500	-0.000195	0.000024	-0.009663	-0.000558	4664.743065	20828.931849	3316.444302	11217.520270
32.536500	0.003092	0.000220	0.003127	0.000835	4672.306017	20779.689124	3326.951811	11190.972495
33.037500	-0.003424	0.000056	-0.003697	0.006493	4624.274874	20542.093716	3315.458934	11084.035412
33.537500	0.001639	0.001439	-0.009086	0.000467	4667.966719	20844.997619	3316.036784	11197.973820
34.035000	0.000614	-0.000274	-0.004073	0.000693	4662.982444	20765.221637	3320.412575	11193.675720
34.535500	0.002351	-0.000143	-0.009261	0.001810	4665.453114	20724.789590	3314.659372	11172.448511
35.036000	0.001012	0.000532	-0.010694	0.003203	4654.601486	20695.417651	3312.107947	11146.048639
35.535500	-0.000119	-0.000091	0.005877	0.001503	4656.854907	20739.509032	3328.900754	11178.276123
36.036000	-0.001384	-0.001017	0.017099	0.001311	4652.607410	20709.465988	3339.756583	11181.923879
36.536500	-0.005183	-0.000567	-0.006256	0.001190	4638.116850	20732.825305	3317.956343	11184.218881
37.037000	-0.001726	0.000706	-0.002687	0.003334	4643.278007	20697.193622	3319.260939	11143.578239
37.537000	-0.001946	-0.001466	0.005306	0.001102	4651.212758	20699.659979	3328.742301	11185.903849
38.035000	-0.001540	0.001143	0.008917	0.002270	4648.201856	20758.666836	3331.040150	11163.719446
38.535000	-0.001438	-0.000536	-0.001649	0.002100	4649.273772	20696.847239	3321.347816	11166.939304
39.035500	-0.000414	0.000251	0.009339	0.002554	4651.525859	20710.475730	3331.170510	11158.343225
39.535500	-0.000318	0.000711	-0.006545	0.001862	4654.646942	20757.691701	3317.080523	11171.466922
40.036000	0.002888	0.001798	0.005267	0.002918	4663.180177	20758.953654	3327.005380	11151.446970
40.536000	-0.001071	-0.000809	-0.006184	0.001402	4653.486386	20714.248243	3317.829598	11180.199691
41.036500	-0.002752	-0.001544	0.008672	0.001217	4647.577284	20691.779685	3331.803426	11183.721319
41.536000	0.000115	0.000385	0.005001	0.001320	4658.508953	20766.570567	3328.251984	11181.760663
42.037000	-0.001651	-0.000092	0.003876	0.001780	4649.696462	20728.103402	3326.768415	11173.013038
42.537500	-0.001263	-0.001016	0.007650	0.001021	4654.232751	20721.382761	3331.023693	11187.441870
43.037500	-0.000657	0.000074	0.002821	0.001504	4654.718535	20746.216655	3326.042339	11178.254737
43.535500	0.000395	0.000266	0.003749	0.001301	4659.698511	20762.447625	3327.097491	11182.120036
44.035500	-0.000120	-0.000092	-0.001885	-0.002273	4671.889800	20894.949498	3325.178000	11250.325213
44.536000	-0.001597	-0.001266	0.001750	-0.000706	4659.757801	20781.964226	3327.105306	11220.342619
45.036000	-0.002361	0.000446	0.004142	0.003748	4639.154872	20669.671446	3325.183268	11135.749452
45.536000	0.003085	-0.000656	-0.012898	-0.000717	4678.497736	20807.473894	3313.655671	11220.556038
46.037000	0.002335	0.000024	-0.001997	-0.000225	4673.518895	20815.246906	3323.173922	11211.177171
46.537000	-0.000300	-0.001249	0.000841	-0.001059	4666.324086	20797.182121	3326.585915	11227.094607
47.034000	-0.003698	-0.000714	-0.003529	0.004506	4630.953563	20591.507133	3317.419290	11121.429243
47.537500	0.000443	-0.001552	0.002071	0.000919	4661.406512	20703.591135	3325.888533	11189.380117
48.035000	-0.001991	0.001035	0.000699	0.002407	4645.883612	20748.611344	3323.232896	11161.126164
48.535000	-0.000902	-0.000026	0.004342	-0.000601	4662.103418	20828.649461	3329.435620	11218.347670
49.035500	0.000235	0.001581	0.004018	0.003267	4651.276346	20735.778726	3325.515580	11144.846766
49.536000	-0.000491	0.000784	0.006866	0.000092	4660.981105	20833.470993	3331.160148	11205.122033
50.035500	0.004846	0.001838	0.003488	-0.001635	4689.286812	20948.470458	3329.604814	11238.107393
50.536500	-0.001327	-0.002876	0.005431	-0.002099	4666.374235	20773.042458	3331.874346	11246.979617
51.036500	-0.013852	-0.015353	-0.005730	0.134409	4163.393674	15593.460460	3213.522812	9003.425344
51.536500	-0.025108	-0.012483	-0.014334	0.090774	4258.493432	17023.989683	3238.073124	9645.487500
52.037500	-0.010843	-0.012315	-0.005007	-0.051480	4832.842526	22491.227531	3370.392945	12248.661784
52.537500	-0.015320	-0.012747	0.002551	-0.085404	4966.001664	24058.894543	3415.405404	13005.859921
53.035000	-0.028674	-0.013962	-0.002833	-0.085339	4904.203252	23996.738597	3409.245421	13004.361455
53.535500	-0.025719	-0.011109	-0.014982	-0.118809	5076.500554	25833.840558	3433.799057	13811.565354
54.036000	-0.009080	-0.008027	-0.000327	-0.145614	5301.824094	27465.082153	3485.138040	14504.424911
54.536000	-0.014692	-0.009431	-0.003055	-0.118935	5132.213080	25929.158241	3448.222181	13814.714044
55.036500	-0.010943	-0.008744	-0.003743	-0.101202	5062.587233	25044.223606	3426.338540	13379.178139
55.536000	-0.008606	-0.005277	-0.001377	-0.090702	5022.966645	24689.092282	3416.966727	13129.541717
56.037000	-0.005317	-0.004177	-0.002286	-0.078265	4979.443233	24128.619885	3401.967405	12841.577732
56.537000	-0.010870	-0.006751	-0.013401	-0.049588	4824.471795	22657.258033	3359.881150	12208.144833
57.034000	-0.017959	-0.008621	0.005107	-0.042876	4765.368516	22271.385918	3371.957349	12065.837594
57.535000	-0.007174	-0.005571	-0.002136	-0.071282	4938.239845	23723.728762	3394.462494	12683.447810
58.037500	-0.013923	-0.004700	0.000866	-0.062832	4869.341785	23364.160541	3388.564282	12495.502122
58.535500	-0.021939	-0.005850	0.000322	-0.045008	4757.594787	22490.911141	3369.212459	12110.807590
59.035500	-0.021924	-0.006445	-0.005788	-0.021062	4659.870156	21416.590843	3339.260861	11618.232467
59.536000	-0.016876	-0.007952	-0.003766	-0.017330	4665.104833	21194.991644	3337.618461	11543.879593
60.036000	-0.022052	-0.009655	-0.010273	-0.021155	4659.730874	21284.437404	3335.055537	11620.090909
60.536500	-0.019191	-0.009008	-0.014687	-0.018573	4660.842070	21202.904237	3328.443797	11568.587730
61.037000	-0.023029	-0.009302	-0.012952	-0.013552	4625.993152	20980.718785	3325.375305	11469.276929
61.537500	-0.022665	-0.007578	-0.010311	-0.017635	4643.396785	21223.569797	3331.679160	11549.938763
62.037000	-0.012437	-0.003444	-0.002339	-0.023799	4709.116746	21662.410127	3345.258242	11673.180388
62.538000	-0.013475	-0.002348	0.002584	-0.030437	4732.141282	21998.806623	3356.695449	11807.850819
63.035500	-0.010775	-0.002315	-0.009452	-0.028571	4735.596415	21918.553373	3342.978347	11769.784113
63.560000	-0.010318	-0.002518	-0.002401	-0.034907	4763.988637	22188.494722	3356.179432	11899.720396
64.036000	-0.011072	-0.002606	-0.006408	-0.037138	4770.216325	22283.720870	3354.403832	11945.910641
64.536500	-0.008568	-0.002765	-0.006430	-0.041857	4801.000607	22487.952501	3359.115016	12044.441242
65.037000	-0.009906	-0.002557	0.002418	-0.041629	4794.280514	22487.032445	3367.891182	12039.646000
65.536500	-0.010120	-0.002851	0.007505	-0.044811	4807.034762	22617.474403	3376.477100	12106.650809
66.037500	-0.005595	-0.001013	0.009620	-0.044979	4827.377161	22708.612601	3378.875787	12110.203934
66.537500	-0.000835	-0.000097	-0.004054	-0.044737	4847.164999	22739.271378	3364.444847	12105.077502
67.035000	-0.005469	-0.001246	-0.004833	-0.045625	4830.743013	22727.419517	3364.556496	12123.868689
67.535000	-0.005929	-0.001574	-0.008134	-0.047426	4836.606857	22794.666729	3363.028447	12162.077463
68.035500	-0.001937	-0.002046	-0.005045	-0.047862	4856.095181	22793.003716	3366.628947	12171.358721
68.536000	-0.005065	-0.001201	-0.001460	-0.047863	4842.308839	22831.704855	3370.320596	12171.366122
69.036000	-0.009335	-0.002647	0.004223	-0.048592	4826.823143	22798.924016	3376.999727	12186.901532
69.536500	-0.005798	-0.002668	-0.000098	-0.049286	4845.345186	22829.703882	3373.210563	12201.714375
70.036500	-0.004447	-0.001985	-0.000653	-0.049108	4850.512125	22852.825343	3372.446995	12197.903464
70.537000	-0.004570	-0.000569	-0.003367	-0.047116	4841.202486	22826.436598	3367.585241	12155.484964
71.037500	-0.008764	-0.001795	0.006337	-0.045039	4813.874720	22675.739971	3375.491284	12111.456880
71.537500	-0.005086	-0.001209	-0.002123	-0.046907	4838.026411	22787.590970	3368.649792	12151.049303
72.034500	-0.006734	-0.000548	-0.002729	-0.046169	4827.596485	22784.070156	3367.267578	12135.384909
72.535500	-0.003849	-0.000794	-0.006442	-0.046164	4840.194454	22772.631420	3363.465797	12135.291417
73.035500	-0.004853	-0.001142	-0.002036	-0.044384	4828.013789	22675.635417	3366.146979	12097.620424
73.536000	-0.006676	-0.001494	-0.001221	-0.045767	4826.098470	22722.568341	3368.405236	12126.869263
74.036500	-0.004143	0.000485	-0.000502	-0.044682	4832.417070	22763.362500	3368.028444	12103.926977
74.536500	-0.002801	0.000351	-0.002866	-0.044473	4837.370810	22747.694217	3365.389263	12099.504314
75.036500	-0.003955	-0.000508	-0.007981	-0.042826	4825.141675	22633.704714	3358.527563	12064.792835
75.537000	-0.002058	-0.000514	0.003638	-0.044725	4841.735207	22719.745731	3372.351424	12104.822719
76.040000	-0.001862	0.000069	-0.000801	-0.044635	4842.201821	22742.262024	3367.672618	12102.936483
76.535500	-0.002288	-0.000449	-0.010468	-0.044400	4839.302928	22707.923533	3357.609810	12097.968639
77.038000	-0.002097	-0.000234	-0.003448	-0.040630	4823.666685	22546.699823	3360.886417	12018.704950
77.535500	-0.002630	0.000675	-0.003435	-0.042192	4828.152083	22658.624266	3362.484715	12051.469192
78.035500	-0.001676	-0.000252	-0.007500	-0.042967	4835.701744	22651.693418	3359.153937	12067.748767
78.536500	-0.002388	-0.000076	-0.009457	-0.042160	4829.067177	22623.080364	3356.376736	12050.791414
79.036500	-0.003921	-0.000187	0.003458	-0.041255	4818.461158	22577.072825	3368.576014	12031.795439
79.537000	-0.001151	0.002051	-0.003854	-0.039987	4824.985841	22621.018179	3359.826221	12005.260503
80.036500	-0.004001	0.000374	-0.010755	-0.040567	4815.135574	22571.336401	3353.490142	12017.393943
80.540000	-0.005345	-0.000045	0.002401	-0.040435	4808.753485	22546.433988	3366.647435	12014.627280
81.034500	-0.002520	0.000352	-0.011488	-0.039949	4818.874312	22542.463574	3352.148122	12004.477867
81.535000	-0.001678	0.001329	-0.002921	-0.038548	4816.449197	22523.281912	3359.316005	11975.230411
82.035000	-0.002830	0.000995	0.006193	-0.038997	4813.409144	22528.509225	3369.068655	11984.595683
82.536000	-0.006904	0.000066	0.004732	-0.039581	4798.371632	22512.938978	3368.165414	11996.792056
83.035500	-0.002712	0.000882	-0.002749	-0.037019	4805.378344	22434.413286	3357.949558	11943.452576
83.536000	-0.003367	0.001989	0.004146	-0.037192	4803.303979	22491.947580	3365.114497	11947.038544
84.036000	-0.004602	-0.000427	-0.004555	-0.038639	4804.218036	22448.361903	3357.762703	11977.140140
84.537000	-0.002037	0.001250	-0.000236	-0.036740	4807.086246	22438.383444	3360.201808	11937.661151
85.037000	-0.004758	0.000501	0.005489	-0.034409	4785.432695	22300.572810	3363.645508	11889.433002
85.537000	-0.001565	0.000540	0.002910	-0.035661	4804.470167	22358.232075	3362.295828	11915.307665
86.037500	-0.005767	-0.000607	-0.011314	-0.036452	4789.846402	22342.329727	3348.863700	11931.694327
86.535500	-0.003311	0.000438	-0.010045	-0.034963	4793.979913	22322.480054	3348.646566	11900.874527
87.035500	-0.004625	-0.000168	-0.003820	-0.033233	4780.992012	22218.471097	3353.093141	11865.194993
87.536000	-0.008072	-0.000617	-0.001867	-0.035012	4773.917907	22277.615724	3356.819939	11901.883404
88.036000	-0.002054	0.001111	-0.009272	-0.034292	4796.490455	22322.594349	3348.747026	11887.024384
88.536500	-0.002766	0.000331	-0.001360	-0.034484	4794.262875	22296.338539	3356.799283	11890.983419
89.036500	-0.003594	0.001003	-0.007503	-0.032959	4784.216160	22258.361277	3349.176629	11859.575750
89.537000	-0.002667	-0.000015	0.006978	-0.033752	4791.551290	22248.330248	3364.493080	11875.880987
90.040000	-0.002978	0.000805	0.009654	-0.032683	4785.658986	22237.274388	3366.135549	11853.884256
90.537500	-0.001785	0.001005	-0.000569	-0.032517	4790.040379	22238.786703	3355.620828	11850.472151
91.035000	-0.002322	0.000506	-0.003148	-0.033190	4790.625672	22246.499729	3353.718620	11864.312098
91.536500	-0.004137	0.001642	-0.003890	-0.032039	4777.994994	22245.873742	3351.838050	11840.673566
92.035500	-0.001620	0.001584	0.004624	-0.031511	4786.454808	22219.810176	3359.828252	11829.838401
92.536000	-0.003396	0.000576	0.006386	-0.031521	4778.939782	22175.539496	3361.621290	11830.040455
93.036000	-0.007271	-0.000085	-0.001704	-0.032053	4764.800812	22169.824532	3354.024561	11840.947902
93.589000	0.001773	0.001631	-0.003083	-0.031924	4802.754261	22240.249983	3352.524690	11838.303784
94.034000	-0.006259	-0.000525	-0.000515	-0.031949	4768.630709	22145.757361	3355.106618	11838.813558
94.537000	0.001189	0.001584	-0.005821	-0.030045	4792.192908	22154.847075	3347.964367	11799.850064
95.037500	-0.004999	0.000486	-0.008258	-0.030012	4765.773023	22104.863427	3345.545247	11799.171055
95.534500	-0.001852	0.001805	0.013103	-0.030043	4779.221410	22164.557740	3366.965993	11799.805574
96.035500	-0.001666	0.002461	-0.000765	-0.028994	4775.556588	22147.144559	3351.917010	11778.393641
96.535500	-0.002011	0.001670	-0.004161	-0.029610	4776.707064	22139.429575	3349.169864	11790.963702
