sample name	sample
index	1037
start time	 04-19-2021  01:57:38 PM


Wavelength (nm)	Absorbance
494.344910	0.818881
494.563924	0.818881
494.782919	0.818881
495.001897	0.041870
495.220856	0.388555
495.439797	0.216183
495.658719	0.109355
495.877624	0.031383
496.096510	0.025703
496.315378	-0.057722
496.534227	-0.143977
496.753059	-0.106109
496.971872	-0.107873
497.190667	0.001215
497.409444	0.007007
497.628203	0.009860
497.846943	0.010386
498.065665	0.012013
498.284369	0.013284
498.503055	0.014065
498.721723	0.013655
498.940372	0.012862
499.159003	0.012753
499.377616	0.013007
499.596210	0.013098
499.814787	0.013678
500.033345	0.013738
500.251885	0.012713
500.470406	0.013079
500.688910	0.012697
500.907395	0.013057
501.125862	0.013218
501.344311	0.012397
501.562742	0.013512
501.781154	0.013309
501.999548	0.013415
502.217924	0.013072
502.436282	0.012466
502.654621	0.012420
502.872942	0.012231
503.091245	0.010904
503.309530	0.011737
503.527797	0.010839
503.746045	0.011099
503.964275	0.011082
504.182487	0.012485
504.400681	0.012696
504.618856	0.012333
504.837013	0.013480
505.055152	0.014456
505.273273	0.014753
505.491376	0.014507
505.709460	0.013852
505.927526	0.013070
506.145574	0.012769
506.363604	0.012082
506.581615	0.012408
506.799608	0.011792
507.017583	0.011226
507.235540	0.010686
507.453478	0.009962
507.671399	0.010501
507.889301	0.010185
508.107185	0.009115
508.325050	0.010045
508.542898	0.010450
508.760727	0.010776
508.978538	0.010849
509.196330	0.011441
509.414105	0.012247
509.631861	0.011405
509.849599	0.012208
510.067319	0.012599
510.285021	0.011772
510.502704	0.011019
510.720369	0.009802
510.938016	0.010104
511.155645	0.008965
511.373255	0.008521
511.590848	0.008733
511.808422	0.008235
512.025977	0.008219
512.243515	0.008747
512.461034	0.009278
512.678536	0.009130
512.896018	0.008701
513.113483	0.009281
513.330930	0.009176
513.548358	0.009627
513.765768	0.008936
513.983160	0.008757
514.200533	0.008189
514.417889	0.007818
514.635226	0.007947
514.852545	0.007776
515.069845	0.007860
515.287128	0.008367
515.504392	0.008542
515.721638	0.008836
515.938866	0.008925
516.156075	0.009731
516.373267	0.009954
516.590440	0.009804
516.807594	0.010204
517.024731	0.009740
517.241850	0.009589
517.458950	0.009246
517.676032	0.009169
517.893095	0.009457
518.110141	0.009242
518.327168	0.008573
518.544177	0.009178
518.761168	0.008558
518.978141	0.008263
519.195095	0.007651
519.412031	0.007123
519.628949	0.007524
519.845849	0.007131
520.062731	0.006852
520.279594	0.006874
520.496439	0.006117
520.713266	0.006705
520.930074	0.007025
521.146865	0.007160
521.363637	0.007697
521.580391	0.007574
521.797127	0.007747
522.013844	0.007783
522.230543	0.008032
522.447224	0.008736
522.663887	0.009067
522.880532	0.009763
523.097158	0.010161
523.313766	0.009146
523.530356	0.009003
523.746928	0.008658
523.963481	0.008324
524.180017	0.008291
524.396534	0.008192
524.613032	0.008126
524.829513	0.007832
525.045975	0.007871
525.262420	0.008835
525.478845	0.008575
525.695253	0.008858
525.911643	0.009689
526.128014	0.009983
526.344367	0.010243
526.560702	0.010632
526.777018	0.010420
526.993316	0.010267
527.209597	0.010262
527.425858	0.010978
527.642102	0.010630
527.858328	0.010658
528.074535	0.011138
528.290724	0.011088
528.506894	0.010445
528.723047	0.010451
528.939181	0.010621
529.155297	0.010529
529.371395	0.010731
529.587475	0.011239
529.803536	0.010879
530.019579	0.010305
530.235604	0.010280
530.451611	0.010395
530.667600	0.010332
530.883570	0.010796
531.099522	0.010849
531.315456	0.010593
531.531372	0.010569
531.747269	0.010712
531.963148	0.010522
532.179009	0.010483
532.394852	0.010180
532.610676	0.010625
532.826482	0.010329
533.042271	0.010469
533.258040	0.010250
533.473792	0.010297
533.689525	0.010412
533.905240	0.010565
534.120937	0.010500
534.336616	0.010773
534.552277	0.010289
534.767919	0.009983
534.983543	0.010237
535.199149	0.010984
535.414736	0.010882
535.630306	0.010643
535.845857	0.010948
536.061390	0.010514
536.276904	0.010637
536.492401	0.011008
536.707879	0.011332
536.923339	0.011271
537.138781	0.011134
537.354204	0.011201
537.569610	0.011131
537.784997	0.011043
538.000366	0.011727
538.215716	0.011796
538.431049	0.012094
538.646363	0.011991
538.861659	0.011472
539.076937	0.011012
539.292196	0.011110
539.507438	0.011234
539.722661	0.011212
539.937866	0.011454
540.153052	0.011442
540.368221	0.010917
540.583371	0.011068
540.798503	0.011359
541.013617	0.011580
541.228712	0.011512
541.443789	0.011375
541.658848	0.011521
541.873889	0.011254
542.088912	0.010966
542.303916	0.011026
542.518902	0.010790
542.733870	0.010701
542.948820	0.010732
543.163752	0.010480
543.378665	0.010669
543.593560	0.010717
543.808437	0.010813
544.023295	0.011232
544.238136	0.011734
544.452958	0.012117
544.667762	0.012391
544.882548	0.012258
545.097315	0.012288
545.312064	0.012148
545.526795	0.011957
545.741508	0.012033
545.956203	0.011724
546.170879	0.011320
546.385537	0.011449
546.600177	0.011340
546.814799	0.011459
547.029402	0.011994
547.243988	0.012525
547.458555	0.012618
547.673103	0.012609
547.887634	0.012851
548.102146	0.013196
548.316640	0.012740
548.531116	0.012614
548.745574	0.012707
548.960013	0.012691
549.174435	0.012298
549.388838	0.012381
549.603222	0.012809
549.817589	0.012686
550.031937	0.012356
550.246267	0.012716
550.460579	0.012506
550.674873	0.012333
550.889148	0.012242
551.103405	0.012473
551.317644	0.012452
551.531865	0.011495
551.746068	0.011712
551.960252	0.011962
552.174418	0.011957
552.388566	0.012372
552.602696	0.012220
552.816807	0.012141
553.030900	0.011726
553.244975	0.011772
553.459032	0.012216
553.673070	0.012103
553.887091	0.012014
554.101093	0.011924
554.315077	0.011918
554.529042	0.012084
554.742990	0.012287
554.956919	0.012287
555.170830	0.012316
555.384722	0.012149
555.598597	0.011939
555.812453	0.011610
556.026291	0.011703
556.240111	0.011954
556.453913	0.012233
556.667696	0.011810
556.881461	0.011894
557.095208	0.011627
557.308937	0.011448
557.522647	0.011736
557.736339	0.011937
557.950013	0.011692
558.163669	0.011341
558.377307	0.010914
558.590926	0.011611
558.804527	0.011812
559.018110	0.011895
559.231675	0.012394
559.445221	0.012178
559.658749	0.012198
559.872259	0.012160
560.085751	0.012334
560.299225	0.012452
560.512680	0.011918
560.726117	0.011442
560.939536	0.011542
561.152937	0.011305
561.366319	0.011399
561.579683	0.011741
561.793029	0.011840
562.006357	0.011791
562.219667	0.011895
562.432958	0.011683
562.646231	0.011956
562.859486	0.011706
563.072723	0.011394
563.285941	0.011368
563.499141	0.010986
563.712323	0.011156
563.925487	0.010891
564.138632	0.010617
564.351760	0.010690
564.564869	0.011067
564.777960	0.011289
564.991032	0.011282
565.204087	0.011018
565.417123	0.010793
565.630141	0.010498
565.843140	0.010548
566.056122	0.010583
566.269085	0.010562
566.482030	0.010170
566.694957	0.010200
566.907866	0.010299
567.120756	0.010445
567.333628	0.010876
567.546482	0.010857
567.759318	0.010868
567.972135	0.010822
568.184935	0.010727
568.397716	0.010516
568.610478	0.010340
568.823223	0.010254
569.035949	0.009942
569.248657	0.009686
569.461347	0.009366
569.674019	0.009317
569.886672	0.009532
570.099308	0.009874
570.311925	0.009772
570.524523	0.009860
570.737104	0.009882
570.949666	0.010151
571.162210	0.010093
571.374736	0.010317
571.587244	0.010103
571.799733	0.009904
572.012205	0.009405
572.224658	0.009795
572.437092	0.009751
572.649509	0.010056
572.861907	0.010108
573.074287	0.010270
573.286649	0.010508
573.498993	0.010679
573.711318	0.011015
573.923625	0.011364
574.135914	0.011356
574.348185	0.011319
574.560438	0.011050
574.772672	0.010849
574.984888	0.010804
575.197086	0.010554
575.409266	0.010791
575.621427	0.010688
575.833570	0.010885
576.045695	0.010942
576.257802	0.010865
576.469890	0.011175
576.681961	0.011306
576.894013	0.011561
577.106046	0.011777
577.318062	0.011604
577.530059	0.011320
577.742039	0.010934
577.954000	0.010840
578.165942	0.010986
578.377867	0.010656
578.589773	0.010454
578.801661	0.009930
579.013531	0.010066
579.225382	0.009827
579.437216	0.009919
579.649031	0.010018
579.860828	0.009994
580.072606	0.010072
580.284367	0.010053
580.496109	0.010140
580.707833	0.010111
580.919539	0.009553
581.131227	0.009687
581.342896	0.009392
581.554547	0.009534
581.766180	0.009506
581.977795	0.009258
582.189391	0.009240
582.400969	0.009086
582.612529	0.009668
582.824071	0.010043
583.035595	0.010132
583.247100	0.010502
583.458587	0.010565
583.670056	0.010476
583.881506	0.010300
584.092939	0.010718
584.304353	0.010900
584.515749	0.010625
584.727127	0.010432
584.938486	0.010316
585.149828	0.010218
585.361151	0.010057
585.572456	0.010019
585.783742	0.010317
585.995011	0.010255
586.206261	0.010368
586.417493	0.010272
586.628706	0.010561
586.839902	0.010816
587.051079	0.010977
587.262238	0.011082
587.473379	0.011208
587.684502	0.011219
587.895606	0.011024
588.106692	0.011090
588.317760	0.010969
588.528810	0.010816
588.739841	0.010846
588.950855	0.010595
589.161850	0.010779
589.372827	0.011142
589.583785	0.011125
589.794726	0.011365
590.005648	0.011469
590.216552	0.011727
590.427437	0.011729
590.638305	0.011623
590.849154	0.011910
591.059985	0.011694
591.270798	0.011592
591.481592	0.011528
591.692369	0.011393
591.903127	0.011282
592.113867	0.011311
592.324588	0.011655
592.535292	0.011705
592.745977	0.011827
592.956644	0.012013
593.167293	0.012246
593.377923	0.012262
593.588536	0.012314
593.799130	0.012575
594.009706	0.012521
594.220263	0.012170
594.430803	0.012212
594.641324	0.012142
594.851827	0.012160
595.062312	0.011786
595.272778	0.012119
595.483227	0.012182
595.693657	0.012228
595.904069	0.012378
596.114462	0.012584
596.324838	0.012506
596.535195	0.012255
596.745534	0.012338
596.955855	0.012376
597.166157	0.012363
597.376441	0.012311
597.586707	0.011942
597.796955	0.011752
598.007185	0.011742
598.217396	0.012081
598.427589	0.012147
598.637764	0.012115
598.847921	0.012386
599.058060	0.012455
599.268180	0.012518
599.478282	0.012917
599.688366	0.012970
599.898431	0.013122
600.108479	0.013086
600.318508	0.013401
600.528519	0.013393
600.738511	0.013351
600.948486	0.013343
601.158442	0.013603
601.368380	0.013115
601.578300	0.013491
601.788202	0.013547
601.998085	0.013421
602.207950	0.013493
602.417797	0.013398
602.627626	0.013380
602.837436	0.013293
603.047228	0.013327
603.257002	0.013680
603.466758	0.013498
603.676496	0.013424
603.886215	0.013692
604.095916	0.013735
604.305599	0.014028
604.515264	0.014026
604.724910	0.014237
604.934538	0.014063
605.144148	0.014155
605.353740	0.014128
605.563314	0.014086
605.772869	0.013709
605.982406	0.013753
606.191925	0.013669
606.401425	0.013819
606.610908	0.013545
606.820372	0.013437
607.029818	0.013276
607.239246	0.013363
607.448655	0.013388
607.658047	0.013517
607.867420	0.013199
608.076775	0.013116
608.286111	0.012814
608.495430	0.012988
608.704730	0.013089
608.914012	0.013218
609.123275	0.013225
609.332521	0.013175
609.541748	0.013246
609.750957	0.013103
609.960148	0.013090
610.169321	0.013193
610.378475	0.013305
610.587611	0.013045
610.796729	0.013012
611.005829	0.012905
611.214910	0.012966
611.423974	0.012965
611.633019	0.013243
611.842045	0.013385
612.051054	0.013324
612.260044	0.013019
612.469017	0.013167
612.677970	0.013324
612.886906	0.013348
613.095824	0.013268
613.304723	0.013165
613.513604	0.013406
613.722467	0.013285
613.931311	0.013483
614.140138	0.013409
614.348946	0.013493
614.557736	0.013333
614.766507	0.013427
614.975261	0.013467
615.183996	0.013626
615.392713	0.013601
615.601412	0.013656
615.810092	0.013749
616.018754	0.013880
616.227399	0.014113
616.436024	0.014141
616.644632	0.014205
616.853222	0.014394
617.061793	0.014373
617.270346	0.014275
617.478880	0.014448
617.687397	0.014601
617.895895	0.014912
618.104375	0.014806
618.312837	0.014984
618.521281	0.015029
618.729706	0.014752
618.938113	0.014724
619.146502	0.014676
619.354873	0.014624
619.563226	0.014367
619.771560	0.014168
619.979876	0.014122
620.188174	0.013822
620.396453	0.013810
620.604715	0.014066
620.812958	0.014034
621.021183	0.013900
621.229390	0.014124
621.437578	0.013991
621.645748	0.013926
621.853900	0.013941
622.062034	0.014151
622.270150	0.014116
622.478247	0.014205
622.686326	0.014399
622.894387	0.014414
623.102430	0.014245
623.310454	0.014156
623.518461	0.014369
623.726449	0.014509
623.934418	0.014117
624.142370	0.014174
624.350303	0.014138
624.558218	0.014141
624.766115	0.014367
624.973994	0.014322
625.181855	0.014497
625.389697	0.014346
625.597521	0.014243
625.805327	0.014592
626.013114	0.014603
626.220883	0.014687
626.428634	0.014467
626.636367	0.014518
626.844082	0.014470
627.051778	0.014730
627.259457	0.014792
627.467117	0.014790
627.674758	0.014866
627.882382	0.014937
628.089987	0.014987
628.297574	0.015361
628.505143	0.015238
628.712694	0.015398
628.920226	0.015472
629.127740	0.015882
629.335236	0.015976
629.542714	0.016200
629.750174	0.016160
629.957615	0.015979
630.165038	0.015956
630.372443	0.016035
630.579829	0.015922
630.787198	0.015827
630.994548	0.015518
631.201880	0.015441
631.409194	0.015365
631.616489	0.015262
631.823766	0.015274
632.031025	0.015142
632.238266	0.015197
632.445489	0.015164
632.652693	0.015235
632.859879	0.015328
633.067047	0.015216
633.274197	0.015161
633.481329	0.015175
633.688442	0.015264
633.895537	0.015318
634.102614	0.015407
634.309672	0.015459
634.516713	0.015469
634.723735	0.015620
634.930739	0.015940
635.137724	0.016124
635.344692	0.016457
635.551641	0.016592
635.758572	0.016684
635.965485	0.016910
636.172379	0.017131
636.379256	0.017019
636.586114	0.016953
636.792954	0.017055
636.999775	0.016968
637.206579	0.016790
637.413364	0.016720
637.620131	0.016972
637.826880	0.016839
638.033610	0.016719
638.240323	0.016968
638.447017	0.016972
638.653692	0.016988
638.860350	0.017000
639.066990	0.017112
639.273611	0.017117
639.480214	0.017170
639.686798	0.017069
639.893365	0.017161
640.099913	0.017031
640.306443	0.017137
640.512955	0.017030
640.719449	0.016992
640.925924	0.016996
641.132381	0.017244
641.338820	0.016869
641.545241	0.016925
641.751644	0.016904
641.958028	0.016851
642.164394	0.016766
642.370742	0.016856
642.577071	0.016978
642.783383	0.017081
642.989676	0.017000
643.195951	0.017193
643.402207	0.017110
643.608446	0.017330
643.814666	0.017243
644.020868	0.017239
644.227052	0.017284
644.433218	0.017344
644.639365	0.017206
644.845494	0.017054
645.051605	0.017016
645.257698	0.017197
645.463772	0.017010
645.669828	0.017295
645.875866	0.017330
646.081886	0.017139
646.287888	0.017271
646.493871	0.017410
646.699836	0.017632
646.905783	0.017553
647.111712	0.017609
647.317622	0.017724
647.523514	0.017751
647.729388	0.018000
647.935244	0.018291
648.141082	0.018185
648.346901	0.018341
648.552702	0.018100
648.758485	0.018268
648.964250	0.018434
649.169996	0.018545
649.375724	0.018684
649.581434	0.018569
649.787126	0.018522
649.992800	0.018536
650.198455	0.018440
650.404092	0.018760
650.609711	0.018701
650.815311	0.018600
651.020894	0.018501
651.226458	0.018426
651.432004	0.018407
651.637532	0.018324
651.843041	0.018370
652.048532	0.018343
652.254006	0.018284
652.459460	0.018299
652.664897	0.018290
652.870315	0.018477
653.075716	0.018286
653.281097	0.018267
653.486461	0.018492
653.691807	0.018513
653.897134	0.018701
654.102443	0.018664
654.307734	0.018941
654.513006	0.019011
654.718261	0.018966
654.923497	0.019204
655.128715	0.019266
655.333915	0.019306
655.539096	0.019391
655.744259	0.019310
655.949404	0.019466
656.154531	0.019643
656.359640	0.019547
656.564730	0.019581
656.769802	0.019562
656.974856	0.019522
657.179892	0.019426
657.384909	0.019529
657.589908	0.019440
657.794889	0.019620
657.999852	0.019483
658.204797	0.019624
658.409723	0.019597
658.614631	0.019875
658.819521	0.020097
659.024393	0.020188
659.229246	0.020127
659.434081	0.020394
659.638898	0.020354
659.843697	0.020331
660.048478	0.020489
660.253240	0.020568
660.457984	0.020424
660.662710	0.020249
660.867417	0.020155
661.072107	0.020239
661.276778	0.020179
661.481431	0.020258
661.686066	0.020192
661.890682	0.020185
662.095281	0.020210
662.299861	0.020177
662.504422	0.020449
662.708966	0.020485
662.913491	0.020345
663.117999	0.020366
663.322488	0.020063
663.526958	0.020181
663.731411	0.020178
663.935845	0.020210
664.140261	0.020162
664.344659	0.019951
664.549038	0.019939
664.753400	0.019867
664.957743	0.019793
665.162068	0.019907
665.366375	0.020059
665.570663	0.020141
665.774933	0.020111
665.979185	0.020212
666.183419	0.020282
666.387635	0.020431
666.591832	0.020638
666.796011	0.020750
667.000172	0.020926
667.204315	0.020811
667.408439	0.020701
667.612545	0.020821
667.816634	0.020895
668.020703	0.020937
668.224755	0.020993
668.428788	0.020995
668.632803	0.020940
668.836800	0.020878
669.040779	0.020895
669.244739	0.021059
669.448681	0.021080
669.652605	0.021204
669.856511	0.021213
670.060399	0.021300
670.264268	0.021252
670.468119	0.021477
670.671952	0.021407
670.875767	0.021276
671.079563	0.021274
671.283341	0.021314
671.487101	0.021234
671.690843	0.021290
671.894567	0.021207
672.098272	0.021450
672.301959	0.021545
672.505628	0.021644
672.709278	0.021874
672.912911	0.021693
673.116525	0.021784
673.320121	0.021648
673.523699	0.021697
673.727258	0.021820
673.930799	0.021812
674.134322	0.021708
674.337827	0.021859
674.541314	0.021871
674.744782	0.022105
674.948232	0.022029
675.151664	0.022271
675.355078	0.022469
675.558474	0.022424
675.761851	0.022515
675.965210	0.022621
676.168551	0.022830
676.371873	0.022925
676.575178	0.022947
676.778464	0.023131
676.981732	0.023198
677.184981	0.023128
677.388213	0.023180
677.591426	0.023169
677.794621	0.023155
677.997798	0.023008
678.200956	0.022893
678.404097	0.022977
678.607219	0.022755
678.810323	0.022566
679.013408	0.022435
679.216476	0.022611
679.419525	0.022584
679.622556	0.022579
679.825569	0.022543
680.028563	0.022643
680.231540	0.022637
680.434498	0.022753
680.637438	0.022891
680.840359	0.023199
681.043263	0.023174
681.246148	0.023131
681.449015	0.023038
681.651864	0.023030
681.854694	0.022979
682.057506	0.022792
682.260301	0.022840
682.463076	0.023008
682.665834	0.022961
682.868573	0.022901
683.071295	0.023026
683.273998	0.023227
683.476682	0.023109
683.679349	0.023195
683.881997	0.023371
684.084627	0.023349
684.287239	0.023109
684.489833	0.022940
684.692408	0.022896
684.894965	0.022783
685.097504	0.022683
685.300025	0.022868
685.502527	0.022945
685.705012	0.023075
685.907478	0.023101
686.109925	0.023254
686.312355	0.023350
686.514766	0.023556
686.717159	0.023759
686.919534	0.023735
687.121891	0.023732
687.324230	0.023863
687.526550	0.023879
687.728852	0.023946
687.931136	0.023920
688.133401	0.024042
688.335649	0.024068
688.537878	0.024020
688.740089	0.024230
688.942281	0.024198
689.144456	0.024008
689.346612	0.023897
689.548750	0.023931
689.750870	0.024043
689.952971	0.023968
690.155055	0.023956
690.357120	0.023971
690.559167	0.023708
690.761195	0.024057
690.963206	0.024174
691.165198	0.024343
691.367172	0.024283
691.569128	0.024337
691.771065	0.024447
691.972984	0.024479
692.174885	0.024562
692.376768	0.024818
692.578633	0.024698
692.780479	0.024878
692.982308	0.024798
693.184118	0.024953
693.385909	0.024918
693.587683	0.025045
693.789438	0.025046
693.991175	0.024962
694.192894	0.025101
694.394595	0.024980
694.596277	0.024933
694.797941	0.024907
694.999587	0.024850
695.201215	0.024919
695.402824	0.024794
695.604416	0.024783
695.805989	0.024744
696.007543	0.024808
696.209080	0.024954
696.410598	0.024777
696.612099	0.024882
696.813580	0.024851
697.015044	0.024878
697.216490	0.024930
697.417917	0.024916
697.619326	0.024912
697.820717	0.024714
698.022089	0.024763
698.223444	0.024865
698.424780	0.024804
698.626098	0.024892
698.827397	0.024857
699.028679	0.024797
699.229942	0.024722
699.431187	0.024808
699.632414	0.024773
699.833622	0.024805
700.034813	0.024752
700.235985	0.024862
700.437139	0.024851
700.638274	0.025056
700.839392	0.025237
701.040491	0.025441
701.241572	0.025597
701.442635	0.025764
701.643679	0.025656
701.844706	0.025738
702.045714	0.025763
702.246704	0.025872
702.447675	0.025769
702.648629	0.025828
702.849564	0.025846
703.050481	0.025791
703.251380	0.025863
703.452260	0.026012
703.653122	0.026215
703.853966	0.026245
704.054792	0.026256
704.255600	0.026344
704.456389	0.026196
704.657160	0.026316
704.857913	0.026316
705.058648	0.026134
705.259365	0.026049
705.460063	0.025950
705.660743	0.025909
705.861405	0.025884
706.062048	0.025757
706.262674	0.025763
706.463281	0.025503
706.663870	0.025515
706.864441	0.025576
707.064993	0.025654
707.265527	0.025606
707.466043	0.025634
707.666541	0.025770
707.867021	0.025865
708.067482	0.025993
708.267925	0.026207
708.468350	0.026378
708.668757	0.026390
708.869145	0.026305
709.069516	0.026442
709.269868	0.026448
709.470201	0.026206
709.670517	0.026204
709.870814	0.026205
710.071093	0.026038
710.271354	0.025844
710.471597	0.025938
710.671821	0.026011
710.872028	0.025861
711.072216	0.025913
711.272385	0.025933
711.472537	0.025763
711.672670	0.025602
711.872785	0.025589
712.072882	0.025619
712.272961	0.025571
712.473021	0.025618
712.673063	0.025580
712.873087	0.025515
713.073093	0.025622
713.273081	0.025671
713.473050	0.025612
713.673001	0.025604
713.872934	0.025667
714.072849	0.025827
714.272745	0.025579
714.472623	0.025648
714.672483	0.025763
714.872325	0.025671
715.072148	0.025796
715.271954	0.025866
715.471741	0.025892
715.671509	0.025822
715.871260	0.025534
716.070992	0.025824
716.270707	0.025669
716.470403	0.025571
716.670080	0.025635
716.869740	0.025639
717.069381	0.025553
717.269004	0.025692
717.468609	0.025612
717.668195	0.025618
717.867764	0.025468
718.067314	0.025591
718.266846	0.025522
718.466360	0.025545
718.665855	0.025407
718.865332	0.025388
719.064791	0.025237
719.264232	0.025314
719.463655	0.025264
719.663059	0.025183
719.862445	0.025183
720.061813	0.025210
720.261163	0.025185
720.460494	0.025136
720.659807	0.025207
720.859102	0.025274
721.058379	0.025261
721.257638	0.025334
721.456878	0.025285
721.656100	0.025296
721.855304	0.025157
722.054490	0.025023
722.253657	0.025043
722.452806	0.024915
722.651937	0.024720
722.851050	0.024498
723.050145	0.024389
723.249221	0.024342
723.448279	0.024139
723.647319	0.023957
723.846340	0.023842
724.045344	0.023758
724.244329	0.023691
724.443296	0.023500
724.642245	0.023340
724.841175	0.023440
725.040088	0.023422
725.238982	0.023344
725.437857	0.023477
725.636715	0.023502
725.835554	0.023259
726.034376	0.023263
726.233179	0.023395
726.431963	0.023439
726.630730	0.023303
726.829478	0.023197
727.028208	0.023203
727.226920	0.023160
727.425614	0.023102
727.624289	0.023207
727.822946	0.023177
728.021585	0.023117
728.220206	0.023215
728.418808	0.022952
728.617392	0.022967
728.815958	0.022956
729.014506	0.022772
729.213036	0.022719
729.411547	0.022488
729.610040	0.022444
729.808515	0.022139
730.006972	0.022066
730.205410	0.022196
730.403831	0.021984
730.602233	0.021906
730.800616	0.021914
730.998982	0.021783
731.197329	0.021859
731.395658	0.021818
731.593969	0.022024
731.792262	0.022060
731.990536	0.021966
732.188793	0.021978
732.387031	0.021922
732.585250	0.021993
732.783452	0.021909
732.981635	0.021936
733.179800	0.021917
733.377947	0.021949
733.576076	0.021580
733.774186	0.021691
733.972278	0.021736
734.170352	0.021761
734.368408	0.021724
734.566446	0.021769
734.764465	0.021715
734.962466	0.021750
735.160449	0.021667
735.358413	0.021795
735.556360	0.021559
735.754288	0.021523
735.952198	0.021414
736.150090	0.021127
736.347963	0.020933
736.545818	0.020933
736.743655	0.020766
736.941474	0.020628
737.139275	0.020762
737.337057	0.020814
737.534821	0.020637
737.732567	0.020593
737.930295	0.020653
738.128005	0.020775
738.325696	0.020641
738.523369	0.020535
738.721024	0.020531
738.918660	0.020384
739.116279	0.020242
739.313879	0.020418
739.511461	0.020323
739.709024	0.020540
739.906570	0.020670
740.104097	0.020634
740.301606	0.020776
740.499097	0.020654
740.696569	0.020702
740.894024	0.020887
741.091460	0.020781
741.288878	0.020946
741.486277	0.020835
741.683659	0.020831
741.881022	0.020925
742.078367	0.021006
742.275694	0.021341
742.473002	0.021467
742.670293	0.021501
742.867565	0.021759
743.064819	0.021757
743.262054	0.021753
743.459272	0.021797
743.656471	0.021892
743.853652	0.021956
744.050815	0.021840
744.247959	0.021809
744.445085	0.021855
744.642194	0.021650
744.839283	0.021652
745.036355	0.021555
745.233408	0.021282
745.430444	0.021299
745.627461	0.020998
745.824459	0.021089
746.021440	0.021140
746.218402	0.020859
746.415346	0.020702
746.612272	0.020662
746.809180	0.020699
747.006069	0.020945
747.202940	0.020804
747.399793	0.021054
747.596628	0.020908
747.793444	0.020641
747.990243	0.020871
748.187023	0.020940
748.383784	0.020838
748.580528	0.020625
748.777253	0.020318
748.973960	0.020387
749.170649	0.020391
749.367320	0.020530
749.563973	0.020683
749.760607	0.020566
749.957223	0.020571
750.153821	0.020600
750.350400	0.020906
750.546962	0.020947
750.743505	0.021017
750.940030	0.020909
751.136536	0.020773
751.333025	0.020621
751.529495	0.020760
751.725947	0.020833
751.922381	0.020900
752.118796	0.020612
752.315194	0.020792
752.511573	0.020656
752.707934	0.020419
752.904276	0.020276
753.100601	0.020161
753.296907	0.019985
753.493195	0.019995
753.689465	0.019766
753.885716	0.019974
754.081949	0.019776
754.278164	0.019598
754.474361	0.019667
754.670540	0.019646
754.866700	0.019675
755.062843	0.019532
755.258967	0.019428
755.455072	0.019481
755.651160	0.019439
755.847229	0.019349
756.043280	0.019418
756.239313	0.019366
756.435328	0.019286
756.631324	0.019217
756.827302	0.019190
757.023262	0.019141
757.219204	0.019069
757.415127	0.018909
757.611033	0.018802
757.806920	0.018860
758.002788	0.018901
758.198639	0.018857
758.394471	0.018876
758.590286	0.018999
758.786081	0.018962
758.981859	0.018949
759.177619	0.018883
759.373360	0.019048
759.569083	0.018940
759.764788	0.018966
759.960474	0.018929
760.156143	0.018892
760.351793	0.018788
760.547425	0.018895
760.743038	0.018702
760.938634	0.018897
761.134211	0.018920
761.329770	0.018866
761.525311	0.018762
761.720833	0.018886
761.916338	0.019013
762.111824	0.019002
762.307292	0.018846
762.502741	0.019011
762.698173	0.018987
762.893586	0.019004
763.088981	0.019032
763.284358	0.019052
763.479716	0.019079
763.675057	0.019243
763.870379	0.019168
764.065683	0.019139
764.260968	0.019156
764.456236	0.019040
764.651485	0.019069
764.846716	0.019006
765.041929	0.019005
765.237123	0.018955
765.432299	0.018608
765.627457	0.018667
765.822597	0.018782
766.017719	0.018592
766.212822	0.018583
766.407907	0.018345
766.602974	0.018428
766.798023	0.018425
766.993054	0.018309
767.188066	0.018424
767.383060	0.018466
767.578036	0.018377
767.772993	0.018752
767.967933	0.018671
768.162854	0.018869
768.357757	0.018745
768.552642	0.018688
768.747508	0.018695
768.942356	0.018598
769.137186	0.018461
769.331998	0.018374
769.526792	0.018289
769.721567	0.018369
769.916324	0.018297
770.111063	0.018447
770.305784	0.018509
770.500486	0.018636
770.695171	0.018585
770.889837	0.018619
771.084484	0.018941
771.279114	0.018956
771.473725	0.018681
771.668318	0.018690
771.862893	0.018706
772.057450	0.018790
772.251988	0.018835
772.446509	0.019106
772.641011	0.019055
772.835494	0.018753
773.029960	0.018660
773.224407	0.018937
773.418836	0.018857
773.613247	0.018791
773.807640	0.018689
774.002014	0.018451
774.196370	0.018374
774.390708	0.018547
774.585028	0.018787
774.779330	0.018786
774.973613	0.018925
775.167878	0.018974
775.362125	0.019005
775.556354	0.019036
775.750564	0.019217
775.944756	0.019146
776.138930	0.018949
776.333086	0.018773
776.527223	0.018762
776.721343	0.018661
776.915444	0.018672
777.109526	0.018574
777.303591	0.018711
777.497637	0.018756
777.691666	0.018796
777.885676	0.019035
778.079667	0.019194
778.273641	0.019276
778.467596	0.019314
778.661533	0.019537
778.855452	0.019656
779.049352	0.019716
779.243235	0.019733
779.437099	0.019919
779.630945	0.019846
779.824773	0.019813
780.018582	0.019839
780.212373	0.019957
780.406146	0.019897
780.599901	0.020152
780.793638	0.019956
780.987356	0.020044
781.181056	0.020091
781.374738	0.020174
781.568402	0.020334
781.762047	0.020504
781.955674	0.020457
782.149283	0.020560
782.342874	0.020524
782.536447	0.020601
782.730001	0.020719
782.923537	0.020577
783.117055	0.020578
783.310555	0.020499
783.504036	0.020331
783.697499	0.020357
783.890944	0.020232
784.084371	0.019951
784.277780	0.020004
784.471170	0.019909
784.664542	0.020059
784.857896	0.020081
785.051231	0.020102
785.244549	0.020219
785.437848	0.020364
785.631129	0.020313
785.824392	0.020578
786.017636	0.020721
786.210863	0.020763
786.404071	0.020574
786.597260	0.020622
786.790432	0.020638
786.983585	0.020601
787.176721	0.020357
787.369838	0.020565
787.562936	0.020526
787.756017	0.020473
787.949079	0.020482
788.142123	0.020389
788.335149	0.020197
788.528156	0.020191
788.721146	0.020233
788.914117	0.020258
789.107070	0.020206
789.300005	0.020179
789.492921	0.020120
789.685819	0.019988
789.878699	0.019956
790.071561	0.020054
790.264405	0.019975
790.457230	0.020040
790.650037	0.020066
790.842826	0.019957
791.035597	0.019914
791.228349	0.019844
791.421084	0.019882
791.613800	0.020086
791.806497	0.020115
791.999177	0.020123
792.191838	0.019989
792.384481	0.019809
792.577106	0.019726
792.769713	0.019717
792.962301	0.019765
793.154871	0.019751
793.347423	0.019813
793.539957	0.019966
793.732473	0.019918
793.924970	0.019961
794.117449	0.020234
794.309910	0.020386
794.502353	0.020474
794.694777	0.020533
794.887183	0.020525
795.079571	0.020549
795.271941	0.020502
795.464293	0.020684
795.656626	0.020873
795.848941	0.020959
796.041238	0.021107
796.233516	0.021301
796.425777	0.021421
796.618019	0.021545
796.810243	0.021541
797.002449	0.021521
797.194636	0.021578
797.386805	0.021645
797.578956	0.021558
797.771089	0.021581
797.963204	0.021467
798.155300	0.021353
798.347378	0.021502
798.539438	0.021650
798.731480	0.021872
798.923503	0.021936
799.115509	0.021806
799.307496	0.022038
799.499465	0.022143
799.691415	0.022388
799.883348	0.022646
800.075262	0.022757
800.267158	0.022707
800.459035	0.022790
800.650895	0.022638
800.842736	0.022741
801.034559	0.022681
801.226364	0.022726
801.418150	0.022703
801.609919	0.022593
801.801669	0.022556
801.993401	0.022603
802.185114	0.022606
802.376810	0.022622
802.568487	0.022549
802.760146	0.022435
802.951787	0.022605
803.143409	0.022389
803.335014	0.022452
803.526600	0.022440
803.718168	0.022484
803.909717	0.022368
804.101249	0.022570
804.292762	0.022787
804.484257	0.022934
804.675734	0.022761
804.867192	0.022799
805.058632	0.022855
805.250054	0.022845
805.441458	0.022855
805.632844	0.023037
805.824211	0.023105
806.015561	0.022891
806.206891	0.022839
806.398204	0.022796
806.589499	0.022950
806.780775	0.023210
806.972033	0.023337
807.163273	0.023329
807.354495	0.023473
807.545698	0.023607
807.736883	0.023818
807.928050	0.024183
808.119199	0.024383
808.310329	0.024712
808.501441	0.024525
808.692535	0.024559
808.883611	0.024738
809.074669	0.024791
809.265708	0.024704
809.456729	0.024818
809.647732	0.024732
809.838717	0.024543
810.029683	0.024375
810.220632	0.024459
810.411562	0.024458
810.602474	0.024469
810.793367	0.024301
810.984242	0.024437
811.175100	0.024254
811.365938	0.024169
811.556759	0.024574
811.747562	0.024647
811.938346	0.024644
812.129112	0.024750
812.319860	0.024763
812.510589	0.024986
812.701300	0.025045
812.891994	0.025203
813.082668	0.025321
813.273325	0.025154
813.463964	0.025296
813.654584	0.025389
813.845186	0.025364
814.035769	0.025434
814.226335	0.025442
814.416882	0.025502
814.607411	0.025693
814.797922	0.025792
814.988415	0.025937
815.178889	0.025860
815.369345	0.025887
815.559783	0.026035
815.750203	0.026197
815.940605	0.026044
816.130988	0.026102
816.321353	0.026054
816.511700	0.026082
816.702028	0.026012
816.892339	0.026166
817.082631	0.026350
817.272905	0.026156
817.463161	0.026137
817.653398	0.026282
817.843617	0.026161
818.033819	0.026174
818.224001	0.026262
818.414166	0.026265
818.604312	0.026277
818.794440	0.026220
818.984550	0.026596
819.174642	0.026726
819.364716	0.026759
819.554771	0.026911
819.744808	0.026942
819.934827	0.026907
820.124827	0.027131
820.314810	0.027166
820.504774	0.027144
820.694720	0.027226
820.884647	0.027272
821.074557	0.027296
821.264448	0.027444
821.454321	0.027443
821.644176	0.027482
821.834012	0.027320
822.023831	0.027418
822.213631	0.027540
822.403413	0.027373
822.593176	0.027260
822.782922	0.027187
822.972649	0.026863
823.162358	0.026889
823.352049	0.026940
823.541721	0.027146
823.731376	0.027128
823.921012	0.027297
824.110629	0.027345
824.300229	0.027375
824.489811	0.027554
824.679374	0.027771
824.868919	0.028024
825.058445	0.028001
825.247954	0.027908
825.437444	0.027950
825.626916	0.027773
825.816370	0.027889
826.005806	0.028116
826.195223	0.028192
826.384622	0.028176
826.574003	0.028169
826.763366	0.028292
826.952711	0.028632
827.142037	0.028680
827.331345	0.028992
827.520635	0.029072
827.709906	0.028936
827.899160	0.029103
828.088395	0.029315
828.277612	0.029588
828.466810	0.029734
828.655991	0.029780
828.845153	0.029917
829.034297	0.029859
829.223423	0.029941
829.412531	0.030384
829.601620	0.030377
829.790691	0.030572
829.979744	0.030534
830.168779	0.030572
830.357795	0.030425
830.546793	0.030364
830.735773	0.030183
830.924735	0.030269
831.113679	0.030184
831.302604	0.030543
831.491511	0.030604
831.680400	0.030709
831.869271	0.030997
832.058123	0.031274
832.246957	0.031362
832.435773	0.031548
832.624571	0.031616
832.813351	0.031550
833.002112	0.031325
833.190855	0.031108
833.379580	0.030800
833.568287	0.030749
833.756975	0.030838
833.945645	0.030893
834.134297	0.031123
834.322931	0.031057
834.511547	0.031315
834.700144	0.031424
834.888723	0.031678
835.077284	0.031892
835.265826	0.031769
835.454351	0.031657
835.642857	0.031659
835.831345	0.031737
836.019815	0.031763
836.208266	0.031713
836.396699	0.031669
836.585114	0.031622
836.773511	0.031831
836.961890	0.031984
837.150250	0.032239
837.338592	0.032431
837.526916	0.032505
837.715222	0.032703
837.903510	0.032867
838.091779	0.032986
838.280030	0.033157
838.468263	0.033053
838.656477	0.033293
838.844674	0.033326
839.032852	0.033310
839.221012	0.033430
839.409153	0.033511
839.597277	0.033391
839.785382	0.033335
839.973469	0.033501
840.161538	0.033801
840.349589	0.033715
840.537621	0.033591
840.725635	0.033785
840.913631	0.033881
841.101609	0.033996
841.289568	0.034255
841.477509	0.034677
841.665432	0.034779
841.853337	0.034887
842.041224	0.035062
842.229092	0.035375
842.416942	0.035382
842.604774	0.035337
842.792588	0.035599
842.980383	0.035657
843.168160	0.035591
843.355919	0.035547
843.543660	0.035590
843.731382	0.035645
843.919087	0.035740
844.106773	0.035928
844.294441	0.036192
844.482090	0.036087
844.669722	0.036009
844.857335	0.036204
845.044930	0.036208
845.232507	0.036209
845.420065	0.036421
845.607605	0.036631
845.795127	0.036810
845.982631	0.036618
846.170117	0.036551
846.357584	0.036771
846.545033	0.036829
846.732464	0.036987
846.919877	0.037238
847.107272	0.037379
847.294648	0.037287
847.482006	0.037458
847.669346	0.037706
847.856667	0.037958
848.043971	0.037975
848.231256	0.038002
848.418523	0.038173
848.605771	0.038215
848.793002	0.038209
848.980214	0.038278
849.167408	0.038348
849.354584	0.038533
849.541742	0.038688
849.728881	0.038918
849.916002	0.039172
850.103105	0.039432
850.290190	0.039448
850.477256	0.039530
850.664304	0.039888
850.851334	0.039911
851.038346	0.040064
851.225340	0.040367
851.412315	0.040406
851.599272	0.040310
851.786211	0.040298
851.973132	0.040702
852.160034	0.040751
852.346918	0.040576
852.533784	0.040554
852.720632	0.040582
852.907462	0.040420
853.094273	0.040733
853.281066	0.041061
853.467841	0.040921
853.654598	0.040698
853.841336	0.040768
854.028056	0.040688
854.214758	0.040745
854.401442	0.040780
854.588107	0.040676
854.774755	0.040491
854.961384	0.040262
855.147995	0.040657
855.334587	0.040949
855.521162	0.041043
855.707718	0.041153
855.894256	0.041056
856.080775	0.041167
856.267277	0.041446
856.453760	0.041714
856.640225	0.042052
856.826672	0.042044
857.013101	0.041900
857.199511	0.042039
857.385903	0.042100
857.572277	0.042525
857.758633	0.042828
857.944970	0.043057
858.131290	0.043017
858.317591	0.043101
858.503873	0.043259
858.690138	0.043318
858.876384	0.043374
859.062612	0.043678
859.248822	0.043855
859.435014	0.043459
859.621188	0.043505
859.807343	0.043598
859.993480	0.043742
860.179599	0.043822
860.365699	0.044133
860.551781	0.044194
860.737846	0.044444
860.923891	0.044446
861.109919	0.044872
861.295929	0.045003
861.481920	0.044879
861.667893	0.044789
861.853848	0.044940
862.039784	0.045078
862.225702	0.044976
862.411603	0.044997
862.597484	0.044985
862.783348	0.044793
862.969193	0.044760
863.155021	0.044977
863.340830	0.044913
863.526620	0.044916
863.712393	0.045096
863.898147	0.045589
864.083883	0.045574
864.269601	0.045797
864.455301	0.046103
864.640982	0.046257
864.826645	0.046414
865.012290	0.046629
865.197917	0.047100
865.383526	0.046995
865.569116	0.047117
865.754688	0.047069
865.940242	0.047134
866.125777	0.047401
866.311295	0.047332
866.496794	0.047455
866.682275	0.047914
866.867737	0.047579
867.053182	0.047961
867.238608	0.047691
867.424016	0.048123
867.609406	0.048240
867.794778	0.048156
867.980131	0.048230
868.165466	0.048393
868.350783	0.048076
868.536082	0.047988
868.721362	0.047441
868.906625	0.047512
869.091869	0.047369
869.277094	0.047268
869.462302	0.047290
869.647491	0.047484
869.832662	0.047449
870.017815	0.047616
870.202950	0.047687
870.388066	0.047943
870.573165	0.048024
870.758245	0.047918
870.943306	0.047717
871.128350	0.047610
871.313375	0.047772
871.498382	0.047831
871.683371	0.048023
871.868342	0.048381
872.053294	0.048464
872.238229	0.048566
872.423144	0.048723
872.608042	0.048970
872.792922	0.049151
872.977783	0.048935
873.162626	0.049122
873.347451	0.049025
873.532258	0.048876
873.717046	0.048990
873.901816	0.049267
874.086568	0.049232
874.271302	0.049260
874.456017	0.049433
874.640715	0.049671
874.825394	0.049643
875.010055	0.049623
875.194697	0.049595
875.379322	0.049578
875.563928	0.049529
875.748516	0.049762
875.933085	0.049765
876.117637	0.049632
876.302170	0.049662
876.486685	0.049650
876.671182	0.049740
876.855661	0.049999
877.040121	0.050148
877.224563	0.050366
877.408987	0.050193
877.593393	0.050275
877.777780	0.050430
877.962150	0.050683
878.146501	0.050656
878.330833	0.050658
878.515148	0.050393
878.699444	0.050481
878.883722	0.050118
879.067982	0.050079
879.252224	0.050469
879.436447	0.050502
879.620653	0.050080
879.804840	0.050430
879.989008	0.050518
880.173159	0.050749
880.357291	0.050790
880.541405	0.050942
880.725501	0.051116
880.909579	0.051008
881.093638	0.050896
881.277680	0.051252
881.461703	0.051052
881.645707	0.051012
881.829694	0.050731
882.013662	0.050579
882.197612	0.050723
882.381544	0.051037
882.565458	0.050991
882.749353	0.051303
882.933230	0.051259
883.117089	0.051277
883.300930	0.051209
883.484753	0.051645
883.668557	0.051512
883.852343	0.051783
884.036111	0.051469
884.219861	0.051379
884.403592	0.051327
884.587305	0.051319
884.771000	0.051207
884.954677	0.051470
885.138335	0.051392
885.321976	0.051798
885.505598	0.051302
885.689201	0.051462
885.872787	0.051541
886.056354	0.051626
886.239904	0.051756
886.423434	0.051810
886.606947	0.051809
886.790442	0.051783
886.973918	0.051674
887.157376	0.051791
887.340816	0.051879
887.524237	0.051919
887.707641	0.051728
887.891026	0.051916
888.074393	0.052160
888.257741	0.052244
888.441072	0.052435
888.624384	0.052514
888.807678	0.052726
888.990954	0.052613
889.174211	0.052752
889.357451	0.053015
889.540672	0.052869
889.723875	0.052912
889.907059	0.052601
890.090226	0.052579
890.273374	0.052615
890.456504	0.052465
890.639616	0.052382
890.822709	0.052410
891.005785	0.052220
891.188842	0.051932
891.371881	0.051695
891.554901	0.051589
891.737904	0.051357
891.920888	0.051496
892.103854	0.051612
892.286802	0.051733
892.469731	0.051654
892.652643	0.051986
892.835536	0.052178
893.018410	0.052278
893.201267	0.052568
893.384106	0.052955
893.566926	0.052601
893.749728	0.052425
893.932511	0.052531
894.115277	0.052788
894.298024	0.052417
894.480753	0.052447
894.663464	0.052699
894.846157	0.052776
895.028831	0.052510
895.211487	0.052572
895.394125	0.052867
895.576745	0.052744
895.759346	0.052332
895.941930	0.052326
896.124495	0.052195
896.307041	0.051894
896.489570	0.051796
896.672080	0.051563
896.854573	0.051644
897.037046	0.051354
897.219502	0.051241
897.401940	0.051443
897.584359	0.051096
897.766760	0.051082
897.949143	0.051039
898.131507	0.050812
898.313854	0.050938
898.496182	0.050720
898.678492	0.050513
898.860783	0.050476
899.043057	0.050332
899.225312	0.050636
899.407549	0.050728
899.589768	0.050690
899.771968	0.051046
899.954151	0.050637
900.136315	0.050728
900.318461	0.050972
900.500588	0.050904
900.682698	0.050889
900.864789	0.051314
901.046862	0.051227
901.228917	0.051255
901.410953	0.050978
901.592971	0.051495
901.774972	0.051761
901.956953	0.051767
902.138917	0.051962
902.320862	0.051970
902.502790	0.051451
902.684699	0.051663
902.866589	0.051626
903.048462	0.051614
903.230316	0.051659
903.412152	0.051053
903.593970	0.050943
903.775770	0.050915
903.957551	0.050658
904.139314	0.050652
904.321059	0.050048
904.502786	0.049721
904.684494	0.049846
904.866185	0.049498
905.047857	0.049896
905.229510	0.049759
905.411146	0.049617
905.592763	0.049628
905.774363	0.049804
905.955943	0.050037
906.137506	0.050355
906.319051	0.050069
906.500577	0.050074
906.682085	0.050078
906.863575	0.049564
907.045046	0.049262
907.226500	0.048953
907.407935	0.048581
907.589352	0.048533
907.770750	0.048044
907.952131	0.047951
908.133493	0.047853
908.314837	0.047264
908.496163	0.047628
908.677470	0.047632
908.858760	0.047850
909.040031	0.047949
909.221284	0.047555
909.402518	0.047504
909.583735	0.047526
909.764933	0.047295
909.946113	0.047510
910.127275	0.047429
910.308418	0.047428
910.489544	0.047172
910.670651	0.046586
910.851740	0.046362
911.032810	0.046229
911.213863	0.045702
911.394897	0.045681
911.575913	0.045309
911.756911	0.044783
911.937890	0.044524
912.118851	0.044429
912.299794	0.044414
912.480719	0.044172
912.661626	0.043845
912.842514	0.043828
913.023384	0.043664
913.204236	0.043530
913.385070	0.043324
913.565886	0.043358
913.746683	0.042810
913.927462	0.042577
914.108223	0.043076
914.288965	0.043064
914.469690	0.043153
914.650396	0.043114
914.831084	0.042885
915.011754	0.042869
915.192405	0.042778
915.373038	0.042673
915.553653	0.043152
915.734250	0.042200
915.914829	0.042452
916.095389	0.041977
916.275931	0.041549
916.456455	0.041662
916.636961	0.041879
916.817448	0.041706
916.997917	0.041895
917.178368	0.041437
917.358801	0.041390
917.539216	0.040926
917.719612	0.040823
917.899990	0.040645
918.080350	0.040056
918.260692	0.039762
918.441015	0.039309
918.621320	0.038966
918.801607	0.038507
918.981876	0.038493
919.162127	0.038166
919.342359	0.037939
919.522573	0.037723
919.702769	0.037778
919.882947	0.037511
920.063106	0.037591
920.243247	0.037310
920.423370	0.037298
920.603475	0.036889
920.783562	0.037068
920.963630	0.037012
921.143680	0.036744
921.323712	0.036563
921.503725	0.036503
921.683721	0.035721
921.863698	0.035711
922.043657	0.035117
922.223598	0.035245
922.403520	0.034481
922.583424	0.034348
922.763311	0.034114
922.943178	0.033753
923.123028	0.033598
923.302859	0.033459
923.482673	0.033024
923.662467	0.033049
923.842244	0.032761
924.022003	0.032574
924.201743	0.032123
924.381465	0.031866
924.561169	0.031611
924.740854	0.030930
924.920522	0.030818
925.100171	0.030716
925.279802	0.030155
925.459414	0.029694
925.639009	0.029600
925.818585	0.028932
925.998143	0.028472
926.177683	0.028044
926.357205	0.028151
926.536708	0.027823
926.716193	0.027241
926.895660	0.026891
927.075109	0.026780
927.254539	0.026134
927.433951	0.026571
927.613345	0.026970
927.792721	0.026952
927.972079	0.026748
928.151418	0.026368
928.330739	0.026295
928.510042	0.026073
928.689327	0.025743
928.868593	0.025578
929.047841	0.024907
929.227071	0.024238
929.406283	0.023932
929.585476	0.023082
929.764652	0.022914
929.943809	0.022439
930.122948	0.022504
930.302068	0.022639
930.481171	0.022678
930.660255	0.022119
930.839321	0.021462
931.018369	0.020742
931.197398	0.021139
931.376409	0.020806
931.555402	0.020814
931.734377	0.020255
931.913334	0.019565
932.092272	0.018908
932.271192	0.018537
932.450094	0.017982
932.628978	0.017358
932.807844	0.016411
932.986691	0.015543
933.165520	0.014948
933.344331	0.014417
933.523123	0.013947
933.701898	0.014083
933.880654	0.013938
934.059392	0.014014
934.238111	0.013985
934.416813	0.013465
934.595496	0.013219
934.774161	0.013521
934.952808	0.013577
935.131437	0.012965
935.310047	0.012029
935.488639	0.011788
935.667213	0.011343
935.845769	0.011415
936.024306	0.011116
936.202825	0.011349
936.381326	0.010397
936.559809	0.009712
936.738274	0.009847
936.916720	0.010180
937.095148	0.010014
937.273558	0.010232
937.451950	0.009382
937.630323	0.009817
937.808678	0.009332
937.987015	0.009993
938.165334	0.009776
938.343635	0.009922
938.521917	0.009918
938.700181	0.009751
938.878427	0.008786
939.056655	0.009238
939.234864	0.008936
939.413055	0.008409
939.591228	0.007283
939.769383	0.006776
939.947519	0.006590
940.125638	0.006060
940.303738	0.005490
940.481820	0.006586
940.659883	0.006106
940.837929	0.005982
941.015956	0.006367
941.193965	0.006717
941.371955	0.007088
941.549928	0.006462
941.727882	0.006365
941.905818	0.007150
942.083736	0.007151
942.261636	0.007305
942.439517	0.006556
942.617380	0.006348
942.795225	0.005336
942.973052	0.004683
943.150860	0.004407
943.328651	0.004326
943.506423	0.003315
943.684176	0.002403
943.861912	0.002609
944.039629	0.002631
944.217328	0.002485
944.395009	0.002429
944.572672	0.002755
944.750317	0.002896
944.927943	0.001828
945.105551	0.001409
945.283141	0.001229
945.460712	0.001287
945.638265	0.000322
945.815801	-0.000517
945.993317	-0.000558
946.170816	-0.001268
946.348297	-0.001560
946.525759	-0.001929
946.703203	-0.001058
946.880629	-0.001515
947.058036	-0.002652
947.235425	-0.002014
947.412797	-0.000772
947.590149	-0.001232
947.767484	-0.000309
947.944800	-0.000713
948.122099	0.000409
948.299379	0.000446
948.476640	-0.000164
948.653884	-0.001381
948.831109	-0.002293
949.008316	-0.002849
949.185505	-0.002140
949.362676	-0.002878
949.539828	-0.003086
949.716962	-0.003971
949.894078	-0.004966
950.071176	-0.005663
950.248256	-0.004558
950.425317	-0.004647
950.602360	-0.005074
950.779385	-0.005818
950.956391	-0.005351
951.133380	-0.004883
951.310350	-0.003739
951.487302	-0.003605
951.664235	-0.002697
951.841151	-0.003847
952.018048	-0.002995
952.194927	-0.002808
952.371788	-0.001623
952.548631	-0.002048
952.725455	-0.001751
952.902261	-0.004141
953.079049	-0.003472
953.255819	-0.002913
953.432570	-0.001690
953.609303	-0.002079
953.786018	-0.002455
953.962715	-0.003066
954.139394	-0.002063
954.316054	-0.003350
954.492696	-0.002519
954.669320	-0.002848
954.845926	-0.002317
955.022513	-0.001899
955.199083	-0.000866
955.375634	0.001762
955.552166	0.001014
955.728681	0.000637
955.905177	0.000854
956.081655	0.001780
956.258115	0.001612
956.434557	0.000652
956.610980	-0.000095
956.787385	0.000465
956.963772	-0.002429
957.140141	-0.001250
957.316492	-0.001632
957.492824	-0.001151
957.669138	-0.001541
957.845434	-0.002050
958.021712	-0.001803
958.197971	0.000457
958.374212	-0.000424
958.550435	0.000895
958.726640	-0.000016
958.902826	0.001709
959.078995	0.001932
959.255145	0.000868
959.431277	0.000962
959.607390	0.001491
959.783486	0.000009
959.959563	-0.000167
960.135622	-0.000532
960.311662	0.000909
960.487685	-0.001568
960.663689	-0.000857
960.839675	0.001664
961.015643	0.002403
961.191593	0.004283
961.367524	0.005792
961.543437	0.005754
961.719332	0.006316
961.895209	0.005557
962.071067	0.006186
962.246907	0.005396
962.422730	0.006680
962.598533	0.005932
962.774319	0.003381
962.950086	0.002589
963.125835	0.003903
963.301566	0.005493
963.477279	0.004086
963.652973	0.006648
963.828650	0.007383
964.004308	0.005926
964.179947	0.007889
964.355569	0.009526
964.531172	0.009602
964.706757	0.009051
964.882324	0.007996
965.057873	0.009912
965.233403	0.009365
965.408916	0.011258
965.584410	0.012782
965.759885	0.012183
965.935343	0.011573
966.110782	0.011995
966.286203	0.012385
966.461606	0.012608
966.636991	0.013401
966.812357	0.013226
966.987705	0.011633
967.163035	0.011312
967.338347	0.009867
967.513641	0.010343
967.688916	0.008500
967.864173	0.007085
968.039412	0.006692
968.214632	0.005762
968.389835	0.005142
968.565019	0.004327
968.740185	0.004346
968.915333	0.004963
969.090462	0.005381
969.265573	0.006648
969.440667	0.008617
969.615741	0.009801
969.790798	0.011066
969.965836	0.010653
970.140856	0.010557
970.315858	0.009024
970.490842	0.010007
970.665808	0.009209
970.840755	0.009864
971.015684	0.009261
971.190595	0.007894
971.365487	0.006030
971.540362	0.007224
971.715218	0.007920
971.890056	0.008245
972.064875	0.007886
972.239677	0.008316
972.414460	0.006772
972.589225	0.007138
972.763972	0.007515
972.938700	0.007638
973.113411	0.006994
973.288103	0.006550
973.462777	0.006975
973.637432	0.007075
973.812070	0.007493
973.986689	0.009051
974.161290	0.009289
974.335873	0.010258
974.510437	0.012116
974.684984	0.011169
974.859512	0.012014
975.034022	0.011760
975.208513	0.011366
975.382987	0.010529
975.557442	0.008862
975.731879	0.008867
975.906298	0.007311
976.080698	0.007034
976.255080	0.009656
976.429445	0.009284
976.603790	0.008990
976.778118	0.009651
976.952427	0.009698
977.126719	0.011950
977.300992	0.011268
977.475246	0.011381
977.649483	0.010636
977.823701	0.007863
977.997901	0.008012
978.172083	0.008468
978.346247	0.007367
978.520392	0.006477
978.694519	0.006061
978.868628	0.006846
979.042719	0.006359
979.216791	0.005933
979.390845	0.006292
979.564882	0.006047
979.738899	0.006451
979.912899	0.005410
980.086880	0.005872
980.260843	0.006162
980.434788	0.004935
980.608715	0.006052
980.782623	0.007230
980.956514	0.008050
981.130386	0.009754
981.304240	0.008701
981.478075	0.011782
981.651892	0.013040
981.825692	0.011829
981.999472	0.012856
982.173235	0.011847
982.346980	0.010464
982.520706	0.009732
982.694414	0.008641
982.868104	0.010124
983.041775	0.007991
983.215428	0.008439
983.389064	0.009524
983.562680	0.008363
983.736279	0.009243
983.909860	0.009700
984.083422	0.009513
984.256966	0.008808
984.430491	0.009104
984.603999	0.010739
984.777488	0.009493
984.950959	0.008713
985.124412	0.008832
985.297847	0.007560
985.471263	0.009415
985.644661	0.010352
985.818041	0.011229
985.991403	0.010615
986.164747	0.010943
986.338072	0.011189
986.511379	0.011740
986.684668	0.011519
986.857938	0.011387
987.031191	0.008601
987.204425	0.008542
987.377641	0.007472
987.550839	0.007414
987.724018	0.005291
987.897179	0.004856
988.070322	0.004313
988.243447	0.006226
988.416554	0.006815
988.589642	0.006815
988.762712	0.006231
988.935764	0.007421
989.108798	0.006400
989.281813	0.007447
989.454811	0.006761
989.627790	0.006961
989.800751	0.005607
989.973693	0.005231
990.146617	0.007332
990.319524	0.007584
990.492412	0.004624
990.665281	0.004936
990.838133	0.005578
991.010966	0.006363
991.183781	0.006426
991.356578	0.006971
991.529356	0.006628
991.702117	0.005850
991.874859	0.005893
992.047583	0.006744
992.220288	0.005911
992.392976	0.004731
992.565645	0.005749
992.738296	0.005950
992.910929	0.004889
993.083543	0.005717
993.256139	0.005484
993.428718	0.006147
993.601277	0.005241
993.773819	0.005999
993.946342	0.007188
994.118848	0.007587
994.291335	0.006266
994.463803	0.007419
994.636254	0.007213
994.808686	0.007240
994.981100	0.007372
995.153496	0.008921
995.325874	0.010544
995.498233	0.009458
995.670574	0.008042
995.842897	0.009327
996.015202	0.008292
996.187488	0.008295
996.359757	0.009073
996.532007	0.008118
996.704239	0.008143
996.876452	0.007191
997.048648	0.008004
997.220825	0.008843
997.392984	0.009278
997.565124	0.010003
997.737247	0.010190
997.909351	0.008656
998.081437	0.007818
998.253505	0.007233
998.425554	0.006995
998.597586	0.007853
998.769599	0.007888
998.941594	0.005909
999.113571	0.005493
999.285529	0.005220
999.457469	0.004645
999.629391	0.005874
999.801295	0.008354
999.973181	0.008567
1000.145048	0.006349
1000.316897	0.005362
1000.488728	0.006448
1000.660541	0.005535
1000.832335	0.004593
1001.004111	0.005748
1001.175869	0.004468
1001.347609	0.002692
1001.519331	0.001609
1001.691034	0.001908
1001.862719	0.002455
1002.034386	0.002081
1002.206035	0.004149
1002.377665	0.005499
1002.549277	0.004889
1002.720871	0.006967
1002.892447	0.007584
1003.064004	0.006894
1003.235544	0.005808
1003.407065	0.006126
1003.578568	0.006328
1003.750052	0.003945
1003.921519	0.003012
1004.092967	0.004031
1004.264397	0.002640
1004.435809	0.002151
1004.607202	0.002937
1004.778577	0.004118
1004.949934	0.003406
1005.121273	0.002580
1005.292594	0.003543
1005.463896	0.004514
1005.635180	0.003837
1005.806446	0.004206
1005.977694	0.004549
1006.148923	0.004740
1006.320135	0.004931
1006.491328	0.005282
1006.662503	0.006720
1006.833659	0.005275
1007.004798	0.005599
1007.175918	0.006283
1007.347020	0.005130
1007.518103	0.005269
1007.689169	0.007313
1007.860216	0.007958
1008.031245	0.006700
1008.202256	0.006350
1008.373248	0.008768
1008.544223	0.008635
1008.715179	0.007416
1008.886117	0.008329
1009.057036	0.007483
1009.227938	0.004993
1009.398821	0.003504
1009.569686	0.004735
1009.740533	0.003397
1009.911361	0.001262
1010.082172	0.000826
1010.252964	0.002239
1010.423738	0.002854
1010.594493	0.002771
1010.765231	0.004354
1010.935950	0.004712
1011.106651	0.004805
1011.277334	0.005688
1011.447998	0.006815
1011.618645	0.006881
1011.789273	0.006025
1011.959882	0.005134
1012.130474	0.005063
1012.301048	0.002591
1012.471603	0.004634
1012.642140	0.003678
1012.812658	0.004393
1012.983159	0.004682
1013.153641	0.003727
1013.324105	0.002933
1013.494551	0.003116
1013.664979	0.003327
1013.835388	0.004720
1014.005779	0.003524
1014.176152	0.002974
1014.346507	0.002423
1014.516843	0.002214
1014.687162	0.003960
1014.857462	0.003541
1015.027744	0.004096
1015.198007	0.004457
1015.368252	0.004934
1015.538480	0.005334
1015.708689	0.004967
1015.878879	0.005200
1016.049052	0.004052
1016.219206	0.001907
1016.389342	0.002077
1016.559460	0.002287
1016.729559	0.001487
1016.899641	0.000072
1017.069704	-0.000845
1017.239749	-0.000696
1017.409775	-0.001111
1017.579784	0.001226
1017.749774	0.002493
1017.919746	0.002748
1018.089700	0.002820
1018.259635	0.002447
1018.429553	0.003189
1018.599452	0.003233
1018.769333	0.005045
1018.939195	0.005441
1019.109040	0.003747
1019.278866	0.002744
1019.448674	0.002783
1019.618464	0.001754
1019.788235	0.002507
1019.957989	0.001934
1020.127724	0.004126
1020.297441	0.003348
1020.467139	0.002841
1020.636820	0.003706
1020.806482	0.004234
1020.976126	0.004827
1021.145752	0.005172
1021.315359	0.006077
1021.484948	0.007925
1021.654519	0.005668
1021.824072	0.007800
1021.993607	0.008753
1022.163123	0.008261
1022.332621	0.008263
1022.502101	0.007623
1022.671563	0.007339
1022.841007	0.005995
1023.010432	0.004294
1023.179839	0.004107
1023.349228	0.002381
1023.518598	0.001891
1023.687951	0.001840
1023.857285	0.001864
1024.026601	0.002197
1024.195899	0.001534
1024.365178	0.001422
1024.534439	0.000855
1024.703682	0.000931
1024.872907	-0.000551
1025.042114	-0.002252
1025.211302	-0.002502
1025.380472	-0.003184
1025.549624	-0.002133
1025.718758	-0.001485
1025.887873	-0.000119
1026.056970	0.000827
1026.226049	0.001497
1026.395110	0.002918
1026.564153	0.004862
1026.733177	0.005514
1026.902183	0.005175
1027.071171	0.003280
1027.240141	0.002633
1027.409092	0.002214
1027.578026	0.002280
1027.746940	0.001046
1027.915837	-0.000622
1028.084716	-0.003087
1028.253576	-0.004337
1028.422418	-0.002343
1028.591242	-0.000950
1028.760048	-0.000115
1028.928835	0.000263
1029.097604	0.001104
1029.266355	0.000610
1029.435088	0.001995
1029.603803	0.004401
1029.772499	0.005869
1029.941177	0.004394
1030.109837	0.003976
1030.278478	0.003629
1030.447102	0.002946
1030.615707	0.001207
1030.784294	0.003599
1030.952863	0.003491
1031.121413	0.004484
1031.289945	0.004183
1031.458460	0.004748
1031.626955	0.004551
1031.795433	0.004658
1031.963892	0.004296
1032.132334	0.006242
1032.300756	0.005837
1032.469161	0.006845
1032.637548	0.003946
1032.805916	0.002167
1032.974266	0.001601
1033.142598	0.001016
1033.310911	0.000749
1033.479207	0.000437
1033.647484	-0.000660
1033.815743	-0.002043
1033.983983	-0.002437
1034.152206	-0.001021
1034.320410	-0.000451
1034.488596	-0.000382
1034.656764	0.000673
1034.824914	0.002132
1034.993045	0.002206
1035.161158	0.002909
1035.329253	0.003623
1035.497330	0.002328
1035.665388	0.001192
1035.833428	0.000654
1036.001450	0.002057
1036.169454	0.001683
1036.337440	0.001654
1036.505407	0.004094
1036.673356	0.003605
1036.841287	0.004782
1037.009200	0.005309
1037.177094	0.005903
1037.344970	0.006612
1037.512828	0.006553
1037.680668	0.006643
1037.848489	0.006247
1038.016293	0.003951
1038.184078	0.003555
1038.351845	0.001846
1038.519593	0.002287
1038.687324	0.002909
1038.855036	0.004896
1039.022730	0.005346
1039.190406	0.004832
1039.358063	0.004071
1039.525702	0.005305
1039.693323	0.005908
1039.860926	0.006323
1040.028511	0.005276
1040.196077	0.004855
1040.363625	0.004118
1040.531155	0.004663
1040.698667	0.004620
1040.866161	0.003921
1041.033636	0.004824
1041.201093	0.004242
1041.368532	0.004697
1041.535952	0.006200
1041.703355	0.007274
1041.870739	0.005821
1042.038105	0.004158
1042.205452	0.005125
1042.372782	0.006513
1042.540093	0.004960
1042.707386	0.006205
1042.874661	0.005872
1043.041918	0.005094
1043.209156	0.004801
1043.376376	0.005456
1043.543578	0.004929
1043.710762	0.004414
1043.877927	0.003790
1044.045074	0.004376
1044.212203	0.003781
1044.379314	0.003480
1044.546407	0.005132
1044.713481	0.004635
1044.880537	0.004887
1045.047575	0.006386
1045.214595	0.006410
1045.381596	0.007361
1045.548579	0.006486
1045.715544	0.006241
1045.882491	0.006111
1046.049420	0.005155
1046.216330	0.007281
1046.383222	0.006883
1046.550096	0.005833
1046.716951	0.005457
1046.883789	0.005280
1047.050608	0.004057
1047.217409	0.003872
1047.384192	0.004509
1047.550956	0.003969
1047.717703	0.002050
1047.884431	0.003081
1048.051140	0.002461
1048.217832	0.002900
1048.384505	0.002150
1048.551161	0.002297
1048.717798	0.002507
1048.884416	0.002950
1049.051017	0.001728
1049.217599	0.002623
1049.384163	0.001895
1049.550709	0.001810
1049.717237	0.000901
1049.883746	0.001040
1050.050237	0.001419
1050.216710	0.000394
1050.383165	0.000097
1050.549601	0.000578
1050.716019	-0.001277
1050.882420	-0.002116
1051.048801	-0.002070
1051.215165	-0.001913
1051.381510	-0.001315
1051.547837	0.000839
1051.714146	0.001600
1051.880437	0.000933
1052.046709	0.000431
1052.212964	0.000924
1052.379200	0.000712
1052.545417	0.001272
1052.711617	0.002237
1052.877798	0.002121
1053.043961	0.000810
1053.210106	0.001605
1053.376233	0.002048
1053.542341	0.002435
1053.708432	0.001214
1053.874504	0.001628
1054.040557	0.000564
1054.206593	0.000757
1054.372610	-0.000602
1054.538609	-0.001012
1054.704590	-0.001041
1054.870553	-0.001475
1055.036497	-0.000622
1055.202424	0.000662
1055.368331	0.001765
1055.534221	0.002910
1055.700093	0.003235
1055.865946	0.003016
1056.031781	0.003199
1056.197598	0.001165
1056.363397	-0.000147
1056.529177	0.000155
1056.694939	-0.000583
1056.860683	-0.000418
1057.026409	-0.000050
1057.192116	-0.000605
1057.357806	-0.000479
1057.523477	-0.001506
1057.689130	0.000164
1057.854764	0.001851
1058.020381	0.002719
1058.185979	0.003176
1058.351559	0.002986
1058.517120	0.001356
1058.682664	0.002515
1058.848189	0.002604
1059.013696	0.001783
1059.179185	0.002299
1059.344656	0.003544
1059.510108	0.002669
1059.675542	0.002799
1059.840958	0.001733
1060.006356	0.003622
1060.171735	0.001753
1060.337096	0.000867
1060.502439	0.001666
1060.667764	0.000369
1060.833071	-0.002310
1060.998359	-0.003454
1061.163629	-0.005034
1061.328881	-0.004680
1061.494115	-0.005154
1061.659330	-0.004899
1061.824527	-0.004461
1061.989706	-0.003934
1062.154867	-0.002074
1062.320010	-0.000937
1062.485134	-0.000628
1062.650240	0.000453
1062.815328	0.001690
1062.980398	0.001345
1063.145449	0.001758
1063.310482	0.003311
1063.475497	0.003451
1063.640494	0.002409
1063.805473	0.002236
1063.970433	0.000937
1064.135375	0.002070
1064.300299	0.001263
1064.465204	0.000426
1064.630092	0.001729
1064.794961	0.000723
1064.959812	-0.000314
1065.124645	0.000415
1065.289459	-0.000385
1065.454256	-0.001738
1065.619034	-0.001802
1065.783793	-0.001784
1065.948535	-0.000460
1066.113258	-0.001994
1066.277964	-0.004150
1066.442651	-0.002807
1066.607319	-0.004725
1066.771970	-0.002993
1066.936602	-0.000884
1067.101216	-0.000761
1067.265812	-0.001842
1067.430389	-0.003181
1067.594949	-0.004244
1067.759490	-0.002389
1067.924013	-0.000283
1068.088518	0.000019
1068.253004	-0.000253
1068.417472	0.000207
1068.581922	0.000848
1068.746354	0.001739
1068.910768	0.004359
1069.075163	0.005352
1069.239540	0.005822
1069.403899	0.005508
1069.568240	0.006132
1069.732562	0.004304
1069.896866	0.004100
1070.061152	0.002319
1070.225420	0.002263
1070.389670	-0.000459
1070.553901	-0.000826
1070.718114	-0.001566
1070.882309	-0.003311
1071.046486	-0.004481
1071.210644	-0.002858
1071.374784	-0.002384
1071.538906	-0.001756
1071.703010	-0.002937
1071.867096	-0.002331
1072.031163	-0.002314
1072.195212	0.000793
1072.359243	-0.000590
1072.523256	0.001814
1072.687250	0.000607
1072.851226	0.000498
1073.015184	0.000164
1073.179124	0.000407
1073.343045	-0.000204
1073.506949	0.000769
1073.670834	-0.002320
1073.834701	-0.001786
1073.998549	-0.004629
1074.162380	-0.004365
1074.326192	-0.003458
1074.489986	-0.003567
1074.653761	-0.002214
1074.817519	-0.002908
1074.981258	-0.004408
1075.144979	-0.003404
1075.308682	-0.002301
1075.472367	-0.000627
1075.636033	-0.000097
1075.799681	-0.002129
1075.963311	-0.002004
1076.126923	-0.004244
1076.290516	-0.003104
1076.454092	-0.003663
1076.617649	-0.003985
1076.781187	-0.004653
1076.944708	-0.004274
1077.108210	-0.004922
1077.271695	-0.003489
1077.435160	-0.002982
1077.598608	-0.001686
1077.762038	-0.001235
1077.925449	0.000054
1078.088842	-0.000138
1078.252217	-0.001183
1078.415573	-0.001723
1078.578912	-0.001624
1078.742232	-0.002109
1078.905534	-0.003023
1079.068817	-0.005584
1079.232083	-0.005578
1079.395330	-0.005610
1079.558559	-0.005289
1079.721770	-0.003549
1079.884962	-0.003795
1080.048136	-0.003998
1080.211293	-0.002073
1080.374430	-0.001390
1080.537550	-0.000950
1080.700651	-0.000835
1080.863735	-0.000756
1081.026800	-0.000968
1081.189846	-0.001265
1081.352875	-0.003944
1081.515885	-0.004416
1081.678877	-0.007368
1081.841851	-0.007643
1082.004807	-0.005499
1082.167744	-0.006318
1082.330663	-0.007616
1082.493564	-0.007999
1082.656447	-0.010525
1082.819312	-0.007508
1082.982158	-0.008056
1083.144986	-0.009073
1083.307796	-0.010638
1083.470587	-0.011257
1083.633361	-0.012085
1083.796116	-0.011664
1083.958853	-0.011138
1084.121571	-0.009002
1084.284272	-0.009305
1084.446954	-0.008252
1084.609618	-0.005288
1084.772264	-0.004226
1084.934892	-0.002344
1085.097501	-0.001746
1085.260092	-0.001161
1085.422665	-0.004195
1085.585220	-0.004035
1085.747756	-0.004688
1085.910274	-0.003699
1086.072774	-0.004056
1086.235256	-0.004382
1086.397720	-0.006151
1086.560165	-0.005236
1086.722592	-0.006140
1086.885001	-0.002340
1087.047392	-0.003135
1087.209764	-0.004232
1087.372119	-0.007478
1087.534455	-0.009472
1087.696772	-0.009860
1087.859072	-0.011563
1088.021353	-0.012260
1088.183616	-0.011382
1088.345861	-0.014371
1088.508088	-0.015946
1088.670296	-0.016259
1088.832486	-0.013638
1088.994658	-0.014542
1089.156812	-0.013714
1089.318948	-0.012796
1089.481065	-0.013492
1089.643164	-0.013966
1089.805245	-0.011117
1089.967308	-0.011434
1090.129352	-0.010531
1090.291378	-0.012260
1090.453386	-0.009476
1090.615376	-0.009583
1090.777347	-0.007988
1090.939301	-0.004931
1091.101236	-0.005603
1091.263153	-0.006418
1091.425051	-0.006301
1091.586932	-0.005508
1091.748794	-0.003662
1091.910638	-0.003817
1092.072463	-0.004995
1092.234271	-0.005255
1092.396060	-0.008956
1092.557831	-0.008353
1092.719584	-0.008949
1092.881319	-0.006896
1093.043035	-0.006646
1093.204733	-0.008168
1093.366413	-0.006694
1093.528075	-0.005294
1093.689718	-0.006977
1093.851343	-0.007162
1094.012950	-0.008546
1094.174539	-0.007484
1094.336110	-0.006694
1094.497662	-0.008009
1094.659196	-0.004909
1094.820712	-0.007362
1094.982210	-0.008201
1095.143689	-0.005521
1095.305151	-0.003773
1095.466594	-0.001708
1095.628018	-0.005101
1095.789425	-0.006436
1095.950813	-0.007789
1096.112183	-0.006381
1096.273535	-0.006827
1096.434869	-0.007105
1096.596184	-0.011136
1096.757482	-0.010038
1096.918761	-0.010008
1097.080021	-0.006130
1097.241264	-0.005288
1097.402488	-0.002042
1097.563694	-0.004390
1097.724882	-0.000864
1097.886052	-0.002074
1098.047203	0.001529
1098.208336	0.000438
1098.369451	-0.002350
1098.530548	-0.003858
1098.691627	-0.003891
1098.852687	-0.007402
1099.013729	-0.011723
1099.174753	-0.013604
1099.335758	-0.011307
1099.496746	-0.012883
1099.657715	-0.013491
1099.818666	-0.009277
1099.979599	-0.006918
1100.140513	-0.008069
1100.301409	-0.003696
1100.462287	0.000563
1100.623147	-0.001395
1100.783989	-0.002669
1100.944812	-0.003164
1101.105617	-0.004991
1101.266404	-0.007437
1101.427173	-0.010742
1101.587923	-0.010472
1101.748656	-0.012957
1101.909370	-0.014956
1102.070066	-0.015216
1102.230743	-0.014418
1102.391403	-0.013207
1102.552044	-0.010176
1102.712667	-0.012647
1102.873271	-0.013048
1103.033858	-0.011861
1103.194426	-0.012019
1103.354976	-0.009249
1103.515508	-0.009815
1103.676021	-0.009251
1103.836517	-0.008684
1103.996994	-0.010212
1104.157453	-0.005968
1104.317893	-0.004802
1104.478316	-0.006672
1104.638720	-0.007152
1104.799106	-0.009503
1104.959474	-0.004991
1105.119823	-0.005941
1105.280155	-0.006887
1105.440468	-0.005270
1105.600763	-0.007063
1105.761039	-0.006603
1105.921298	-0.007210
1106.081538	-0.006216
1106.241760	-0.005599
1106.401964	-0.007894
1106.562149	-0.004072
1106.722316	-0.007896
1106.882465	-0.012839
1107.042596	-0.012232
1107.202709	-0.015187
1107.362803	-0.011135
1107.522879	-0.011696
1107.682937	-0.013318
1107.842977	-0.017090
1108.002999	-0.020028
1108.163002	-0.017882
1108.322987	-0.015183
1108.482954	-0.014965
1108.642902	-0.010060
1108.802833	-0.016399
1108.962745	-0.016205
1109.122639	-0.015597
1109.282515	-0.012822
1109.442372	-0.014818
1109.602211	-0.015002
1109.762032	-0.018625
1109.921835	-0.017997
1110.081620	-0.020556
1110.241386	-0.017794
1110.401134	-0.018278
1110.560864	-0.015972
1110.720576	-0.013974
1110.880269	-0.014356
1111.039945	-0.010476
1111.199602	-0.007454
1111.359240	-0.008812
1111.518861	-0.006941
1111.678463	-0.005310
1111.838047	-0.003466
1111.997613	-0.005183
1112.157161	-0.007923
1112.316690	-0.006208
1112.476202	-0.008296
1112.635695	-0.006484
1112.795169	-0.009960
1112.954626	-0.015995
1113.114064	-0.016804
1113.273484	-0.020180
1113.432886	-0.025361
1113.592270	-0.021778
1113.751635	-0.021564
1113.910983	-0.020516
1114.070312	-0.022080
1114.229622	-0.017432
1114.388915	-0.012076
1114.548189	-0.013187
1114.707445	-0.005868
1114.866683	-0.000740
1115.025903	0.000602
1115.185104	-0.001601
1115.344287	-0.004604
1115.503452	-0.004284
1115.662599	-0.008472
1115.821727	-0.010382
1115.980838	-0.008552
1116.139930	-0.012990
1116.299004	-0.012407
1116.458059	-0.012263
1116.617097	-0.008430
1116.776116	-0.005125
1116.935117	-0.007678
1117.094099	-0.005215
1117.253064	-0.006614
1117.412010	-0.002411
1117.570938	-0.002394
1117.729848	-0.003251
1117.888740	-0.010465
1118.047613	-0.011655
1118.206468	-0.011611
1118.365305	-0.009735
1118.524124	-0.008246
1118.682924	-0.004604
1118.841707	-0.009630
1119.000471	-0.008747
1119.159216	-0.007538
1119.317944	-0.007643
1119.476653	-0.006506
1119.635344	-0.006765
1119.794017	-0.004351
1119.952672	-0.006741
1120.111308	-0.010522
1120.269927	-0.006294
1120.428527	-0.005737
1120.587108	-0.006551
1120.745672	-0.000224
1120.904217	0.000877
1121.062744	0.001536
1121.221253	0.001171
1121.379744	0.002152
1121.538216	0.003041
1121.696671	0.000117
1121.855107	-0.002310
1122.013524	-0.000568
1122.171924	-0.005242
1122.330305	-0.007671
1122.488668	-0.005384
1122.647013	-0.008663
1122.805340	-0.010160
1122.963648	-0.010017
1123.121938	-0.012031
1123.280210	-0.013604
1123.438464	-0.013100
1123.596700	-0.007271
1123.754917	-0.007748
1123.913116	-0.014662
1124.071297	-0.010549
1124.229459	-0.006884
1124.387604	-0.007388
1124.545730	-0.005180
1124.703838	-0.002630
1124.861928	-0.000378
1125.019999	0.000289
1125.178052	0.003691
1125.336088	0.008578
1125.494104	0.004172
1125.652103	-0.001973
1125.810083	0.000333
1125.968045	-0.002066
1126.125989	-0.004742
1126.283915	-0.010268
1126.441823	-0.015043
1126.599712	-0.022174
1126.757583	-0.020182
1126.915436	-0.013430
1127.073270	-0.011471
1127.231087	-0.012052
1127.388885	-0.011304
1127.546665	-0.013380
1127.704426	-0.014304
1127.862170	-0.017668
1128.019895	-0.011679
1128.177602	-0.012201
1128.335291	-0.017819
1128.492961	-0.015767
1128.650614	-0.013706
1128.808248	-0.010239
1128.965864	-0.002040
1129.123461	0.000585
1129.281041	0.002759
1129.438602	-0.001364
1129.596145	-0.004316
1129.753670	-0.004361
1129.911176	0.001725
1130.068665	-0.003743
1130.226135	-0.009605
1130.383587	-0.016853
1130.541020	-0.012993
1130.698436	-0.008557
1130.855833	-0.010108
1131.013212	-0.009370
1131.170573	-0.009860
1131.327915	-0.015698
1131.485239	-0.015047
1131.642545	-0.013471
1131.799833	-0.011356
1131.957103	-0.015178
1132.114354	-0.018089
1132.271588	-0.012311
1132.428803	-0.011914
1132.585999	-0.007083
1132.743178	-0.009670
1132.900338	-0.006560
1133.057480	-0.004939
1133.214604	-0.002503
1133.371710	-0.001623
1133.528797	-0.005108
1133.685866	-0.014529
1133.842917	-0.016308
1133.999950	-0.017983
1134.156964	-0.017204
1134.313960	-0.020243
1134.470938	-0.021259
1134.627898	-0.020671
1134.784840	-0.023672
1134.941763	-0.018916
1135.098668	-0.004690
1135.255555	-0.000975
1135.412424	-0.005249
1135.569274	-0.000496
1135.726107	0.008024
1135.882921	0.006773
1136.039716	0.002132
1136.196494	0.007800
1136.353253	0.001425
1136.509995	-0.004447
1136.666717	-0.008890
1136.823422	-0.006402
1136.980109	-0.008804
1137.136777	-0.011231
1137.293427	-0.008188
1137.450059	-0.008253
1137.606672	-0.010649
1137.763267	-0.005140
1137.919844	-0.002014
1138.076403	-0.001999
1138.232944	0.003912
1138.389466	0.003276
1138.545971	-0.004507
1138.702457	-0.002725
1138.858924	0.000670
1139.015374	0.006417
1139.171805	0.005188
1139.328218	0.000414
1139.484613	0.003591
1139.640990	-0.003079
1139.797348	-0.003053
1139.953688	-0.001416
1140.110010	-0.003648
1140.266314	-0.003048
1140.422600	-0.007781
1140.578867	-0.008212
1140.735116	-0.004275
1140.891347	-0.006112
1141.047559	-0.005510
1141.203754	-0.002155
1141.359930	0.001790
1141.516088	0.003706
1141.672228	-0.000275
1141.828349	-0.009478
1141.984452	-0.008374
1142.140537	-0.008066
1142.296604	-0.008137
1142.452653	-0.008241
1142.608683	-0.007582
1142.764695	-0.012730
1142.920689	-0.010484
1143.076665	-0.008205
1143.232622	0.003221
1143.388562	0.006578
1143.544483	-0.001771
1143.700385	0.004002
1143.856270	0.001718
1144.012136	-0.007426
1144.167985	0.001639
1144.323814	0.002570
1144.479626	0.002898
1144.635420	-0.004992
1144.791195	-0.010874
1144.946952	-0.009969
1145.102691	-0.008400
1145.258411	0.005251
1145.414113	0.011613
1145.569798	0.005914
1145.725463	0.005187
1145.881111	0.007228
1146.036741	0.010099
1146.192352	0.008477
1146.347945	0.009475
1146.503519	0.002773
1146.659076	-0.005208
1146.814614	-0.009764
1146.970134	-0.006962
1147.125636	-0.010080
1147.281120	-0.008253
1147.436585	-0.009466
1147.592032	-0.005131
1147.747461	0.000912
1147.902872	-0.004175
1148.058265	-0.006085
1148.213639	-0.006513
1148.368995	-0.010542
1148.524333	-0.010682
1148.679653	-0.013294
1148.834954	-0.008709
1148.990237	-0.008826
1149.145502	-0.013424
1149.300749	-0.016000
1149.455977	-0.016345
1149.611188	-0.012323
1149.766380	-0.013685
1149.921553	-0.018735
1150.076709	-0.024929
1150.231846	-0.022028
1150.386966	-0.029937
1150.542066	-0.030385
1150.697149	-0.028066
1150.852214	-0.027570
1151.007260	-0.026867
1151.162288	-0.025284
1151.317298	-0.016799
1151.472289	-0.008858
1151.627263	-0.009058
1151.782218	-0.007949
1151.937155	-0.001889
1152.092073	0.012219
1152.246974	0.008534
1152.401856	0.014671
1152.556720	0.020314
1152.711566	0.011012
1152.866393	0.010383
1153.021203	0.004785
1153.175994	0.013761
1153.330767	0.018790
1153.485521	0.005292
1153.640258	0.011041
1153.794976	0.013872
1153.949676	0.012220
1154.104358	0.022673
1154.259021	0.022211
1154.413667	0.020072
1154.568294	0.025875
1154.722903	0.015665
1154.877493	0.018165
1155.032066	0.014697
1155.186620	0.007086
1155.341156	0.008221
1155.495674	0.003498
1155.650173	0.002446
1155.804654	0.009552
1155.959118	0.011002
1156.113562	0.009707
1156.267989	0.004381
1156.422397	-0.002387
1156.576788	-0.006267
1156.731160	-0.012647
1156.885513	-0.013699
1157.039849	-0.016024
1157.194166	-0.018998
1157.348465	-0.029964
1157.502746	-0.031026
1157.657009	-0.024987
1157.811253	-0.019770
1157.965479	-0.025748
1158.119687	-0.025880
1158.273877	-0.018521
1158.428048	-0.024999
1158.582201	-0.026000
1158.736337	-0.018236
1158.890453	-0.013453
1159.044552	-0.013077
1159.198632	-0.014298
1159.352694	-0.002501
1159.506738	-0.007097
1159.660764	-0.009102
1159.814771	-0.003674
1159.968761	-0.002069
1160.122732	-0.004807
1160.276685	-0.001472
1160.430619	0.003102
1160.584535	0.009688
1160.738434	0.007799
1160.892313	0.016260
1161.046175	0.015749
1161.200019	0.020190
1161.353844	0.017398
1161.507651	0.016291
1161.661440	0.017500
1161.815210	0.006749
1161.968962	0.005129
1162.122697	0.000894
1162.276412	-0.009417
1162.430110	-0.023446
1162.583789	-0.018958
1162.737451	-0.013869
1162.891094	-0.016633
1163.044718	-0.028194
1163.198325	-0.024383
1163.351913	-0.028799
1163.505483	-0.026316
1163.659035	-0.014891
1163.812569	0.000867
1163.966084	-0.010321
1164.119581	-0.009875
1164.273060	-0.008044
1164.426521	0.003804
1164.579964	0.005977
1164.733388	0.011298
1164.886794	0.017053
1165.040182	0.020405
1165.193551	0.013425
1165.346903	0.031130
1165.500236	0.024520
1165.653551	0.010245
1165.806848	0.004569
1165.960126	0.000562
1166.113386	0.004305
1166.266628	0.005559
1166.419852	0.000338
1166.573058	0.000545
1166.726245	-0.013028
1166.879414	-0.023007
1167.032565	-0.005023
1167.185698	-0.007459
1167.338812	-0.010675
1167.491909	-0.023371
1167.644987	-0.027182
1167.798046	-0.026040
1167.951088	-0.033362
1168.104111	-0.033261
1168.257117	-0.018282
1168.410103	-0.024968
1168.563072	-0.026063
1168.716023	-0.029025
1168.868955	-0.012571
1169.021869	-0.018260
1169.174765	-0.027648
1169.327642	-0.021430
1169.480501	-0.022830
1169.633343	-0.008107
1169.786165	-0.017597
1169.938970	-0.011794
1170.091757	0.012746
1170.244525	-0.005627
1170.397275	-0.009422
1170.550007	0.003439
1170.702720	0.018841
1170.855415	0.020425
1171.008092	0.006020
1171.160751	0.025730
1171.313392	0.030227
1171.466014	-0.036436
1171.618619	0.061485
1171.771205	0.061485
1171.923772	0.061485
