sample name	sample
index	1307
start time	 04-29-2021  04:05:24 PM
880	0.025821
Peak Time (s)	102.036
Peak Height 	0.02582
calc peak height	100,103
Baseline Time (s)	9.037
Baseline Value 	-0.00199
subtract baseline	10,4
Abs	0.026633
Peak Time (s)	101.035
Peak Height 	0.02663
calc peak height	100,103
Baseline Time (s)	9.537
Baseline Value 	4.2299E-4
subtract baseline	10,3
PK_550	0.008326
Peak Time (s)	101.535
Peak Height 	0.008326
calc peak height	100,103
Baseline Time (s)	11.035
Baseline Value 	8.3947E-4
subtract baseline	10,2
PK_880	0.012673
Peak Time (s)	102.535
Peak Height 	0.01267
calc peak height	100,103
Baseline Time (s)	10.035
Baseline Value 	0.001842
subtract baseline	10,1


Time (s)	A880-A510	A880-A775	A880-A975	A880	I510	I775	I975	I880	
0.034500	-0.004967	-0.001581	-0.007672	0.007118	6287.844559	40653.367840	3860.684932	20777.646684
0.535000	-0.001950	-0.001140	0.000414	0.002833	6343.635545	41065.011684	3886.414525	20953.991778
1.035500	-0.004119	-0.000433	0.000235	0.003511	6321.766425	41067.589810	3884.608043	20925.969597
1.538000	-0.002782	-0.001021	0.002478	0.001076	6350.765531	41229.650703	3894.510436	21026.782505
2.036000	-0.006046	-0.000808	-0.007066	0.007623	6275.868444	40676.704158	3860.893493	20757.007794
2.538500	-0.002537	-0.001509	0.001037	-0.000028	6361.198521	41283.790710	3893.793448	21072.671224
3.035500	0.000255	0.000048	0.001232	-0.000724	6388.320994	41482.792902	3895.690475	21101.678485
3.536500	0.000311	-0.000914	-0.004987	-0.000182	6384.530624	41349.832804	3881.394629	21079.097558
4.037000	-0.002531	-0.000537	-0.003475	0.005603	6317.915926	40875.745463	3872.475710	20839.814466
4.537500	-0.002146	-0.000691	0.001307	-0.000152	6365.193144	41366.910313	3894.631931	21077.837120
5.037500	-0.000653	-0.000952	0.000571	-0.000189	6377.073061	41347.109127	3893.144902	21079.382694
5.534500	-0.000740	-0.000058	0.001080	0.000121	6373.990369	41398.669873	3893.568275	21066.474706
6.035500	-0.002671	-0.000641	-0.001881	-0.000133	6360.967289	41369.576330	3887.829944	21077.030448
6.535500	-0.002151	0.000110	-0.001443	0.000241	6362.106203	41402.847125	3887.964659	21061.472508
7.036500	-0.001024	-0.000128	-0.001401	0.000080	6372.100347	41396.113538	3888.396226	21068.187827
7.536000	-0.001576	-0.000589	-0.003943	-0.000378	6371.369547	41395.775761	3883.999312	21087.239962
8.039000	-0.000409	-0.000316	0.002495	0.000612	6372.743843	41332.609871	3895.533520	21046.060576
8.536500	0.000536	-0.000298	-0.000974	0.000341	6382.208674	41358.068050	3888.747697	21057.342015
9.036500	-0.001950	-0.000370	-0.001495	0.000000	6365.530703	41381.755110	3888.364897	21071.511495
9.537000	0.000290	-0.000005	0.000000	-0.000098	6383.708665	41422.667373	3891.738796	21075.582819
10.035000	0.000000	0.000280	0.007013	0.000307	6378.295031	41412.108154	3905.866945	21058.727589
10.535500	-0.000058	0.000413	0.005227	0.000423	6376.947217	41413.650407	3901.779364	21053.926993
11.035000	0.000241	0.000000	0.000713	-0.000430	6385.920484	41452.490798	3893.959337	21089.417412
11.536000	-0.002544	0.000229	-0.000749	-0.000267	6362.994419	41458.329177	3890.508579	21082.610976
12.036000	-0.002270	0.000020	-0.005087	-0.000089	6363.739548	41424.041461	3880.988607	21075.196133
12.539000	-0.003296	-0.001154	0.001607	-0.001131	6363.869442	41412.473415	3897.358265	21118.659721
13.036500	-0.000169	0.000039	-0.000762	-0.002230	6396.782339	41615.459590	3894.649283	21164.558940
13.537000	-0.000869	-0.001232	0.003994	-0.001465	6385.333709	41435.094409	3903.185402	21132.602332
14.056500	-0.004256	-0.000495	-0.004049	0.005376	6306.480587	40899.132465	3871.752628	20849.113802
14.537500	0.000186	-0.000125	-0.000495	0.001979	6366.748078	41229.001479	3886.296937	20989.323640
15.035000	-0.001307	-0.000389	-0.000527	0.000529	6366.419808	41333.479702	3889.293993	21049.515215
15.593500	-0.001005	0.000367	-0.001220	0.000429	6369.535455	41409.008119	3888.040314	21053.672660
16.036000	-0.001864	0.000563	0.000518	0.007008	6312.275309	40849.126424	3877.867217	20782.161754
16.536000	-0.000261	-0.000325	0.005227	-0.000304	6381.024897	41412.597470	3903.339413	21084.176614
17.036000	0.000282	-0.000117	0.005813	-0.000707	6388.405037	41466.651984	3905.468223	21100.979680
17.536500	-0.002926	-0.000200	-0.001804	-0.000295	6360.255955	41422.895982	3888.334842	21083.792273
18.039000	-0.005194	-0.000981	-0.002890	0.002759	6319.297584	41085.427871	3879.626223	20957.040057
18.537500	-0.001339	0.000535	-0.005417	0.000366	6367.425418	41429.350367	3879.344176	21056.269822
19.035000	-0.000436	0.000405	-0.005042	0.001265	6367.464896	41338.587392	3878.249122	21018.955132
19.535000	-0.001771	-0.000622	0.001457	0.000658	6361.818251	41301.540294	3893.228303	21044.136984
20.035000	-0.001713	-0.001173	0.001175	0.001401	6356.516625	41187.707146	3891.050434	21013.276995
20.535500	-0.000476	0.000105	-0.004660	0.000377	6374.049856	41390.439553	3880.908667	21055.837142
21.036000	-0.001423	-0.000862	0.002631	-0.000173	6370.968399	41353.699635	3897.498764	21078.731868
21.536000	-0.000295	-0.000105	-0.000980	0.000939	6371.088956	41322.329506	3887.468714	21032.466027
22.039000	-0.001842	-0.000758	-0.004968	0.001756	6352.778332	41192.970587	3877.376608	20998.569070
22.536500	-0.002192	-0.000425	-0.004431	0.000699	6358.245081	41315.299487	3880.714064	21042.457973
23.037000	-0.000656	-0.000252	0.001479	0.000180	6374.183654	41376.284099	3894.291357	21064.017176
23.540000	-0.000880	-0.000421	0.004463	0.000668	6368.652378	41318.387949	3899.616522	21043.737544
24.038000	-0.005057	-0.000917	-0.001176	0.002127	6325.185935	41146.481056	3884.551238	20983.206592
24.534500	-0.000343	-0.000492	0.002411	0.000750	6372.179895	41304.888768	3895.060777	21040.318964
25.035500	-0.002033	0.000191	0.003471	0.000947	6357.549904	41347.670111	3896.900930	21032.124074
25.535500	0.000174	0.000149	-0.002482	0.001011	6374.177429	41338.449348	3884.153186	21029.499356
26.036000	-0.000191	0.000418	0.002241	0.000913	6372.095406	41370.722175	3894.353791	21033.552541
26.536000	-0.000880	-0.000040	-0.004403	0.000413	6370.630841	41374.495145	3881.372749	21054.348362
27.036500	-0.001071	0.000064	0.004967	0.000920	6365.209350	41338.879283	3900.155227	21033.250411
27.533500	-0.001472	-0.000537	0.003741	0.000250	6367.304318	41344.980493	3898.966324	21061.113494
28.037500	-0.000915	-0.000495	0.002446	-0.000952	6380.979194	41454.870894	3898.768727	21111.188566
28.537000	-0.000465	-0.001080	0.003049	-0.001584	6389.414156	41459.074605	3901.411368	21137.561576
29.035000	0.000308	-0.001422	0.005358	-0.001470	6394.564690	41418.666160	3906.128336	21132.790608
29.540500	0.000782	0.000882	0.005302	0.001824	6372.576398	41331.288884	3898.938076	20995.736738
30.035500	-0.004506	-0.000158	-0.002251	0.005034	6307.177147	40958.345684	3876.205813	20863.175232
30.536000	-0.001020	-0.000929	0.004570	-0.001057	6380.974451	41425.759588	3903.544154	21115.541985
31.036000	-0.000912	0.000055	-0.001630	-0.000035	6373.862747	41422.480402	3888.155422	21072.977776
31.542500	-0.001244	-0.000322	0.005769	0.000703	6365.550071	41323.944031	3902.340601	21042.263711
32.037000	-0.002868	-0.000368	0.000597	0.003501	6331.440057	41074.139924	3885.392492	20926.385550
32.537000	-0.001300	-0.000768	-0.001313	0.000666	6365.403278	41287.954247	3887.343398	21043.805733
33.110500	0.000028	-0.000571	0.005511	-0.000563	6385.299568	41413.780340	3904.507282	21094.969604
33.537000	-0.003462	-0.000914	0.004356	0.001394	6343.066162	41211.050643	3897.835362	21013.571334
34.038000	-0.001558	-0.000271	0.003239	0.000111	6367.715495	41380.743060	3898.191480	21066.905217
34.534500	0.000605	-0.000454	0.006013	-0.000358	6388.202068	41405.964591	3905.145379	21086.421230
35.035000	-0.000125	-0.000641	-0.002536	-0.001874	6394.345020	41523.589661	3890.129084	21149.698117
35.536000	-0.003583	-0.000645	0.001109	0.002493	6333.690958	41138.258646	3888.600209	20968.061840
36.036500	-0.001562	0.000809	0.000814	0.003340	6342.716647	41191.488814	3886.188525	20933.044320
36.536500	-0.001616	0.000074	0.000991	0.001727	6354.746666	41268.669879	3889.970408	20999.767995
37.037000	-0.002011	-0.000055	-0.000135	0.001610	6352.591222	41267.617089	3887.836933	21004.602914
37.539500	-0.001603	-0.000555	0.002095	0.002124	6351.779293	41178.520550	3891.470123	20983.328389
38.034500	-0.000381	-0.000040	0.004064	0.002463	6358.606405	41193.957551	3894.933206	20969.292109
38.538000	-0.000531	-0.000263	0.004633	0.001608	6364.065594	41249.500815	3897.970214	21004.694840
39.035500	-0.001715	-0.000396	0.002046	0.001118	6358.689065	41280.926223	3893.501778	21025.042851
39.535500	-0.003759	-0.001094	0.000330	0.000326	6349.015730	41289.164033	3891.538186	21057.935627
40.035500	-0.002690	-0.000670	-0.001016	0.002104	6343.550661	41170.166779	3884.936826	20984.157982
40.536000	-0.003852	-0.000744	0.000015	0.000978	6343.265525	41262.565502	3889.491280	21030.841135
41.039000	-0.002734	-0.000624	0.002610	0.001365	6348.903721	41239.139882	3894.175646	21014.782411
41.536500	-0.001479	-0.000179	0.001131	0.001560	6357.097471	41261.126301	3890.622707	21006.715445
42.037000	-0.001645	-0.000176	-0.000255	0.002701	6347.006042	41161.077816	3885.281756	20959.447683
42.537500	-0.001559	-0.000106	0.000697	0.001167	6359.520609	41302.175180	3890.536001	21023.017222
43.034500	-0.001242	0.000295	0.003705	0.001950	6355.909197	41268.470312	3895.260337	20990.515462
43.535000	-0.000019	0.000425	-0.003259	0.001746	6366.967056	41297.912161	3880.975524	20998.991492
44.038000	-0.002408	-0.001037	-0.000937	0.001656	6349.171416	41177.189987	3886.047355	21002.704916
44.535500	-0.000192	0.000310	0.004548	0.001689	6366.068366	41292.797274	3897.616420	21001.344822
45.036000	-0.000200	-0.000820	-0.001104	0.000400	6376.021995	41306.866999	3888.347614	21054.877329
45.539000	-0.000917	-0.000447	-0.002066	0.001634	6360.867484	41230.997380	3883.715991	21003.612901
46.036500	-0.004147	0.000235	-0.003024	0.004968	6310.417996	40998.489704	3874.731867	20865.890220
46.566500	0.000045	-0.000275	-0.002520	-0.001161	6390.102465	41492.913379	3888.653555	21119.920220
47.036500	0.000536	0.000331	0.004814	-0.000526	6388.967108	41490.248168	3902.928521	21093.399574
47.537500	0.000221	0.000510	0.001876	-0.000292	6384.679937	41485.357514	3896.140064	21083.654383
48.035000	-0.003145	-0.000402	0.001875	0.004391	6322.487641	40993.329242	3886.210094	20889.682581
48.535000	0.000047	-0.000233	0.002068	-0.000584	6385.610347	41445.554640	3897.174491	21095.839263
49.035500	-0.001432	-0.000230	-0.000615	0.000699	6364.128639	41332.438703	3888.748523	21042.435741
49.535000	-0.003555	-0.000859	0.000040	0.003112	6329.148394	41065.166117	3885.037871	20942.432635
50.036000	-0.003547	-0.000410	-0.001292	0.004639	6317.521004	40970.975254	3879.036272	20879.467294
50.536500	-0.002805	-0.000633	0.003090	-0.001455	6370.186807	41487.137587	3901.223307	21132.172059
51.037000	0.000306	0.000247	0.004534	-0.000452	6386.604050	41476.349576	3902.169152	21090.350333
51.536000	-0.003567	-0.000642	-0.001601	0.003577	6325.496714	41043.515058	3880.612573	20923.256924
52.037000	-0.002407	0.000321	-0.004100	0.007321	6305.752603	40800.930008	3867.619963	20769.366147
52.537000	0.001040	-0.000331	0.004094	0.002909	6366.156955	41129.190283	3894.047403	20950.823170
53.035000	0.003491	-0.029148	0.027073	0.602844	3848.608819	11993.005689	3214.957614	7506.019541
53.535500	-0.037503	-0.034873	-0.023381	0.013244	6007.591320	37389.672299	3817.024855	20528.580587
54.035500	-0.051107	-0.084982	-0.037257	-0.284663	8790.184822	63816.026652	4598.774813	37810.821562
54.535500	-0.028080	-0.132592	-0.016773	-0.344385	10006.078357	65535.000000	4929.095261	42943.394768
55.038500	-0.031278	-0.099892	-0.010245	-0.309008	9410.392371	65150.918817	4803.198604	39818.224041
55.539000	-0.031781	-0.063497	-0.014906	-0.259073	8707.244484	63244.306701	4586.672758	35818.648177
56.036000	-0.027128	-0.047400	-0.020170	-0.237240	8485.788935	62454.447627	4488.902816	34209.359527
56.537000	-0.022446	-0.040751	-0.016061	-0.229334	8445.187539	62282.543718	4475.682485	33646.238080
57.037000	-0.022601	-0.039264	-0.017247	-0.226355	8406.023040	62079.374675	4461.315030	33436.697507
57.534500	-0.023358	-0.033775	-0.016224	-0.212941	8232.395515	61011.813581	4419.376865	32510.850289
58.035500	-0.019992	-0.025082	-0.008950	-0.181617	7906.016719	58068.176083	4341.308322	30456.942521
58.538000	-0.014123	-0.018335	-0.005957	-0.146233	7583.505914	54556.477015	4242.772849	28308.195412
59.035500	-0.011904	-0.010354	-0.010671	-0.121581	7352.642551	52616.456352	4159.573587	26911.391290
59.536000	-0.017755	-0.012885	-0.010863	-0.079172	6894.604807	47742.608960	4048.450252	24686.332428
60.036000	-0.006631	-0.006971	-0.008674	-0.073049	6939.746542	47721.121306	4038.730652	24382.683291
60.535500	-0.010583	-0.010154	-0.008520	-0.084486	7008.278437	48578.498974	4067.629042	24953.387128
61.036500	-0.006282	-0.006287	-0.007117	-0.065310	6873.232786	47001.186996	4023.629305	24004.940692
61.537000	-0.013583	-0.007781	-0.008880	-0.044720	6632.148345	44821.440953	3970.783307	23032.076968
62.034500	-0.009333	-0.005854	-0.002507	-0.028947	6536.979563	43510.305942	3949.360977	22317.413651
62.535000	-0.008251	-0.006598	-0.005810	-0.021164	6482.791782	42723.437624	3924.683523	21974.236583
63.035000	-0.007639	-0.004858	0.000868	-0.014922	6437.899213	42314.161130	3925.642899	21703.409650
63.535000	-0.011784	-0.003864	-0.002486	-0.008145	6352.461772	41794.634394	3903.613577	21413.732057
64.036000	-0.009836	-0.005451	0.002425	-0.016259	6431.095620	42381.519689	3932.030223	21761.065340
64.538500	-0.011551	-0.005992	-0.000403	-0.015819	6414.105140	42292.757522	3924.820649	21742.096525
65.036500	-0.006207	-0.003472	-0.001397	0.004393	6299.115466	40725.802027	3879.331782	20889.600583
65.537000	-0.012941	-0.006209	0.006350	0.008702	6216.226217	40119.261061	3886.557055	20712.936603
66.037000	-0.005731	0.007753	0.001830	0.021437	6175.535590	40224.146000	3850.864045	20200.924371
66.537500	-0.002881	0.009861	-0.012536	0.011812	6268.141160	41242.460982	3841.304103	20586.495032
67.035000	-0.001203	0.011710	-0.011146	0.008945	6302.550787	41659.593269	3849.884548	20703.012225
67.557500	-0.003507	0.014167	-0.005641	0.003450	6326.924915	42373.254267	3872.447978	20928.481148
68.046500	-0.000513	0.014667	-0.006836	-0.000648	6381.742160	42791.951770	3878.498257	21098.503987
68.540500	-0.002302	0.014486	-0.006492	-0.003491	6389.969951	43036.433843	3885.187235	21217.420016
69.036500	0.000334	0.014319	-0.005276	-0.005157	6423.737466	43174.703287	3891.279360	21287.442666
69.536000	-0.000298	0.014692	-0.011623	-0.005148	6418.686490	43208.332368	3877.899080	21287.079321
70.037000	0.001968	0.015365	-0.010216	-0.003940	6427.021547	43158.853454	3878.313880	21236.231992
70.536500	0.001983	0.015301	-0.009552	-0.003609	6424.530126	43122.434833	3879.009988	21222.358264
71.037000	0.005081	0.015289	-0.001942	-0.005072	6460.710206	43256.479143	3898.193288	21283.843699
71.537500	0.004212	0.016413	-0.003256	-0.004389	6448.355326	43297.348247	3893.937252	21255.117870
72.035000	0.001269	0.015236	-0.008976	0.001411	6379.577526	42655.791789	3869.758688	21012.866365
72.538000	0.002372	0.014606	-0.005319	-0.005445	6442.137816	43227.842450	3891.799285	21299.589251
73.035500	0.003931	0.014143	0.000498	-0.006175	6460.335838	43252.527406	3905.795646	21330.362637
73.535500	-0.000737	0.014458	-0.009159	-0.001747	6388.564627	42873.527362	3875.941272	21144.376040
74.039000	0.005755	0.016364	-0.000170	-0.005981	6473.361636	43440.697532	3903.942497	21322.194992
74.536000	0.007834	0.016522	-0.002227	-0.006000	6490.191637	43457.100530	3899.568892	21322.971915
75.036500	0.008755	0.016693	-0.003735	-0.004701	6487.148570	43352.292038	3893.582098	21268.242499
75.537000	0.004613	0.016886	-0.001079	0.000347	6414.086316	42904.140729	3888.511851	21057.089370
76.037000	0.008645	0.017081	0.000336	-0.004946	6488.236643	43411.130474	3902.804099	21278.558053
76.540000	0.008037	0.017432	0.001390	-0.004622	6480.752547	43413.589232	3904.373840	21264.916066
77.035000	0.006735	0.017649	0.000858	-0.004040	6465.674619	43379.702776	3901.979818	21240.463462
77.535000	0.001645	0.016098	-0.003365	-0.000070	6394.071792	42870.080450	3884.568297	21074.422999
78.035500	0.005262	0.015752	0.000709	-0.005037	6461.873331	43296.232083	3903.801706	21282.391404
78.538500	0.006002	0.016552	0.000959	-0.004173	6460.891535	43290.297080	3902.483131	21246.050848
79.036000	0.006483	0.017500	-0.001771	-0.003082	6456.023222	43276.931493	3894.315921	21200.230233
79.536000	0.003825	0.014719	-0.002395	0.000977	6402.942486	42648.145158	3884.405558	21030.879545
80.036500	0.002081	0.013574	0.002244	0.000582	6392.380886	42579.885806	3895.063945	21047.301554
80.539500	0.008309	0.013934	0.003462	-0.004052	6478.359152	43037.154221	3907.607929	21240.936300
81.037000	0.006362	0.012304	0.000765	-0.004922	6469.747061	42967.269448	3903.674806	21277.556125
81.535000	0.003135	0.010620	0.001518	-0.000402	6408.348117	42400.845237	3895.612187	21088.236718
82.035500	0.002338	0.010211	0.000271	-0.000714	6404.544753	42392.120235	3893.623273	21101.264036
82.538500	0.005354	0.009687	0.006586	-0.005223	6464.093154	42754.847762	3916.923763	21290.199797
83.036000	0.005428	0.009089	0.002895	-0.005702	6468.507650	42744.049241	3909.948829	21310.411210
83.536000	0.003678	0.008128	0.000648	-0.007036	6465.182956	42778.133525	3907.976975	21366.748163
84.036000	0.004508	0.008141	0.004371	-0.006236	6465.429949	42706.179572	3914.309749	21332.941598
84.536500	0.003286	0.006498	0.004798	-0.006891	6460.904381	42616.026544	3916.664558	21360.631451
85.036500	0.003664	0.006952	0.004327	-0.006227	6458.623193	42596.923379	3914.193366	21332.572120
85.536500	0.003214	0.006909	0.008088	-0.005220	6447.027523	42501.312634	3920.197891	21290.076014
86.037500	-0.000548	0.006514	0.003408	0.001676	6363.401841	41844.327506	3895.211502	21001.877486
86.534500	0.001951	0.006185	0.009175	-0.003146	6420.631305	42247.991173	3918.042107	21202.942632
87.035500	0.005618	0.006919	0.009415	-0.001217	6434.350748	42140.142650	3914.361442	21122.221240
87.535500	0.003056	0.007124	0.011005	0.003240	6379.256420	41759.259628	3908.152331	20937.162356
88.039000	0.003653	0.006417	0.008952	0.001110	6400.553143	41886.345331	3908.318599	21025.370460
88.536000	0.005415	0.006263	0.008102	0.002367	6404.515059	41760.267411	3903.778795	20973.263235
89.039000	0.004165	0.005772	0.008851	0.002889	6390.647144	41670.062327	3904.265273	20951.670335
89.537000	0.003774	0.006009	0.013488	0.004088	6378.245425	41584.661304	3911.689727	20902.167940
90.036500	0.005129	0.007033	0.010576	0.005456	6378.136281	41554.057916	3902.456313	20845.824548
90.540000	0.006325	0.006623	0.012093	0.006362	6380.394346	41437.465990	3903.767675	20808.621758
91.035000	0.006797	0.007511	0.013758	0.007518	6375.075082	41413.841717	3904.862728	20761.279964
91.535000	0.003814	0.006762	0.006015	0.011342	6322.554836	41011.903979	3880.301743	20605.552703
92.035500	0.003591	0.006854	0.005628	0.014330	6298.055013	40759.531157	3873.254753	20484.787405
92.536000	0.005543	0.007541	0.014961	0.009419	6350.631683	41248.877354	3903.362635	20683.695226
93.035500	0.007411	0.007371	0.018258	0.010130	6359.571747	41171.472019	3908.935816	20654.744880
93.536500	0.006039	0.006853	0.006209	0.013500	6323.064287	40831.563938	3876.195140	20518.252194
94.036500	0.004631	0.007073	0.011128	0.016213	6291.650640	40615.220361	3880.807380	20409.115374
94.533500	0.009116	0.007455	0.016264	0.011746	6360.266726	41037.155503	3901.165228	20589.175276
95.037000	0.007782	0.007347	0.016039	0.012274	6345.877651	40981.554450	3899.552659	20567.805066
95.537000	0.009112	0.007846	0.022768	0.013327	6348.013430	40933.217226	3911.779359	20525.246211
96.034500	0.009241	0.008979	0.017020	0.015132	6335.107300	40874.571547	3895.544863	20452.530264
96.535500	0.009491	0.008398	0.017671	0.014478	6342.064010	40880.965141	3898.331153	20478.846152
97.035500	0.009943	0.007369	0.012096	0.015361	6338.740353	40714.661371	3884.631178	20443.313918
97.538000	0.010453	0.009265	0.017210	0.017290	6327.840009	40711.867509	3891.361848	20365.991005
98.036000	0.010198	0.008134	0.015671	0.016640	6330.871020	40670.106931	3889.476407	20392.000793
98.539000	0.010393	0.007781	0.017564	0.016576	6332.861587	40645.046149	3893.628609	20394.562516
99.037000	0.009941	0.007428	0.010919	0.017333	6323.592463	40549.105867	3878.026427	20364.275265
99.537000	0.012292	0.007797	0.022493	0.018284	6334.333169	40498.864441	3900.503238	20326.287676
100.037000	0.009311	0.007554	0.021064	0.018259	6311.691301	40480.062487	3897.501243	20327.271854
100.534500	0.011578	0.007839	0.019074	0.019068	6322.842887	40434.983556	3891.544056	20295.039978
101.035500	0.010183	0.007969	0.026633	0.020007	6305.011229	40365.283135	3905.692949	20257.641067
101.535000	0.010154	0.008326	0.020910	0.020543	6300.720599	40349.943034	3892.311532	20236.373638
102.036000	0.007109	0.007386	0.018608	0.025821	6238.017814	39819.529629	3876.357432	20028.104097
102.535500	0.012673	0.007934	0.019275	0.020685	6318.844558	40304.099523	3888.544385	20230.732139
103.036000	0.011511	0.007583	0.019681	0.020369	6312.384106	40301.148336	3890.074689	20243.293088
103.537000	0.011054	0.007572	0.024700	0.023258	6286.943151	40053.141164	3894.595334	20128.925606
104.036500	0.013292	0.007615	0.022808	0.021308	6318.816543	40223.424980	3894.719756	20206.040607
104.537000	0.010864	0.006717	0.021059	0.021637	6297.795223	40118.411409	3890.305870	20192.979836
105.037000	0.012871	0.006567	0.023679	0.021637	6313.084916	40105.649690	3895.873715	20193.008988
105.534500	0.011838	0.006569	0.021829	0.022008	6302.383786	40074.118555	3891.150360	20178.293754
106.035000	0.013764	0.007381	0.021285	0.022958	6309.821487	40062.470986	3887.989310	20140.775330
106.535500	0.012760	0.007796	0.020739	0.022951	6302.224493	40098.432207	3886.850602	20141.045214
107.038500	0.012727	0.008297	0.028746	0.023877	6294.933634	40062.151538	3901.917160	20104.502665
107.536000	0.014487	0.008089	0.028604	0.025497	6295.994927	39906.604376	3898.144900	20040.801126
108.050000	0.012660	0.007526	0.022227	0.023864	6294.526162	39997.544690	3888.064361	20105.028563
108.561500	0.015094	0.007819	0.022414	0.024455	6308.549121	39972.229005	3887.212056	20081.775486
109.037000	0.015324	0.008160	0.022531	0.025297	6303.883333	39929.664038	3885.682665	20048.661586
109.534500	0.014131	0.007785	0.025939	0.025677	6291.929699	39865.594059	3892.087185	20033.744275
110.034500	0.014561	0.007571	0.029384	0.025011	6300.252750	39903.942570	3900.854709	20059.907411
110.562500	0.015410	0.008694	0.029179	0.026332	6296.665845	39887.083014	3897.591167	20008.064983
111.035500	0.015751	0.009356	0.027626	0.027017	6294.060043	39885.207909	3892.825966	19981.276981
