sample name	sample
index	743
start time	 03-25-2021  03:55:02 PM


Wavelength (nm)	Absorbance
494.344910	0.001880
494.563924	0.001880
494.782919	0.001880
495.001897	-0.118252
495.220856	-0.044990
495.439797	-0.012214
495.658719	-0.025540
495.877624	-0.001097
496.096510	0.009479
496.315378	-0.099570
496.534227	-0.137581
496.753059	-0.161041
496.971872	-0.092464
497.190667	0.041644
497.409444	0.037631
497.628203	0.038701
497.846943	0.041048
498.065665	0.043695
498.284369	0.044490
498.503055	0.045083
498.721723	0.044759
498.940372	0.044561
499.159003	0.044872
499.377616	0.046372
499.596210	0.046965
499.814787	0.046541
500.033345	0.045898
500.251885	0.047000
500.470406	0.046774
500.688910	0.048132
500.907395	0.048037
501.125862	0.047117
501.344311	0.046308
501.562742	0.046526
501.781154	0.045885
501.999548	0.045544
502.217924	0.044734
502.436282	0.044486
502.654621	0.043795
502.872942	0.042834
503.091245	0.043390
503.309530	0.044401
503.527797	0.044426
503.746045	0.045529
503.964275	0.046090
504.182487	0.045740
504.400681	0.046202
504.618856	0.045272
504.837013	0.046947
505.055152	0.047151
505.273273	0.047106
505.491376	0.047615
505.709460	0.046227
505.927526	0.046347
506.145574	0.046471
506.363604	0.045955
506.581615	0.046629
506.799608	0.046140
507.017583	0.045393
507.235540	0.044067
507.453478	0.043377
507.671399	0.044739
507.889301	0.044701
508.107185	0.044766
508.325050	0.045388
508.542898	0.046160
508.760727	0.046153
508.978538	0.046100
509.196330	0.046656
509.414105	0.045983
509.631861	0.045577
509.849599	0.045000
510.067319	0.044951
510.285021	0.044749
510.502704	0.044394
510.720369	0.043473
510.938016	0.043780
511.155645	0.043791
511.373255	0.044937
511.590848	0.044575
511.808422	0.044873
512.025977	0.044827
512.243515	0.044731
512.461034	0.044222
512.678536	0.044809
512.896018	0.045481
513.113483	0.046107
513.330930	0.045994
513.548358	0.045590
513.765768	0.044975
513.983160	0.044924
514.200533	0.045105
514.417889	0.045242
514.635226	0.045342
514.852545	0.044644
515.069845	0.044029
515.287128	0.043481
515.504392	0.044140
515.721638	0.044544
515.938866	0.044353
516.156075	0.043934
516.373267	0.044035
516.590440	0.044253
516.807594	0.044303
517.024731	0.044200
517.241850	0.044178
517.458950	0.044061
517.676032	0.043894
517.893095	0.043940
518.110141	0.044439
518.327168	0.045020
518.544177	0.044957
518.761168	0.045013
518.978141	0.044631
519.195095	0.044751
519.412031	0.044750
519.628949	0.044703
519.845849	0.044939
520.062731	0.044575
520.279594	0.043980
520.496439	0.043812
520.713266	0.043825
520.930074	0.044725
521.146865	0.044710
521.363637	0.044659
521.580391	0.044678
521.797127	0.044182
522.013844	0.044344
522.230543	0.044440
522.447224	0.044074
522.663887	0.044188
522.880532	0.043787
523.097158	0.043532
523.313766	0.043393
523.530356	0.043440
523.746928	0.044138
523.963481	0.043834
524.180017	0.043569
524.396534	0.044033
524.613032	0.044197
524.829513	0.043776
525.045975	0.044308
525.262420	0.045027
525.478845	0.045018
525.695253	0.044590
525.911643	0.045179
526.128014	0.045659
526.344367	0.045347
526.560702	0.045004
526.777018	0.045366
526.993316	0.045201
527.209597	0.044747
527.425858	0.044674
527.642102	0.044732
527.858328	0.044242
528.074535	0.043642
528.290724	0.044220
528.506894	0.044132
528.723047	0.044015
528.939181	0.043794
529.155297	0.043884
529.371395	0.044123
529.587475	0.044180
529.803536	0.044263
530.019579	0.045005
530.235604	0.044577
530.451611	0.044470
530.667600	0.044759
530.883570	0.045007
531.099522	0.045094
531.315456	0.044918
531.531372	0.044909
531.747269	0.045324
531.963148	0.044799
532.179009	0.044343
532.394852	0.044182
532.610676	0.043439
532.826482	0.043448
533.042271	0.042949
533.258040	0.043175
533.473792	0.043242
533.689525	0.043068
533.905240	0.043295
534.120937	0.043956
534.336616	0.044117
534.552277	0.044809
534.767919	0.044454
534.983543	0.045032
535.199149	0.045103
535.414736	0.044923
535.630306	0.044774
535.845857	0.044861
536.061390	0.044740
536.276904	0.045063
536.492401	0.044916
536.707879	0.045463
536.923339	0.045114
537.138781	0.045039
537.354204	0.045238
537.569610	0.045242
537.784997	0.044820
538.000366	0.044458
538.215716	0.044559
538.431049	0.045013
538.646363	0.044755
538.861659	0.045142
539.076937	0.045089
539.292196	0.045176
539.507438	0.045396
539.722661	0.045648
539.937866	0.046079
540.153052	0.046248
540.368221	0.045710
540.583371	0.046047
540.798503	0.045529
541.013617	0.045416
541.228712	0.045542
541.443789	0.045385
541.658848	0.045610
541.873889	0.045866
542.088912	0.045815
542.303916	0.046168
542.518902	0.046177
542.733870	0.046714
542.948820	0.047097
543.163752	0.046949
543.378665	0.046933
543.593560	0.046867
543.808437	0.047043
544.023295	0.046740
544.238136	0.046954
544.452958	0.046635
544.667762	0.046317
544.882548	0.046094
545.097315	0.046054
545.312064	0.046230
545.526795	0.046271
545.741508	0.045951
545.956203	0.046342
546.170879	0.046166
546.385537	0.046343
546.600177	0.046744
546.814799	0.046880
547.029402	0.047400
547.243988	0.047467
547.458555	0.047669
547.673103	0.047766
547.887634	0.047661
548.102146	0.047340
548.316640	0.047798
548.531116	0.047697
548.745574	0.047918
548.960013	0.047868
549.174435	0.048108
549.388838	0.048086
549.603222	0.048486
549.817589	0.048694
550.031937	0.049380
550.246267	0.049268
550.460579	0.049766
550.674873	0.049591
550.889148	0.049504
551.103405	0.049525
551.317644	0.049490
551.531865	0.049702
551.746068	0.049747
551.960252	0.049554
552.174418	0.049396
552.388566	0.048834
552.602696	0.048938
552.816807	0.049000
553.030900	0.049079
553.244975	0.049488
553.459032	0.048989
553.673070	0.048956
553.887091	0.048806
554.101093	0.048893
554.315077	0.048888
554.529042	0.048967
554.742990	0.048939
554.956919	0.048920
555.170830	0.048559
555.384722	0.048670
555.598597	0.048653
555.812453	0.048417
556.026291	0.048142
556.240111	0.048488
556.453913	0.048690
556.667696	0.048291
556.881461	0.048025
557.095208	0.048023
557.308937	0.047859
557.522647	0.047719
557.736339	0.048237
557.950013	0.048313
558.163669	0.048557
558.377307	0.048432
558.590926	0.048725
558.804527	0.048608
559.018110	0.048725
559.231675	0.048750
559.445221	0.048942
559.658749	0.049063
559.872259	0.049054
560.085751	0.048931
560.299225	0.048896
560.512680	0.048821
560.726117	0.049249
560.939536	0.049207
561.152937	0.049085
561.366319	0.048983
561.579683	0.048730
561.793029	0.048663
562.006357	0.048491
562.219667	0.048417
562.432958	0.048639
562.646231	0.048488
562.859486	0.048334
563.072723	0.048739
563.285941	0.048955
563.499141	0.049141
563.712323	0.049897
563.925487	0.049884
564.138632	0.049991
564.351760	0.050062
564.564869	0.050204
564.777960	0.050397
564.991032	0.050068
565.204087	0.049953
565.417123	0.049993
565.630141	0.049448
565.843140	0.049350
566.056122	0.049425
566.269085	0.049426
566.482030	0.049442
566.694957	0.049671
566.907866	0.049775
567.120756	0.049861
567.333628	0.049845
567.546482	0.050060
567.759318	0.050011
567.972135	0.049816
568.184935	0.050056
568.397716	0.050097
568.610478	0.049848
568.823223	0.049961
569.035949	0.050200
569.248657	0.050325
569.461347	0.050345
569.674019	0.050730
569.886672	0.051059
570.099308	0.050909
570.311925	0.050694
570.524523	0.050750
570.737104	0.050689
570.949666	0.050369
571.162210	0.050201
571.374736	0.050107
571.587244	0.049884
571.799733	0.049927
572.012205	0.049794
572.224658	0.049865
572.437092	0.049868
572.649509	0.049744
572.861907	0.049731
573.074287	0.049814
573.286649	0.049888
573.498993	0.050380
573.711318	0.050498
573.923625	0.050770
574.135914	0.051326
574.348185	0.051458
574.560438	0.051849
574.772672	0.052050
574.984888	0.051996
575.197086	0.052270
575.409266	0.051939
575.621427	0.051808
575.833570	0.051881
576.045695	0.051792
576.257802	0.051939
576.469890	0.051927
576.681961	0.051824
576.894013	0.051757
577.106046	0.051643
577.318062	0.051846
577.530059	0.052210
577.742039	0.052177
577.954000	0.052103
578.165942	0.052181
578.377867	0.052036
578.589773	0.051999
578.801661	0.052000
579.013531	0.052042
579.225382	0.052263
579.437216	0.051944
579.649031	0.051726
579.860828	0.051714
580.072606	0.051620
580.284367	0.051577
580.496109	0.051936
580.707833	0.052245
580.919539	0.052340
581.131227	0.051997
581.342896	0.052059
581.554547	0.052535
581.766180	0.052377
581.977795	0.052369
582.189391	0.052792
582.400969	0.053034
582.612529	0.053264
582.824071	0.053268
583.035595	0.053522
583.247100	0.053621
583.458587	0.053070
583.670056	0.053277
583.881506	0.053469
584.092939	0.053593
584.304353	0.053356
584.515749	0.053328
584.727127	0.053488
584.938486	0.053445
585.149828	0.053319
585.361151	0.053598
585.572456	0.053645
585.783742	0.053457
585.995011	0.053274
586.206261	0.053426
586.417493	0.053301
586.628706	0.053182
586.839902	0.052758
587.051079	0.052689
587.262238	0.052526
587.473379	0.052656
587.684502	0.052751
587.895606	0.052754
588.106692	0.052595
588.317760	0.052378
588.528810	0.052492
588.739841	0.052786
588.950855	0.053005
589.161850	0.053104
589.372827	0.052850
589.583785	0.053055
589.794726	0.053235
590.005648	0.053637
590.216552	0.053964
590.427437	0.053958
590.638305	0.054195
590.849154	0.054230
591.059985	0.054390
591.270798	0.054478
591.481592	0.054544
591.692369	0.054187
591.903127	0.053792
592.113867	0.053800
592.324588	0.053553
592.535292	0.053668
592.745977	0.053579
592.956644	0.053828
593.167293	0.053973
593.377923	0.053990
593.588536	0.054401
593.799130	0.054612
594.009706	0.054624
594.220263	0.054957
594.430803	0.054946
594.641324	0.055465
594.851827	0.055577
595.062312	0.055583
595.272778	0.055640
595.483227	0.055507
595.693657	0.055263
595.904069	0.055375
596.114462	0.055189
596.324838	0.055151
596.535195	0.054606
596.745534	0.054146
596.955855	0.053665
597.166157	0.053395
597.376441	0.053714
597.586707	0.053834
597.796955	0.053721
598.007185	0.053837
598.217396	0.053889
598.427589	0.054107
598.637764	0.054317
598.847921	0.054607
599.058060	0.054833
599.268180	0.054560
599.478282	0.054587
599.688366	0.054717
599.898431	0.054757
600.108479	0.054943
600.318508	0.055198
600.528519	0.055241
600.738511	0.055495
600.948486	0.055321
601.158442	0.055429
601.368380	0.055522
601.578300	0.055459
601.788202	0.055798
601.998085	0.055814
602.207950	0.055916
602.417797	0.055982
602.627626	0.055839
602.837436	0.055864
603.047228	0.055604
603.257002	0.055924
603.466758	0.056136
603.676496	0.055613
603.886215	0.055441
604.095916	0.055163
604.305599	0.055089
604.515264	0.055222
604.724910	0.055272
604.934538	0.055519
605.144148	0.055361
605.353740	0.055209
605.563314	0.055660
605.772869	0.055759
605.982406	0.055758
606.191925	0.055792
606.401425	0.055853
606.610908	0.055543
606.820372	0.055650
607.029818	0.055570
607.239246	0.055569
607.448655	0.055404
607.658047	0.055468
607.867420	0.055373
608.076775	0.055309
608.286111	0.055260
608.495430	0.055731
608.704730	0.055690
608.914012	0.055911
609.123275	0.055879
609.332521	0.056030
609.541748	0.055896
609.750957	0.056160
609.960148	0.056453
610.169321	0.056556
610.378475	0.056594
610.587611	0.056524
610.796729	0.056436
611.005829	0.056803
611.214910	0.056849
611.423974	0.057035
611.633019	0.056978
611.842045	0.056816
612.051054	0.056796
612.260044	0.056772
612.469017	0.056863
612.677970	0.056880
612.886906	0.056638
613.095824	0.056578
613.304723	0.056430
613.513604	0.056576
613.722467	0.056747
613.931311	0.056764
614.140138	0.056821
614.348946	0.056977
614.557736	0.056888
614.766507	0.056965
614.975261	0.056768
615.183996	0.056676
615.392713	0.056512
615.601412	0.056525
615.810092	0.056654
616.018754	0.056717
616.227399	0.056707
616.436024	0.056803
616.644632	0.056755
616.853222	0.056999
617.061793	0.057272
617.270346	0.057396
617.478880	0.057610
617.687397	0.057571
617.895895	0.057471
618.104375	0.057307
618.312837	0.057274
618.521281	0.057301
618.729706	0.057340
618.938113	0.057143
619.146502	0.057180
619.354873	0.057075
619.563226	0.056993
619.771560	0.057148
619.979876	0.057443
620.188174	0.057365
620.396453	0.057525
620.604715	0.057466
620.812958	0.057788
621.021183	0.057865
621.229390	0.057866
621.437578	0.057894
621.645748	0.057735
621.853900	0.057434
622.062034	0.057617
622.270150	0.057614
622.478247	0.057743
622.686326	0.057556
622.894387	0.057524
623.102430	0.057485
623.310454	0.057645
623.518461	0.057657
623.726449	0.058010
623.934418	0.058121
624.142370	0.058138
624.350303	0.058167
624.558218	0.058237
624.766115	0.058227
624.973994	0.058338
625.181855	0.058250
625.389697	0.058496
625.597521	0.058302
625.805327	0.057983
626.013114	0.058036
626.220883	0.058123
626.428634	0.058139
626.636367	0.058136
626.844082	0.058001
627.051778	0.058023
627.259457	0.058179
627.467117	0.058424
627.674758	0.058688
627.882382	0.058557
628.089987	0.058468
628.297574	0.058325
628.505143	0.058423
628.712694	0.058507
628.920226	0.058559
629.127740	0.058439
629.335236	0.058471
629.542714	0.058513
629.750174	0.058679
629.957615	0.058687
630.165038	0.059011
630.372443	0.058987
630.579829	0.059000
630.787198	0.059094
630.994548	0.059004
631.201880	0.058999
631.409194	0.059086
631.616489	0.059046
631.823766	0.059132
632.031025	0.059157
632.238266	0.059255
632.445489	0.059402
632.652693	0.059240
632.859879	0.059329
633.067047	0.059394
633.274197	0.059312
633.481329	0.059344
633.688442	0.059262
633.895537	0.059142
634.102614	0.058894
634.309672	0.058884
634.516713	0.059042
634.723735	0.058941
634.930739	0.058933
635.137724	0.059153
635.344692	0.059200
635.551641	0.059502
635.758572	0.059645
635.965485	0.059864
636.172379	0.059815
636.379256	0.059870
636.586114	0.060152
636.792954	0.060139
636.999775	0.060125
637.206579	0.060040
637.413364	0.059782
637.620131	0.059689
637.826880	0.059908
638.033610	0.060042
638.240323	0.060160
638.447017	0.059880
638.653692	0.060032
638.860350	0.059934
639.066990	0.059948
639.273611	0.059911
639.480214	0.060055
639.686798	0.059736
639.893365	0.059578
640.099913	0.059472
640.306443	0.059715
640.512955	0.059470
640.719449	0.059628
640.925924	0.059647
641.132381	0.059756
641.338820	0.059753
641.545241	0.059820
641.751644	0.059943
641.958028	0.059913
642.164394	0.059755
642.370742	0.059812
642.577071	0.059749
642.783383	0.059807
642.989676	0.059693
643.195951	0.059937
643.402207	0.060147
643.608446	0.060015
643.814666	0.060140
644.020868	0.060143
644.227052	0.060232
644.433218	0.060212
644.639365	0.060232
644.845494	0.060389
645.051605	0.060046
645.257698	0.059982
645.463772	0.060029
645.669828	0.060112
645.875866	0.060351
646.081886	0.060354
646.287888	0.060566
646.493871	0.060663
646.699836	0.060792
646.905783	0.061127
647.111712	0.061150
647.317622	0.061294
647.523514	0.061228
647.729388	0.061246
647.935244	0.061064
648.141082	0.060867
648.346901	0.060861
648.552702	0.060843
648.758485	0.060690
648.964250	0.060659
649.169996	0.060755
649.375724	0.060864
649.581434	0.060807
649.787126	0.061044
649.992800	0.061138
650.198455	0.060987
650.404092	0.061052
650.609711	0.061010
650.815311	0.061246
651.020894	0.061234
651.226458	0.060976
651.432004	0.061258
651.637532	0.061283
651.843041	0.061344
652.048532	0.061637
652.254006	0.061669
652.459460	0.061659
652.664897	0.061529
652.870315	0.061528
653.075716	0.061754
653.281097	0.061476
653.486461	0.061613
653.691807	0.061573
653.897134	0.061451
654.102443	0.061420
654.307734	0.061619
654.513006	0.061719
654.718261	0.061685
654.923497	0.061761
655.128715	0.061934
655.333915	0.061738
655.539096	0.061843
655.744259	0.062077
655.949404	0.062116
656.154531	0.062220
656.359640	0.062320
656.564730	0.062380
656.769802	0.062475
656.974856	0.062344
657.179892	0.062585
657.384909	0.062605
657.589908	0.062629
657.794889	0.062524
657.999852	0.062475
658.204797	0.062563
658.409723	0.062822
658.614631	0.062771
658.819521	0.063078
659.024393	0.062942
659.229246	0.062895
659.434081	0.062820
659.638898	0.062910
659.843697	0.062699
660.048478	0.062531
660.253240	0.062239
660.457984	0.062326
660.662710	0.062082
660.867417	0.062178
661.072107	0.062273
661.276778	0.062179
661.481431	0.062249
661.686066	0.062272
661.890682	0.062224
662.095281	0.062446
662.299861	0.062540
662.504422	0.062834
662.708966	0.062786
662.913491	0.062815
663.117999	0.062953
663.322488	0.063090
663.526958	0.063188
663.731411	0.063516
663.935845	0.063427
664.140261	0.063409
664.344659	0.063240
664.549038	0.063425
664.753400	0.063371
664.957743	0.063440
665.162068	0.063542
665.366375	0.063640
665.570663	0.063709
665.774933	0.063804
665.979185	0.063915
666.183419	0.064147
666.387635	0.064034
666.591832	0.064223
666.796011	0.064419
667.000172	0.064218
667.204315	0.064291
667.408439	0.064002
667.612545	0.064042
667.816634	0.064152
668.020703	0.064113
668.224755	0.064213
668.428788	0.064156
668.632803	0.064078
668.836800	0.064345
669.040779	0.064481
669.244739	0.064606
669.448681	0.064737
669.652605	0.064518
669.856511	0.064464
670.060399	0.064519
670.264268	0.064478
670.468119	0.064431
670.671952	0.064230
670.875767	0.064281
671.079563	0.064252
671.283341	0.064262
671.487101	0.064388
671.690843	0.064480
671.894567	0.064429
672.098272	0.064644
672.301959	0.064750
672.505628	0.064803
672.709278	0.064809
672.912911	0.064916
673.116525	0.064918
673.320121	0.064955
673.523699	0.064933
673.727258	0.064793
673.930799	0.064723
674.134322	0.064772
674.337827	0.064697
674.541314	0.064680
674.744782	0.064798
674.948232	0.064883
675.151664	0.064911
675.355078	0.064899
675.558474	0.065225
675.761851	0.065211
675.965210	0.065291
676.168551	0.065374
676.371873	0.065449
676.575178	0.065527
676.778464	0.065459
676.981732	0.065347
677.184981	0.065278
677.388213	0.065241
677.591426	0.065365
677.794621	0.065505
677.997798	0.065707
678.200956	0.065673
678.404097	0.065548
678.607219	0.065763
678.810323	0.066018
679.013408	0.066160
679.216476	0.066313
679.419525	0.066551
679.622556	0.066448
679.825569	0.066456
680.028563	0.066533
680.231540	0.066544
680.434498	0.066410
680.637438	0.066448
680.840359	0.066550
681.043263	0.066476
681.246148	0.066228
681.449015	0.066127
681.651864	0.066136
681.854694	0.066134
682.057506	0.066168
682.260301	0.066182
682.463076	0.066046
682.665834	0.065955
682.868573	0.065975
683.071295	0.066009
683.273998	0.065995
683.476682	0.065905
683.679349	0.065915
683.881997	0.065915
684.084627	0.065960
684.287239	0.065979
684.489833	0.066060
684.692408	0.066019
684.894965	0.066060
685.097504	0.066227
685.300025	0.066376
685.502527	0.066308
685.705012	0.066323
685.907478	0.066281
686.109925	0.066447
686.312355	0.066695
686.514766	0.066953
686.717159	0.067110
686.919534	0.067215
687.121891	0.067310
687.324230	0.067582
687.526550	0.067780
687.728852	0.067931
687.931136	0.067820
688.133401	0.067636
688.335649	0.067565
688.537878	0.067404
688.740089	0.067441
688.942281	0.067362
689.144456	0.067223
689.346612	0.067030
689.548750	0.066867
689.750870	0.067045
689.952971	0.066933
690.155055	0.066867
690.357120	0.066956
690.559167	0.066881
690.761195	0.066962
690.963206	0.066895
691.165198	0.066938
691.367172	0.067156
691.569128	0.066907
691.771065	0.067116
691.972984	0.066942
692.174885	0.066951
692.376768	0.066920
692.578633	0.066845
692.780479	0.066972
692.982308	0.067063
693.184118	0.066966
693.385909	0.066992
693.587683	0.066991
693.789438	0.067182
693.991175	0.067249
694.192894	0.067366
694.394595	0.067273
694.596277	0.067298
694.797941	0.067405
694.999587	0.067438
695.201215	0.067665
695.402824	0.067685
695.604416	0.067943
695.805989	0.067900
696.007543	0.067907
696.209080	0.068240
696.410598	0.068214
696.612099	0.068262
696.813580	0.068143
697.015044	0.068097
697.216490	0.068051
697.417917	0.067885
697.619326	0.067985
697.820717	0.067956
698.022089	0.067781
698.223444	0.067856
698.424780	0.067738
698.626098	0.067832
698.827397	0.067842
699.028679	0.067851
699.229942	0.067832
699.431187	0.067796
699.632414	0.067672
699.833622	0.067684
700.034813	0.067657
700.235985	0.067657
700.437139	0.067929
700.638274	0.067998
700.839392	0.068222
701.040491	0.068514
701.241572	0.068748
701.442635	0.068988
701.643679	0.069093
701.844706	0.069188
702.045714	0.069161
702.246704	0.069200
702.447675	0.069226
702.648629	0.069184
702.849564	0.069054
703.050481	0.068965
703.251380	0.068927
703.452260	0.068953
703.653122	0.068932
703.853966	0.069081
704.054792	0.068916
704.255600	0.068934
704.456389	0.068809
704.657160	0.068776
704.857913	0.068485
705.058648	0.068400
705.259365	0.068359
705.460063	0.068151
705.660743	0.068159
705.861405	0.068078
706.062048	0.068035
706.262674	0.067965
706.463281	0.067914
706.663870	0.068148
706.864441	0.068088
707.064993	0.068098
707.265527	0.068214
707.466043	0.068211
707.666541	0.068356
707.867021	0.068469
708.067482	0.068713
708.267925	0.068824
708.468350	0.068863
708.668757	0.069071
708.869145	0.069155
709.069516	0.069365
709.269868	0.069446
709.470201	0.069489
709.670517	0.069489
709.870814	0.069497
710.071093	0.069585
710.271354	0.069588
710.471597	0.069567
710.671821	0.069550
710.872028	0.069478
711.072216	0.069592
711.272385	0.069470
711.472537	0.069410
711.672670	0.069317
711.872785	0.069246
712.072882	0.069320
712.272961	0.069361
712.473021	0.069292
712.673063	0.069331
712.873087	0.069282
713.073093	0.069424
713.273081	0.069294
713.473050	0.069162
713.673001	0.069019
713.872934	0.069001
714.072849	0.069140
714.272745	0.069225
714.472623	0.069199
714.672483	0.069158
714.872325	0.069039
715.072148	0.069238
715.271954	0.069355
715.471741	0.069520
715.671509	0.069390
715.871260	0.069110
716.070992	0.069129
716.270707	0.069255
716.470403	0.069367
716.670080	0.069344
716.869740	0.069411
717.069381	0.069490
717.269004	0.069453
717.468609	0.069644
717.668195	0.069853
717.867764	0.069836
718.067314	0.069731
718.266846	0.069501
718.466360	0.069546
718.665855	0.069445
718.865332	0.069330
719.064791	0.069150
719.264232	0.068941
719.463655	0.068786
719.663059	0.068698
719.862445	0.068702
720.061813	0.068729
720.261163	0.068615
720.460494	0.068331
720.659807	0.068263
720.859102	0.068356
721.058379	0.068410
721.257638	0.068345
721.456878	0.068245
721.656100	0.068273
721.855304	0.068211
722.054490	0.068265
722.253657	0.068319
722.452806	0.068355
722.651937	0.068292
722.851050	0.068218
723.050145	0.068167
723.249221	0.068176
723.448279	0.068182
723.647319	0.068044
723.846340	0.068196
724.045344	0.068342
724.244329	0.068367
724.443296	0.068560
724.642245	0.068495
724.841175	0.068594
725.040088	0.068643
725.238982	0.068551
725.437857	0.068951
725.636715	0.068983
725.835554	0.069129
726.034376	0.069320
726.233179	0.069445
726.431963	0.069654
726.630730	0.069699
726.829478	0.069827
727.028208	0.069931
727.226920	0.069664
727.425614	0.069483
727.624289	0.069337
727.822946	0.069147
728.021585	0.068883
728.220206	0.068664
728.418808	0.068704
728.617392	0.068716
728.815958	0.068567
729.014506	0.068521
729.213036	0.068502
729.411547	0.068456
729.610040	0.068477
729.808515	0.068618
730.006972	0.068791
730.205410	0.068697
730.403831	0.068600
730.602233	0.068583
730.800616	0.068657
730.998982	0.068683
731.197329	0.068818
731.395658	0.068956
731.593969	0.068780
731.792262	0.068786
731.990536	0.068794
732.188793	0.068674
732.387031	0.068695
732.585250	0.068743
732.783452	0.068741
732.981635	0.068610
733.179800	0.068258
733.377947	0.068201
733.576076	0.067826
733.774186	0.067604
733.972278	0.067598
734.170352	0.067525
734.368408	0.067348
734.566446	0.067181
734.764465	0.067093
734.962466	0.067313
735.160449	0.067250
735.358413	0.067501
735.556360	0.067597
735.754288	0.067560
735.952198	0.067771
736.150090	0.067846
736.347963	0.068150
736.545818	0.068137
736.743655	0.067984
736.941474	0.068113
737.139275	0.068114
737.337057	0.068177
737.534821	0.068259
737.732567	0.067981
737.930295	0.067962
738.128005	0.067716
738.325696	0.067800
738.523369	0.067594
738.721024	0.067488
738.918660	0.067241
739.116279	0.067098
739.313879	0.067016
739.511461	0.067017
739.709024	0.066912
739.906570	0.066771
740.104097	0.066551
740.301606	0.066758
740.499097	0.066766
740.696569	0.066826
740.894024	0.066737
741.091460	0.066682
741.288878	0.066566
741.486277	0.066447
741.683659	0.066442
741.881022	0.066369
742.078367	0.066286
742.275694	0.066200
742.473002	0.066014
742.670293	0.066036
742.867565	0.066092
743.064819	0.066082
743.262054	0.066108
743.459272	0.066020
743.656471	0.066169
743.853652	0.066287
744.050815	0.066103
744.247959	0.066246
744.445085	0.066248
744.642194	0.066341
744.839283	0.066285
745.036355	0.066267
745.233408	0.066419
745.430444	0.066311
745.627461	0.066011
745.824459	0.066065
746.021440	0.066055
746.218402	0.065949
746.415346	0.066062
746.612272	0.066153
746.809180	0.066250
747.006069	0.066209
747.202940	0.066319
747.399793	0.066416
747.596628	0.066465
747.793444	0.066428
747.990243	0.066528
748.187023	0.066294
748.383784	0.066315
748.580528	0.066137
748.777253	0.066051
748.973960	0.065767
749.170649	0.065641
749.367320	0.065571
749.563973	0.065375
749.760607	0.065265
749.957223	0.065076
750.153821	0.064975
750.350400	0.064968
750.546962	0.064962
750.743505	0.065153
750.940030	0.065257
751.136536	0.065325
751.333025	0.065704
751.529495	0.065898
751.725947	0.065886
751.922381	0.065824
752.118796	0.065955
752.315194	0.066108
752.511573	0.066128
752.707934	0.066271
752.904276	0.066266
753.100601	0.066129
753.296907	0.065944
753.493195	0.065932
753.689465	0.065904
753.885716	0.065639
754.081949	0.065469
754.278164	0.065344
754.474361	0.065202
754.670540	0.065223
754.866700	0.065146
755.062843	0.065099
755.258967	0.065168
755.455072	0.065120
755.651160	0.065381
755.847229	0.065269
756.043280	0.065356
756.239313	0.065219
756.435328	0.064967
756.631324	0.064957
756.827302	0.064892
757.023262	0.064904
757.219204	0.064778
757.415127	0.064371
757.611033	0.064185
757.806920	0.063984
758.002788	0.063929
758.198639	0.063805
758.394471	0.063582
758.590286	0.063690
758.786081	0.063502
758.981859	0.063671
759.177619	0.063693
759.373360	0.063845
759.569083	0.063804
759.764788	0.063931
759.960474	0.064113
760.156143	0.064399
760.351793	0.064203
760.547425	0.064411
760.743038	0.064350
760.938634	0.064694
761.134211	0.064838
761.329770	0.064910
761.525311	0.064765
761.720833	0.065017
761.916338	0.065022
762.111824	0.065115
762.307292	0.065013
762.502741	0.065175
762.698173	0.065097
762.893586	0.065128
763.088981	0.065123
763.284358	0.065197
763.479716	0.065043
763.675057	0.064899
763.870379	0.064813
764.065683	0.064738
764.260968	0.064451
764.456236	0.064393
764.651485	0.064279
764.846716	0.064334
765.041929	0.064345
765.237123	0.064078
765.432299	0.064124
765.627457	0.064053
765.822597	0.064045
766.017719	0.064100
766.212822	0.064104
766.407907	0.064062
766.602974	0.064027
766.798023	0.064062
766.993054	0.064183
767.188066	0.064143
767.383060	0.064441
767.578036	0.064320
767.772993	0.064294
767.967933	0.064092
768.162854	0.064069
768.357757	0.064077
768.552642	0.064093
768.747508	0.063925
768.942356	0.063649
769.137186	0.063288
769.331998	0.063317
769.526792	0.063245
769.721567	0.063218
769.916324	0.063160
770.111063	0.062973
770.305784	0.062727
770.500486	0.062787
770.695171	0.062946
770.889837	0.063003
771.084484	0.062920
771.279114	0.062958
771.473725	0.063111
771.668318	0.062955
771.862893	0.063069
772.057450	0.063094
772.251988	0.063297
772.446509	0.063393
772.641011	0.063488
772.835494	0.063582
773.029960	0.063617
773.224407	0.063512
773.418836	0.063676
773.613247	0.063736
773.807640	0.063747
774.002014	0.063507
774.196370	0.063325
774.390708	0.063238
774.585028	0.063158
774.779330	0.063156
774.973613	0.063338
775.167878	0.063224
775.362125	0.063030
775.556354	0.063065
775.750564	0.063245
775.944756	0.063202
776.138930	0.063104
776.333086	0.062979
776.527223	0.062754
776.721343	0.062567
776.915444	0.062698
777.109526	0.062644
777.303591	0.062566
777.497637	0.062532
777.691666	0.062720
777.885676	0.062967
778.079667	0.063071
778.273641	0.063267
778.467596	0.063263
778.661533	0.063099
778.855452	0.063066
779.049352	0.063127
779.243235	0.063047
779.437099	0.062913
779.630945	0.062757
779.824773	0.062771
780.018582	0.062686
780.212373	0.062833
780.406146	0.062885
780.599901	0.062920
780.793638	0.062846
780.987356	0.062923
781.181056	0.063010
781.374738	0.062987
781.568402	0.063055
781.762047	0.063044
781.955674	0.062970
782.149283	0.063040
782.342874	0.062996
782.536447	0.063171
782.730001	0.063009
782.923537	0.062947
783.117055	0.062962
783.310555	0.062963
783.504036	0.062908
783.697499	0.062881
783.890944	0.062843
784.084371	0.062909
784.277780	0.062924
784.471170	0.062996
784.664542	0.062872
784.857896	0.062865
785.051231	0.062720
785.244549	0.062701
785.437848	0.062691
785.631129	0.062659
785.824392	0.062626
786.017636	0.062464
786.210863	0.062420
786.404071	0.062432
786.597260	0.062543
786.790432	0.062798
786.983585	0.062890
787.176721	0.062791
787.369838	0.063062
787.562936	0.063161
787.756017	0.063117
787.949079	0.063230
788.142123	0.063191
788.335149	0.062992
788.528156	0.062844
788.721146	0.062767
788.914117	0.062757
789.107070	0.062230
789.300005	0.062141
789.492921	0.062044
789.685819	0.061794
789.878699	0.061832
790.071561	0.061880
790.264405	0.061860
790.457230	0.061889
790.650037	0.061881
790.842826	0.062207
791.035597	0.062306
791.228349	0.062458
791.421084	0.062587
791.613800	0.062563
791.806497	0.062583
791.999177	0.062712
792.191838	0.062858
792.384481	0.062989
792.577106	0.063124
792.769713	0.063095
792.962301	0.063266
793.154871	0.063295
793.347423	0.063456
793.539957	0.063612
793.732473	0.063578
793.924970	0.063605
794.117449	0.063768
794.309910	0.063635
794.502353	0.063751
794.694777	0.063551
794.887183	0.063624
795.079571	0.063678
795.271941	0.063729
795.464293	0.063705
795.656626	0.063758
795.848941	0.063819
796.041238	0.063899
796.233516	0.064019
796.425777	0.064080
796.618019	0.064135
796.810243	0.064157
797.002449	0.064157
797.194636	0.064379
797.386805	0.064276
797.578956	0.064068
797.771089	0.064166
797.963204	0.064070
798.155300	0.064108
798.347378	0.064216
798.539438	0.064113
798.731480	0.063997
798.923503	0.063773
799.115509	0.063821
799.307496	0.063575
799.499465	0.063429
799.691415	0.063275
799.883348	0.063315
800.075262	0.063156
800.267158	0.063066
800.459035	0.062996
800.650895	0.062815
800.842736	0.062759
801.034559	0.063167
801.226364	0.063081
801.418150	0.063149
801.609919	0.063180
801.801669	0.063143
801.993401	0.063285
802.185114	0.063318
802.376810	0.063362
802.568487	0.063433
802.760146	0.063264
802.951787	0.063440
803.143409	0.063380
803.335014	0.063446
803.526600	0.063649
803.718168	0.063669
803.909717	0.063690
804.101249	0.063984
804.292762	0.063849
804.484257	0.064057
804.675734	0.064115
804.867192	0.064107
805.058632	0.064279
805.250054	0.064311
805.441458	0.064478
805.632844	0.064773
805.824211	0.064783
806.015561	0.064910
806.206891	0.064844
806.398204	0.064816
806.589499	0.065220
806.780775	0.065030
806.972033	0.065013
807.163273	0.064876
807.354495	0.064842
807.545698	0.064960
807.736883	0.065111
807.928050	0.065175
808.119199	0.065033
808.310329	0.064874
808.501441	0.064843
808.692535	0.064706
808.883611	0.064824
809.074669	0.064739
809.265708	0.064629
809.456729	0.064637
809.647732	0.064729
809.838717	0.064992
810.029683	0.065211
810.220632	0.065291
810.411562	0.065355
810.602474	0.065416
810.793367	0.065590
810.984242	0.065678
811.175100	0.065644
811.365938	0.065482
811.556759	0.065391
811.747562	0.065234
811.938346	0.065274
812.129112	0.065276
812.319860	0.065201
812.510589	0.064997
812.701300	0.065013
812.891994	0.065086
813.082668	0.065189
813.273325	0.065291
813.463964	0.065268
813.654584	0.065341
813.845186	0.065500
814.035769	0.065657
814.226335	0.065619
814.416882	0.065668
814.607411	0.065762
814.797922	0.065776
814.988415	0.065581
815.178889	0.065701
815.369345	0.065736
815.559783	0.065719
815.750203	0.065779
815.940605	0.065946
816.130988	0.065946
816.321353	0.065909
816.511700	0.066074
816.702028	0.066391
816.892339	0.066317
817.082631	0.066211
817.272905	0.066216
817.463161	0.066134
817.653398	0.066089
817.843617	0.066091
818.033819	0.066178
818.224001	0.066091
818.414166	0.066088
818.604312	0.066065
818.794440	0.066209
818.984550	0.066391
819.174642	0.066373
819.364716	0.066600
819.554771	0.066783
819.744808	0.066755
819.934827	0.066655
820.124827	0.066682
820.314810	0.066928
820.504774	0.066766
820.694720	0.066795
820.884647	0.066829
821.074557	0.066651
821.264448	0.066526
821.454321	0.066616
821.644176	0.066716
821.834012	0.066882
822.023831	0.066778
822.213631	0.066826
822.403413	0.066853
822.593176	0.066747
822.782922	0.066809
822.972649	0.066713
823.162358	0.066555
823.352049	0.066634
823.541721	0.066215
823.731376	0.066279
823.921012	0.066485
824.110629	0.066195
824.300229	0.066325
824.489811	0.066365
824.679374	0.066566
824.868919	0.066748
825.058445	0.066643
825.247954	0.066934
825.437444	0.066985
825.626916	0.067036
825.816370	0.067315
826.005806	0.067496
826.195223	0.067514
826.384622	0.067591
826.574003	0.067652
826.763366	0.067943
826.952711	0.067825
827.142037	0.068039
827.331345	0.068151
827.520635	0.068309
827.709906	0.068426
827.899160	0.068576
828.088395	0.068477
828.277612	0.068570
828.466810	0.068751
828.655991	0.069019
828.845153	0.068770
829.034297	0.068941
829.223423	0.069050
829.412531	0.069014
829.601620	0.069088
829.790691	0.069195
829.979744	0.069453
830.168779	0.069314
830.357795	0.069279
830.546793	0.069415
830.735773	0.069228
830.924735	0.069080
831.113679	0.069075
831.302604	0.069086
831.491511	0.069217
831.680400	0.068866
831.869271	0.069010
832.058123	0.069151
832.246957	0.069216
832.435773	0.069194
832.624571	0.069294
832.813351	0.069510
833.002112	0.069651
833.190855	0.069644
833.379580	0.069578
833.568287	0.069577
833.756975	0.069714
833.945645	0.069828
834.134297	0.070154
834.322931	0.070207
834.511547	0.070239
834.700144	0.070183
834.888723	0.070387
835.077284	0.070976
835.265826	0.071008
835.454351	0.071085
835.642857	0.071416
835.831345	0.071426
836.019815	0.071515
836.208266	0.071649
836.396699	0.071785
836.585114	0.071813
836.773511	0.071634
836.961890	0.071554
837.150250	0.071720
837.338592	0.071547
837.526916	0.071563
837.715222	0.071627
837.903510	0.071503
838.091779	0.071670
838.280030	0.071789
838.468263	0.071893
838.656477	0.072240
838.844674	0.072161
839.032852	0.072488
839.221012	0.072670
839.409153	0.072891
839.597277	0.073111
839.785382	0.073217
839.973469	0.073407
840.161538	0.073560
840.349589	0.073691
840.537621	0.073625
840.725635	0.073497
840.913631	0.073287
841.101609	0.073143
841.289568	0.072880
841.477509	0.072871
841.665432	0.072711
841.853337	0.072618
842.041224	0.072690
842.229092	0.072875
842.416942	0.072832
842.604774	0.073042
842.792588	0.073139
842.980383	0.073447
843.168160	0.073633
843.355919	0.073753
843.543660	0.073960
843.731382	0.073937
843.919087	0.073855
844.106773	0.074114
844.294441	0.074208
844.482090	0.074516
844.669722	0.074598
844.857335	0.074669
845.044930	0.074684
845.232507	0.074528
845.420065	0.074626
845.607605	0.074706
845.795127	0.074428
845.982631	0.074301
846.170117	0.073960
846.357584	0.073852
846.545033	0.073625
846.732464	0.073588
846.919877	0.073819
847.107272	0.073699
847.294648	0.073879
847.482006	0.074266
847.669346	0.074611
847.856667	0.074986
848.043971	0.075446
848.231256	0.075793
848.418523	0.075983
848.605771	0.076076
848.793002	0.076349
848.980214	0.076411
849.167408	0.076097
849.354584	0.075832
849.541742	0.075849
849.728881	0.075735
849.916002	0.075728
850.103105	0.075773
850.290190	0.075774
850.477256	0.075693
850.664304	0.075614
850.851334	0.076105
851.038346	0.076467
851.225340	0.076453
851.412315	0.076487
851.599272	0.076507
851.786211	0.076587
851.973132	0.076893
852.160034	0.077114
852.346918	0.077204
852.533784	0.077115
852.720632	0.077021
852.907462	0.077259
853.094273	0.077455
853.281066	0.077615
853.467841	0.077746
853.654598	0.077636
853.841336	0.077622
854.028056	0.077851
854.214758	0.077962
854.401442	0.078212
854.588107	0.078345
854.774755	0.078244
854.961384	0.078289
855.147995	0.078506
855.334587	0.078780
855.521162	0.078800
855.707718	0.078867
855.894256	0.079140
856.080775	0.079111
856.267277	0.078982
856.453760	0.079126
856.640225	0.079098
856.826672	0.078908
857.013101	0.078907
857.199511	0.079119
857.385903	0.079057
857.572277	0.078956
857.758633	0.078953
857.944970	0.079085
858.131290	0.079232
858.317591	0.079251
858.503873	0.079389
858.690138	0.079540
858.876384	0.079607
859.062612	0.079984
859.248822	0.080151
859.435014	0.080169
859.621188	0.080366
859.807343	0.080206
859.993480	0.080078
860.179599	0.080151
860.365699	0.080026
860.551781	0.080163
860.737846	0.080023
860.923891	0.079966
861.109919	0.080181
861.295929	0.080211
861.481920	0.080358
861.667893	0.080912
861.853848	0.081115
862.039784	0.081264
862.225702	0.081190
862.411603	0.081343
862.597484	0.081414
862.783348	0.081725
862.969193	0.081845
863.155021	0.081913
863.340830	0.081800
863.526620	0.081916
863.712393	0.082148
863.898147	0.082248
864.083883	0.082403
864.269601	0.082390
864.455301	0.082237
864.640982	0.082124
864.826645	0.082478
865.012290	0.082578
865.197917	0.082435
865.383526	0.082373
865.569116	0.082374
865.754688	0.082208
865.940242	0.082374
866.125777	0.082488
866.311295	0.082452
866.496794	0.082414
866.682275	0.082691
866.867737	0.082935
867.053182	0.083038
867.238608	0.083313
867.424016	0.083264
867.609406	0.083445
867.794778	0.083257
867.980131	0.083568
868.165466	0.083680
868.350783	0.083414
868.536082	0.083092
868.721362	0.082969
868.906625	0.082722
869.091869	0.083052
869.277094	0.082915
869.462302	0.083190
869.647491	0.083135
869.832662	0.082992
870.017815	0.082889
870.202950	0.082918
870.388066	0.082990
870.573165	0.083013
870.758245	0.082929
870.943306	0.082965
871.128350	0.082792
871.313375	0.082990
871.498382	0.083004
871.683371	0.083285
871.868342	0.083534
872.053294	0.083504
872.238229	0.083661
872.423144	0.084046
872.608042	0.083985
872.792922	0.084442
872.977783	0.084301
873.162626	0.084624
873.347451	0.084839
873.532258	0.084975
873.717046	0.085339
873.901816	0.085785
874.086568	0.085577
874.271302	0.086000
874.456017	0.085744
874.640715	0.085866
874.825394	0.085519
875.010055	0.085712
875.194697	0.085756
875.379322	0.085636
875.563928	0.085338
875.748516	0.085606
875.933085	0.085721
876.117637	0.086116
876.302170	0.086147
876.486685	0.086810
876.671182	0.086852
876.855661	0.087004
877.040121	0.087152
877.224563	0.087128
877.408987	0.086949
877.593393	0.086655
877.777780	0.086425
877.962150	0.086435
878.146501	0.086250
878.330833	0.086063
878.515148	0.086054
878.699444	0.085979
878.883722	0.086178
879.067982	0.086143
879.252224	0.086239
879.436447	0.086218
879.620653	0.086168
879.804840	0.086129
879.989008	0.086084
880.173159	0.085703
880.357291	0.085625
880.541405	0.085386
880.725501	0.085516
880.909579	0.085508
881.093638	0.085672
881.277680	0.085898
881.461703	0.085973
881.645707	0.085816
881.829694	0.086266
882.013662	0.086403
882.197612	0.086521
882.381544	0.086326
882.565458	0.086287
882.749353	0.086365
882.933230	0.086372
883.117089	0.086342
883.300930	0.086803
883.484753	0.086885
883.668557	0.086939
883.852343	0.087025
884.036111	0.087185
884.219861	0.087310
884.403592	0.087150
884.587305	0.086800
884.771000	0.086653
884.954677	0.086520
885.138335	0.086495
885.321976	0.086211
885.505598	0.086184
885.689201	0.086342
885.872787	0.086382
886.056354	0.086358
886.239904	0.086893
886.423434	0.086845
886.606947	0.086614
886.790442	0.086611
886.973918	0.087181
887.157376	0.087265
887.340816	0.086990
887.524237	0.087091
887.707641	0.087368
887.891026	0.087033
888.074393	0.087321
888.257741	0.087353
888.441072	0.087021
888.624384	0.086517
888.807678	0.086386
888.990954	0.086542
889.174211	0.086456
889.357451	0.086392
889.540672	0.086477
889.723875	0.086052
889.907059	0.086113
890.090226	0.086477
890.273374	0.086855
890.456504	0.087176
890.639616	0.087132
890.822709	0.087033
891.005785	0.086981
891.188842	0.087238
891.371881	0.087624
891.554901	0.087768
891.737904	0.087753
891.920888	0.087453
892.103854	0.087332
892.286802	0.087332
892.469731	0.087293
892.652643	0.087518
892.835536	0.087417
893.018410	0.087582
893.201267	0.087697
893.384106	0.087769
893.566926	0.087708
893.749728	0.087916
893.932511	0.088141
894.115277	0.088189
894.298024	0.088026
894.480753	0.087751
894.663464	0.087328
894.846157	0.087204
895.028831	0.086817
895.211487	0.086647
895.394125	0.086282
895.576745	0.086178
895.759346	0.086004
895.941930	0.086100
896.124495	0.086191
896.307041	0.086587
896.489570	0.086480
896.672080	0.086832
896.854573	0.086989
897.037046	0.087131
897.219502	0.087059
897.401940	0.087469
897.584359	0.086996
897.766760	0.086841
897.949143	0.086764
898.131507	0.087001
898.313854	0.087024
898.496182	0.087124
898.678492	0.086783
898.860783	0.086524
899.043057	0.086174
899.225312	0.086749
899.407549	0.087195
899.589768	0.086847
899.771968	0.086637
899.954151	0.086253
900.136315	0.086398
900.318461	0.086834
900.500588	0.087017
900.682698	0.087314
900.864789	0.087126
901.046862	0.086931
901.228917	0.087178
901.410953	0.086892
901.592971	0.087402
901.774972	0.087336
901.956953	0.087068
902.138917	0.087161
902.320862	0.087009
902.502790	0.086841
902.684699	0.086940
902.866589	0.086524
903.048462	0.086861
903.230316	0.086732
903.412152	0.086274
903.593970	0.086569
903.775770	0.086541
903.957551	0.086292
904.139314	0.086045
904.321059	0.085480
904.502786	0.085442
904.684494	0.085074
904.866185	0.084512
905.047857	0.084567
905.229510	0.083933
905.411146	0.083477
905.592763	0.083473
905.774363	0.083214
905.955943	0.083372
906.137506	0.083380
906.319051	0.083354
906.500577	0.083302
906.682085	0.083492
906.863575	0.083754
907.045046	0.084067
907.226500	0.084378
907.407935	0.084763
907.589352	0.084514
907.770750	0.084226
907.952131	0.084353
908.133493	0.084149
908.314837	0.083741
908.496163	0.083289
908.677470	0.082942
908.858760	0.082385
909.040031	0.082273
909.221284	0.082201
909.402518	0.082049
909.583735	0.081632
909.764933	0.081554
909.946113	0.081660
910.127275	0.081761
910.308418	0.081764
910.489544	0.081401
910.670651	0.080711
910.851740	0.080518
911.032810	0.080451
911.213863	0.080237
911.394897	0.080309
911.575913	0.080100
911.756911	0.079988
911.937890	0.079653
912.118851	0.079937
912.299794	0.080258
912.480719	0.080145
912.661626	0.080041
912.842514	0.080136
913.023384	0.080031
913.204236	0.079689
913.385070	0.079501
913.565886	0.079406
913.746683	0.079298
913.927462	0.079276
914.108223	0.079266
914.288965	0.079601
914.469690	0.079557
914.650396	0.079420
914.831084	0.079427
915.011754	0.079541
915.192405	0.079817
915.373038	0.079401
915.553653	0.079072
915.734250	0.078871
915.914829	0.078509
916.095389	0.078062
916.275931	0.078208
916.456455	0.077944
916.636961	0.077721
916.817448	0.077124
916.997917	0.077440
917.178368	0.077466
917.358801	0.077286
917.539216	0.076969
917.719612	0.076905
917.899990	0.076511
918.080350	0.076392
918.260692	0.075678
918.441015	0.075927
918.621320	0.075440
918.801607	0.075281
918.981876	0.075467
919.162127	0.075621
919.342359	0.075621
919.522573	0.075158
919.702769	0.074887
919.882947	0.075401
920.063106	0.074904
920.243247	0.074697
920.423370	0.074337
920.603475	0.073727
920.783562	0.073304
920.963630	0.072791
921.143680	0.073117
921.323712	0.073048
921.503725	0.072305
921.683721	0.071888
921.863698	0.071616
922.043657	0.071609
922.223598	0.071753
922.403520	0.071399
922.583424	0.071567
922.763311	0.070935
922.943178	0.071021
923.123028	0.070983
923.302859	0.071192
923.482673	0.071251
923.662467	0.070603
923.842244	0.070389
924.022003	0.070140
924.201743	0.070071
924.381465	0.070341
924.561169	0.070023
924.740854	0.070081
924.920522	0.069618
925.100171	0.069104
925.279802	0.069218
925.459414	0.068647
925.639009	0.069071
925.818585	0.068735
925.998143	0.068176
926.177683	0.067383
926.357205	0.066443
926.536708	0.066095
926.716193	0.066157
926.895660	0.065679
927.075109	0.065600
927.254539	0.064753
927.433951	0.064677
927.613345	0.064431
927.792721	0.064485
927.972079	0.064865
928.151418	0.065179
928.330739	0.064957
928.510042	0.064909
928.689327	0.064759
928.868593	0.064821
929.047841	0.064531
929.227071	0.064550
929.406283	0.064461
929.585476	0.063966
929.764652	0.063594
929.943809	0.063208
930.122948	0.063050
930.302068	0.062716
930.481171	0.061812
930.660255	0.061151
930.839321	0.060623
931.018369	0.060267
931.197398	0.060005
931.376409	0.059717
931.555402	0.059101
931.734377	0.058987
931.913334	0.058888
932.092272	0.059503
932.271192	0.059394
932.450094	0.059153
932.628978	0.058921
932.807844	0.058992
932.986691	0.058875
933.165520	0.058491
933.344331	0.058103
933.523123	0.057901
933.701898	0.057054
933.880654	0.056387
934.059392	0.056316
934.238111	0.056310
934.416813	0.056064
934.595496	0.055555
934.774161	0.055425
934.952808	0.055138
935.131437	0.054509
935.310047	0.054294
935.488639	0.054204
935.667213	0.053901
935.845769	0.053601
936.024306	0.052871
936.202825	0.052790
936.381326	0.053586
936.559809	0.053309
936.738274	0.053341
936.916720	0.053381
937.095148	0.053280
937.273558	0.053415
937.451950	0.053414
937.630323	0.053594
937.808678	0.053092
937.987015	0.051939
938.165334	0.051908
938.343635	0.051778
938.521917	0.052029
938.700181	0.052367
938.878427	0.051619
939.056655	0.050936
939.234864	0.050758
939.413055	0.050583
939.591228	0.049833
939.769383	0.048679
939.947519	0.048285
940.125638	0.047128
940.303738	0.046890
940.481820	0.046390
940.659883	0.046632
940.837929	0.046275
941.015956	0.046153
941.193965	0.046756
941.371955	0.047298
941.549928	0.046805
941.727882	0.046883
941.905818	0.046446
942.083736	0.045975
942.261636	0.044791
942.439517	0.044191
942.617380	0.043383
942.795225	0.042928
942.973052	0.042876
943.150860	0.043151
943.328651	0.042898
943.506423	0.042373
943.684176	0.042804
943.861912	0.043366
944.039629	0.043665
944.217328	0.043806
944.395009	0.043272
944.572672	0.042678
944.750317	0.040768
944.927943	0.040508
945.105551	0.040672
945.283141	0.040536
945.460712	0.039929
945.638265	0.038803
945.815801	0.039357
945.993317	0.039907
946.170816	0.039808
946.348297	0.040971
946.525759	0.041440
946.703203	0.039779
946.880629	0.039800
947.058036	0.039701
947.235425	0.040413
947.412797	0.039656
947.590149	0.038888
947.767484	0.038137
947.944800	0.038247
948.122099	0.038633
948.299379	0.039913
948.476640	0.039679
948.653884	0.039923
948.831109	0.039280
949.008316	0.039461
949.185505	0.039610
949.362676	0.040805
949.539828	0.040625
949.716962	0.039892
949.894078	0.039357
950.071176	0.038128
950.248256	0.038617
950.425317	0.038507
950.602360	0.038016
950.779385	0.038131
950.956391	0.036547
951.133380	0.035691
951.310350	0.035281
951.487302	0.035568
951.664235	0.035276
951.841151	0.034271
952.018048	0.034787
952.194927	0.034309
952.371788	0.034245
952.548631	0.034566
952.725455	0.035210
952.902261	0.034819
953.079049	0.034195
953.255819	0.035996
953.432570	0.037389
953.609303	0.039582
953.786018	0.041191
953.962715	0.040720
954.139394	0.041131
954.316054	0.041245
954.492696	0.041833
954.669320	0.042198
954.845926	0.041153
955.022513	0.041261
955.199083	0.039303
955.375634	0.037832
955.552166	0.038483
955.728681	0.038879
955.905177	0.039463
956.081655	0.038133
956.258115	0.038482
956.434557	0.039992
956.610980	0.038923
956.787385	0.038394
956.963772	0.039140
957.140141	0.039156
957.316492	0.039210
957.492824	0.036965
957.669138	0.037699
957.845434	0.037674
958.021712	0.035934
958.197971	0.035545
958.374212	0.035512
958.550435	0.035394
958.726640	0.035086
958.902826	0.035570
959.078995	0.036960
959.255145	0.036904
959.431277	0.036753
959.607390	0.038132
959.783486	0.038734
959.959563	0.038818
960.135622	0.037985
960.311662	0.036544
960.487685	0.033861
960.663689	0.033965
960.839675	0.034449
961.015643	0.036405
961.191593	0.035374
961.367524	0.035464
961.543437	0.035632
961.719332	0.036298
961.895209	0.038882
962.071067	0.041113
962.246907	0.040783
962.422730	0.042237
962.598533	0.040008
962.774319	0.040342
962.950086	0.039524
963.125835	0.038584
963.301566	0.038730
963.477279	0.037806
963.652973	0.038780
963.828650	0.039806
964.004308	0.040140
964.179947	0.042434
964.355569	0.042342
964.531172	0.043507
964.706757	0.044145
964.882324	0.044921
965.057873	0.042587
965.233403	0.041022
965.408916	0.044027
965.584410	0.043078
965.759885	0.041904
965.935343	0.043072
966.110782	0.043148
966.286203	0.044824
966.461606	0.044440
966.636991	0.048656
966.812357	0.048613
966.987705	0.045536
967.163035	0.043889
967.338347	0.043580
967.513641	0.043152
967.688916	0.043052
967.864173	0.041934
968.039412	0.042365
968.214632	0.040535
968.389835	0.042082
968.565019	0.042527
968.740185	0.042717
968.915333	0.041695
969.090462	0.040679
969.265573	0.041038
969.440667	0.040407
969.615741	0.039803
969.790798	0.039691
969.965836	0.040074
970.140856	0.039696
970.315858	0.040763
970.490842	0.041440
970.665808	0.040961
970.840755	0.040733
971.015684	0.040943
971.190595	0.040954
971.365487	0.041406
971.540362	0.040796
971.715218	0.042077
971.890056	0.041316
972.064875	0.041609
972.239677	0.042266
972.414460	0.042583
972.589225	0.043409
972.763972	0.042951
972.938700	0.043430
973.113411	0.041544
973.288103	0.039421
973.462777	0.039764
973.637432	0.040922
973.812070	0.042066
973.986689	0.041530
974.161290	0.040436
974.335873	0.042407
974.510437	0.041264
974.684984	0.042444
974.859512	0.043262
975.034022	0.044597
975.208513	0.043239
975.382987	0.042940
975.557442	0.043115
975.731879	0.045428
975.906298	0.042662
976.080698	0.044274
976.255080	0.044533
976.429445	0.044449
976.603790	0.043258
976.778118	0.042932
976.952427	0.042676
977.126719	0.042591
977.300992	0.041404
977.475246	0.043089
977.649483	0.041971
977.823701	0.041999
977.997901	0.041947
978.172083	0.042516
978.346247	0.043538
978.520392	0.044101
978.694519	0.043100
978.868628	0.042571
979.042719	0.043030
979.216791	0.042996
979.390845	0.042093
979.564882	0.042679
979.738899	0.042384
979.912899	0.042567
980.086880	0.041733
980.260843	0.042028
980.434788	0.042371
980.608715	0.041786
980.782623	0.041171
980.956514	0.041318
981.130386	0.040784
981.304240	0.040555
981.478075	0.039412
981.651892	0.039972
981.825692	0.041288
981.999472	0.042518
982.173235	0.042632
982.346980	0.043953
982.520706	0.044251
982.694414	0.044631
982.868104	0.044117
983.041775	0.044950
983.215428	0.044414
983.389064	0.044240
983.562680	0.041656
983.736279	0.041619
983.909860	0.041229
984.083422	0.042324
984.256966	0.043118
984.430491	0.043783
984.603999	0.042568
984.777488	0.044059
984.950959	0.043532
985.124412	0.045302
985.297847	0.043424
985.471263	0.043142
985.644661	0.042954
985.818041	0.041599
985.991403	0.042198
986.164747	0.042544
986.338072	0.041954
986.511379	0.043505
986.684668	0.043089
986.857938	0.044974
987.031191	0.044765
987.204425	0.044342
987.377641	0.044183
987.550839	0.044216
987.724018	0.044868
987.897179	0.045008
988.070322	0.044051
988.243447	0.044217
988.416554	0.044022
988.589642	0.043548
988.762712	0.043581
988.935764	0.045699
989.108798	0.044239
989.281813	0.043952
989.454811	0.043881
989.627790	0.043531
989.800751	0.044271
989.973693	0.046236
990.146617	0.046618
990.319524	0.047144
990.492412	0.044483
990.665281	0.044336
990.838133	0.043612
991.010966	0.042807
991.183781	0.041730
991.356578	0.041676
991.529356	0.040554
991.702117	0.041612
991.874859	0.040237
992.047583	0.041556
992.220288	0.042052
992.392976	0.043528
992.565645	0.044098
992.738296	0.044939
992.910929	0.042980
993.083543	0.042145
993.256139	0.040493
993.428718	0.041853
993.601277	0.041592
993.773819	0.041454
993.946342	0.041594
994.118848	0.042784
994.291335	0.042371
994.463803	0.043653
994.636254	0.044156
994.808686	0.045995
994.981100	0.046938
995.153496	0.047158
995.325874	0.047033
995.498233	0.046691
995.670574	0.045840
995.842897	0.046757
996.015202	0.046606
996.187488	0.046753
996.359757	0.045627
996.532007	0.043813
996.704239	0.043252
996.876452	0.044218
997.048648	0.044239
997.220825	0.042913
997.392984	0.040494
997.565124	0.040456
997.737247	0.040839
997.909351	0.040958
998.081437	0.040727
998.253505	0.041704
998.425554	0.041572
998.597586	0.040421
998.769599	0.040711
998.941594	0.041967
999.113571	0.040205
999.285529	0.038784
999.457469	0.038875
999.629391	0.039041
999.801295	0.036956
999.973181	0.036736
1000.145048	0.037610
1000.316897	0.038555
1000.488728	0.039150
1000.660541	0.040390
1000.832335	0.041257
1001.004111	0.041267
1001.175869	0.041471
1001.347609	0.043191
1001.519331	0.042792
1001.691034	0.041748
1001.862719	0.040940
1002.034386	0.039760
1002.206035	0.039712
1002.377665	0.039154
1002.549277	0.038902
1002.720871	0.039039
1002.892447	0.039431
1003.064004	0.041495
1003.235544	0.042455
1003.407065	0.042930
1003.578568	0.043932
1003.750052	0.043954
1003.921519	0.043235
1004.092967	0.042260
1004.264397	0.041978
1004.435809	0.041275
1004.607202	0.039970
1004.778577	0.039989
1004.949934	0.038858
1005.121273	0.039281
1005.292594	0.039635
1005.463896	0.041146
1005.635180	0.042320
1005.806446	0.042104
1005.977694	0.041846
1006.148923	0.042551
1006.320135	0.042599
1006.491328	0.042890
1006.662503	0.041995
1006.833659	0.042495
1007.004798	0.043388
1007.175918	0.043133
1007.347020	0.044251
1007.518103	0.043575
1007.689169	0.043051
1007.860216	0.042012
1008.031245	0.041822
1008.202256	0.042264
1008.373248	0.040619
1008.544223	0.038708
1008.715179	0.039204
1008.886117	0.038699
1009.057036	0.039673
1009.227938	0.038186
1009.398821	0.038307
1009.569686	0.039609
1009.740533	0.040142
1009.911361	0.040965
1010.082172	0.041982
1010.252964	0.041149
1010.423738	0.039793
1010.594493	0.040250
1010.765231	0.039652
1010.935950	0.040132
1011.106651	0.038913
1011.277334	0.037912
1011.447998	0.038879
1011.618645	0.037204
1011.789273	0.039687
1011.959882	0.039962
1012.130474	0.039174
1012.301048	0.038439
1012.471603	0.038591
1012.642140	0.040037
1012.812658	0.041114
1012.983159	0.040046
1013.153641	0.039605
1013.324105	0.036902
1013.494551	0.037343
1013.664979	0.037043
1013.835388	0.038051
1014.005779	0.038435
1014.176152	0.036347
1014.346507	0.035034
1014.516843	0.035630
1014.687162	0.036625
1014.857462	0.038391
1015.027744	0.038106
1015.198007	0.038130
1015.368252	0.038398
1015.538480	0.036959
1015.708689	0.038140
1015.878879	0.037045
1016.049052	0.037584
1016.219206	0.037171
1016.389342	0.036430
1016.559460	0.037689
1016.729559	0.037641
1016.899641	0.039602
1017.069704	0.040552
1017.239749	0.040064
1017.409775	0.041641
1017.579784	0.040280
1017.749774	0.039912
1017.919746	0.039402
1018.089700	0.038237
1018.259635	0.037713
1018.429553	0.036224
1018.599452	0.035947
1018.769333	0.036219
1018.939195	0.036318
1019.109040	0.035927
1019.278866	0.036640
1019.448674	0.036157
1019.618464	0.035278
1019.788235	0.035820
1019.957989	0.035343
1020.127724	0.035253
1020.297441	0.036003
1020.467139	0.035221
1020.636820	0.034176
1020.806482	0.033346
1020.976126	0.034134
1021.145752	0.034953
1021.315359	0.035461
1021.484948	0.035787
1021.654519	0.035846
1021.824072	0.034315
1021.993607	0.033776
1022.163123	0.035779
1022.332621	0.037205
1022.502101	0.038377
1022.671563	0.038560
1022.841007	0.037611
1023.010432	0.037221
1023.179839	0.036842
1023.349228	0.037030
1023.518598	0.038430
1023.687951	0.036104
1023.857285	0.036250
1024.026601	0.034220
1024.195899	0.033657
1024.365178	0.033959
1024.534439	0.034187
1024.703682	0.033233
1024.872907	0.034885
1025.042114	0.035055
1025.211302	0.036708
1025.380472	0.034928
1025.549624	0.036501
1025.718758	0.036548
1025.887873	0.035866
1026.056970	0.037172
1026.226049	0.037929
1026.395110	0.037532
1026.564153	0.036809
1026.733177	0.037483
1026.902183	0.039744
1027.071171	0.039525
1027.240141	0.039378
1027.409092	0.040178
1027.578026	0.038612
1027.746940	0.039771
1027.915837	0.037420
1028.084716	0.038508
1028.253576	0.037986
1028.422418	0.035323
1028.591242	0.033513
1028.760048	0.034453
1028.928835	0.034884
1029.097604	0.036614
1029.266355	0.036570
1029.435088	0.039358
1029.603803	0.038215
1029.772499	0.038493
1029.941177	0.039151
1030.109837	0.040086
1030.278478	0.041109
1030.447102	0.041997
1030.615707	0.040894
1030.784294	0.041109
1030.952863	0.040437
1031.121413	0.039488
1031.289945	0.038946
1031.458460	0.040890
1031.626955	0.041277
1031.795433	0.040285
1031.963892	0.039101
1032.132334	0.039314
1032.300756	0.039611
1032.469161	0.039276
1032.637548	0.041002
1032.805916	0.041502
1032.974266	0.041118
1033.142598	0.039928
1033.310911	0.039165
1033.479207	0.040115
1033.647484	0.039679
1033.815743	0.040506
1033.983983	0.041059
1034.152206	0.040201
1034.320410	0.040343
1034.488596	0.038636
1034.656764	0.038449
1034.824914	0.038041
1034.993045	0.038191
1035.161158	0.037637
1035.329253	0.035928
1035.497330	0.035363
1035.665388	0.035507
1035.833428	0.035500
1036.001450	0.036625
1036.169454	0.036788
1036.337440	0.037189
1036.505407	0.035271
1036.673356	0.035579
1036.841287	0.035383
1037.009200	0.035091
1037.177094	0.035167
1037.344970	0.034574
1037.512828	0.034426
1037.680668	0.036229
1037.848489	0.038194
1038.016293	0.038649
1038.184078	0.040608
1038.351845	0.039330
1038.519593	0.039339
1038.687324	0.039641
1038.855036	0.038759
1039.022730	0.039050
1039.190406	0.037529
1039.358063	0.036375
1039.525702	0.035858
1039.693323	0.033143
1039.860926	0.035148
1040.028511	0.034149
1040.196077	0.033991
1040.363625	0.034779
1040.531155	0.034870
1040.698667	0.036661
1040.866161	0.034997
1041.033636	0.036199
1041.201093	0.036873
1041.368532	0.035856
1041.535952	0.035979
1041.703355	0.035989
1041.870739	0.037710
1042.038105	0.038778
1042.205452	0.037290
1042.372782	0.038092
1042.540093	0.038457
1042.707386	0.038819
1042.874661	0.037352
1043.041918	0.037543
1043.209156	0.036241
1043.376376	0.034804
1043.543578	0.032158
1043.710762	0.033473
1043.877927	0.033335
1044.045074	0.032012
1044.212203	0.032175
1044.379314	0.032864
1044.546407	0.034318
1044.713481	0.035845
1044.880537	0.036126
1045.047575	0.037077
1045.214595	0.037364
1045.381596	0.037847
1045.548579	0.038149
1045.715544	0.037824
1045.882491	0.038559
1046.049420	0.036068
1046.216330	0.034393
1046.383222	0.034411
1046.550096	0.035113
1046.716951	0.034231
1046.883789	0.034501
1047.050608	0.035093
1047.217409	0.035338
1047.384192	0.036058
1047.550956	0.037717
1047.717703	0.038486
1047.884431	0.037979
1048.051140	0.035988
1048.217832	0.035007
1048.384505	0.034150
1048.551161	0.033671
1048.717798	0.034360
1048.884416	0.032419
1049.051017	0.030902
1049.217599	0.030470
1049.384163	0.031376
1049.550709	0.033119
1049.717237	0.033671
1049.883746	0.034629
1050.050237	0.034860
1050.216710	0.034161
1050.383165	0.036385
1050.549601	0.037713
1050.716019	0.039046
1050.882420	0.039201
1051.048801	0.038729
1051.215165	0.038134
1051.381510	0.037926
1051.547837	0.038668
1051.714146	0.037544
1051.880437	0.036569
1052.046709	0.035719
1052.212964	0.034042
1052.379200	0.034100
1052.545417	0.033663
1052.711617	0.032812
1052.877798	0.031907
1053.043961	0.031397
1053.210106	0.032324
1053.376233	0.031439
1053.542341	0.033357
1053.708432	0.034384
1053.874504	0.032578
1054.040557	0.032265
1054.206593	0.031381
1054.372610	0.032403
1054.538609	0.032032
1054.704590	0.031125
1054.870553	0.032107
1055.036497	0.029918
1055.202424	0.029977
1055.368331	0.030774
1055.534221	0.031202
1055.700093	0.032785
1055.865946	0.031529
1056.031781	0.031850
1056.197598	0.032001
1056.363397	0.031984
1056.529177	0.032298
1056.694939	0.032107
1056.860683	0.030959
1057.026409	0.030757
1057.192116	0.032269
1057.357806	0.031268
1057.523477	0.030462
1057.689130	0.031234
1057.854764	0.031573
1058.020381	0.033038
1058.185979	0.033656
1058.351559	0.034953
1058.517120	0.033943
1058.682664	0.032877
1058.848189	0.035650
1059.013696	0.035045
1059.179185	0.036749
1059.344656	0.037400
1059.510108	0.036600
1059.675542	0.035486
1059.840958	0.035636
1060.006356	0.036208
1060.171735	0.036201
1060.337096	0.033385
1060.502439	0.035293
1060.667764	0.033550
1060.833071	0.032605
1060.998359	0.032752
1061.163629	0.032668
1061.328881	0.031919
1061.494115	0.032424
1061.659330	0.031725
1061.824527	0.034458
1061.989706	0.032476
1062.154867	0.031479
1062.320010	0.032470
1062.485134	0.033356
1062.650240	0.034476
1062.815328	0.034918
1062.980398	0.035606
1063.145449	0.035384
1063.310482	0.034175
1063.475497	0.035263
1063.640494	0.035721
1063.805473	0.034005
1063.970433	0.034248
1064.135375	0.034531
1064.300299	0.035312
1064.465204	0.035201
1064.630092	0.035375
1064.794961	0.034843
1064.959812	0.036184
1065.124645	0.035972
1065.289459	0.035676
1065.454256	0.034113
1065.619034	0.032768
1065.783793	0.030865
1065.948535	0.031018
1066.113258	0.031260
1066.277964	0.031275
1066.442651	0.028107
1066.607319	0.027674
1066.771970	0.028051
1066.936602	0.030027
1067.101216	0.030884
1067.265812	0.031264
1067.430389	0.029668
1067.594949	0.029653
1067.759490	0.029151
1067.924013	0.030443
1068.088518	0.031299
1068.253004	0.032544
1068.417472	0.030575
1068.581922	0.030383
1068.746354	0.031584
1068.910768	0.035362
1069.075163	0.037425
1069.239540	0.038512
1069.403899	0.038658
1069.568240	0.039910
1069.732562	0.039399
1069.896866	0.039252
1070.061152	0.039150
1070.225420	0.040506
1070.389670	0.037455
1070.553901	0.034920
1070.718114	0.036159
1070.882309	0.037224
1071.046486	0.035834
1071.210644	0.033476
1071.374784	0.033807
1071.538906	0.035872
1071.703010	0.034319
1071.867096	0.033430
1072.031163	0.033619
1072.195212	0.031818
1072.359243	0.031278
1072.523256	0.030906
1072.687250	0.033540
1072.851226	0.032381
1073.015184	0.031365
1073.179124	0.030517
1073.343045	0.033265
1073.506949	0.034089
1073.670834	0.034584
1073.834701	0.033796
1073.998549	0.034420
1074.162380	0.032734
1074.326192	0.034513
1074.489986	0.034172
1074.653761	0.035916
1074.817519	0.035456
1074.981258	0.036179
1075.144979	0.037624
1075.308682	0.038468
1075.472367	0.039544
1075.636033	0.041210
1075.799681	0.040442
1075.963311	0.037754
1076.126923	0.035471
1076.290516	0.033907
1076.454092	0.033891
1076.617649	0.032300
1076.781187	0.032079
1076.944708	0.030115
1077.108210	0.030355
1077.271695	0.031066
1077.435160	0.033718
1077.598608	0.034433
1077.762038	0.035349
1077.925449	0.033308
1078.088842	0.035155
1078.252217	0.036580
1078.415573	0.038573
1078.578912	0.039039
1078.742232	0.039853
1078.905534	0.041303
1079.068817	0.041378
1079.232083	0.042186
1079.395330	0.043093
1079.558559	0.042194
1079.721770	0.040758
1079.884962	0.040825
1080.048136	0.039492
1080.211293	0.037037
1080.374430	0.035254
1080.537550	0.035629
1080.700651	0.036120
1080.863735	0.037192
1081.026800	0.037221
1081.189846	0.036824
1081.352875	0.035956
1081.515885	0.036596
1081.678877	0.037214
1081.841851	0.036511
1082.004807	0.038207
1082.167744	0.036668
1082.330663	0.038904
1082.493564	0.036691
1082.656447	0.037324
1082.819312	0.038771
1082.982158	0.037773
1083.144986	0.037252
1083.307796	0.038358
1083.470587	0.037384
1083.633361	0.037076
1083.796116	0.034695
1083.958853	0.037409
1084.121571	0.036615
1084.284272	0.034042
1084.446954	0.036173
1084.609618	0.039688
1084.772264	0.039415
1084.934892	0.039297
1085.097501	0.041543
1085.260092	0.039650
1085.422665	0.037280
1085.585220	0.036003
1085.747756	0.034715
1085.910274	0.030717
1086.072774	0.028762
1086.235256	0.028020
1086.397720	0.028996
1086.560165	0.028204
1086.722592	0.031180
1086.885001	0.032617
1087.047392	0.033860
1087.209764	0.036989
1087.372119	0.041053
1087.534455	0.041779
1087.696772	0.040587
1087.859072	0.039820
1088.021353	0.039562
1088.183616	0.037092
1088.345861	0.036367
1088.508088	0.036526
1088.670296	0.036396
1088.832486	0.034044
1088.994658	0.032328
1089.156812	0.035083
1089.318948	0.036891
1089.481065	0.035291
1089.643164	0.037363
1089.805245	0.037735
1089.967308	0.038357
1090.129352	0.039423
1090.291378	0.041201
1090.453386	0.042451
1090.615376	0.041953
1090.777347	0.037081
1090.939301	0.037342
1091.101236	0.036833
1091.263153	0.037167
1091.425051	0.036884
1091.586932	0.034902
1091.748794	0.032551
1091.910638	0.031679
1092.072463	0.032772
1092.234271	0.033589
1092.396060	0.034874
1092.557831	0.033171
1092.719584	0.030435
1092.881319	0.031031
1093.043035	0.031265
1093.204733	0.031610
1093.366413	0.032571
1093.528075	0.032171
1093.689718	0.030789
1093.851343	0.031546
1094.012950	0.031450
1094.174539	0.032486
1094.336110	0.031962
1094.497662	0.033627
1094.659196	0.038369
1094.820712	0.037315
1094.982210	0.035772
1095.143689	0.038580
1095.305151	0.037748
1095.466594	0.038795
1095.628018	0.041172
1095.789425	0.040084
1095.950813	0.039326
1096.112183	0.033825
1096.273535	0.035999
1096.434869	0.036033
1096.596184	0.034729
1096.757482	0.032544
1096.918761	0.035081
1097.080021	0.034146
1097.241264	0.033776
1097.402488	0.030520
1097.563694	0.029624
1097.724882	0.026800
1097.886052	0.025063
1098.047203	0.025613
1098.208336	0.028762
1098.369451	0.024849
1098.530548	0.026659
1098.691627	0.029509
1098.852687	0.032294
1099.013729	0.035123
1099.174753	0.033847
1099.335758	0.035047
1099.496746	0.036253
1099.657715	0.033704
1099.818666	0.036011
1099.979599	0.034897
1100.140513	0.033189
1100.301409	0.031610
1100.462287	0.030236
1100.623147	0.034666
1100.783989	0.035121
1100.944812	0.033159
1101.105617	0.033035
1101.266404	0.031534
1101.427173	0.030247
1101.587923	0.028798
1101.748656	0.028581
1101.909370	0.029162
1102.070066	0.027633
1102.230743	0.026196
1102.391403	0.028602
1102.552044	0.030411
1102.712667	0.033259
1102.873271	0.037090
1103.033858	0.037856
1103.194426	0.038555
1103.354976	0.041165
1103.515508	0.041872
1103.676021	0.044639
1103.836517	0.041692
1103.996994	0.040704
1104.157453	0.038372
1104.317893	0.035458
1104.478316	0.036414
1104.638720	0.035064
1104.799106	0.032039
1104.959474	0.033001
1105.119823	0.030328
1105.280155	0.032629
1105.440468	0.034620
1105.600763	0.032853
1105.761039	0.033284
1105.921298	0.036846
1106.081538	0.041416
1106.241760	0.043901
1106.401964	0.042304
1106.562149	0.043619
1106.722316	0.046707
1106.882465	0.046375
1107.042596	0.046748
1107.202709	0.045060
1107.362803	0.045554
1107.522879	0.043659
1107.682937	0.043283
1107.842977	0.043460
1108.002999	0.042053
1108.163002	0.037807
1108.322987	0.038620
1108.482954	0.040385
1108.642902	0.040919
1108.802833	0.037823
1108.962745	0.037475
1109.122639	0.032782
1109.282515	0.031534
1109.442372	0.032537
1109.602211	0.032278
1109.762032	0.027641
1109.921835	0.024493
1110.081620	0.025743
1110.241386	0.023411
1110.401134	0.025422
1110.560864	0.028075
1110.720576	0.028612
1110.880269	0.027939
1111.039945	0.028300
1111.199602	0.030518
1111.359240	0.032154
1111.518861	0.034075
1111.678463	0.032097
1111.838047	0.029682
1111.997613	0.033847
1112.157161	0.034573
1112.316690	0.035550
1112.476202	0.037448
1112.635695	0.036539
1112.795169	0.037540
1112.954626	0.032159
1113.114064	0.034891
1113.273484	0.036514
1113.432886	0.033157
1113.592270	0.030090
1113.751635	0.029702
1113.910983	0.031476
1114.070312	0.030338
1114.229622	0.029377
1114.388915	0.035881
1114.548189	0.035169
1114.707445	0.033055
1114.866683	0.034350
1115.025903	0.039092
1115.185104	0.042157
1115.344287	0.035614
1115.503452	0.038517
1115.662599	0.042070
1115.821727	0.039938
1115.980838	0.041384
1116.139930	0.041757
1116.299004	0.039212
1116.458059	0.033876
1116.617097	0.034491
1116.776116	0.036840
1116.935117	0.038144
1117.094099	0.036762
1117.253064	0.038011
1117.412010	0.037941
1117.570938	0.039272
1117.729848	0.043638
1117.888740	0.048718
1118.047613	0.046802
1118.206468	0.050061
1118.365305	0.046519
1118.524124	0.048249
1118.682924	0.045197
1118.841707	0.045514
1119.000471	0.046090
1119.159216	0.040512
1119.317944	0.038718
1119.476653	0.039044
1119.635344	0.036736
1119.794017	0.037973
1119.952672	0.035647
1120.111308	0.033750
1120.269927	0.031333
1120.428527	0.031328
1120.587108	0.031463
1120.745672	0.032691
1120.904217	0.033403
1121.062744	0.034386
1121.221253	0.032268
1121.379744	0.033290
1121.538216	0.030711
1121.696671	0.036212
1121.855107	0.037424
1122.013524	0.039835
1122.171924	0.036658
1122.330305	0.034313
1122.488668	0.031745
1122.647013	0.033918
1122.805340	0.033639
1122.963648	0.038854
1123.121938	0.038480
1123.280210	0.036435
1123.438464	0.041160
1123.596700	0.040065
1123.754917	0.044954
1123.913116	0.048188
1124.071297	0.052739
1124.229459	0.050996
1124.387604	0.045985
1124.545730	0.044507
1124.703838	0.041031
1124.861928	0.036063
1125.019999	0.035172
1125.178052	0.032292
1125.336088	0.027663
1125.494104	0.023689
1125.652103	0.022747
1125.810083	0.027602
1125.968045	0.022652
1126.125989	0.026315
1126.283915	0.026991
1126.441823	0.033250
1126.599712	0.037207
1126.757583	0.040194
1126.915436	0.038456
1127.073270	0.037945
1127.231087	0.037697
1127.388885	0.039929
1127.546665	0.036457
1127.704426	0.037814
1127.862170	0.034193
1128.019895	0.028129
1128.177602	0.032856
1128.335291	0.035698
1128.492961	0.034975
1128.650614	0.037160
1128.808248	0.039478
1128.965864	0.040619
1129.123461	0.036958
1129.281041	0.039559
1129.438602	0.041260
1129.596145	0.035109
1129.753670	0.032554
1129.911176	0.034653
1130.068665	0.036775
1130.226135	0.037330
1130.383587	0.039272
1130.541020	0.042699
1130.698436	0.042041
1130.855833	0.041301
1131.013212	0.041746
1131.170573	0.043836
1131.327915	0.044778
1131.485239	0.039818
1131.642545	0.032928
1131.799833	0.037487
1131.957103	0.033771
1132.114354	0.029914
1132.271588	0.032077
1132.428803	0.031902
1132.585999	0.033605
1132.743178	0.035586
1132.900338	0.029603
1133.057480	0.033602
1133.214604	0.025475
1133.371710	0.023527
1133.528797	0.025697
1133.685866	0.023476
1133.842917	0.025766
1133.999950	0.026352
1134.156964	0.026360
1134.313960	0.032724
1134.470938	0.037202
1134.627898	0.042945
1134.784840	0.049461
1134.941763	0.048399
1135.098668	0.047693
1135.255555	0.041319
1135.412424	0.039850
1135.569274	0.035551
1135.726107	0.032576
1135.882921	0.029586
1136.039716	0.032214
1136.196494	0.032538
1136.353253	0.034586
1136.509995	0.034716
1136.666717	0.040653
1136.823422	0.035817
1136.980109	0.036954
1137.136777	0.040016
1137.293427	0.037614
1137.450059	0.035118
1137.606672	0.034081
1137.763267	0.038567
1137.919844	0.038879
1138.076403	0.039472
1138.232944	0.043370
1138.389466	0.043761
1138.545971	0.042468
1138.702457	0.046240
1138.858924	0.044104
1139.015374	0.040839
1139.171805	0.036848
1139.328218	0.036850
1139.484613	0.038465
1139.640990	0.033287
1139.797348	0.031990
1139.953688	0.030097
1140.110010	0.034297
1140.266314	0.031688
1140.422600	0.037059
1140.578867	0.037211
1140.735116	0.038722
1140.891347	0.037690
1141.047559	0.044726
1141.203754	0.049667
1141.359930	0.054473
1141.516088	0.056679
1141.672228	0.058502
1141.828349	0.052488
1141.984452	0.049995
1142.140537	0.050155
1142.296604	0.050787
1142.452653	0.054620
1142.608683	0.046755
1142.764695	0.043018
1142.920689	0.034414
1143.076665	0.035932
1143.232622	0.041191
1143.388562	0.048989
1143.544483	0.048436
1143.700385	0.044502
1143.856270	0.033739
1144.012136	0.033789
1144.167985	0.033423
1144.323814	0.028783
1144.479626	0.027199
1144.635420	0.025582
1144.791195	0.016235
1144.946952	0.017772
1145.102691	0.012552
1145.258411	0.018495
1145.414113	0.019531
1145.569798	0.021237
1145.725463	0.025288
1145.881111	0.022557
1146.036741	0.018927
1146.192352	0.024473
1146.347945	0.019601
1146.503519	0.027726
1146.659076	0.024625
1146.814614	0.030765
1146.970134	0.031853
1147.125636	0.031650
1147.281120	0.032618
1147.436585	0.033916
1147.592032	0.035018
1147.747461	0.037157
1147.902872	0.032742
1148.058265	0.034237
1148.213639	0.031915
1148.368995	0.029344
1148.524333	0.030146
1148.679653	0.035490
1148.834954	0.041927
1148.990237	0.037674
1149.145502	0.033658
1149.300749	0.038779
1149.455977	0.039976
1149.611188	0.044076
1149.766380	0.050081
1149.921553	0.053921
1150.076709	0.054426
1150.231846	0.064049
1150.386966	0.064216
1150.542066	0.066226
1150.697149	0.061962
1150.852214	0.062922
1151.007260	0.055366
1151.162288	0.052708
1151.317298	0.050788
1151.472289	0.043882
1151.627263	0.031099
1151.782218	0.027413
1151.937155	0.035467
1152.092073	0.038263
1152.246974	0.033217
1152.401856	0.035999
1152.556720	0.036813
1152.711566	0.037101
1152.866393	0.042645
1153.021203	0.046132
1153.175994	0.054347
1153.330767	0.051594
1153.485521	0.051599
1153.640258	0.051640
1153.794976	0.049012
1153.949676	0.047986
1154.104358	0.047815
1154.259021	0.048074
1154.413667	0.041312
1154.568294	0.032856
1154.722903	0.028043
1154.877493	0.034249
1155.032066	0.037280
1155.186620	0.044017
1155.341156	0.043896
1155.495674	0.042513
1155.650173	0.042628
1155.804654	0.039908
1155.959118	0.047063
1156.113562	0.050691
1156.267989	0.042012
1156.422397	0.040563
1156.576788	0.034205
1156.731160	0.034539
1156.885513	0.039177
1157.039849	0.031841
1157.194166	0.032740
1157.348465	0.033249
1157.502746	0.035492
1157.657009	0.035453
1157.811253	0.035670
1157.965479	0.027880
1158.119687	0.025214
1158.273877	0.021553
1158.428048	0.034708
1158.582201	0.034137
1158.736337	0.037619
1158.890453	0.024666
1159.044552	0.028870
1159.198632	0.022158
1159.352694	0.034994
1159.506738	0.037022
1159.660764	0.035274
1159.814771	0.027726
1159.968761	0.025378
1160.122732	0.013543
1160.276685	0.014772
1160.430619	0.017117
1160.584535	0.019725
1160.738434	0.017227
1160.892313	0.018072
1161.046175	0.018182
1161.200019	0.020192
1161.353844	0.018631
1161.507651	0.027187
1161.661440	0.031190
1161.815210	0.028165
1161.968962	0.029940
1162.122697	0.029585
1162.276412	0.033123
1162.430110	0.026923
1162.583789	0.014722
1162.737451	0.028857
1162.891094	0.024183
1163.044718	0.030108
1163.198325	0.030265
1163.351913	0.032436
1163.505483	0.036700
1163.659035	0.037564
1163.812569	0.047828
1163.966084	0.059619
1164.119581	0.047342
1164.273060	0.048306
1164.426521	0.048414
1164.579964	0.038812
1164.733388	0.042485
1164.886794	0.042702
1165.040182	0.029479
1165.193551	0.023565
1165.346903	0.020585
1165.500236	0.016717
1165.653551	0.019378
1165.806848	0.017880
1165.960126	0.026450
1166.113386	0.019800
1166.266628	0.016650
1166.419852	0.022174
1166.573058	0.015922
1166.726245	0.006922
1166.879414	0.019385
1167.032565	0.016613
1167.185698	0.009201
1167.338812	0.009039
1167.491909	0.013682
1167.644987	0.006917
1167.798046	0.013971
1167.951088	0.025719
1168.104111	0.027401
1168.257117	0.013324
1168.410103	0.013817
1168.563072	0.020743
1168.716023	0.017338
1168.868955	0.004740
1169.021869	0.006530
1169.174765	-0.001631
1169.327642	-0.010003
1169.480501	-0.002300
1169.633343	0.011812
1169.786165	0.014394
1169.938970	0.018031
1170.091757	0.019159
1170.244525	0.032594
1170.397275	0.039036
1170.550007	0.041287
1170.702720	0.047679
1170.855415	0.043539
1171.008092	0.045056
1171.160751	0.047812
1171.313392	0.049725
1171.466014	-0.014504
1171.618619	0.093793
1171.771205	0.093793
1171.923772	0.093793
