sample name	sample
index	1319
start time	 05-03-2021  10:48:19 AM
880	-0.024401
Peak Time (s)	91.538
Peak Height 	-0.0244
calc peak height	90,93
Baseline Time (s)	8.537
Baseline Value 	-0.005703
subtract baseline	10,4
Abs	-0.012431
Peak Time (s)	90.537
Peak Height 	-0.01243
calc peak height	90,93
Baseline Time (s)	10.535
Baseline Value 	0.004106
subtract baseline	10,3
PK_550	-0.001522
Peak Time (s)	91.538
Peak Height 	-0.001522
calc peak height	90,93
Baseline Time (s)	11.537
Baseline Value 	7.5203E-4
subtract baseline	10,2
PK_880	-0.014516
Peak Time (s)	90.537
Peak Height 	-0.01452
calc peak height	90,93
Baseline Time (s)	11.537
Baseline Value 	0.002181
subtract baseline	10,1


Time (s)	A880-A510	A880-A775	A880-A975	A880	I510	I775	I975	I880	
0.037000	-0.002245	-0.000268	-0.002984	0.004416	6076.593238	42624.367955	3849.507737	22032.502574
0.540500	-0.000395	-0.001259	-0.002330	0.004190	6091.810942	42554.550382	3851.485910	22042.436223
1.035500	-0.003255	-0.000389	-0.003036	0.004323	6069.896663	42621.845348	3849.599487	22036.600339
1.540000	-0.004453	-0.000813	-0.010138	0.006194	6047.578915	42412.897124	3829.633081	21954.389715
2.035500	-0.000557	-0.000242	-0.003745	0.001950	6107.122671	42852.453511	3853.348302	22141.374116
2.536000	-0.001724	-0.000691	-0.002947	0.001188	6104.131384	42881.127832	3856.874509	22175.124880
3.039000	0.002414	-0.000344	-0.003961	-0.000443	6146.977949	43063.300350	3858.274522	22247.623193
3.536500	-0.001416	0.000017	-0.005258	0.005393	6075.510797	42561.270566	3842.225677	21989.536640
4.036500	-0.000733	-0.001303	-0.004158	-0.000462	6123.675688	42976.570247	3857.868053	22248.440335
4.537000	0.000793	-0.000143	-0.001683	0.000016	6131.463646	43039.398488	3862.407565	22227.168881
5.037000	0.001301	0.000366	0.001980	0.001090	6127.253551	42987.376111	3868.323576	22179.480462
5.534500	-0.000135	0.000017	-0.003241	0.000860	6118.313142	42976.458204	3856.952866	22189.701439
6.035000	0.001215	-0.000323	-0.005479	0.000400	6131.742804	42987.466016	3852.932073	22210.088646
6.535500	0.001595	0.000253	-0.002475	0.000965	6130.369397	42988.478999	3858.449052	22185.019906
7.035500	-0.003023	-0.001172	-0.006254	-0.000852	6109.601888	43024.572386	3854.006918	22265.797488
7.536000	0.000921	-0.000068	-0.003760	-0.000055	6132.939970	43052.901771	3857.847999	22230.318770
8.036000	-0.002221	-0.000266	-0.003123	-0.000368	6111.952940	43063.553898	3860.005280	22244.262948
8.537000	0.002063	-0.000150	0.005344	0.000000	6141.045970	43040.266322	3878.579781	22227.890783
9.037000	-0.000833	-0.000689	-0.006329	-0.000306	6121.777712	43018.822925	3852.607869	22241.508375
9.537500	0.000934	0.000105	0.000503	0.000278	6130.557791	43038.156584	3866.798763	22215.517086
10.034500	0.002072	0.000095	-0.002596	-0.000384	6143.984390	43098.386320	3861.241212	22244.991861
10.535000	-0.000845	-0.000211	0.000000	-0.000653	6124.255644	43094.860563	3867.778416	22256.932519
11.035000	-0.001899	0.000657	-0.003930	0.000321	6109.244418	43085.129279	3856.612739	22213.618851
11.537500	0.000000	0.000000	0.003643	0.000222	6124.042299	43033.671897	3874.140040	22218.037695
12.036000	-0.000227	0.000877	-0.001264	0.000421	6120.879268	43096.227290	3862.441373	22209.192935
12.539000	0.000851	0.000049	-0.000894	-0.000036	6132.281751	43061.972313	3864.325695	22229.489270
13.036000	0.001240	0.000040	0.004317	-0.000365	6137.624633	43091.419290	3877.049701	22244.112273
13.536500	-0.001864	-0.000462	-0.004503	0.002101	6096.370601	42818.350824	3851.298228	22134.666014
14.037500	-0.002402	-0.001048	-0.003824	0.002002	6093.140326	42773.701151	3853.050935	22139.047648
14.537000	-0.002044	-0.000357	-0.004469	0.002043	6095.475073	42833.332786	3851.505224	22137.242752
15.038000	0.000777	0.000454	-0.003508	0.000050	6131.092736	43091.391934	3858.181585	22225.656753
15.535000	-0.004200	-0.000855	-0.006092	0.001112	6086.471025	42873.042166	3849.946827	22178.480314
16.035000	-0.002728	0.000424	-0.000463	0.000094	6104.790839	43084.522097	3865.011062	22223.693002
16.536000	0.001199	0.000166	0.002349	0.000272	6132.574051	43044.249902	3871.046157	22215.777376
17.036000	0.001633	0.000476	-0.001748	-0.003417	6163.409866	43414.765418	3870.108059	22380.435182
17.536000	0.001118	-0.000633	-0.000250	0.000609	6129.473869	42939.717627	3864.322769	22200.829560
18.036500	-0.001351	-0.000571	-0.001475	0.000378	6112.871888	42966.680027	3862.056920	22211.107056
18.537000	-0.000897	-0.000232	-0.004157	0.001049	6111.264236	42936.074205	3854.451326	22181.295919
19.037500	-0.000742	0.000460	-0.001521	0.001708	6107.542247	42939.225197	3858.929901	22152.094189
19.534500	-0.002680	-0.000319	-0.002118	0.000965	6098.728965	42935.819631	3859.261232	22185.024565
20.035500	-0.001741	-0.000520	-0.003955	0.000798	6106.887091	42932.732927	3855.476733	22192.439950
20.535000	-0.002080	-0.000274	-0.003245	0.000740	6104.812677	42960.703660	3857.214928	22195.020751
21.035500	-0.001363	0.000705	-0.002854	0.002276	6098.773680	42909.459102	3854.622930	22126.922028
21.536000	0.000780	0.000314	-0.002718	0.002243	6114.841506	42876.548422	3855.004078	22128.387346
22.039500	0.000018	-0.000574	-0.005265	0.000968	6118.640028	42912.151596	3852.134232	22184.895459
22.536500	-0.001436	0.000099	-0.002825	0.001443	6104.373634	42930.321886	3856.572545	22163.813570
23.037000	-0.000003	0.000541	-0.006839	0.001708	6113.005735	42946.594934	3846.930630	22152.063356
23.536500	0.000034	0.000781	-0.002519	0.002257	6109.223222	42918.166159	3855.424214	22127.772433
24.034500	0.000289	-0.000523	0.002988	0.001118	6119.538373	42902.999589	3870.571471	22178.237566
24.537500	0.001045	0.000099	0.000371	0.001458	6122.616272	42928.870911	3863.801949	22163.144338
25.035000	-0.000907	0.000047	0.002520	0.001514	6107.763152	42919.060379	3868.588496	22160.692826
25.535500	-0.001244	0.000041	-0.000882	0.001617	6104.505555	42908.987218	3860.586727	22156.102044
26.036000	-0.000283	0.000218	-0.001792	0.001887	6109.613301	42900.418259	3857.907799	22144.141383
26.536000	-0.000885	-0.000464	0.001209	0.001322	6109.333205	42889.628509	3866.027001	22169.174241
27.036500	0.000749	0.000486	0.002751	-0.000261	6133.194473	43123.000083	3873.195692	22239.481179
27.536500	-0.000732	-0.000409	-0.000984	-0.001601	6132.145137	43164.137695	3867.695618	22299.206087
28.037000	-0.001495	-0.000262	-0.004753	-0.000352	6117.208863	43062.425759	3856.270891	22243.537732
28.537000	0.001418	-0.000358	0.000621	-0.000095	6136.944772	43029.923646	3867.925904	22232.137054
29.037500	-0.000547	0.000350	-0.000825	0.000309	6119.338960	43057.905511	3863.695413	22214.147696
29.535000	-0.004180	-0.000365	-0.005295	0.003746	6067.356673	42676.713735	3845.825127	22062.029209
30.035500	-0.000733	0.000344	-0.000261	0.000499	6116.546987	43039.779698	3864.548769	22205.690591
30.535000	-0.000384	0.000142	-0.004835	0.002425	6104.893707	42844.036861	3849.820306	22120.327330
31.036000	-0.002360	-0.000805	-0.001517	0.001628	6096.205478	42830.328846	3859.118857	22155.627579
31.539000	-0.002039	-0.000578	-0.009021	0.005327	6071.448237	42513.090062	3834.011214	21992.442911
32.040500	0.000322	-0.000786	0.001905	-0.000548	6132.159564	43032.168150	3871.911236	22252.290985
32.537000	0.000282	0.000635	-0.004659	0.000154	6126.638169	43098.474925	3855.338868	22221.026622
33.040000	-0.001764	-0.000453	0.000858	-0.000394	6115.531890	43048.654829	3869.151162	22245.418102
33.537500	-0.003473	-0.000524	-0.004557	0.003665	6073.108657	42669.608606	3847.661819	22065.594997
34.037500	0.002131	0.000360	-0.000721	-0.000215	6143.155020	43107.204010	3865.128941	22237.454977
34.535500	-0.002503	-0.000283	-0.004248	0.001520	6095.947171	42888.137141	3853.182861	22160.417680
35.034500	-0.000645	0.001106	0.000012	0.002805	6100.169123	42897.731424	3859.918953	22103.554129
35.536000	-0.001391	0.000069	-0.002024	0.003186	6091.871319	42767.596700	3854.442461	22086.705069
36.038500	-0.001727	0.000259	-0.001242	0.002091	6097.459464	42885.463141	3858.692334	22135.119927
36.536000	-0.001598	-0.000045	-0.002699	0.001818	6100.416610	42882.629014	3856.009052	22147.214239
37.036500	-0.001174	0.000704	0.004884	0.002438	6098.968003	42894.459544	3871.892455	22119.748550
37.537000	-0.001665	0.000179	-0.002816	0.002226	6096.918343	42865.782037	3854.822851	22129.156746
38.037000	0.000758	-0.000788	-0.003731	0.001729	6118.478808	42822.540344	3853.875732	22151.127517
38.537500	0.000335	0.000227	-0.001714	0.002653	6108.515594	42830.912939	3856.348421	22110.262443
39.034500	0.000934	0.000529	0.000136	0.002668	6112.836857	42857.222271	3860.510694	22109.594563
39.535500	-0.001182	0.000176	-0.001661	0.003240	6093.006577	42772.392615	3855.139016	22084.311763
40.036000	-0.001515	0.000666	-0.001135	0.002208	6098.153900	42912.152438	3858.670920	22129.954573
40.535500	-0.001195	-0.000125	-0.005202	0.001866	6103.032936	42870.788378	3850.252767	22145.065941
41.036500	-0.000487	0.000611	-0.002542	0.002467	6103.822532	42883.275125	3854.895958	22118.473432
41.536500	-0.000592	-0.000358	-0.005566	0.002801	6100.583907	42763.765941	3847.335378	22103.707782
42.037000	-0.002313	0.000292	0.000443	0.002500	6090.137675	42850.914993	3861.593130	22117.021411
42.537000	-0.001860	0.000455	-0.004587	0.002082	6096.546001	42904.323470	3851.152256	22135.534291
43.037000	-0.002077	0.000468	0.001424	0.002367	6092.849508	42879.252562	3864.129527	22122.890382
43.534500	0.000255	-0.000588	-0.000924	0.002164	6111.536970	42801.067045	3859.248235	22131.881540
44.035500	0.002293	0.000141	-0.003751	-0.000110	6143.582798	43077.272020	3857.993748	22232.764325
44.534500	0.000919	-0.000042	-0.000786	0.000175	6131.221001	43034.154932	3864.090538	22220.127061
45.035500	-0.000961	-0.000441	-0.002789	-0.000199	6120.036558	43031.826198	3860.380489	22236.745738
45.538500	0.000411	0.000498	-0.003816	0.004191	6097.741883	42714.894173	3848.143271	22042.419314
46.036000	0.002144	0.000986	-0.003517	0.001075	6133.640582	43045.966400	3855.841579	22180.161310
46.536500	-0.000932	0.000392	0.004403	0.000525	6114.885974	43041.808832	3875.191973	22204.549721
47.037000	-0.000324	0.000088	-0.000437	0.000190	6121.876380	43044.770310	3864.853883	22219.457408
47.537000	-0.000326	0.000489	0.001880	0.004313	6091.418095	42702.851569	3860.736625	22037.020806
48.037000	-0.001638	0.000176	-0.000401	0.003153	6090.301366	42780.451346	3858.191500	22088.172732
48.534500	0.000367	0.000844	0.003852	0.000673	6123.413823	43069.905946	3873.580610	22197.973162
49.035500	-0.000265	0.000355	0.005143	0.000399	6120.759058	43050.064714	3877.193057	22210.148448
49.535500	-0.001498	0.000385	-0.002560	0.003364	6089.776302	42780.271736	3852.830787	22078.857364
50.035500	0.002550	0.000483	0.002198	-0.001937	6159.188408	43278.047364	3875.785969	22314.249648
50.536000	0.000334	-0.000524	-0.000135	-0.001330	6138.070643	43128.564497	3869.022386	22287.149022
51.036500	0.002491	0.000960	0.006210	0.012778	6050.184618	41978.624009	3851.379753	21667.898352
51.537000	0.002375	-0.004304	0.000998	-0.002505	6162.137450	42888.510899	3874.329219	22339.627773
52.037000	0.022356	-0.019191	0.001118	0.270063	4723.627366	23573.127808	3407.803407	13284.298846
52.534500	0.022932	-0.020402	-0.002376	-0.080645	6994.431027	49015.344153	4062.405903	26169.080272
53.037500	0.012081	-0.035972	-0.004101	-0.171344	7820.823356	57707.245603	4332.798506	31570.256218
53.534500	-0.023299	-0.040833	-0.030959	-0.187286	7605.445046	59121.255096	4296.565294	32641.719006
54.035000	-0.004677	-0.084808	-0.013649	-0.277863	8950.561841	65479.381314	4697.959882	39535.901343
54.535500	0.003222	-0.085838	-0.006462	-0.279128	9079.576499	65513.238308	4733.816905	39642.720003
55.038500	0.006779	-0.035464	-0.001149	-0.196452	8050.416774	61031.628610	4430.215928	33275.823093
55.536500	0.000527	-0.023954	-0.004209	-0.157160	7537.690247	57435.065938	4285.545520	30649.471055
56.036500	-0.003223	-0.014770	-0.015204	-0.134779	7266.882621	55805.581472	4181.068422	29256.296039
56.536000	-0.004861	-0.014778	-0.015439	-0.139196	7294.914012	56344.423264	4193.723296	29525.571928
57.037000	0.000010	-0.012897	-0.012040	-0.143320	7386.878804	57087.251873	4216.797408	29779.475106
57.537500	-0.000326	-0.012105	-0.013485	-0.139828	7347.509260	56752.027150	4201.610938	29564.342366
58.035000	-0.001912	-0.011138	-0.011268	-0.127187	7204.181862	55326.109784	4170.104696	28799.782507
58.535500	-0.003049	-0.010162	-0.013269	-0.113712	7061.776773	53841.383993	4124.703275	28008.910280
59.035000	-0.002902	-0.010300	-0.010116	-0.098247	6917.557849	52046.891639	4089.720954	27130.994733
59.536000	-0.003451	-0.009839	-0.009521	-0.082123	6766.246392	50309.300214	4046.989147	26248.361643
60.036000	-0.000316	-0.009231	-0.009547	-0.073173	6714.829140	49408.969283	4022.977454	25772.378902
60.536000	-0.002121	-0.009325	-0.008462	-0.061620	6599.280953	48180.709062	3995.596061	25172.305934
61.036500	-0.003528	-0.008862	-0.013089	-0.044795	6447.205789	46509.883881	3941.499931	24326.449904
61.537000	-0.008148	-0.009673	-0.020490	-0.008160	6125.773867	42914.812595	3838.486106	22594.228190
62.036500	-0.003223	-0.009403	-0.012824	-0.022730	6273.867649	44302.599017	3889.198559	23265.710161
62.537500	-0.009345	-0.007187	-0.011838	-0.020906	6212.701517	44339.862969	3887.239477	23180.391365
63.035000	-0.012098	-0.006501	-0.019381	-0.031938	6276.456108	45470.687200	3895.417740	23701.805690
63.535500	-0.009508	-0.005993	-0.017041	-0.044581	6396.980566	46776.772438	3931.301134	24315.927486
64.038000	-0.008450	-0.006136	-0.016706	-0.051516	6461.935190	47466.925656	3949.164052	24660.415828
64.538500	-0.011955	-0.006196	-0.016009	-0.056097	6470.772880	47932.314400	3962.320587	24891.032904
65.036000	-0.010843	-0.005407	-0.017672	-0.059389	6507.164873	48356.624089	3966.411939	25058.265670
65.536500	-0.015515	-0.005767	-0.016936	-0.059496	6469.438357	48330.141281	3968.535791	25063.689060
66.036500	-0.012812	-0.004314	-0.017676	-0.065000	6537.531110	49062.245857	3980.616277	25346.201441
66.536500	-0.014018	-0.004431	-0.016714	-0.066744	6542.041607	49235.232110	3987.540499	25436.476296
67.036500	-0.013637	-0.003483	-0.018127	-0.067510	6551.675218	49418.155219	3985.882847	25476.268512
67.537500	-0.016206	-0.002624	-0.021950	-0.066065	6518.089575	49355.512722	3972.466039	25401.324644
68.035000	-0.013383	-0.003397	-0.020023	-0.072285	6594.199343	49940.684193	3993.282874	25725.686070
68.538000	-0.015476	-0.002905	-0.017146	-0.074066	6591.549765	50187.089088	4005.361794	25819.441761
69.038500	-0.017838	-0.002888	-0.018370	-0.075512	6583.771591	50346.370109	4005.938662	25895.842467
69.536000	-0.018679	-0.002019	-0.020391	-0.073546	6560.045405	50226.801709	3995.586593	25792.028985
70.035500	-0.014071	-0.001640	-0.022891	-0.077687	6634.518419	50720.919248	3999.835795	26011.194815
70.536500	-0.014139	-0.000989	-0.019039	-0.078597	6641.762241	50892.832513	4012.257992	26059.653925
71.036500	-0.017430	-0.001774	-0.017624	-0.078107	6609.332361	50752.564751	4014.688903	26033.591973
71.537000	-0.015735	-0.001280	-0.017721	-0.078349	6625.911664	50833.435290	4015.067503	26046.430901
72.037500	-0.017870	-0.002268	-0.016385	-0.078709	6610.710067	50764.348661	4019.534132	26065.620054
72.535000	-0.014762	-0.001381	-0.018038	-0.077125	6623.766448	50687.811655	4011.025055	25981.367525
73.035500	-0.017467	-0.001580	-0.014219	-0.075984	6590.925984	50540.753122	4018.061373	25920.809566
73.535500	-0.018225	-0.001650	-0.017057	-0.074555	6572.394306	50376.926951	4006.867827	25845.234633
74.035500	-0.019151	-0.002873	-0.020509	-0.074106	6560.782233	50194.865963	3996.729433	25821.548548
74.539000	-0.017196	-0.001839	-0.015796	-0.071207	6552.836712	49992.656746	4001.433784	25669.141374
75.036500	-0.022280	-0.002856	-0.017228	-0.067963	6483.458846	49533.655097	3989.350285	25499.789187
75.536500	-0.018061	-0.002483	-0.023623	-0.066811	6508.853357	49450.236608	3970.121541	25439.938122
76.043000	-0.017028	-0.002086	-0.019396	-0.063879	6493.107279	49179.855510	3973.396185	25288.365602
76.536500	-0.019285	-0.003434	-0.023288	-0.062990	6467.177081	48942.662606	3961.351986	25242.641391
77.034500	-0.021957	-0.003220	-0.022517	-0.058505	6408.875700	48492.950844	3952.086485	25013.224415
77.534500	-0.018630	-0.003394	-0.017429	-0.058654	6437.074191	48490.316980	3965.173684	25020.805964
78.035500	-0.017435	-0.002818	-0.015363	-0.056643	6430.433596	48340.265878	3965.313649	24918.684401
78.538500	-0.017647	-0.002567	-0.021514	-0.055150	6416.595573	48210.666412	3946.256801	24843.146227
79.036000	-0.018841	-0.002403	-0.021633	-0.050453	6369.223491	47741.106642	3934.424624	24607.236287
79.536000	-0.018836	-0.002517	-0.016217	-0.052384	6384.727073	47928.819368	3952.531048	24703.932993
80.036000	-0.016923	-0.001414	-0.020035	-0.051053	6389.396912	47905.184566	3939.809366	24637.248362
80.537000	-0.017377	-0.002127	-0.010461	-0.051287	6387.627546	47855.600751	3964.170654	24648.931617
81.037500	-0.017910	-0.002163	-0.014162	-0.050740	6378.968962	47795.442244	3953.550963	24621.586611
81.534500	-0.021616	-0.002321	-0.025175	-0.045531	6308.287256	47245.164462	3913.942648	24362.774696
82.037500	-0.019029	-0.001944	-0.019591	-0.049213	6357.834793	47660.710495	3936.386029	24545.397795
82.535000	-0.015783	-0.002180	-0.020331	-0.048165	6375.382847	47528.916440	3932.016469	24493.258774
83.035500	-0.020859	-0.001910	-0.025532	-0.044137	6303.292358	47145.146996	3909.755364	24294.048793
83.535500	-0.021776	-0.002554	-0.022620	-0.042962	6286.931984	46960.612088	3913.909063	24236.262462
84.036000	-0.020808	-0.002552	-0.020963	-0.046022	6318.491386	47271.719524	3925.274145	24387.032824
84.536000	-0.019057	-0.002223	-0.020950	-0.044633	6321.341068	47163.732774	3921.944951	24318.467166
85.037000	-0.021056	-0.002575	-0.024248	-0.039881	6268.577782	46647.669246	3902.685238	24085.546695
85.537000	-0.022416	-0.003426	-0.019804	-0.038738	6249.219402	46447.734271	3910.540570	24029.909478
86.037000	-0.019558	-0.002763	-0.015687	-0.041265	6291.003043	46768.087738	3926.532696	24153.130496
86.534000	-0.019132	-0.003232	-0.017833	-0.040528	6288.574223	46646.660126	3919.562117	24117.109155
87.035000	-0.021090	-0.001975	-0.019214	-0.034395	6226.030484	46159.210292	3901.612872	23819.753725
87.535500	-0.016944	-0.002580	-0.013790	-0.037348	6280.839626	46393.250462	3921.643434	23962.384936
88.038500	-0.018462	-0.002292	-0.019899	-0.036218	6260.291540	46309.288989	3904.313058	23907.718807
88.536000	-0.017286	-0.002191	-0.017504	-0.034861	6258.896888	46184.186094	3906.779964	23842.231566
89.036500	-0.022548	-0.001919	-0.017398	-0.029335	6176.490112	45664.693141	3893.959716	23577.575435
89.536500	-0.019811	-0.002120	-0.019700	-0.028261	6189.057053	45539.632123	3886.055015	23526.553785
90.037000	-0.016141	-0.002161	-0.015542	-0.031780	6243.951622	45881.721153	3904.118767	23694.247420
90.537000	-0.014516	-0.002102	-0.012431	-0.030563	6247.100669	45767.596883	3908.626192	23636.133481
91.034500	-0.020556	-0.001980	-0.019764	-0.025592	6163.301168	45292.575972	3879.701878	23400.246163
91.537500	-0.017334	-0.001522	-0.024399	-0.024401	6178.598667	45221.234090	3866.289442	23344.149161
92.035000	-0.014857	-0.001691	-0.013267	-0.027872	6223.814960	45543.552622	3900.251022	23508.100074
92.536000	-0.016074	-0.001645	-0.015316	-0.027297	6210.131586	45491.781028	3894.064600	23480.872802
93.036000	-0.015633	-0.001806	-0.015121	-0.022848	6179.716039	45042.931606	3884.111787	23271.207759
93.539000	-0.016870	-0.001811	-0.018551	-0.022329	6166.491471	44992.355608	3874.962445	23246.935761
94.036500	-0.014710	-0.001845	-0.010820	-0.025500	6206.828433	45296.767433	3900.427205	23395.914312
94.536500	-0.014496	-0.001738	-0.012417	-0.025406	6207.744317	45298.069633	3896.436984	23391.500852
95.037000	-0.015670	-0.001343	-0.017332	-0.018701	6148.278528	44687.837839	3869.421195	23077.770973
95.536500	-0.015631	-0.001235	-0.015159	-0.019288	6152.962054	44754.650007	3875.771923	23105.050043
96.037000	-0.013332	-0.000818	-0.011683	-0.023366	6201.074176	45189.050418	3893.363758	23295.529691
96.537500	-0.014214	-0.000815	-0.009802	-0.023612	6196.251022	45213.240618	3898.373155	23307.079960
