sample name	sample
index	969
start time	 04-14-2021  02:23:36 PM
880	0.053471
Peak Time (s)	101.535
Peak Height 	0.05347
calc peak height	100,103
Baseline Time (s)	10.536
Baseline Value 	-0.004794
subtract baseline	10,4
Abs	0.037222
Peak Time (s)	102.536
Peak Height 	0.03722
calc peak height	100,103
Baseline Time (s)	11.035
Baseline Value 	0.001826
subtract baseline	10,3
PK_550	0.036055
Peak Time (s)	102.536
Peak Height 	0.03606
calc peak height	100,103
Baseline Time (s)	9.535
Baseline Value 	3.9165E-5
subtract baseline	10,2
PK_880	0.040405
Peak Time (s)	100.038
Peak Height 	0.0404
calc peak height	100,103
Baseline Time (s)	8.537
Baseline Value 	0.001017
subtract baseline	10,1


Time (s)	A880-A510	A880-A775	A880-A975	A880	I510	I775	I975	I880	
0.034500	-0.002848	-0.000399	-0.004512	0.007744	6235.400698	41561.201791	3918.772246	21876.830456
0.535000	-0.002308	-0.000329	0.001662	0.003814	6269.898322	41918.750490	3943.189738	22049.348845
1.035500	-0.000678	0.000321	0.001312	0.004045	6280.758596	41956.275277	3941.766882	22039.129969
1.535500	0.000022	0.000085	-0.003559	0.002011	6302.098205	42118.207171	3934.862267	22128.983357
2.039000	-0.004249	-0.000110	-0.002467	0.004129	6252.444045	41910.129053	3932.378457	22035.458841
2.536000	-0.001033	-0.000695	-0.003266	0.000974	6301.969546	42141.543142	3938.096648	22174.993459
3.039000	0.000903	-0.000305	0.000050	-0.001444	6336.231886	42395.862682	3952.139073	22282.589669
3.537000	0.001459	0.000306	0.001796	0.000855	6322.467334	42242.692722	3950.775570	22180.243461
4.036500	0.000652	-0.000560	-0.001365	0.000585	6318.239650	42188.768561	3943.681552	22192.227341
4.534000	-0.001106	0.000026	-0.007256	0.000337	6306.383845	42264.272753	3929.969184	22203.282363
5.035000	0.000415	0.000809	0.002479	0.000682	6315.616358	42303.990849	3952.884842	22187.927255
5.535000	-0.001549	-0.000670	0.001685	-0.000122	6306.512949	42242.830802	3952.912040	22223.702389
6.035500	0.000232	0.000280	-0.004296	0.000549	6315.223215	42268.024776	3936.623373	22193.829525
6.536000	0.000571	0.000449	-0.001839	0.000795	6315.952879	42261.058570	3942.009923	22182.915250
7.036000	0.000691	0.000448	0.001871	0.000579	6318.593266	42280.613825	3951.641406	22192.512263
7.539000	0.000354	-0.000037	-0.001941	0.000157	6319.267791	42274.908877	3943.320390	22211.265399
8.036500	-0.001168	0.000955	-0.004924	0.000268	6306.436168	42354.800509	3935.781585	22206.326615
8.537000	0.000000	0.000459	0.001198	0.000059	6317.255730	42328.777538	3951.265509	22215.650163
9.037500	0.002465	-0.000022	-0.000401	-0.000280	6339.376092	42315.805979	3948.163966	22230.701004
9.535000	-0.000372	0.000000	0.001546	0.000012	6314.698497	42291.407934	3952.238707	22217.735717
10.038000	0.001004	-0.000366	0.000791	-0.000580	6330.201585	42311.934277	3951.836369	22244.087787
10.535500	0.000977	0.001134	-0.003581	0.000000	6325.408421	42395.413118	3939.700128	22218.254092
11.035000	-0.000027	0.000356	0.000000	-0.000280	6319.708415	42350.147052	3949.150832	22230.728797
11.535500	-0.000474	-0.000274	-0.002456	0.004011	6282.621147	41905.937116	3932.690715	22040.662849
12.036500	0.000983	0.000544	-0.003128	0.000141	6324.352167	42329.074427	3940.461751	22211.993922
12.535500	-0.000102	0.000457	-0.001493	0.000068	6316.372801	42327.733060	3944.632199	22215.213573
13.036500	0.000980	0.000867	0.001376	0.001266	6315.464031	42256.302316	3948.732864	22162.021728
13.537000	-0.004949	0.000267	-0.003600	0.006357	6229.920164	41744.244121	3924.276986	21937.514299
14.037500	-0.002606	0.000297	-0.002896	0.002188	6280.205221	42121.349394	3936.044026	22121.149376
14.535000	-0.001382	-0.000025	0.001907	0.002151	6290.036416	42095.688369	3947.861107	22122.799357
15.038000	-0.000291	0.001108	-0.003171	0.001827	6301.095559	42227.370968	3936.254551	22137.168423
15.535500	-0.003640	0.001428	-0.000612	0.006789	6236.644605	41809.474046	3930.432079	21918.579174
16.038500	0.000791	-0.000182	-0.001544	0.000748	6318.056394	42208.231640	3942.846082	22185.005250
16.536000	0.000004	0.000147	0.001216	0.000867	6310.929867	42227.218441	3949.319131	22179.704023
17.039000	0.000929	0.000309	0.000480	-0.003026	6348.972646	42595.903254	3957.109394	22353.319664
17.541500	-0.001488	-0.000408	-0.002084	0.002168	6289.074730	42059.623694	3938.066300	22122.039282
18.037000	0.000197	-0.000074	0.000109	0.001350	6308.656436	42163.571951	3945.417045	22158.288240
18.534500	-0.003646	-0.000390	-0.002191	0.000807	6282.864384	42184.069363	3941.121865	22182.384632
19.037500	-0.000010	0.000072	-0.002780	0.001177	6308.387061	42192.464627	3938.783735	22165.964725
19.535000	-0.001175	0.000302	0.000363	0.002548	6288.547295	42089.400226	3943.105889	22105.226945
20.035500	0.001319	0.000997	-0.001053	0.002034	6312.096747	42198.505960	3940.902544	22127.972050
20.535500	-0.001955	-0.000001	0.000471	0.001106	6293.716407	42192.218036	3946.901732	22169.097627
21.036000	-0.000068	0.000125	0.001524	0.000987	6309.426072	42214.372401	3949.780442	22174.390942
21.536000	0.001994	0.000215	0.001671	0.002991	6309.882952	42041.678185	3945.223803	22085.673454
22.036500	0.001775	-0.000021	0.000973	0.001348	6321.071249	42168.509462	3947.540810	22158.365579
22.537000	-0.001445	0.000043	-0.000836	0.001221	6296.806906	42185.843485	3943.420695	22164.030334
23.036500	0.000449	-0.000101	0.000506	0.001040	6313.073601	42189.212339	3947.151624	22172.047724
23.537500	0.000771	-0.000554	-0.004597	0.001721	6310.250847	42086.777460	3933.051946	22141.855706
24.035000	0.000702	0.000031	-0.001211	0.001142	6314.260145	42191.908916	3942.696718	22167.539987
24.537000	0.000373	-0.000244	-0.003504	0.001021	6312.621464	42177.957460	3937.401521	22172.869915
25.035500	0.000636	0.000736	0.007843	0.001494	6310.971222	42223.846236	3964.174941	22151.912651
25.535500	0.002294	0.000804	0.000004	0.001875	6321.015367	42195.511468	3943.876515	22135.042802
26.036000	0.000496	0.000902	-0.000665	0.001612	6308.952294	42228.204251	3942.883418	22146.687647
26.539000	-0.000031	0.000304	-0.001735	0.001099	6308.842212	42220.489596	3941.521947	22169.433416
27.039500	0.001771	0.000719	0.002425	-0.000469	6335.383988	42400.274109	3955.596459	22239.132094
27.537000	0.000041	-0.000059	0.001113	-0.000833	6324.593429	42362.683879	3953.252993	22255.326814
28.037000	-0.001051	0.000695	0.003053	0.000944	6302.059568	42269.959409	3953.656828	22176.324737
28.535000	-0.000304	0.000263	-0.000322	0.000655	6310.179304	42257.001217	3946.065435	22189.152621
29.035000	0.002464	0.000762	-0.000109	0.001631	6324.276078	42213.752530	3944.193507	22145.820722
29.535500	-0.001335	-0.000262	-0.001801	0.005736	6262.533201	41752.443936	3930.103141	21964.749599
30.037500	0.000323	0.001069	-0.000681	0.001644	6307.339306	42240.368529	3942.764557	22145.249550
30.536000	-0.000696	-0.001049	0.002728	0.001447	6300.898074	42066.839841	3951.613382	22153.999435
31.036500	-0.001286	0.000396	0.001125	0.002899	6284.949915	42066.194957	3944.112361	22089.713494
31.536500	0.000678	0.001224	-0.001806	0.002895	6300.320539	42141.267731	3936.974912	22089.909078
32.036500	0.000558	0.000458	-0.000697	0.000992	6314.297498	42244.045679	3944.320028	22174.156887
32.537000	0.000070	0.000868	0.005731	0.001537	6306.188336	42231.859392	3958.815055	22149.985714
33.037500	-0.000819	0.001061	0.003951	0.001406	6300.264213	42261.220656	3954.733257	22155.828579
33.535000	-0.000799	0.000319	0.002633	0.002208	6294.140875	42121.604535	3949.507105	22120.283895
34.034500	0.000916	0.000114	0.003459	0.001620	6312.181976	42156.184178	3952.989502	22146.337690
34.535000	-0.000329	0.000722	0.002452	0.002334	6296.831758	42146.529525	3948.751041	22114.688657
35.035500	-0.000569	0.000494	0.000978	0.001762	6299.432965	42177.677362	3946.537420	22140.038294
35.536000	-0.001904	0.000061	0.000584	0.003393	6276.302300	41991.611737	3941.583624	22067.924322
36.036500	-0.001112	0.000512	0.002096	0.002278	6291.146328	42132.618902	3948.012950	22117.163510
36.536500	-0.001042	0.000587	-0.003003	0.001613	6296.896385	42199.598485	3937.180790	22146.632236
37.037000	0.001403	0.000382	0.000474	0.001654	6315.742942	42177.376353	3945.566856	22144.827822
37.537000	-0.001217	0.000128	0.004173	0.002724	6286.854660	42057.805480	3952.027201	22097.447765
38.034500	-0.001424	0.000917	0.005156	0.002745	6285.078377	42127.079995	3954.401169	22096.527415
38.535000	0.000517	0.001124	0.001188	0.002846	6299.437758	42136.657304	3944.394564	22092.045072
39.035000	0.000221	-0.000106	0.001063	0.002042	6303.419783	42098.214767	3946.059875	22127.641707
39.535500	0.000296	0.000364	-0.001734	0.003533	6292.348633	42006.256178	3935.599463	22061.742904
40.035500	-0.000398	0.000388	0.000803	0.001420	6303.441769	42199.021479	3946.946883	22155.169482
40.539000	0.000898	0.000887	0.006232	0.002150	6307.882996	42178.189823	3958.538412	22122.855577
41.036500	0.000548	0.000956	-0.000624	0.001837	6307.590548	42212.679359	3942.432848	22136.726174
41.537000	-0.001474	0.000329	-0.001552	0.002146	6289.356062	42128.113139	3939.414775	22123.034046
42.037500	0.000844	0.000394	-0.001336	0.001595	6311.812747	42183.670740	3941.284225	22147.411114
42.537000	0.004442	0.000379	0.001028	0.001393	6341.786088	42200.640967	3947.565684	22156.382422
43.037000	-0.000981	0.000075	-0.000234	0.001110	6301.308362	42198.788805	3945.166171	22168.945417
43.535000	-0.002224	0.000462	0.001602	0.003334	6274.271316	42032.919877	3944.213045	22070.490590
44.035500	-0.000506	0.000286	0.003243	-0.001376	6324.566155	42443.370158	3959.869312	22279.540727
44.536000	-0.000733	-0.000144	0.000565	-0.000165	6313.247025	42294.343410	3950.256558	22225.595239
45.035500	0.000995	0.000848	0.002077	0.000656	6320.388523	42309.920945	3951.958759	22189.102595
45.536500	-0.001319	0.000170	0.000374	0.003782	6277.822993	41966.427065	3940.123500	22050.757095
46.036500	0.000014	0.000567	0.001383	0.000732	6312.066410	42277.507052	3950.061285	22185.702733
46.536500	0.001351	0.000135	0.000205	0.000650	6323.237513	42245.844301	3947.368156	22189.361228
47.037000	0.000700	0.000614	0.001952	0.001127	6314.361877	42245.971267	3950.491044	22168.183923
47.537500	-0.001331	0.000366	-0.002039	0.004502	6272.128471	41919.320721	3932.511812	22018.998508
48.035000	0.001200	0.001447	0.001296	0.002761	6305.456942	42173.565552	3944.869474	22095.817543
48.535000	0.002687	0.001140	0.003199	0.001386	6327.969360	42270.221838	3952.927068	22156.707082
49.038000	-0.000558	0.000182	-0.000126	0.000086	6312.650517	42301.160714	3947.941185	22214.416709
49.536000	-0.004072	0.000021	-0.000711	0.003560	6258.196276	41972.880023	3938.019788	22060.519042
50.041500	0.001217	0.000444	0.002745	-0.002375	6346.095987	42548.883484	3961.116295	22324.212893
50.536500	0.001521	0.000468	0.003466	0.012708	6230.834814	41198.401077	3925.996246	21661.133250
51.036500	0.012539	-0.003816	0.004563	0.014604	6301.509207	40657.587316	3924.075482	21579.406952
51.537000	0.013366	-0.007645	0.018245	0.344358	4495.570501	20428.170370	3385.013890	11641.311016
52.037000	-0.006568	-0.014832	-0.038083	-0.076991	6919.173159	48350.391702	4048.469119	25965.548332
52.535000	-0.010060	-0.032333	-0.047520	-0.189457	8065.139703	59453.234159	4360.920710	32783.701317
53.034500	-0.010008	-0.038478	-0.032667	-0.211398	8333.375866	61547.144832	4491.727423	34332.285999
53.535000	-0.007533	-0.043711	-0.028469	-0.227268	8567.756370	63000.753126	4567.881949	35502.227139
54.035500	0.007674	-0.021123	-0.013091	-0.170864	8054.937796	58500.433339	4415.864412	31531.282825
54.536000	0.008284	-0.012184	-0.011797	-0.106432	7350.583503	51833.975474	4208.246502	27583.456141
55.036500	0.004829	-0.007746	-0.011398	-0.091166	7162.859400	50629.554584	4163.593708	26730.800771
55.536500	0.000469	-0.005195	-0.009467	-0.061669	6843.247241	47759.568530	4084.743041	25165.911273
56.037000	0.004756	-0.005626	-0.012081	-0.092736	7177.567802	51036.627809	4166.216209	26817.113070
56.537000	0.004320	-0.003347	-0.008096	-0.069742	6952.985932	48795.624490	4111.198419	25583.722562
57.034000	0.007765	-0.000950	-0.006793	-0.074798	7033.073822	49589.645105	4129.336035	25849.347290
57.535000	0.005113	-0.000250	-0.011006	-0.069489	6958.022235	49097.011738	4102.273647	25570.493100
58.035000	0.011639	0.002174	0.000298	-0.071767	7041.097458	49599.654308	4141.056563	25689.731956
58.535500	0.011316	0.001766	-0.001929	-0.055667	6887.471708	47858.669565	4089.007116	24860.296399
59.035500	0.013168	0.002881	0.004378	-0.038637	6750.565878	46241.896812	4059.557316	24015.807347
59.538500	0.009864	0.005788	0.001675	-0.020857	6568.142215	44783.428003	4005.280648	23168.707178
60.036500	0.014947	0.008116	0.015048	-0.011520	6532.405625	44113.296028	4015.774489	22737.578386
60.536500	0.018424	0.007830	0.007988	-0.001414	6477.394946	43139.403815	3971.813293	22281.257697
61.037000	0.021718	0.009023	0.011459	-0.018079	6645.586208	44827.514440	4023.560105	23039.481370
61.537000	0.019324	0.009470	0.010922	0.021017	6304.420106	41259.478358	3923.944674	21305.559985
62.035000	0.020334	0.010728	0.014964	0.034341	6209.288677	40209.164167	3901.901685	20749.454489
62.535000	0.023190	0.011191	0.015126	0.018639	6353.711559	41623.067988	3939.866172	21406.659472
63.035500	0.025725	0.014491	0.024369	0.047332	6151.892460	39425.180440	3893.509146	20223.379017
63.535000	0.029376	0.014706	0.017243	0.053053	6136.441943	38965.324634	3864.011045	19996.661539
64.036000	0.031887	0.016757	0.025952	0.059037	6110.670198	38640.449070	3870.195349	19762.690595
64.536000	0.034245	0.017726	0.028516	0.061430	6110.410655	38523.520319	3870.582659	19670.006794
65.035500	0.034022	0.016432	0.019401	0.054863	6157.633475	38958.400762	3864.796561	19925.544585
65.536500	0.036395	0.017416	0.025845	0.061386	6126.666382	38501.799478	3864.619018	19671.742330
66.037500	0.037650	0.018879	0.026029	0.070981	6065.311559	37841.697397	3843.542754	19305.204824
66.534000	0.042760	0.017609	0.027966	0.093530	5940.778346	35978.250874	3798.948263	18475.128334
67.034500	0.040180	0.014287	0.023951	0.108419	5820.938837	34620.801950	3759.866327	17950.152796
67.534500	0.039010	0.012673	0.025796	0.155587	5513.399287	31253.151432	3672.817120	16401.098613
68.035500	0.035799	0.010511	0.027146	0.168090	5420.571231	30312.500040	3652.753180	16017.925321
68.535500	0.034825	0.011024	0.023223	0.188504	5299.499229	29085.756070	3610.719065	15415.520232
69.038000	0.031212	0.010709	0.027398	0.186213	5292.211334	29205.085077	3621.658519	15481.733164
69.536500	0.030306	0.012663	0.022779	0.183552	5301.894452	29485.869168	3618.329617	15559.074583
70.037000	0.035645	0.015517	0.029718	0.173209	5390.168284	30305.371674	3648.242983	15864.194002
70.536500	0.036113	0.017419	0.030001	0.169702	5413.051364	30648.498699	3654.962309	15969.308379
71.037000	0.035172	0.018723	0.034002	0.165730	5430.643836	30987.429668	3669.296628	16089.417467
71.538000	0.031414	0.018344	0.029637	0.166183	5406.235764	30933.742832	3660.604398	16075.661870
72.035000	0.036717	0.019763	0.032450	0.157635	5487.413703	31583.942059	3681.253984	16337.564268
72.535500	0.037080	0.019545	0.026694	0.153348	5515.259367	31853.746134	3678.555296	16470.903751
73.035500	0.034635	0.021213	0.029825	0.148646	5528.875695	32281.165653	3693.061064	16618.631310
73.538500	0.037084	0.022338	0.038725	0.146069	5559.464121	32532.533804	3714.794963	16700.289595
74.036500	0.037987	0.022668	0.033898	0.140684	5598.229548	32924.689924	3715.866502	16872.474747
74.536000	0.038174	0.024336	0.034526	0.137091	5621.807113	33290.336556	3724.015157	16988.562629
75.036500	0.039091	0.023761	0.031998	0.132775	5654.787008	33553.087431	3727.492373	17129.289191
75.534000	0.035193	0.022827	0.028260	0.132509	5631.855014	33505.973433	3720.753957	17137.990883
76.037500	0.040811	0.023298	0.033213	0.123556	5725.028484	34176.848327	3748.065479	17434.596855
76.535000	0.041516	0.022371	0.036595	0.119101	5758.777471	34431.768475	3763.845720	17584.478846
77.035000	0.040920	0.022432	0.035724	0.115063	5781.520181	34730.622001	3770.303965	17721.666542
77.535000	0.035596	0.022235	0.030900	0.114998	5746.845774	34720.875904	3760.616744	17723.866761
78.035500	0.040856	0.021952	0.028107	0.106030	5841.622154	35363.181562	3773.207239	18033.195546
78.536000	0.044489	0.023398	0.034658	0.102770	5888.658259	35716.605030	3793.581319	18147.215380
79.036000	0.040401	0.021674	0.033206	0.097542	5896.510201	35982.274132	3801.546715	18331.883874
79.536000	0.038465	0.021574	0.031793	0.098471	5876.814806	35903.987578	3796.595864	18298.895773
80.037000	0.041475	0.021616	0.027950	0.088579	5966.548164	36667.142743	3809.433686	18653.722436
80.534500	0.042459	0.023221	0.033821	0.085593	5994.692503	37025.700323	3828.551626	18762.386449
81.035000	0.039159	0.022253	0.028399	0.080432	6007.978139	37356.561117	3827.983400	18952.047755
81.534500	0.036448	0.022004	0.027470	0.081569	5980.574087	37246.865047	3823.491449	18910.084076
82.035500	0.043823	0.023951	0.033566	0.074866	6082.028908	37937.301751	3851.667739	19159.119577
82.535500	0.040439	0.023462	0.032871	0.071088	6084.911793	38203.422908	3858.578809	19301.161867
83.044000	0.037181	0.023305	0.027981	0.067789	6085.216099	38459.641631	3855.006935	19426.247223
83.536000	0.033245	0.023252	0.028058	0.070586	6036.237797	38227.184822	3848.928477	19320.150234
84.036500	0.037026	0.023089	0.032081	0.063715	6114.078047	38776.720746	3873.503216	19582.025802
84.536500	0.035818	0.023000	0.031575	0.062501	6114.124441	38869.734964	3875.124203	19628.731663
85.037000	0.037867	0.024789	0.034763	0.062263	6131.086511	39037.914462	3882.992686	19637.894614
85.534500	0.036867	0.024377	0.027414	0.063199	6116.725203	38926.020689	3864.067919	19601.869210
86.035000	0.036821	0.024984	0.027083	0.059656	6142.713407	39271.590597	3871.360739	19738.667089
86.535000	0.037523	0.025157	0.028926	0.058069	6159.845738	39419.206380	3879.209616	19800.314510
87.035000	0.036824	0.027189	0.032862	0.057254	6160.719774	39659.280962	3890.186493	19832.076314
87.535000	0.035286	0.025991	0.028079	0.058374	6140.828968	39463.739121	3876.566149	19788.451495
88.036000	0.036097	0.028259	0.031232	0.054676	6174.641939	39969.140652	3892.390802	19932.898998
88.536000	0.035225	0.026993	0.028886	0.052363	6185.521581	40058.574877	3892.312135	20023.842092
89.036500	0.036531	0.028018	0.026110	0.051216	6204.121344	40244.690471	3888.528686	20069.126972
89.536000	0.035522	0.027425	0.033028	0.049256	6211.362992	40362.363460	3909.325673	20146.795999
90.037000	0.035214	0.027768	0.031316	0.047855	6219.703485	40513.036082	3908.592608	20202.546047
90.537500	0.038032	0.029047	0.032373	0.047547	6243.674242	40650.621732	3911.823839	20214.809891
91.035500	0.036876	0.029059	0.028456	0.046292	6244.442791	40760.884536	3905.529607	20264.929782
91.535500	0.031881	0.028807	0.029178	0.049920	6178.713393	40424.424172	3898.698856	20120.468799
92.035500	0.035218	0.028771	0.030265	0.043574	6252.606747	40973.229115	3916.259518	20373.947752
92.538500	0.033731	0.029554	0.027937	0.042517	6249.294108	41134.706484	3913.235954	20416.530162
93.036000	0.035325	0.030762	0.031635	0.042777	6259.589100	41218.234434	3921.435319	20406.031780
93.536500	0.034695	0.030058	0.026747	0.043703	6247.585564	41074.796362	3907.605140	20368.761129
94.037000	0.038036	0.031119	0.031323	0.040978	6294.654624	41408.873188	3925.002236	20478.728326
94.537000	0.036519	0.030188	0.033183	0.039922	6291.053737	41419.871057	3932.032547	20521.517419
95.037000	0.037001	0.031930	0.027626	0.040249	6292.262267	41545.531933	3917.895979	20508.262148
95.535000	0.036301	0.031419	0.026459	0.039498	6292.658375	41566.836280	3916.902349	20538.724646
96.035000	0.037306	0.031581	0.032194	0.039406	6301.239635	41589.466978	3930.890757	20542.475883
96.535500	0.036843	0.032530	0.037170	0.040001	6292.962681	41621.007524	3941.527576	20518.301105
97.036000	0.037323	0.032996	0.029054	0.040320	6294.225907	41634.109163	3921.138331	20505.389719
97.536000	0.034801	0.032587	0.027114	0.042175	6260.194304	41432.785396	3912.092288	20430.322550
98.036000	0.038583	0.032826	0.029103	0.041537	6294.550323	41510.678546	3918.345792	20456.085612
98.536500	0.038103	0.033987	0.031629	0.042457	6283.635749	41532.059632	3922.188078	20418.950086
99.037000	0.039422	0.035563	0.037860	0.043997	6281.913173	41535.351306	3933.490570	20356.943894
99.536500	0.037371	0.034325	0.033521	0.046295	6248.228615	41222.195235	3917.534215	20264.806090
100.037500	0.040405	0.034458	0.033039	0.045562	6277.381775	41298.651473	3918.132875	20294.122851
100.538000	0.040162	0.035125	0.031908	0.046789	6265.976526	41249.173310	3912.519861	20245.066578
101.035000	0.039842	0.035529	0.032915	0.048577	6249.685917	41127.285203	3910.668743	20173.809242
101.535000	0.034254	0.033781	0.030217	0.053471	6169.837906	40547.490993	3892.833178	19980.224882
102.038500	0.038915	0.035376	0.030483	0.050918	6224.579704	40908.506342	3899.416894	20080.908653
102.536000	0.038548	0.036055	0.037222	0.052741	6207.868283	40808.613681	3911.006547	20008.966979
103.036000	0.040823	0.036444	0.034685	0.054548	6211.426136	40685.025922	3900.759517	19937.888533
103.536500	0.040166	0.035757	0.031511	0.056845	6188.990252	40426.473650	3887.999535	19848.011858
104.037000	0.038543	0.036265	0.043208	0.057290	6173.380689	40431.953011	3914.419366	19830.683553
104.534000	0.039920	0.036666	0.034520	0.058642	6173.566070	40349.915129	3890.811662	19778.038906
105.037500	0.038061	0.037010	0.038064	0.059785	6151.021142	40281.040958	3896.406481	19733.656741
105.535000	0.039802	0.035231	0.031484	0.060859	6156.021870	40036.536858	3878.677452	19692.108718
106.035500	0.041064	0.036721	0.037823	0.061583	6160.049647	40102.095441	3891.655705	19664.132378
106.538500	0.041283	0.036824	0.037844	0.062832	6152.334122	40004.041538	3888.803142	19615.982110
107.036000	0.039798	0.036358	0.038930	0.063146	6138.891070	39937.564583	3890.594149	19603.896856
107.536500	0.037501	0.036291	0.037149	0.069453	6075.382236	39398.233347	3871.974496	19363.044757
108.036500	0.038307	0.037488	0.040508	0.066562	6102.508366	39743.192264	3886.330900	19472.993663
108.536500	0.040211	0.037444	0.033874	0.067105	6112.566840	39693.463703	3869.863348	19452.306434
109.037000	0.041783	0.037861	0.041073	0.068350	6114.988348	39623.452586	3883.507274	19404.928752
109.535000	0.043085	0.037665	0.037742	0.069311	6117.510155	39525.790000	3873.653941	19368.439568
110.034500	0.040378	0.036738	0.034390	0.069079	6099.232042	39467.265062	3866.550834	19377.244016
110.535000	0.041106	0.036867	0.038705	0.070493	6094.178990	39359.296953	3873.150764	19323.656915
111.035500	0.042208	0.038079	0.040751	0.072117	6090.343560	39324.715625	3874.115097	19262.347146
111.535500	0.041513	0.038510	0.040000	0.073013	6078.685191	39285.802009	3870.359225	19228.633141
112.036500	0.040711	0.037010	0.036922	0.072640	6075.542419	39191.508589	3864.217507	19242.647677
112.536500	0.041666	0.037969	0.037262	0.073926	6073.132521	39164.248273	3862.079608	19194.351844
