sample name	sample
index	1486
start time	 05-18-2021  12:49:51 PM
880	0.063945
Peak Time (s)	92.037
Peak Height 	0.06394
calc peak height	90,93
Baseline Time (s)	9.628
Baseline Value 	-0.004609
subtract baseline	10,4
Abs	0.031686
Peak Time (s)	90.536
Peak Height 	0.03169
calc peak height	90,93
Baseline Time (s)	9.773
Baseline Value 	0.002411
subtract baseline	10,3
PK_550	0.031388
Peak Time (s)	90.536
Peak Height 	0.03139
calc peak height	90,93
Baseline Time (s)	11.037
Baseline Value 	1.9218E-4
subtract baseline	10,2
PK_880	0.033062
Peak Time (s)	90.536
Peak Height 	0.03306
calc peak height	90,93
Baseline Time (s)	11.537
Baseline Value 	0.001996
subtract baseline	10,1


Time (s)	A880-A510	A880-A775	A880-A975	A880	I510	I775	I975	I880	
0.036000	0.001345	-0.000269	0.004356	0.002168	6608.676810	44660.470461	3997.935911	23345.279561
0.539500	-0.003996	-0.000451	-0.001592	0.007763	6517.830379	44109.723707	3970.009806	23084.253199
1.037000	-0.004673	-0.000414	-0.005289	0.004073	6542.630506	44464.164919	3969.991336	23256.004136
1.537000	0.000020	0.000383	0.005075	0.002078	6598.303950	44731.746608	3999.920917	23349.490455
2.037500	-0.001138	-0.000379	-0.004586	0.000838	6598.988702	44777.814755	3979.437822	23407.829491
2.535000	-0.004902	-0.000109	-0.005059	0.004248	6539.290989	44476.641046	3970.124020	23247.827592
3.035500	0.000400	-0.000235	0.002038	-0.001323	6630.153676	45000.175404	4000.814622	23509.853262
3.535500	0.000322	-0.000321	-0.002456	0.000501	6614.096769	44815.758051	3985.395456	23423.679907
4.035500	-0.001663	-0.000044	0.003443	-0.000031	6601.871586	44893.783441	4001.091780	23448.778250
4.538500	0.000509	0.000457	-0.000808	0.000839	6612.825786	44858.177246	3988.574547	23407.751580
5.036500	-0.001013	0.000226	0.001570	0.000410	6603.630231	44877.261148	3995.418294	23427.972951
5.536500	-0.002263	-0.000241	-0.002840	-0.000395	6599.898559	44909.918920	3986.637550	23465.989089
6.037000	0.000262	-0.000277	0.001481	-0.000473	6621.805822	44913.981748	3997.360920	23469.647858
6.542500	0.000518	-0.000008	0.002746	0.000147	6618.736915	44880.145831	3998.943967	23440.397484
7.037500	0.000369	0.000094	0.000000	-0.000016	6618.857125	44905.648614	3992.625842	23448.091986
7.541000	-0.000089	-0.000900	0.002999	-0.000223	6616.736515	44829.783811	4000.473445	23457.841301
8.175500	-0.000057	-0.000294	-0.001323	0.000080	6614.451917	44858.975848	3989.168766	23443.545992
8.965500	-0.000974	-0.000438	-0.001834	-0.000394	6610.723555	44890.837363	3989.078910	23465.939574
9.628000	0.000422	-0.000349	0.001747	0.000000	6619.166669	44861.418035	3996.855283	23447.322014
9.773000	-0.000725	0.000334	0.000000	0.000547	6604.899485	44874.502571	3991.251443	23421.525408
10.037000	0.000224	-0.000496	0.001851	-0.000259	6619.677108	44872.188522	3997.745080	23459.544768
10.537000	0.001207	0.000248	-0.002245	0.000358	6622.763753	44884.375194	3986.254148	23430.426083
11.037500	-0.000971	0.000000	0.000543	-0.000235	6609.409933	44917.724195	3994.484998	23458.413795
11.537500	0.000000	0.000493	-0.000013	0.000370	6612.484917	44906.882973	3991.650097	23429.848960
12.035000	-0.000450	0.000529	0.001202	0.000519	6607.449949	44895.961642	3994.252836	23422.844686
12.535500	0.000855	0.000320	0.000983	-0.000427	6626.428032	44967.205489	3996.030243	23467.498987
13.035500	-0.001558	0.000211	-0.001279	-0.000464	6606.390187	44960.207605	3990.597492	23469.207747
13.536000	-0.001335	0.000073	-0.003224	-0.000048	6604.774679	44906.705195	3984.867510	23449.601946
14.039000	-0.002076	-0.000631	0.001306	0.001397	6586.451505	44699.768491	3992.363332	23381.497540
14.536000	-0.000677	-0.000562	-0.003939	0.001505	6597.263211	44696.049354	3979.388316	23376.425946
15.036500	-0.000927	0.000710	0.003755	0.000227	6605.900105	44941.726272	4001.226203	23436.634095
15.537000	-0.001065	0.000356	-0.001084	0.000557	6601.955186	44875.638858	3988.588301	23421.044572
16.036500	0.000388	0.000145	0.004178	-0.000221	6620.740773	44930.403498	4003.369128	23457.755539
16.535000	-0.001528	0.000212	-0.001150	0.000802	6596.021922	44838.215750	3987.835543	23409.532232
17.035000	0.002254	-0.000766	0.001174	-0.003703	6666.155095	45179.400123	4004.547514	23622.806469
17.535500	-0.002198	-0.000043	0.000787	0.000522	6592.747871	44840.481184	3993.231939	23422.693140
18.036000	-0.000836	-0.000374	-0.003694	0.000628	6603.289807	44798.501811	3982.095559	23417.721714
18.536000	0.000446	-0.000852	-0.002960	0.000799	6612.632303	44736.013948	3983.456670	23409.670153
19.036000	-0.000652	0.000898	-0.000557	0.001820	6594.826880	44806.127385	3986.800823	23361.604045
19.536500	-0.001656	0.000432	-0.000468	0.001171	6591.853726	44823.743558	3988.593861	23392.138801
20.036500	-0.000630	0.000862	0.000007	0.001588	6596.958904	44825.050757	3988.736081	23372.528127
20.536500	-0.003298	-0.000354	-0.004130	0.000638	6582.585837	44799.483630	3981.020112	23417.257330
21.037000	-0.000325	0.000610	0.002419	0.001577	6599.611496	44801.795994	3994.640146	23373.045363
21.535000	-0.001556	0.000284	-0.001597	0.001077	6593.486873	44818.598074	3986.082854	23396.578464
22.035000	0.000719	0.001114	-0.002392	0.001601	6608.180058	44848.070722	3982.890009	23371.919446
22.535500	-0.004148	-0.000036	0.001192	0.000633	6575.525913	44830.452480	3993.949306	23417.450417
23.036000	0.000458	0.000223	-0.002845	0.001142	6609.845122	44806.450532	3982.903987	23393.524618
23.539000	-0.001266	0.000327	-0.001942	0.000785	6598.363833	44850.906003	3985.954370	23410.330151
24.036500	-0.000921	0.001256	0.003213	0.001693	6593.639990	44852.883977	3996.298779	23367.592589
24.536500	-0.003716	0.000401	-0.001499	0.001293	6573.631741	44809.060316	3985.795918	23386.385342
25.037000	-0.001715	0.000149	0.000773	0.000788	6594.570845	44833.419176	3992.548983	23410.165972
25.537500	0.000298	0.000747	-0.001128	0.001341	6606.827797	44837.706310	3986.578129	23384.131309
26.035000	-0.001945	0.000604	0.002206	0.000846	6592.154723	44871.696642	3995.906580	23407.435252
26.535000	0.000983	0.000228	-0.002251	0.001161	6614.102253	44805.013528	3984.294395	23392.589261
27.045000	-0.000391	0.001026	-0.000731	-0.000618	6617.517909	45053.941085	3992.309539	23476.486205
27.535000	-0.000400	0.000521	0.004778	-0.000795	6618.934104	45022.220124	4006.265792	23484.847991
28.038500	-0.000116	-0.000153	-0.000732	-0.000512	6618.948037	44929.710914	3992.048750	23471.508371
28.536500	-0.001711	-0.000558	-0.002180	0.000370	6598.108787	44805.607179	3986.382098	23429.868421
29.036500	0.001517	0.000127	0.001065	-0.000296	6630.923460	44935.919242	3995.911848	23461.308481
29.537000	-0.000460	-0.000208	-0.003078	-0.000533	6616.222914	44926.436837	3986.395026	23472.492341
30.037000	-0.002103	-0.000177	-0.000353	-0.000766	6604.355695	44951.869490	3993.592946	23483.497611
30.537000	-0.003340	0.000276	-0.000660	0.002530	6566.467120	44678.025256	3984.831137	23328.275282
31.035000	-0.000259	0.000560	0.001973	0.002086	6595.899340	44748.083468	3992.310589	23349.129248
31.535500	0.001776	0.000002	0.002926	-0.000102	6631.467595	44905.119875	3999.997019	23452.137441
32.035500	0.000741	0.000235	0.000639	-0.000244	6623.914031	44941.288628	3994.740450	23458.831795
32.535500	-0.000583	-0.000235	0.001982	0.000432	6607.064316	44830.705095	3996.372402	23426.960675
33.036000	0.000877	-0.000012	0.003145	-0.000191	6624.620522	44912.283140	4000.754890	23456.337482
33.536500	0.000094	0.000421	0.003048	-0.002129	6634.395738	45141.917138	4005.290116	23548.047661
34.036500	-0.001606	-0.000089	-0.002605	0.001702	6587.833163	44722.492812	3982.130796	23367.150944
34.537000	-0.002106	-0.000128	-0.001691	0.000913	6590.244196	44794.669459	3986.250843	23404.276036
35.037000	-0.001130	0.000361	0.003083	0.001785	6591.123371	44757.837841	3995.755650	23363.267177
35.537500	-0.001461	0.000468	-0.001328	0.001742	6588.709471	44772.271032	3985.122584	23365.278273
36.035000	-0.001399	0.000429	-0.002322	0.001749	6589.173367	44767.915910	3982.702327	23364.978190
36.535500	-0.001515	0.000910	-0.006251	0.001813	6587.663939	44807.950085	3973.094686	23361.932799
37.035500	-0.002564	-0.000462	-0.002377	0.001019	6585.527962	44752.351651	3984.334210	23399.290893
37.535000	0.000499	0.000420	-0.002695	0.001320	6608.687779	44808.206251	3982.834719	23385.115785
38.036500	-0.001109	0.000243	-0.003616	0.001321	6595.184943	44791.149250	3980.611922	23385.099936
38.536500	-0.001233	-0.000543	-0.002289	0.000566	6600.476341	44788.139231	3985.643851	23420.626267
39.036500	-0.002882	-0.000636	0.000112	0.000810	6584.621169	44755.741214	3990.885547	23409.157065
39.537000	-0.002585	0.000168	-0.001087	0.001045	6585.142478	44810.489465	3987.397969	23398.066794
40.037500	0.000943	0.000222	-0.002374	0.001560	6610.413122	44766.082480	3983.031937	23373.838019
40.535000	-0.002279	-0.001117	-0.001449	-0.000025	6596.663639	44789.824875	3989.116712	23448.513209
41.035500	0.002341	0.000851	0.001732	0.001968	6618.752231	44787.321714	3992.008401	23354.653945
41.535500	-0.003973	-0.000699	-0.003794	0.000459	6578.438047	44783.445874	3982.261156	23425.658611
42.035500	-0.000905	0.000442	-0.000797	0.001746	6593.328075	44769.381204	3986.398933	23365.085911
42.536000	-0.002102	0.000400	-0.001212	0.001220	6587.713249	44815.988931	3986.667829	23389.826172
43.039000	0.000587	0.000139	-0.002874	0.001773	6605.620601	44737.624445	3981.310353	23363.812718
43.536500	0.000182	0.000565	0.001273	-0.000123	6618.170150	44961.462436	3995.994715	23453.110131
44.045000	-0.001388	0.000312	0.000653	-0.000345	6606.829181	44958.472064	3995.021001	23463.607606
44.534500	-0.001042	0.000292	0.000719	-0.000710	6612.811359	44991.848952	3996.076842	23480.853250
45.037000	0.000555	0.000372	-0.001439	0.000554	6615.608470	44877.414353	3987.735014	23421.187183
45.820000	-0.002652	0.000161	0.001666	0.000964	6585.262046	44817.624623	3994.300242	23401.900931
46.187500	-0.005599	-0.000136	-0.005193	0.005174	6525.926201	44385.623204	3967.594972	23204.606302
46.535000	-0.002492	0.000110	0.001958	0.000191	6593.062059	44887.159296	3996.902844	23438.292408
47.038500	-0.002314	-0.000057	0.001512	0.000587	6591.242494	44832.945809	3994.844284	23419.652439
47.536500	-0.001896	-0.000627	-0.004702	0.001052	6590.837147	44733.319532	3978.639844	23397.722880
48.036000	-0.000445	0.001019	0.001222	0.002526	6590.653299	44749.822781	3989.409570	23328.463527
48.536500	-0.000375	0.000191	0.002088	-0.000122	6613.471308	44925.198705	3997.990238	23453.072647
49.037000	0.000390	0.000388	0.002354	0.000312	6616.256116	44902.372193	3997.575954	23432.583408
49.537500	0.000085	0.000941	-0.000492	-0.000334	6619.135739	45018.191225	3992.198493	23463.068108
50.034500	0.001336	0.000526	0.005619	-0.001377	6638.539575	45079.043396	4009.786129	23512.381089
50.535500	0.002582	0.000839	0.001957	0.003057	6611.604360	44681.502069	3989.905292	23303.572140
51.035500	-0.004320	-0.006899	0.004343	0.117788	5718.487250	34434.807590	3749.051742	18579.059764
51.536000	0.003810	-0.017482	0.000130	0.132528	5676.745656	32653.219431	3714.213740	18057.612048
52.036000	-0.008015	-0.021858	-0.000487	-0.069243	7169.786909	49727.006340	4174.306181	26989.691255
52.536500	-0.013503	-0.025435	-0.003513	-0.138981	7841.776443	57419.442461	4380.370342	31176.561531
53.036500	-0.000619	-0.025106	0.013588	-0.134291	7934.842697	56875.405838	4422.323552	30873.400209
53.536500	0.000748	-0.020331	0.016014	-0.105079	7625.592429	53926.618406	4333.252226	29057.171730
54.037000	-0.005292	-0.017531	0.014426	-0.044587	6962.237813	47589.274662	4146.774151	25663.136445
54.537500	-0.012261	-0.013528	-0.004927	-0.039923	6856.332921	47521.440098	4081.483649	25420.563824
55.035000	-0.009381	-0.009387	-0.000777	-0.051657	6989.831544	49179.641421	4124.258265	26035.822123
55.537500	-0.005669	-0.005999	0.000769	-0.073494	7234.291620	51942.378938	4190.142178	27226.113893
56.035500	-0.001434	-0.003650	0.004215	-0.075010	7291.335852	52380.134818	4204.584754	27311.006357
56.538000	0.001876	-0.002745	0.003356	-0.059792	7174.061630	50778.594369	4158.381689	26472.279431
57.035500	0.008174	0.001998	0.004576	-0.064238	7279.726002	51800.659781	4174.471107	26714.271706
57.536500	0.013676	0.003686	0.010592	-0.052239	7215.522831	50655.314779	4157.487605	26066.798403
58.037000	0.011907	0.004914	0.011800	-0.042120	7100.488097	49689.190962	4132.624588	25534.468902
58.537000	0.017030	0.008001	0.014086	-0.056414	7290.025836	51596.497584	4179.299259	26290.074929
59.037000	0.017248	0.010924	0.012046	0.013367	6648.460743	44659.868039	3989.367344	22826.152326
59.534500	0.009691	0.007506	0.015364	0.018065	6545.708505	43888.268008	3986.016426	22612.357905
60.035000	0.018720	0.010797	0.018687	-0.023490	6989.211913	48338.172126	4100.627116	24586.291570
60.538000	0.016452	0.003084	0.018866	-0.065736	7378.176147	52092.074576	4220.423472	26796.381620
61.038500	0.010521	0.008763	0.018989	0.013405	6591.377626	44449.467962	4006.295537	22824.431956
61.536000	0.011592	0.010192	0.021581	0.030438	6460.169480	42985.951778	3971.200139	22060.180543
62.036000	0.016781	0.013837	0.018835	0.076459	6145.662251	39266.936609	3860.950144	20139.094212
62.536500	0.022796	0.022090	0.022846	0.059161	6321.604761	41465.791346	3907.606121	20837.414813
63.036500	0.019507	0.023482	0.013329	0.048549	6378.847170	42544.386179	3910.066262	21279.786482
63.600000	0.021186	0.024594	0.015799	0.043742	6430.354048	43087.268113	3926.570635	21483.754738
64.038000	0.017955	0.024435	0.014302	0.044663	6397.285021	42987.614058	3921.054551	21444.475786
64.538000	0.017729	0.024001	0.014021	0.037044	6456.382125	43654.962536	3937.887931	21771.733524
65.035500	0.019319	0.023903	0.010050	0.033180	6500.628579	44009.209599	3937.640741	21939.907757
65.535500	0.018858	0.024177	0.016767	0.030459	6519.123200	44293.137341	3959.707331	22059.240587
66.036000	0.017272	0.025278	0.018076	0.034079	6476.655697	44054.184672	3954.259689	21900.639093
66.535500	0.019470	0.025741	0.016986	0.029596	6531.250950	44524.595559	3962.268670	22097.250706
67.036500	0.022339	0.026694	0.020645	0.030851	6544.565292	44495.714455	3967.979425	22041.999542
67.539000	0.021540	0.026532	0.016157	0.031447	6533.054605	44423.437758	3955.937481	22015.846784
68.037000	0.016540	0.025111	0.013127	0.035012	6463.187101	43950.315133	3940.524857	21860.006059
68.534500	0.019577	0.025626	0.019932	0.032540	6507.969143	44233.049421	3962.272509	21967.936736
69.034000	0.019689	0.026565	0.017764	0.034523	6492.694916	44134.047904	3952.483641	21881.312409
69.537500	0.018037	0.026484	0.017750	0.035038	6475.083125	44077.511304	3951.241237	21858.843742
70.035000	0.016163	0.025752	0.009000	0.039998	6420.136875	43542.440890	3919.606821	21644.173040
70.538500	0.018892	0.026033	0.014608	0.036812	6467.647943	43867.493280	3939.782547	21781.781898
71.036000	0.019467	0.027022	0.013789	0.038826	6456.031028	43771.139615	3933.238423	21694.681815
71.539000	0.019331	0.026181	0.020280	0.039583	6448.834934	43621.326259	3946.529450	21662.031970
72.036500	0.019265	0.026586	0.020822	0.046771	6390.968397	42991.574145	3931.141700	21354.939292
72.537000	0.022463	0.026430	0.019361	0.043232	6444.682648	43304.460335	3935.927644	21505.503995
73.037000	0.022576	0.026664	0.018998	0.045481	6427.567511	43117.808512	3929.916441	21409.704084
73.535000	0.025030	0.027068	0.021808	0.046555	6438.610102	43055.904722	3933.908159	21364.101853
74.035000	0.021607	0.025996	0.018905	0.052172	6366.855442	42443.433587	3914.466928	21127.512782
74.535500	0.025863	0.026563	0.019556	0.047713	6436.005239	42902.701784	3926.080541	21315.066399
75.035500	0.024521	0.027487	0.020122	0.048684	6417.517387	42898.407143	3925.155215	21274.060756
75.538500	0.028203	0.028094	0.024913	0.049532	6440.186429	42876.257484	3934.201774	21238.331859
76.036000	0.024703	0.028317	0.020984	0.055501	6365.026638	42351.892261	3911.646675	20988.732465
76.536500	0.030224	0.027728	0.020276	0.049153	6459.495598	42877.482084	3924.437849	21254.306600
77.036500	0.025216	0.028509	0.017954	0.051034	6404.349343	42776.622601	3914.891798	21175.225016
77.536500	0.030041	0.029156	0.023568	0.051139	6442.041074	42826.321353	3927.423766	21170.821547
78.037500	0.026389	0.028302	0.016654	0.056172	6373.001409	42289.785150	3900.445159	20960.885925
78.535000	0.026544	0.028985	0.024407	0.050970	6415.420887	42826.062934	3929.733338	21177.899340
79.035000	0.026475	0.029399	0.020082	0.052444	6403.150644	42728.965783	3916.514660	21116.141250
79.538000	0.027744	0.029013	0.023703	0.051578	6420.137468	42772.842947	3926.724509	21152.380194
80.038000	0.023689	0.029246	0.025142	0.057387	6342.331014	42265.291907	3916.778530	20910.589193
80.536000	0.028846	0.030086	0.022973	0.052227	6423.757971	42811.753377	3923.575026	21125.208425
81.066000	0.027386	0.030138	0.029149	0.053957	6398.375120	42658.220701	3933.768865	21052.992988
81.536500	0.028862	0.028872	0.021607	0.051719	6427.949191	42747.056642	3921.622038	21146.492604
82.039500	0.028856	0.029992	0.027833	0.057774	6379.823284	42297.755825	3922.012342	20894.617010
82.537000	0.030750	0.029807	0.031812	0.052397	6437.630826	42770.582018	3943.544961	21118.111835
83.037000	0.030194	0.029809	0.027323	0.053962	6420.672413	42627.655729	3929.557602	21052.778362
83.534500	0.031681	0.031111	0.028453	0.053640	6435.130215	42776.174337	3932.892891	21066.175464
84.035000	0.026801	0.030547	0.020215	0.059070	6353.494310	42230.766171	3901.923546	20841.138556
84.535500	0.030605	0.030658	0.030336	0.054082	6422.991942	42694.255420	3936.217507	21047.777699
85.035500	0.030108	0.029983	0.025776	0.054629	6414.663653	42582.664707	3924.490815	21024.998003
85.536500	0.031293	0.030336	0.028689	0.053687	6431.650180	42700.926989	3933.329484	21064.230029
86.036500	0.025800	0.029758	0.028988	0.059574	6341.742263	42114.044458	3920.543801	20820.387736
86.537000	0.031103	0.030190	0.030385	0.054034	6427.358612	42655.883508	3936.442456	21049.785640
87.037000	0.032392	0.029975	0.029237	0.056033	6421.680543	42454.138870	3929.198919	20966.675755
87.537000	0.029580	0.031323	0.025317	0.056260	6397.514177	42556.133651	3919.732069	20957.256217
88.034500	0.026426	0.030421	0.026220	0.060872	6336.504818	42056.943139	3911.344642	20767.088621
88.535000	0.031622	0.029948	0.026045	0.055214	6422.069980	42526.146217	3923.770970	21000.659826
89.035500	0.031314	0.029689	0.025313	0.055639	6416.222787	42463.930468	3921.134268	20983.007670
89.538500	0.031564	0.030594	0.027154	0.056492	6411.421372	42468.654587	3923.384642	20947.623979
90.035500	0.028339	0.030235	0.025953	0.062056	6342.187334	41933.764294	3908.080206	20718.577055
90.536000	0.033062	0.031388	0.031686	0.057816	6412.804512	42420.468077	3930.725539	20892.857713
91.036500	0.030553	0.029706	0.030216	0.057051	6398.951420	42337.361840	3929.107256	20924.487705
91.537000	0.032569	0.029991	0.029498	0.057882	6408.358641	42287.827738	3925.561529	20890.127955
92.037000	0.028244	0.029815	0.027976	0.063945	6326.750454	41727.251903	3908.383065	20641.482782
92.537500	0.029122	0.030382	0.029838	0.059578	6367.714458	42169.935772	3922.468094	20820.235800
93.037500	0.029203	0.030347	0.026915	0.060641	6360.005800	42071.068124	3913.432724	20776.566998
93.551500	0.029022	0.029530	0.030263	0.061095	6355.028047	41956.714917	3919.982632	20757.915175
94.038500	0.027845	0.029222	0.024238	0.066178	6306.382462	41475.957636	3895.065890	20550.767732
94.536000	0.027501	0.029252	0.022051	0.062410	6332.902992	41814.062994	3898.573833	20704.115038
95.035000	0.027137	0.028480	0.026103	0.062669	6328.057999	41721.965830	3907.041492	20693.516671
95.536500	0.028877	0.028173	0.024615	0.063838	6332.500016	41590.560620	3901.101451	20645.831749
96.036500	0.024376	0.028000	0.027553	0.069514	6254.282583	41074.091748	3895.020515	20416.113813
