sample name	sample
index	990
start time	 04-14-2021  04:10:06 PM


Wavelength (nm)	Absorbance
494.344910	NaN
494.563924	NaN
494.782919	NaN
495.001897	-0.256372
495.220856	NaN
495.439797	NaN
495.658719	0.641942
495.877624	0.104393
496.096510	0.377091
496.315378	0.166753
496.534227	0.085966
496.753059	0.065855
496.971872	0.065300
497.190667	-0.016316
497.409444	-0.011106
497.628203	-0.010159
497.846943	-0.008445
498.065665	-0.009947
498.284369	-0.008321
498.503055	-0.008398
498.721723	-0.009308
498.940372	-0.009736
499.159003	-0.010239
499.377616	-0.009616
499.596210	-0.009371
499.814787	-0.009548
500.033345	-0.008725
500.251885	-0.008469
500.470406	-0.007800
500.688910	-0.007677
500.907395	-0.006922
501.125862	-0.006021
501.344311	-0.006951
501.562742	-0.007399
501.781154	-0.008041
501.999548	-0.008306
502.217924	-0.008727
502.436282	-0.009369
502.654621	-0.008966
502.872942	-0.009547
503.091245	-0.010343
503.309530	-0.010546
503.527797	-0.009811
503.746045	-0.009849
503.964275	-0.010615
504.182487	-0.010855
504.400681	-0.010946
504.618856	-0.010707
504.837013	-0.010382
505.055152	-0.009222
505.273273	-0.009039
505.491376	-0.009676
505.709460	-0.010475
505.927526	-0.010387
506.145574	-0.010655
506.363604	-0.010551
506.581615	-0.010973
506.799608	-0.011881
507.017583	-0.012926
507.235540	-0.012416
507.453478	-0.012089
507.671399	-0.010524
507.889301	-0.010451
508.107185	-0.009600
508.325050	-0.009535
508.542898	-0.009281
508.760727	-0.008938
508.978538	-0.009039
509.196330	-0.009907
509.414105	-0.010287
509.631861	-0.010834
509.849599	-0.011240
510.067319	-0.012093
510.285021	-0.012840
510.502704	-0.012675
510.720369	-0.012283
510.938016	-0.010797
511.155645	-0.010262
511.373255	-0.009983
511.590848	-0.010206
511.808422	-0.009787
512.025977	-0.010362
512.243515	-0.010160
512.461034	-0.009917
512.678536	-0.010016
512.896018	-0.011434
513.113483	-0.011816
513.330930	-0.011948
513.548358	-0.011833
513.765768	-0.011893
513.983160	-0.011491
514.200533	-0.010815
514.417889	-0.011548
514.635226	-0.011326
514.852545	-0.010330
515.069845	-0.010264
515.287128	-0.010055
515.504392	-0.009845
515.721638	-0.009807
515.938866	-0.008994
516.156075	-0.009098
516.373267	-0.009211
516.590440	-0.010439
516.807594	-0.010745
517.024731	-0.011201
517.241850	-0.011777
517.458950	-0.012102
517.676032	-0.012337
517.893095	-0.012697
518.110141	-0.012849
518.327168	-0.013136
518.544177	-0.012628
518.761168	-0.013220
518.978141	-0.012619
519.195095	-0.013144
519.412031	-0.013231
519.628949	-0.012952
519.845849	-0.012898
520.062731	-0.013198
520.279594	-0.012317
520.496439	-0.011851
520.713266	-0.011279
520.930074	-0.010983
521.146865	-0.010510
521.363637	-0.010297
521.580391	-0.010674
521.797127	-0.010527
522.013844	-0.010562
522.230543	-0.011047
522.447224	-0.011001
522.663887	-0.010896
522.880532	-0.011379
523.097158	-0.011493
523.313766	-0.011558
523.530356	-0.010973
523.746928	-0.010957
523.963481	-0.010314
524.180017	-0.010293
524.396534	-0.010417
524.613032	-0.010864
524.829513	-0.010827
525.045975	-0.010048
525.262420	-0.009690
525.478845	-0.010104
525.695253	-0.010367
525.911643	-0.010662
526.128014	-0.010515
526.344367	-0.010569
526.560702	-0.010576
526.777018	-0.010381
526.993316	-0.010387
527.209597	-0.010581
527.425858	-0.009877
527.642102	-0.009921
527.858328	-0.010001
528.074535	-0.009601
528.290724	-0.009239
528.506894	-0.009244
528.723047	-0.009626
528.939181	-0.009782
529.155297	-0.009805
529.371395	-0.010208
529.587475	-0.010045
529.803536	-0.009994
530.019579	-0.010342
530.235604	-0.010573
530.451611	-0.010682
530.667600	-0.010060
530.883570	-0.009573
531.099522	-0.008944
531.315456	-0.008921
531.531372	-0.009044
531.747269	-0.008667
531.963148	-0.008554
532.179009	-0.008624
532.394852	-0.008115
532.610676	-0.008477
532.826482	-0.008841
533.042271	-0.008917
533.258040	-0.008917
533.473792	-0.008615
533.689525	-0.009027
533.905240	-0.009627
534.120937	-0.009390
534.336616	-0.009085
534.552277	-0.008667
534.767919	-0.009191
534.983543	-0.009708
535.199149	-0.009822
535.414736	-0.010160
535.630306	-0.009765
535.845857	-0.009844
536.061390	-0.009809
536.276904	-0.009794
536.492401	-0.010013
536.707879	-0.009184
536.923339	-0.008906
537.138781	-0.008645
537.354204	-0.008355
537.569610	-0.008738
537.784997	-0.008257
538.000366	-0.008237
538.215716	-0.008869
538.431049	-0.008834
538.646363	-0.008670
538.861659	-0.008630
539.076937	-0.008628
539.292196	-0.008884
539.507438	-0.009100
539.722661	-0.009369
539.937866	-0.009372
540.153052	-0.008953
540.368221	-0.008889
540.583371	-0.009587
540.798503	-0.010059
541.013617	-0.009788
541.228712	-0.009458
541.443789	-0.009048
541.658848	-0.008348
541.873889	-0.008277
542.088912	-0.008334
542.303916	-0.008547
542.518902	-0.008622
542.733870	-0.008813
542.948820	-0.008873
543.163752	-0.009002
543.378665	-0.009176
543.593560	-0.009179
543.808437	-0.009581
544.023295	-0.009681
544.238136	-0.009678
544.452958	-0.009564
544.667762	-0.009047
544.882548	-0.009121
545.097315	-0.008925
545.312064	-0.009024
545.526795	-0.009278
545.741508	-0.008919
545.956203	-0.008925
546.170879	-0.008697
546.385537	-0.008583
546.600177	-0.009262
546.814799	-0.009104
547.029402	-0.009260
547.243988	-0.009162
547.458555	-0.009248
547.673103	-0.009669
547.887634	-0.009168
548.102146	-0.009337
548.316640	-0.009365
548.531116	-0.008533
548.745574	-0.008859
548.960013	-0.008707
549.174435	-0.008540
549.388838	-0.008332
549.603222	-0.007638
549.817589	-0.008279
550.031937	-0.008114
550.246267	-0.008029
550.460579	-0.008032
550.674873	-0.007893
550.889148	-0.007702
551.103405	-0.007217
551.317644	-0.007313
551.531865	-0.007469
551.746068	-0.006963
551.960252	-0.006931
552.174418	-0.007172
552.388566	-0.007338
552.602696	-0.007374
552.816807	-0.007688
553.030900	-0.008080
553.244975	-0.007999
553.459032	-0.007711
553.673070	-0.008188
553.887091	-0.008141
554.101093	-0.007771
554.315077	-0.007379
554.529042	-0.007337
554.742990	-0.007317
554.956919	-0.007561
555.170830	-0.007400
555.384722	-0.007650
555.598597	-0.007421
555.812453	-0.007498
556.026291	-0.007620
556.240111	-0.007887
556.453913	-0.007603
556.667696	-0.007305
556.881461	-0.006962
557.095208	-0.007086
557.308937	-0.007033
557.522647	-0.007040
557.736339	-0.007267
557.950013	-0.007345
558.163669	-0.007438
558.377307	-0.007960
558.590926	-0.008099
558.804527	-0.008560
559.018110	-0.008454
559.231675	-0.008502
559.445221	-0.008388
559.658749	-0.008187
559.872259	-0.008011
560.085751	-0.007874
560.299225	-0.007353
560.512680	-0.007508
560.726117	-0.007291
560.939536	-0.007293
561.152937	-0.007476
561.366319	-0.007518
561.579683	-0.007296
561.793029	-0.007519
562.006357	-0.007532
562.219667	-0.007565
562.432958	-0.007579
562.646231	-0.007505
562.859486	-0.007588
563.072723	-0.007414
563.285941	-0.007282
563.499141	-0.007397
563.712323	-0.007344
563.925487	-0.007136
564.138632	-0.007266
564.351760	-0.007186
564.564869	-0.006777
564.777960	-0.006526
564.991032	-0.006821
565.204087	-0.006858
565.417123	-0.006786
565.630141	-0.006554
565.843140	-0.006622
566.056122	-0.006746
566.269085	-0.006794
566.482030	-0.006999
566.694957	-0.007023
566.907866	-0.006856
567.120756	-0.006917
567.333628	-0.006924
567.546482	-0.006877
567.759318	-0.006825
567.972135	-0.006348
568.184935	-0.006079
568.397716	-0.006156
568.610478	-0.006207
568.823223	-0.005994
569.035949	-0.005759
569.248657	-0.005821
569.461347	-0.005902
569.674019	-0.006222
569.886672	-0.006667
570.099308	-0.006936
570.311925	-0.006934
570.524523	-0.006822
570.737104	-0.006954
570.949666	-0.006827
571.162210	-0.006750
571.374736	-0.006931
571.587244	-0.006773
571.799733	-0.006663
572.012205	-0.006549
572.224658	-0.006560
572.437092	-0.006763
572.649509	-0.006955
572.861907	-0.007246
573.074287	-0.007067
573.286649	-0.006957
573.498993	-0.006963
573.711318	-0.007372
573.923625	-0.007098
574.135914	-0.006894
574.348185	-0.006698
574.560438	-0.006315
574.772672	-0.006448
574.984888	-0.006783
575.197086	-0.006557
575.409266	-0.006389
575.621427	-0.005773
575.833570	-0.005902
576.045695	-0.006169
576.257802	-0.006102
576.469890	-0.005804
576.681961	-0.005253
576.894013	-0.005247
577.106046	-0.005275
577.318062	-0.005498
577.530059	-0.005876
577.742039	-0.005767
577.954000	-0.005452
578.165942	-0.005660
578.377867	-0.005973
578.589773	-0.006234
578.801661	-0.005854
579.013531	-0.006071
579.225382	-0.005706
579.437216	-0.005635
579.649031	-0.005871
579.860828	-0.005692
580.072606	-0.005689
580.284367	-0.005481
580.496109	-0.005350
580.707833	-0.005241
580.919539	-0.004955
581.131227	-0.005086
581.342896	-0.004766
581.554547	-0.004371
581.766180	-0.004879
581.977795	-0.005000
582.189391	-0.004997
582.400969	-0.004914
582.612529	-0.004860
582.824071	-0.005183
583.035595	-0.004994
583.247100	-0.005016
583.458587	-0.005273
583.670056	-0.005106
583.881506	-0.004720
584.092939	-0.004801
584.304353	-0.005121
584.515749	-0.005472
584.727127	-0.005261
584.938486	-0.005280
585.149828	-0.005512
585.361151	-0.005528
585.572456	-0.005420
585.783742	-0.005383
585.995011	-0.005404
586.206261	-0.005345
586.417493	-0.005002
586.628706	-0.004921
586.839902	-0.004883
587.051079	-0.004434
587.262238	-0.004180
587.473379	-0.004012
587.684502	-0.004098
587.895606	-0.004008
588.106692	-0.003937
588.317760	-0.004423
588.528810	-0.004455
588.739841	-0.004301
588.950855	-0.004282
589.161850	-0.004560
589.372827	-0.004725
589.583785	-0.004610
589.794726	-0.004413
590.005648	-0.004181
590.216552	-0.003776
590.427437	-0.003456
590.638305	-0.003648
590.849154	-0.003747
591.059985	-0.003579
591.270798	-0.003739
591.481592	-0.003725
591.692369	-0.003778
591.903127	-0.003644
592.113867	-0.003858
592.324588	-0.003806
592.535292	-0.003793
592.745977	-0.004127
592.956644	-0.003968
593.167293	-0.003491
593.377923	-0.003590
593.588536	-0.003583
593.799130	-0.003636
594.009706	-0.003510
594.220263	-0.003952
594.430803	-0.004197
594.641324	-0.004015
594.851827	-0.004175
595.062312	-0.004303
595.272778	-0.004186
595.483227	-0.004270
595.693657	-0.004310
595.904069	-0.004343
596.114462	-0.004242
596.324838	-0.004162
596.535195	-0.004142
596.745534	-0.004041
596.955855	-0.004144
597.166157	-0.004181
597.376441	-0.004023
597.586707	-0.004108
597.796955	-0.004039
598.007185	-0.003604
598.217396	-0.003073
598.427589	-0.002879
598.637764	-0.002818
598.847921	-0.002913
599.058060	-0.002775
599.268180	-0.002942
599.478282	-0.002913
599.688366	-0.002936
599.898431	-0.002959
600.108479	-0.003250
600.318508	-0.003234
600.528519	-0.003336
600.738511	-0.003300
600.948486	-0.003189
601.158442	-0.003185
601.368380	-0.003013
601.578300	-0.002782
601.788202	-0.003023
601.998085	-0.003046
602.207950	-0.003028
602.417797	-0.003050
602.627626	-0.002693
602.837436	-0.002990
603.047228	-0.002845
603.257002	-0.002921
603.466758	-0.002942
603.676496	-0.002644
603.886215	-0.002388
604.095916	-0.002518
604.305599	-0.002445
604.515264	-0.002420
604.724910	-0.002102
604.934538	-0.002369
605.144148	-0.002185
605.353740	-0.002513
605.563314	-0.002693
605.772869	-0.002761
605.982406	-0.002579
606.191925	-0.002289
606.401425	-0.002260
606.610908	-0.002388
606.820372	-0.002103
607.029818	-0.002280
607.239246	-0.002105
607.448655	-0.001812
607.658047	-0.001789
607.867420	-0.001694
608.076775	-0.001757
608.286111	-0.002013
608.495430	-0.001950
608.704730	-0.002074
608.914012	-0.001856
609.123275	-0.001536
609.332521	-0.001919
609.541748	-0.001947
609.750957	-0.002054
609.960148	-0.002052
610.169321	-0.001847
610.378475	-0.001633
610.587611	-0.001481
610.796729	-0.001518
611.005829	-0.001531
611.214910	-0.001062
611.423974	-0.001059
611.633019	-0.000950
611.842045	-0.001157
612.051054	-0.001174
612.260044	-0.001472
612.469017	-0.001204
612.677970	-0.001524
612.886906	-0.001783
613.095824	-0.002061
613.304723	-0.002041
613.513604	-0.002182
613.722467	-0.001919
613.931311	-0.001860
614.140138	-0.001753
614.348946	-0.001966
614.557736	-0.002035
614.766507	-0.001953
614.975261	-0.002001
615.183996	-0.001959
615.392713	-0.001817
615.601412	-0.001937
615.810092	-0.001655
616.018754	-0.001693
616.227399	-0.001595
616.436024	-0.001294
616.644632	-0.001127
616.853222	-0.000875
617.061793	-0.000887
617.270346	-0.000757
617.478880	-0.000541
617.687397	-0.000657
617.895895	-0.000686
618.104375	-0.000622
618.312837	-0.000586
618.521281	-0.000640
618.729706	-0.000672
618.938113	-0.000627
619.146502	-0.000803
619.354873	-0.000821
619.563226	-0.000991
619.771560	-0.000933
619.979876	-0.000969
620.188174	-0.000950
620.396453	-0.000963
620.604715	-0.000990
620.812958	-0.001015
621.021183	-0.000857
621.229390	-0.000784
621.437578	-0.000602
621.645748	-0.000656
621.853900	-0.000662
622.062034	-0.000655
622.270150	-0.000559
622.478247	-0.000352
622.686326	-0.000293
622.894387	-0.000269
623.102430	-0.000424
623.310454	-0.000378
623.518461	-0.000082
623.726449	-0.000037
623.934418	0.000078
624.142370	0.000250
624.350303	0.000127
624.558218	0.000412
624.766115	0.000435
624.973994	0.000647
625.181855	0.000771
625.389697	0.000828
625.597521	0.000787
625.805327	0.000947
626.013114	0.001050
626.220883	0.001116
626.428634	0.000945
626.636367	0.000945
626.844082	0.000951
627.051778	0.000943
627.259457	0.000732
627.467117	0.000971
627.674758	0.000856
627.882382	0.000759
628.089987	0.000725
628.297574	0.000541
628.505143	0.000520
628.712694	0.000300
628.920226	0.000304
629.127740	0.000606
629.335236	0.000535
629.542714	0.000731
629.750174	0.000729
629.957615	0.000799
630.165038	0.001117
630.372443	0.001332
630.579829	0.001634
630.787198	0.001764
630.994548	0.001526
631.201880	0.001606
631.409194	0.001711
631.616489	0.001851
631.823766	0.001940
632.031025	0.002070
632.238266	0.002075
632.445489	0.002091
632.652693	0.002016
632.859879	0.002020
633.067047	0.002082
633.274197	0.001838
633.481329	0.001645
633.688442	0.001504
633.895537	0.001232
634.102614	0.001059
634.309672	0.000959
634.516713	0.001002
634.723735	0.001176
634.930739	0.000939
635.137724	0.001069
635.344692	0.000970
635.551641	0.000864
635.758572	0.001061
635.965485	0.001013
636.172379	0.001049
636.379256	0.000741
636.586114	0.000817
636.792954	0.001025
636.999775	0.000763
637.206579	0.001056
637.413364	0.001203
637.620131	0.001406
637.826880	0.001584
638.033610	0.001715
638.240323	0.002009
638.447017	0.002066
638.653692	0.001945
638.860350	0.002352
639.066990	0.002373
639.273611	0.002534
639.480214	0.002155
639.686798	0.002183
639.893365	0.002220
640.099913	0.002090
640.306443	0.002162
640.512955	0.002305
640.719449	0.002251
640.925924	0.002407
641.132381	0.002397
641.338820	0.002614
641.545241	0.002641
641.751644	0.002561
641.958028	0.002673
642.164394	0.002505
642.370742	0.002818
642.577071	0.002871
642.783383	0.002565
642.989676	0.002579
643.195951	0.002568
643.402207	0.002657
643.608446	0.002665
643.814666	0.002653
644.020868	0.002671
644.227052	0.002290
644.433218	0.002242
644.639365	0.002340
644.845494	0.002267
645.051605	0.002295
645.257698	0.002170
645.463772	0.002215
645.669828	0.002421
645.875866	0.002562
646.081886	0.002603
646.287888	0.002559
646.493871	0.002754
646.699836	0.002788
646.905783	0.002867
647.111712	0.002988
647.317622	0.002982
647.523514	0.002939
647.729388	0.003054
647.935244	0.003034
648.141082	0.003168
648.346901	0.003105
648.552702	0.003158
648.758485	0.003162
648.964250	0.003225
649.169996	0.003227
649.375724	0.003239
649.581434	0.003136
649.787126	0.003217
649.992800	0.003201
650.198455	0.003117
650.404092	0.003181
650.609711	0.003184
650.815311	0.003279
651.020894	0.003409
651.226458	0.003404
651.432004	0.003558
651.637532	0.003538
651.843041	0.003530
652.048532	0.003558
652.254006	0.003638
652.459460	0.003506
652.664897	0.003435
652.870315	0.003489
653.075716	0.003678
653.281097	0.003660
653.486461	0.003866
653.691807	0.003885
653.897134	0.003948
654.102443	0.004089
654.307734	0.004292
654.513006	0.004237
654.718261	0.004231
654.923497	0.004010
655.128715	0.004008
655.333915	0.004000
655.539096	0.004132
655.744259	0.004200
655.949404	0.004134
656.154531	0.004012
656.359640	0.003978
656.564730	0.003938
656.769802	0.004115
656.974856	0.004177
657.179892	0.004057
657.384909	0.004007
657.589908	0.004118
657.794889	0.004255
657.999852	0.004566
658.204797	0.004602
658.409723	0.004714
658.614631	0.004561
658.819521	0.004403
659.024393	0.004749
659.229246	0.004636
659.434081	0.004707
659.638898	0.004632
659.843697	0.004490
660.048478	0.004752
660.253240	0.004878
660.457984	0.005059
660.662710	0.005182
660.867417	0.004957
661.072107	0.005214
661.276778	0.005354
661.481431	0.005344
661.686066	0.005427
661.890682	0.005506
662.095281	0.005322
662.299861	0.005378
662.504422	0.005488
662.708966	0.005480
662.913491	0.005624
663.117999	0.005587
663.322488	0.005773
663.526958	0.005823
663.731411	0.005851
663.935845	0.005956
664.140261	0.006056
664.344659	0.006018
664.549038	0.006183
664.753400	0.006236
664.957743	0.006236
665.162068	0.006156
665.366375	0.006301
665.570663	0.006254
665.774933	0.006435
665.979185	0.006368
666.183419	0.006540
666.387635	0.006582
666.591832	0.006559
666.796011	0.006655
667.000172	0.006676
667.204315	0.006654
667.408439	0.006625
667.612545	0.006533
667.816634	0.006613
668.020703	0.006592
668.224755	0.006575
668.428788	0.006455
668.632803	0.006452
668.836800	0.006502
669.040779	0.006469
669.244739	0.006667
669.448681	0.006717
669.652605	0.006666
669.856511	0.006900
670.060399	0.007034
670.264268	0.007206
670.468119	0.007182
670.671952	0.007349
670.875767	0.007380
671.079563	0.007395
671.283341	0.007529
671.487101	0.007716
671.690843	0.007539
671.894567	0.007567
672.098272	0.007308
672.301959	0.007355
672.505628	0.007245
672.709278	0.007380
672.912911	0.007430
673.116525	0.007455
673.320121	0.007462
673.523699	0.007430
673.727258	0.007424
673.930799	0.007588
674.134322	0.007685
674.337827	0.007936
674.541314	0.008000
674.744782	0.008111
674.948232	0.008199
675.151664	0.008285
675.355078	0.008327
675.558474	0.008335
675.761851	0.008488
675.965210	0.008496
676.168551	0.008280
676.371873	0.008156
676.575178	0.007908
676.778464	0.007904
676.981732	0.007804
677.184981	0.007802
677.388213	0.007879
677.591426	0.007896
677.794621	0.007813
677.997798	0.007775
678.200956	0.008062
678.404097	0.008188
678.607219	0.008219
678.810323	0.008325
679.013408	0.008514
679.216476	0.008581
679.419525	0.008569
679.622556	0.008670
679.825569	0.008927
680.028563	0.008949
680.231540	0.008889
680.434498	0.008819
680.637438	0.008775
680.840359	0.008797
681.043263	0.008853
681.246148	0.008964
681.449015	0.009022
681.651864	0.009112
681.854694	0.009047
682.057506	0.009281
682.260301	0.009361
682.463076	0.009527
682.665834	0.009521
682.868573	0.009555
683.071295	0.009642
683.273998	0.009730
683.476682	0.009682
683.679349	0.009670
683.881997	0.009624
684.084627	0.009780
684.287239	0.009809
684.489833	0.009747
684.692408	0.009897
684.894965	0.009742
685.097504	0.009969
685.300025	0.010007
685.502527	0.010082
685.705012	0.010246
685.907478	0.010272
686.109925	0.010226
686.312355	0.010315
686.514766	0.010196
686.717159	0.010342
686.919534	0.010219
687.121891	0.010143
687.324230	0.010063
687.526550	0.009983
687.728852	0.010064
687.931136	0.010222
688.133401	0.010234
688.335649	0.010286
688.537878	0.010361
688.740089	0.010231
688.942281	0.010308
689.144456	0.010285
689.346612	0.010145
689.548750	0.010022
689.750870	0.009878
689.952971	0.009871
690.155055	0.009955
690.357120	0.010084
690.559167	0.010219
690.761195	0.010226
690.963206	0.010368
691.165198	0.010514
691.367172	0.010690
691.569128	0.010916
691.771065	0.011150
691.972984	0.011122
692.174885	0.011099
692.376768	0.011126
692.578633	0.011219
692.780479	0.011230
692.982308	0.011395
693.184118	0.011290
693.385909	0.011059
693.587683	0.011100
693.789438	0.011057
693.991175	0.011112
694.192894	0.011168
694.394595	0.011210
694.596277	0.011235
694.797941	0.011267
694.999587	0.011346
695.201215	0.011361
695.402824	0.011382
695.604416	0.011363
695.805989	0.011152
696.007543	0.011091
696.209080	0.010943
696.410598	0.011059
696.612099	0.011029
696.813580	0.010977
697.015044	0.010966
697.216490	0.010856
697.417917	0.011003
697.619326	0.011093
697.820717	0.011137
698.022089	0.011251
698.223444	0.011062
698.424780	0.011054
698.626098	0.011075
698.827397	0.011375
699.028679	0.011438
699.229942	0.011442
699.431187	0.011506
699.632414	0.011419
699.833622	0.011543
700.034813	0.011738
700.235985	0.011793
700.437139	0.011895
700.638274	0.011834
700.839392	0.011927
701.040491	0.012012
701.241572	0.011902
701.442635	0.012106
701.643679	0.011872
701.844706	0.011737
702.045714	0.011580
702.246704	0.011501
702.447675	0.011548
702.648629	0.011405
702.849564	0.011215
703.050481	0.011329
703.251380	0.011238
703.452260	0.011582
703.653122	0.011537
703.853966	0.011736
704.054792	0.011755
704.255600	0.011685
704.456389	0.011723
704.657160	0.011707
704.857913	0.011639
705.058648	0.011612
705.259365	0.011269
705.460063	0.011353
705.660743	0.011325
705.861405	0.011262
706.062048	0.011127
706.262674	0.011114
706.463281	0.011226
706.663870	0.011244
706.864441	0.011234
707.064993	0.011362
707.265527	0.011419
707.466043	0.011400
707.666541	0.011573
707.867021	0.011762
708.067482	0.011804
708.267925	0.011849
708.468350	0.012063
708.668757	0.012085
708.869145	0.012197
709.069516	0.012461
709.269868	0.012466
709.470201	0.012457
709.670517	0.012529
709.870814	0.012720
710.071093	0.012748
710.271354	0.012591
710.471597	0.012749
710.671821	0.012768
710.872028	0.012556
711.072216	0.012526
711.272385	0.012253
711.472537	0.012103
711.672670	0.011827
711.872785	0.011848
712.072882	0.011814
712.272961	0.011574
712.473021	0.011497
712.673063	0.011523
712.873087	0.011529
713.073093	0.011888
713.273081	0.011953
713.473050	0.012006
713.673001	0.011968
713.872934	0.012116
714.072849	0.012170
714.272745	0.012308
714.472623	0.012324
714.672483	0.012398
714.872325	0.012100
715.072148	0.012085
715.271954	0.012045
715.471741	0.011795
715.671509	0.011764
715.871260	0.011773
716.070992	0.011498
716.270707	0.011378
716.470403	0.011305
716.670080	0.011377
716.869740	0.011359
717.069381	0.011477
717.269004	0.011567
717.468609	0.011394
717.668195	0.011377
717.867764	0.011450
718.067314	0.011359
718.266846	0.011470
718.466360	0.011422
718.665855	0.011222
718.865332	0.010950
719.064791	0.011050
719.264232	0.011037
719.463655	0.011190
719.663059	0.011162
719.862445	0.011158
720.061813	0.010979
720.261163	0.010962
720.460494	0.010982
720.659807	0.011170
720.859102	0.011219
721.058379	0.011160
721.257638	0.010926
721.456878	0.010915
721.656100	0.010978
721.855304	0.010953
722.054490	0.010818
722.253657	0.010835
722.452806	0.010655
722.651937	0.010437
722.851050	0.010377
723.050145	0.010421
723.249221	0.010393
723.448279	0.010245
723.647319	0.010205
723.846340	0.010321
724.045344	0.010353
724.244329	0.010291
724.443296	0.010299
724.642245	0.010252
724.841175	0.010099
725.040088	0.010090
725.238982	0.010188
725.437857	0.010196
725.636715	0.010007
725.835554	0.010044
726.034376	0.010152
726.233179	0.010175
726.431963	0.010253
726.630730	0.010244
726.829478	0.010242
727.028208	0.010129
727.226920	0.009969
727.425614	0.010239
727.624289	0.010031
727.822946	0.009979
728.021585	0.009977
728.220206	0.009841
728.418808	0.009880
728.617392	0.009791
728.815958	0.009693
729.014506	0.009727
729.213036	0.009593
729.411547	0.009581
729.610040	0.009704
729.808515	0.009788
730.006972	0.009980
730.205410	0.009964
730.403831	0.009881
730.602233	0.009908
730.800616	0.009941
730.998982	0.009715
731.197329	0.009787
731.395658	0.009630
731.593969	0.009480
731.792262	0.009338
731.990536	0.009319
732.188793	0.009336
732.387031	0.009503
732.585250	0.009402
732.783452	0.009556
732.981635	0.009528
733.179800	0.009400
733.377947	0.009246
733.576076	0.009286
733.774186	0.009297
733.972278	0.009127
734.170352	0.008915
734.368408	0.008968
734.566446	0.008931
734.764465	0.008952
734.962466	0.009063
735.160449	0.009109
735.358413	0.009014
735.556360	0.008898
735.754288	0.009033
735.952198	0.008980
736.150090	0.008848
736.347963	0.008755
736.545818	0.008630
736.743655	0.008584
736.941474	0.008543
737.139275	0.008378
737.337057	0.008500
737.534821	0.008386
737.732567	0.008308
737.930295	0.008269
738.128005	0.008169
738.325696	0.008090
738.523369	0.007835
738.721024	0.007760
738.918660	0.007943
739.116279	0.007847
739.313879	0.007887
739.511461	0.007916
739.709024	0.007938
739.906570	0.008002
740.104097	0.008057
740.301606	0.008185
740.499097	0.008149
740.696569	0.007940
740.894024	0.007695
741.091460	0.007657
741.288878	0.007774
741.486277	0.007711
741.683659	0.007624
741.881022	0.007562
742.078367	0.007532
742.275694	0.007377
742.473002	0.007390
742.670293	0.007674
742.867565	0.007651
743.064819	0.007435
743.262054	0.007515
743.459272	0.007509
743.656471	0.007515
743.853652	0.007501
744.050815	0.007624
744.247959	0.007794
744.445085	0.007833
744.642194	0.007887
744.839283	0.007998
745.036355	0.007848
745.233408	0.008018
745.430444	0.007801
745.627461	0.007748
745.824459	0.007840
746.021440	0.007731
746.218402	0.007413
746.415346	0.007304
746.612272	0.007146
746.809180	0.007104
747.006069	0.006900
747.202940	0.006962
747.399793	0.007071
747.596628	0.006912
747.793444	0.006671
747.990243	0.006656
748.187023	0.006823
748.383784	0.007019
748.580528	0.006914
748.777253	0.006818
748.973960	0.006782
749.170649	0.006588
749.367320	0.006716
749.563973	0.006827
749.760607	0.006795
749.957223	0.006614
750.153821	0.006534
750.350400	0.006598
750.546962	0.006617
750.743505	0.006718
750.940030	0.006618
751.136536	0.006463
751.333025	0.006431
751.529495	0.006623
751.725947	0.006645
751.922381	0.006648
752.118796	0.006786
752.315194	0.007012
752.511573	0.007063
752.707934	0.007344
752.904276	0.007370
753.100601	0.007470
753.296907	0.007521
753.493195	0.007617
753.689465	0.007483
753.885716	0.007537
754.081949	0.007435
754.278164	0.007400
754.474361	0.007238
754.670540	0.007309
754.866700	0.007357
755.062843	0.006990
755.258967	0.006872
755.455072	0.006853
755.651160	0.006698
755.847229	0.006687
756.043280	0.006587
756.239313	0.006476
756.435328	0.006556
756.631324	0.006366
756.827302	0.006318
757.023262	0.006165
757.219204	0.006152
757.415127	0.006006
757.611033	0.005717
757.806920	0.005565
758.002788	0.005472
758.198639	0.005090
758.394471	0.005111
758.590286	0.005323
758.786081	0.005317
758.981859	0.005107
759.177619	0.005294
759.373360	0.005269
759.569083	0.005331
759.764788	0.005545
759.960474	0.005700
760.156143	0.005750
760.351793	0.005538
760.547425	0.005473
760.743038	0.005800
760.938634	0.005592
761.134211	0.005657
761.329770	0.005633
761.525311	0.005647
761.720833	0.005603
761.916338	0.005530
762.111824	0.005582
762.307292	0.005755
762.502741	0.005612
762.698173	0.005765
762.893586	0.005669
763.088981	0.005770
763.284358	0.005652
763.479716	0.005616
763.675057	0.005513
763.870379	0.005596
764.065683	0.005388
764.260968	0.005149
764.456236	0.005038
764.651485	0.005340
764.846716	0.005290
765.041929	0.005327
765.237123	0.005286
765.432299	0.005465
765.627457	0.005612
765.822597	0.005727
766.017719	0.005835
766.212822	0.005831
766.407907	0.005537
766.602974	0.005460
766.798023	0.005570
766.993054	0.005682
767.188066	0.005873
767.383060	0.005742
767.578036	0.005682
767.772993	0.005766
767.967933	0.005855
768.162854	0.005898
768.357757	0.005864
768.552642	0.005783
768.747508	0.005798
768.942356	0.005397
769.137186	0.005290
769.331998	0.005292
769.526792	0.005251
769.721567	0.005143
769.916324	0.005326
770.111063	0.005300
770.305784	0.005214
770.500486	0.005165
770.695171	0.005106
770.889837	0.005075
771.084484	0.005082
771.279114	0.005063
771.473725	0.005152
771.668318	0.005202
771.862893	0.005218
772.057450	0.005188
772.251988	0.005242
772.446509	0.005452
772.641011	0.005475
772.835494	0.005319
773.029960	0.005489
773.224407	0.005418
773.418836	0.005210
773.613247	0.005335
773.807640	0.005448
774.002014	0.005463
774.196370	0.005236
774.390708	0.005258
774.585028	0.005555
774.779330	0.005371
774.973613	0.005557
775.167878	0.005653
775.362125	0.005642
775.556354	0.005573
775.750564	0.005618
775.944756	0.005915
776.138930	0.006090
776.333086	0.006088
776.527223	0.006373
776.721343	0.006188
776.915444	0.006190
777.109526	0.006270
777.303591	0.006428
777.497637	0.006411
777.691666	0.006588
777.885676	0.006631
778.079667	0.006311
778.273641	0.006293
778.467596	0.006354
778.661533	0.006356
778.855452	0.006375
779.049352	0.006313
779.243235	0.006310
779.437099	0.006061
779.630945	0.005768
779.824773	0.006040
780.018582	0.005898
780.212373	0.005833
780.406146	0.005947
780.599901	0.005777
780.793638	0.005644
780.987356	0.005594
781.181056	0.005598
781.374738	0.005637
781.568402	0.005619
781.762047	0.005577
781.955674	0.005829
782.149283	0.005570
782.342874	0.005562
782.536447	0.005598
782.730001	0.005664
782.923537	0.005711
783.117055	0.005670
783.310555	0.005687
783.504036	0.005827
783.697499	0.005704
783.890944	0.005869
784.084371	0.005930
784.277780	0.006185
784.471170	0.006149
784.664542	0.006119
784.857896	0.006444
785.051231	0.006349
785.244549	0.006248
785.437848	0.006208
785.631129	0.006066
785.824392	0.006054
786.017636	0.005849
786.210863	0.005733
786.404071	0.005813
786.597260	0.005703
786.790432	0.005783
786.983585	0.005886
787.176721	0.006137
787.369838	0.006437
787.562936	0.006429
787.756017	0.006457
787.949079	0.006553
788.142123	0.006731
788.335149	0.006736
788.528156	0.006798
788.721146	0.006672
788.914117	0.006532
789.107070	0.006527
789.300005	0.006690
789.492921	0.006668
789.685819	0.006707
789.878699	0.006733
790.071561	0.006894
790.264405	0.007106
790.457230	0.007325
790.650037	0.007355
790.842826	0.007221
791.035597	0.007395
791.228349	0.007607
791.421084	0.007860
791.613800	0.007629
791.806497	0.007538
791.999177	0.007379
792.191838	0.007433
792.384481	0.007493
792.577106	0.007616
792.769713	0.007464
792.962301	0.007424
793.154871	0.007259
793.347423	0.007394
793.539957	0.007457
793.732473	0.007466
793.924970	0.007343
794.117449	0.007445
794.309910	0.007604
794.502353	0.007807
794.694777	0.007881
794.887183	0.007840
795.079571	0.007836
795.271941	0.008060
795.464293	0.008269
795.656626	0.008402
795.848941	0.008372
796.041238	0.008522
796.233516	0.008634
796.425777	0.008626
796.618019	0.008905
796.810243	0.009213
797.002449	0.009105
797.194636	0.009149
797.386805	0.009369
797.578956	0.009308
797.771089	0.009183
797.963204	0.009077
798.155300	0.009122
798.347378	0.009033
798.539438	0.008752
798.731480	0.008816
798.923503	0.008797
799.115509	0.008685
799.307496	0.008728
799.499465	0.008754
799.691415	0.008533
799.883348	0.008584
800.075262	0.008683
800.267158	0.008696
800.459035	0.008696
800.650895	0.008815
800.842736	0.008906
801.034559	0.009058
801.226364	0.008998
801.418150	0.009221
801.609919	0.009234
801.801669	0.009313
801.993401	0.009473
802.185114	0.009487
802.376810	0.009485
802.568487	0.009497
802.760146	0.009631
802.951787	0.009767
803.143409	0.009684
803.335014	0.009698
803.526600	0.009740
803.718168	0.009924
803.909717	0.010058
804.101249	0.010043
804.292762	0.010061
804.484257	0.010008
804.675734	0.009973
804.867192	0.010229
805.058632	0.010164
805.250054	0.010266
805.441458	0.010252
805.632844	0.010251
805.824211	0.010337
806.015561	0.010516
806.206891	0.010561
806.398204	0.010432
806.589499	0.010418
806.780775	0.010468
806.972033	0.010432
807.163273	0.010338
807.354495	0.010328
807.545698	0.010419
807.736883	0.010367
807.928050	0.010359
808.119199	0.010740
808.310329	0.010833
808.501441	0.010972
808.692535	0.010966
808.883611	0.011184
809.074669	0.011195
809.265708	0.011016
809.456729	0.010652
809.647732	0.010827
809.838717	0.010748
810.029683	0.010698
810.220632	0.010924
810.411562	0.010978
810.602474	0.010880
810.793367	0.011035
810.984242	0.011174
811.175100	0.011678
811.365938	0.011481
811.556759	0.011421
811.747562	0.011572
811.938346	0.011402
812.129112	0.011544
812.319860	0.011611
812.510589	0.011784
812.701300	0.011774
812.891994	0.011837
813.082668	0.012188
813.273325	0.012247
813.463964	0.012198
813.654584	0.012201
813.845186	0.011996
814.035769	0.012148
814.226335	0.012010
814.416882	0.012123
814.607411	0.011965
814.797922	0.011779
814.988415	0.011951
815.178889	0.011963
815.369345	0.012114
815.559783	0.012230
815.750203	0.012310
815.940605	0.012236
816.130988	0.012323
816.321353	0.012651
816.511700	0.012779
816.702028	0.012707
816.892339	0.012824
817.082631	0.012860
817.272905	0.012963
817.463161	0.012839
817.653398	0.012881
817.843617	0.012845
818.033819	0.012746
818.224001	0.012841
818.414166	0.013053
818.604312	0.013290
818.794440	0.013448
818.984550	0.013431
819.174642	0.013612
819.364716	0.013958
819.554771	0.014158
819.744808	0.014250
819.934827	0.014343
820.124827	0.014410
820.314810	0.014442
820.504774	0.014323
820.694720	0.014597
820.884647	0.014664
821.074557	0.014925
821.264448	0.014987
821.454321	0.014999
821.644176	0.015161
821.834012	0.015219
822.023831	0.015297
822.213631	0.015759
822.403413	0.015919
822.593176	0.015963
822.782922	0.015698
822.972649	0.015734
823.162358	0.015735
823.352049	0.015558
823.541721	0.015592
823.731376	0.015511
823.921012	0.015386
824.110629	0.015366
824.300229	0.015244
824.489811	0.015310
824.679374	0.015382
824.868919	0.015595
825.058445	0.015860
825.247954	0.016058
825.437444	0.016251
825.626916	0.016256
825.816370	0.016244
826.005806	0.016556
826.195223	0.016769
826.384622	0.016716
826.574003	0.016775
826.763366	0.016663
826.952711	0.016800
827.142037	0.017035
827.331345	0.017060
827.520635	0.017218
827.709906	0.017143
827.899160	0.017099
828.088395	0.017377
828.277612	0.017403
828.466810	0.017435
828.655991	0.017239
828.845153	0.016957
829.034297	0.017117
829.223423	0.017054
829.412531	0.017182
829.601620	0.017155
829.790691	0.017072
829.979744	0.017000
830.168779	0.017241
830.357795	0.017072
830.546793	0.017050
830.735773	0.016908
830.924735	0.017013
831.113679	0.017153
831.302604	0.017200
831.491511	0.017397
831.680400	0.017761
831.869271	0.017664
832.058123	0.017918
832.246957	0.018304
832.435773	0.018249
832.624571	0.018352
832.813351	0.018151
833.002112	0.018031
833.190855	0.018098
833.379580	0.017742
833.568287	0.017604
833.756975	0.017579
833.945645	0.017426
834.134297	0.017805
834.322931	0.017696
834.511547	0.017760
834.700144	0.018161
834.888723	0.018000
835.077284	0.018086
835.265826	0.018429
835.454351	0.018611
835.642857	0.018624
835.831345	0.018554
836.019815	0.018543
836.208266	0.018737
836.396699	0.018689
836.585114	0.018719
836.773511	0.018819
836.961890	0.018772
837.150250	0.018933
837.338592	0.019027
837.526916	0.019158
837.715222	0.019364
837.903510	0.019457
838.091779	0.019472
838.280030	0.019765
838.468263	0.020135
838.656477	0.020411
838.844674	0.020419
839.032852	0.020522
839.221012	0.020696
839.409153	0.020728
839.597277	0.021056
839.785382	0.021128
839.973469	0.020970
840.161538	0.021160
840.349589	0.021209
840.537621	0.021490
840.725635	0.021558
840.913631	0.021689
841.101609	0.022037
841.289568	0.021776
841.477509	0.022020
841.665432	0.022163
841.853337	0.022148
842.041224	0.022511
842.229092	0.022517
842.416942	0.022800
842.604774	0.022809
842.792588	0.022662
842.980383	0.022943
843.168160	0.023147
843.355919	0.023206
843.543660	0.023020
843.731382	0.022804
843.919087	0.022891
844.106773	0.023029
844.294441	0.023014
844.482090	0.023296
844.669722	0.023190
844.857335	0.023226
845.044930	0.023472
845.232507	0.023681
845.420065	0.023905
845.607605	0.024143
845.795127	0.024159
845.982631	0.024387
846.170117	0.024524
846.357584	0.024980
846.545033	0.025115
846.732464	0.025030
846.919877	0.025215
847.107272	0.025345
847.294648	0.025313
847.482006	0.025269
847.669346	0.025405
847.856667	0.025395
848.043971	0.025155
848.231256	0.025171
848.418523	0.025327
848.605771	0.025328
848.793002	0.025108
848.980214	0.024999
849.167408	0.025164
849.354584	0.024902
849.541742	0.024849
849.728881	0.024952
849.916002	0.024941
850.103105	0.025290
850.290190	0.025504
850.477256	0.025678
850.664304	0.025862
850.851334	0.026079
851.038346	0.026747
851.225340	0.026975
851.412315	0.027332
851.599272	0.027369
851.786211	0.027345
851.973132	0.027570
852.160034	0.027673
852.346918	0.027955
852.533784	0.027987
852.720632	0.027934
852.907462	0.028183
853.094273	0.028105
853.281066	0.028519
853.467841	0.028490
853.654598	0.028482
853.841336	0.028742
854.028056	0.028994
854.214758	0.029041
854.401442	0.029004
854.588107	0.028847
854.774755	0.029089
854.961384	0.029094
855.147995	0.029332
855.334587	0.029160
855.521162	0.029240
855.707718	0.028846
855.894256	0.028918
856.080775	0.028873
856.267277	0.029221
856.453760	0.029179
856.640225	0.029166
856.826672	0.029400
857.013101	0.029730
857.199511	0.029487
857.385903	0.029817
857.572277	0.029905
857.758633	0.030028
857.944970	0.029929
858.131290	0.029821
858.317591	0.029758
858.503873	0.029652
858.690138	0.029549
858.876384	0.029861
859.062612	0.029874
859.248822	0.030136
859.435014	0.030529
859.621188	0.030824
859.807343	0.031406
859.993480	0.031661
860.179599	0.031763
860.365699	0.031762
860.551781	0.031982
860.737846	0.032131
860.923891	0.032242
861.109919	0.032177
861.295929	0.032271
861.481920	0.032173
861.667893	0.032394
861.853848	0.032651
862.039784	0.032991
862.225702	0.032786
862.411603	0.032934
862.597484	0.032706
862.783348	0.032695
862.969193	0.032529
863.155021	0.032359
863.340830	0.031946
863.526620	0.031707
863.712393	0.031870
863.898147	0.031789
864.083883	0.032122
864.269601	0.032152
864.455301	0.032269
864.640982	0.032309
864.826645	0.032462
865.012290	0.032792
865.197917	0.033097
865.383526	0.032998
865.569116	0.033298
865.754688	0.032785
865.940242	0.032888
866.125777	0.032749
866.311295	0.032878
866.496794	0.032912
866.682275	0.033176
866.867737	0.033337
867.053182	0.033421
867.238608	0.033824
867.424016	0.034350
867.609406	0.034570
867.794778	0.034716
867.980131	0.034832
868.165466	0.035157
868.350783	0.035275
868.536082	0.035408
868.721362	0.035658
868.906625	0.035786
869.091869	0.035665
869.277094	0.035741
869.462302	0.036014
869.647491	0.036212
869.832662	0.036087
870.017815	0.035999
870.202950	0.035998
870.388066	0.035936
870.573165	0.035528
870.758245	0.035858
870.943306	0.035936
871.128350	0.035852
871.313375	0.035823
871.498382	0.036132
871.683371	0.036177
871.868342	0.036187
872.053294	0.036547
872.238229	0.037025
872.423144	0.036976
872.608042	0.037195
872.792922	0.037545
872.977783	0.037719
873.162626	0.037822
873.347451	0.037939
873.532258	0.038448
873.717046	0.038253
873.901816	0.038355
874.086568	0.038338
874.271302	0.038457
874.456017	0.038401
874.640715	0.038502
874.825394	0.038216
875.010055	0.038440
875.194697	0.038121
875.379322	0.037960
875.563928	0.037962
875.748516	0.038077
875.933085	0.037945
876.117637	0.038002
876.302170	0.037942
876.486685	0.038080
876.671182	0.037928
876.855661	0.037525
877.040121	0.037764
877.224563	0.037779
877.408987	0.037720
877.593393	0.037785
877.777780	0.037931
877.962150	0.037806
878.146501	0.037766
878.330833	0.037970
878.515148	0.038234
878.699444	0.038007
878.883722	0.038097
879.067982	0.038108
879.252224	0.038231
879.436447	0.038313
879.620653	0.038391
879.804840	0.038649
879.989008	0.038785
880.173159	0.039179
880.357291	0.039486
880.541405	0.039294
880.725501	0.039291
880.909579	0.039234
881.093638	0.039012
881.277680	0.039386
881.461703	0.039615
881.645707	0.039575
881.829694	0.039598
882.013662	0.039692
882.197612	0.039788
882.381544	0.040191
882.565458	0.040252
882.749353	0.040608
882.933230	0.040456
883.117089	0.039945
883.300930	0.039799
883.484753	0.039757
883.668557	0.040021
883.852343	0.040390
884.036111	0.040357
884.219861	0.040404
884.403592	0.040206
884.587305	0.040212
884.771000	0.040547
884.954677	0.040679
885.138335	0.040771
885.321976	0.040462
885.505598	0.040009
885.689201	0.039928
885.872787	0.039724
886.056354	0.039854
886.239904	0.039706
886.423434	0.039576
886.606947	0.039637
886.790442	0.039519
886.973918	0.039519
887.157376	0.039528
887.340816	0.039464
887.524237	0.039476
887.707641	0.039356
887.891026	0.039651
888.074393	0.039768
888.257741	0.039562
888.441072	0.039225
888.624384	0.039510
888.807678	0.039686
888.990954	0.039674
889.174211	0.039928
889.357451	0.039581
889.540672	0.039515
889.723875	0.039674
889.907059	0.039706
890.090226	0.039729
890.273374	0.039464
890.456504	0.039378
890.639616	0.039360
890.822709	0.039200
891.005785	0.039427
891.188842	0.039164
891.371881	0.039208
891.554901	0.039001
891.737904	0.039137
891.920888	0.039160
892.103854	0.039465
892.286802	0.039578
892.469731	0.039609
892.652643	0.039547
892.835536	0.039680
893.018410	0.039416
893.201267	0.039422
893.384106	0.039489
893.566926	0.039551
893.749728	0.039207
893.932511	0.039058
894.115277	0.038951
894.298024	0.039222
894.480753	0.039338
894.663464	0.039277
894.846157	0.039369
895.028831	0.039628
895.211487	0.039807
895.394125	0.039922
895.576745	0.039885
895.759346	0.040178
895.941930	0.040064
896.124495	0.039832
896.307041	0.040114
896.489570	0.040576
896.672080	0.040379
896.854573	0.040225
897.037046	0.039899
897.219502	0.039445
897.401940	0.039288
897.584359	0.039295
897.766760	0.039432
897.949143	0.039122
898.131507	0.038732
898.313854	0.038468
898.496182	0.038519
898.678492	0.038621
898.860783	0.038746
899.043057	0.038414
899.225312	0.038336
899.407549	0.038058
899.589768	0.038061
899.771968	0.038084
899.954151	0.038295
900.136315	0.037923
900.318461	0.038258
900.500588	0.038869
900.682698	0.039009
900.864789	0.038724
901.046862	0.039128
901.228917	0.038883
901.410953	0.038945
901.592971	0.038651
901.774972	0.038665
901.956953	0.038235
902.138917	0.037652
902.320862	0.037671
902.502790	0.037747
902.684699	0.037279
902.866589	0.037424
903.048462	0.037159
903.230316	0.037158
903.412152	0.036938
903.593970	0.037006
903.775770	0.037118
903.957551	0.037083
904.139314	0.037113
904.321059	0.036850
904.502786	0.036841
904.684494	0.036818
904.866185	0.036776
905.047857	0.037066
905.229510	0.036803
905.411146	0.036969
905.592763	0.036893
905.774363	0.037034
905.955943	0.037246
906.137506	0.037130
906.319051	0.036936
906.500577	0.036838
906.682085	0.036664
906.863575	0.036993
907.045046	0.036745
907.226500	0.036464
907.407935	0.036325
907.589352	0.036356
907.770750	0.036287
907.952131	0.036331
908.133493	0.036419
908.314837	0.036425
908.496163	0.036185
908.677470	0.036317
908.858760	0.036545
909.040031	0.036446
909.221284	0.036516
909.402518	0.036876
909.583735	0.036995
909.764933	0.036752
909.946113	0.036625
910.127275	0.036719
910.308418	0.036687
910.489544	0.036587
910.670651	0.036177
910.851740	0.035961
911.032810	0.035488
911.213863	0.035125
911.394897	0.035294
911.575913	0.035011
911.756911	0.034644
911.937890	0.034503
912.118851	0.034298
912.299794	0.034423
912.480719	0.034247
912.661626	0.034041
912.842514	0.034220
913.023384	0.034126
913.204236	0.033851
913.385070	0.033616
913.565886	0.033259
913.746683	0.033196
913.927462	0.033062
914.108223	0.032501
914.288965	0.032188
914.469690	0.031652
914.650396	0.031345
914.831084	0.031315
915.011754	0.031260
915.192405	0.030922
915.373038	0.030826
915.553653	0.030571
915.734250	0.030518
915.914829	0.030775
916.095389	0.030988
916.275931	0.031034
916.456455	0.030643
916.636961	0.030595
916.817448	0.030732
916.997917	0.030392
917.178368	0.030307
917.358801	0.030495
917.539216	0.030277
917.719612	0.030383
917.899990	0.029866
918.080350	0.029894
918.260692	0.029417
918.441015	0.028835
918.621320	0.028412
918.801607	0.028545
918.981876	0.028083
919.162127	0.027929
919.342359	0.027197
919.522573	0.027458
919.702769	0.027540
919.882947	0.027983
920.063106	0.027948
920.243247	0.028450
920.423370	0.028416
920.603475	0.028484
920.783562	0.028107
920.963630	0.028024
921.143680	0.027654
921.323712	0.027289
921.503725	0.027249
921.683721	0.027472
921.863698	0.026807
922.043657	0.026355
922.223598	0.026306
922.403520	0.026278
922.583424	0.026037
922.763311	0.025724
922.943178	0.025511
923.123028	0.024763
923.302859	0.024600
923.482673	0.024539
923.662467	0.024228
923.842244	0.024071
924.022003	0.023978
924.201743	0.024100
924.381465	0.023881
924.561169	0.023885
924.740854	0.023634
924.920522	0.023147
925.100171	0.023128
925.279802	0.022919
925.459414	0.022416
925.639009	0.022241
925.818585	0.021823
925.998143	0.021404
926.177683	0.021151
926.357205	0.021079
926.536708	0.020597
926.716193	0.020264
926.895660	0.020088
927.075109	0.020053
927.254539	0.019318
927.433951	0.018914
927.613345	0.019000
927.792721	0.019489
927.972079	0.019484
928.151418	0.019536
928.330739	0.019529
928.510042	0.019316
928.689327	0.019100
928.868593	0.019295
929.047841	0.019121
929.227071	0.018839
929.406283	0.017766
929.585476	0.016814
929.764652	0.016119
929.943809	0.015229
930.122948	0.014846
930.302068	0.014770
930.481171	0.014460
930.660255	0.014478
930.839321	0.014981
931.018369	0.015325
931.197398	0.015485
931.376409	0.015830
931.555402	0.015754
931.734377	0.016094
931.913334	0.016302
932.092272	0.015955
932.271192	0.015745
932.450094	0.015062
932.628978	0.014285
932.807844	0.014275
932.986691	0.013899
933.165520	0.013729
933.344331	0.013039
933.523123	0.012098
933.701898	0.012136
933.880654	0.011327
934.059392	0.010733
934.238111	0.010300
934.416813	0.009927
934.595496	0.009730
934.774161	0.009845
934.952808	0.010116
935.131437	0.010004
935.310047	0.009103
935.488639	0.009142
935.667213	0.008754
935.845769	0.008537
936.024306	0.008140
936.202825	0.007928
936.381326	0.007293
936.559809	0.006601
936.738274	0.006551
936.916720	0.006437
937.095148	0.005828
937.273558	0.005777
937.451950	0.006136
937.630323	0.005719
937.808678	0.005403
937.987015	0.005199
938.165334	0.005013
938.343635	0.004264
938.521917	0.004120
938.700181	0.004246
938.878427	0.003542
939.056655	0.002703
939.234864	0.003090
939.413055	0.002921
939.591228	0.003296
939.769383	0.002578
939.947519	0.002187
940.125638	0.001877
940.303738	0.001841
940.481820	0.002067
940.659883	0.002250
940.837929	0.001528
941.015956	0.000959
941.193965	0.000290
941.371955	0.000314
941.549928	0.000757
941.727882	0.000679
941.905818	0.000782
942.083736	0.000643
942.261636	0.000212
942.439517	0.000159
942.617380	0.000480
942.795225	0.000035
942.973052	-0.000662
943.150860	-0.001554
943.328651	-0.001858
943.506423	-0.003147
943.684176	-0.003576
943.861912	-0.003894
944.039629	-0.004100
944.217328	-0.005169
944.395009	-0.005175
944.572672	-0.004080
944.750317	-0.003055
944.927943	-0.002834
945.105551	-0.001969
945.283141	-0.003267
945.460712	-0.002664
945.638265	-0.003200
945.815801	-0.002632
945.993317	-0.003352
946.170816	-0.003985
946.348297	-0.004413
946.525759	-0.004393
946.703203	-0.005287
946.880629	-0.004859
947.058036	-0.005444
947.235425	-0.004990
947.412797	-0.005398
947.590149	-0.005219
947.767484	-0.005918
947.944800	-0.005625
948.122099	-0.006190
948.299379	-0.005502
948.476640	-0.005266
948.653884	-0.005657
948.831109	-0.006045
949.008316	-0.006448
949.185505	-0.005516
949.362676	-0.006030
949.539828	-0.006447
949.716962	-0.007429
949.894078	-0.007689
950.071176	-0.007806
950.248256	-0.007422
950.425317	-0.008335
950.602360	-0.007693
950.779385	-0.009152
950.956391	-0.009506
951.133380	-0.011629
951.310350	-0.011098
951.487302	-0.011576
951.664235	-0.011970
951.841151	-0.012671
952.018048	-0.012220
952.194927	-0.012599
952.371788	-0.013105
952.548631	-0.011955
952.725455	-0.011311
952.902261	-0.011931
953.079049	-0.013382
953.255819	-0.012942
953.432570	-0.013276
953.609303	-0.013394
953.786018	-0.013506
953.962715	-0.014193
954.139394	-0.016173
954.316054	-0.016098
954.492696	-0.017001
954.669320	-0.016429
954.845926	-0.016117
955.022513	-0.016444
955.199083	-0.017045
955.375634	-0.018744
955.552166	-0.017381
955.728681	-0.015709
955.905177	-0.016088
956.081655	-0.015304
956.258115	-0.015541
956.434557	-0.017381
956.610980	-0.016201
956.787385	-0.015369
956.963772	-0.014204
957.140141	-0.014353
957.316492	-0.014805
957.492824	-0.014330
957.669138	-0.014422
957.845434	-0.013410
958.021712	-0.012648
958.197971	-0.014804
958.374212	-0.015088
958.550435	-0.015256
958.726640	-0.015035
958.902826	-0.015391
959.078995	-0.013700
959.255145	-0.014523
959.431277	-0.016145
959.607390	-0.016149
959.783486	-0.015069
959.959563	-0.014763
960.135622	-0.014736
960.311662	-0.015502
960.487685	-0.015575
960.663689	-0.018172
960.839675	-0.015097
961.015643	-0.013546
961.191593	-0.011240
961.367524	-0.010973
961.543437	-0.011263
961.719332	-0.011148
961.895209	-0.009304
962.071067	-0.010524
962.246907	-0.010161
962.422730	-0.011058
962.598533	-0.011466
962.774319	-0.013205
962.950086	-0.014415
963.125835	-0.013769
963.301566	-0.011606
963.477279	-0.012088
963.652973	-0.010263
963.828650	-0.009292
964.004308	-0.009014
964.179947	-0.008499
964.355569	-0.008131
964.531172	-0.006859
964.706757	-0.007200
964.882324	-0.009877
965.057873	-0.011239
965.233403	-0.011192
965.408916	-0.011837
965.584410	-0.013084
965.759885	-0.014002
965.935343	-0.013867
966.110782	-0.015081
966.286203	-0.015732
966.461606	-0.015625
966.636991	-0.012987
966.812357	-0.011726
966.987705	-0.013067
967.163035	-0.012298
967.338347	-0.010355
967.513641	-0.010625
967.688916	-0.011392
967.864173	-0.011965
968.039412	-0.010833
968.214632	-0.012509
968.389835	-0.013220
968.565019	-0.011898
968.740185	-0.012331
968.915333	-0.013277
969.090462	-0.013425
969.265573	-0.011831
969.440667	-0.010780
969.615741	-0.010435
969.790798	-0.010677
969.965836	-0.011520
970.140856	-0.011532
970.315858	-0.012107
970.490842	-0.012241
970.665808	-0.012302
970.840755	-0.012042
971.015684	-0.011257
971.190595	-0.013664
971.365487	-0.014964
971.540362	-0.014330
971.715218	-0.014045
971.890056	-0.011850
972.064875	-0.012147
972.239677	-0.012656
972.414460	-0.013129
972.589225	-0.014652
972.763972	-0.013936
972.938700	-0.013664
973.113411	-0.013655
973.288103	-0.013353
973.462777	-0.015181
973.637432	-0.015239
973.812070	-0.014561
973.986689	-0.014816
974.161290	-0.015760
974.335873	-0.014518
974.510437	-0.014185
974.684984	-0.014265
974.859512	-0.014076
975.034022	-0.014634
975.208513	-0.014247
975.382987	-0.015063
975.557442	-0.012409
975.731879	-0.010242
975.906298	-0.010731
976.080698	-0.011262
976.255080	-0.012260
976.429445	-0.011467
976.603790	-0.010772
976.778118	-0.011821
976.952427	-0.011333
977.126719	-0.012937
977.300992	-0.013005
977.475246	-0.014659
977.649483	-0.013491
977.823701	-0.012132
977.997901	-0.013681
978.172083	-0.012675
978.346247	-0.012468
978.520392	-0.011961
978.694519	-0.011811
978.868628	-0.010785
979.042719	-0.009152
979.216791	-0.008918
979.390845	-0.010852
979.564882	-0.009149
979.738899	-0.009560
979.912899	-0.008555
980.086880	-0.009861
980.260843	-0.010178
980.434788	-0.010378
980.608715	-0.009978
980.782623	-0.009808
980.956514	-0.008457
981.130386	-0.010592
981.304240	-0.009657
981.478075	-0.010249
981.651892	-0.010109
981.825692	-0.010756
981.999472	-0.011803
982.173235	-0.011486
982.346980	-0.012093
982.520706	-0.010802
982.694414	-0.010972
982.868104	-0.012143
983.041775	-0.011249
983.215428	-0.010273
983.389064	-0.010936
983.562680	-0.011458
983.736279	-0.013293
983.909860	-0.012172
984.083422	-0.013442
984.256966	-0.011330
984.430491	-0.009945
984.603999	-0.010855
984.777488	-0.011965
984.950959	-0.010199
985.124412	-0.010445
985.297847	-0.009258
985.471263	-0.010179
985.644661	-0.011905
985.818041	-0.012493
985.991403	-0.012466
986.164747	-0.012570
986.338072	-0.011704
986.511379	-0.012378
986.684668	-0.011588
986.857938	-0.011520
987.031191	-0.012660
987.204425	-0.011710
987.377641	-0.014517
987.550839	-0.016236
987.724018	-0.014703
987.897179	-0.013430
988.070322	-0.013150
988.243447	-0.012825
988.416554	-0.013670
988.589642	-0.012303
988.762712	-0.011937
988.935764	-0.009706
989.108798	-0.009125
989.281813	-0.009707
989.454811	-0.010290
989.627790	-0.010235
989.800751	-0.010345
989.973693	-0.009284
990.146617	-0.008725
990.319524	-0.007103
990.492412	-0.009055
990.665281	-0.008460
990.838133	-0.008813
991.010966	-0.010044
991.183781	-0.011150
991.356578	-0.012908
991.529356	-0.013520
991.702117	-0.015915
991.874859	-0.017053
992.047583	-0.015062
992.220288	-0.014836
992.392976	-0.015013
992.565645	-0.013784
992.738296	-0.012615
992.910929	-0.011705
993.083543	-0.012534
993.256139	-0.010247
993.428718	-0.011436
993.601277	-0.011655
993.773819	-0.011326
993.946342	-0.010609
994.118848	-0.011993
994.291335	-0.011254
994.463803	-0.009275
994.636254	-0.007449
994.808686	-0.007843
994.981100	-0.009037
995.153496	-0.008693
995.325874	-0.009624
995.498233	-0.010657
995.670574	-0.010006
995.842897	-0.011212
996.015202	-0.012451
996.187488	-0.012854
996.359757	-0.014247
996.532007	-0.010574
996.704239	-0.012128
996.876452	-0.011902
997.048648	-0.012140
997.220825	-0.013101
997.392984	-0.013529
997.565124	-0.012510
997.737247	-0.013059
997.909351	-0.011586
998.081437	-0.012282
998.253505	-0.012057
998.425554	-0.011477
998.597586	-0.011423
998.769599	-0.010452
998.941594	-0.009948
999.113571	-0.012667
999.285529	-0.011594
999.457469	-0.012454
999.629391	-0.013268
999.801295	-0.011979
999.973181	-0.012951
1000.145048	-0.012126
1000.316897	-0.012555
1000.488728	-0.013275
1000.660541	-0.011994
1000.832335	-0.011805
1001.004111	-0.011259
1001.175869	-0.011986
1001.347609	-0.012721
1001.519331	-0.014398
1001.691034	-0.014847
1001.862719	-0.014863
1002.034386	-0.013534
1002.206035	-0.013453
1002.377665	-0.012720
1002.549277	-0.012733
1002.720871	-0.012473
1002.892447	-0.011763
1003.064004	-0.009590
1003.235544	-0.008670
1003.407065	-0.008529
1003.578568	-0.008081
1003.750052	-0.007819
1003.921519	-0.011518
1004.092967	-0.012345
1004.264397	-0.013018
1004.435809	-0.012848
1004.607202	-0.012968
1004.778577	-0.014440
1004.949934	-0.012137
1005.121273	-0.012876
1005.292594	-0.012675
1005.463896	-0.012042
1005.635180	-0.011685
1005.806446	-0.010821
1005.977694	-0.010951
1006.148923	-0.013728
1006.320135	-0.011967
1006.491328	-0.012305
1006.662503	-0.014343
1006.833659	-0.014418
1007.004798	-0.012725
1007.175918	-0.011187
1007.347020	-0.012138
1007.518103	-0.011675
1007.689169	-0.010884
1007.860216	-0.013316
1008.031245	-0.015539
1008.202256	-0.013852
1008.373248	-0.014910
1008.544223	-0.016882
1008.715179	-0.016232
1008.886117	-0.014628
1009.057036	-0.015329
1009.227938	-0.014177
1009.398821	-0.012149
1009.569686	-0.011474
1009.740533	-0.011515
1009.911361	-0.011838
1010.082172	-0.009190
1010.252964	-0.011368
1010.423738	-0.011671
1010.594493	-0.010841
1010.765231	-0.011929
1010.935950	-0.013489
1011.106651	-0.014167
1011.277334	-0.013705
1011.447998	-0.011753
1011.618645	-0.013003
1011.789273	-0.013306
1011.959882	-0.013186
1012.130474	-0.014136
1012.301048	-0.012245
1012.471603	-0.012578
1012.642140	-0.012880
1012.812658	-0.013224
1012.983159	-0.014846
1013.153641	-0.014567
1013.324105	-0.013927
1013.494551	-0.013871
1013.664979	-0.015468
1013.835388	-0.014870
1014.005779	-0.013920
1014.176152	-0.013442
1014.346507	-0.013633
1014.516843	-0.013085
1014.687162	-0.013458
1014.857462	-0.013419
1015.027744	-0.014922
1015.198007	-0.011927
1015.368252	-0.012236
1015.538480	-0.012282
1015.708689	-0.012515
1015.878879	-0.011048
1016.049052	-0.011199
1016.219206	-0.011749
1016.389342	-0.012269
1016.559460	-0.012082
1016.729559	-0.013404
1016.899641	-0.013380
1017.069704	-0.013251
1017.239749	-0.012745
1017.409775	-0.015673
1017.579784	-0.015358
1017.749774	-0.012965
1017.919746	-0.013304
1018.089700	-0.013370
1018.259635	-0.013927
1018.429553	-0.014637
1018.599452	-0.014009
1018.769333	-0.012694
1018.939195	-0.010346
1019.109040	-0.011658
1019.278866	-0.013644
1019.448674	-0.013758
1019.618464	-0.013139
1019.788235	-0.012898
1019.957989	-0.013634
1020.127724	-0.015038
1020.297441	-0.017355
1020.467139	-0.017999
1020.636820	-0.017702
1020.806482	-0.017222
1020.976126	-0.015712
1021.145752	-0.016740
1021.315359	-0.015405
1021.484948	-0.015441
1021.654519	-0.014718
1021.824072	-0.014461
1021.993607	-0.014125
1022.163123	-0.012886
1022.332621	-0.014274
1022.502101	-0.015444
1022.671563	-0.015749
1022.841007	-0.016776
1023.010432	-0.014850
1023.179839	-0.015682
1023.349228	-0.014100
1023.518598	-0.015335
1023.687951	-0.015156
1023.857285	-0.013767
1024.026601	-0.013155
1024.195899	-0.010858
1024.365178	-0.012137
1024.534439	-0.013349
1024.703682	-0.011569
1024.872907	-0.012134
1025.042114	-0.011889
1025.211302	-0.011853
1025.380472	-0.011990
1025.549624	-0.012338
1025.718758	-0.012398
1025.887873	-0.011451
1026.056970	-0.010794
1026.226049	-0.012197
1026.395110	-0.011656
1026.564153	-0.012162
1026.733177	-0.012546
1026.902183	-0.013150
1027.071171	-0.012179
1027.240141	-0.013476
1027.409092	-0.012589
1027.578026	-0.011954
1027.746940	-0.010785
1027.915837	-0.011055
1028.084716	-0.009588
1028.253576	-0.010142
1028.422418	-0.007931
1028.591242	-0.008833
1028.760048	-0.009779
1028.928835	-0.010751
1029.097604	-0.012804
1029.266355	-0.011890
1029.435088	-0.013318
1029.603803	-0.014190
1029.772499	-0.014615
1029.941177	-0.016038
1030.109837	-0.015959
1030.278478	-0.014320
1030.447102	-0.014971
1030.615707	-0.013746
1030.784294	-0.015527
1030.952863	-0.014036
1031.121413	-0.014228
1031.289945	-0.013028
1031.458460	-0.014179
1031.626955	-0.014214
1031.795433	-0.014379
1031.963892	-0.014098
1032.132334	-0.015174
1032.300756	-0.013475
1032.469161	-0.014908
1032.637548	-0.013886
1032.805916	-0.014562
1032.974266	-0.014184
1033.142598	-0.013407
1033.310911	-0.013125
1033.479207	-0.012819
1033.647484	-0.010867
1033.815743	-0.011445
1033.983983	-0.009101
1034.152206	-0.009408
1034.320410	-0.008725
1034.488596	-0.007960
1034.656764	-0.007487
1034.824914	-0.008402
1034.993045	-0.008233
1035.161158	-0.009711
1035.329253	-0.010502
1035.497330	-0.012629
1035.665388	-0.011907
1035.833428	-0.012192
1036.001450	-0.012642
1036.169454	-0.013899
1036.337440	-0.014075
1036.505407	-0.014296
1036.673356	-0.014117
1036.841287	-0.013749
1037.009200	-0.013528
1037.177094	-0.013618
1037.344970	-0.013130
1037.512828	-0.013278
1037.680668	-0.013942
1037.848489	-0.013064
1038.016293	-0.011696
1038.184078	-0.011942
1038.351845	-0.013086
1038.519593	-0.012764
1038.687324	-0.013146
1038.855036	-0.013671
1039.022730	-0.013030
1039.190406	-0.012273
1039.358063	-0.012914
1039.525702	-0.014345
1039.693323	-0.014336
1039.860926	-0.014471
1040.028511	-0.015591
1040.196077	-0.015818
1040.363625	-0.015909
1040.531155	-0.016577
1040.698667	-0.017220
1040.866161	-0.015527
1041.033636	-0.016623
1041.201093	-0.017205
1041.368532	-0.015928
1041.535952	-0.014039
1041.703355	-0.014122
1041.870739	-0.015477
1042.038105	-0.014653
1042.205452	-0.013575
1042.372782	-0.014386
1042.540093	-0.012709
1042.707386	-0.011338
1042.874661	-0.011297
1043.041918	-0.012358
1043.209156	-0.010780
1043.376376	-0.009345
1043.543578	-0.010328
1043.710762	-0.011017
1043.877927	-0.011655
1044.045074	-0.011258
1044.212203	-0.012335
1044.379314	-0.012989
1044.546407	-0.012609
1044.713481	-0.015141
1044.880537	-0.015506
1045.047575	-0.014396
1045.214595	-0.014613
1045.381596	-0.014235
1045.548579	-0.014805
1045.715544	-0.014316
1045.882491	-0.013840
1046.049420	-0.013861
1046.216330	-0.014445
1046.383222	-0.015234
1046.550096	-0.014777
1046.716951	-0.013487
1046.883789	-0.013710
1047.050608	-0.013103
1047.217409	-0.013283
1047.384192	-0.012855
1047.550956	-0.012715
1047.717703	-0.012360
1047.884431	-0.010959
1048.051140	-0.011969
1048.217832	-0.013766
1048.384505	-0.014264
1048.551161	-0.012874
1048.717798	-0.013469
1048.884416	-0.014728
1049.051017	-0.013215
1049.217599	-0.011802
1049.384163	-0.011992
1049.550709	-0.011605
1049.717237	-0.010570
1049.883746	-0.010414
1050.050237	-0.011393
1050.216710	-0.010908
1050.383165	-0.008167
1050.549601	-0.009973
1050.716019	-0.010677
1050.882420	-0.012088
1051.048801	-0.012235
1051.215165	-0.011985
1051.381510	-0.011718
1051.547837	-0.011071
1051.714146	-0.011277
1051.880437	-0.012133
1052.046709	-0.012725
1052.212964	-0.010866
1052.379200	-0.010974
1052.545417	-0.011634
1052.711617	-0.012240
1052.877798	-0.013376
1053.043961	-0.015008
1053.210106	-0.012881
1053.376233	-0.013096
1053.542341	-0.012302
1053.708432	-0.014496
1053.874504	-0.013071
1054.040557	-0.012246
1054.206593	-0.012986
1054.372610	-0.012497
1054.538609	-0.012513
1054.704590	-0.012614
1054.870553	-0.014413
1055.036497	-0.014258
1055.202424	-0.013477
1055.368331	-0.014132
1055.534221	-0.014822
1055.700093	-0.013904
1055.865946	-0.013124
1056.031781	-0.012714
1056.197598	-0.015265
1056.363397	-0.013542
1056.529177	-0.012346
1056.694939	-0.013020
1056.860683	-0.011611
1057.026409	-0.012375
1057.192116	-0.012470
1057.357806	-0.012119
1057.523477	-0.013257
1057.689130	-0.012530
1057.854764	-0.012277
1058.020381	-0.014480
1058.185979	-0.012926
1058.351559	-0.014303
1058.517120	-0.013388
1058.682664	-0.012643
1058.848189	-0.013033
1059.013696	-0.013327
1059.179185	-0.013474
1059.344656	-0.015906
1059.510108	-0.012703
1059.675542	-0.013207
1059.840958	-0.012512
1060.006356	-0.013766
1060.171735	-0.014003
1060.337096	-0.012686
1060.502439	-0.012850
1060.667764	-0.012848
1060.833071	-0.011670
1060.998359	-0.014269
1061.163629	-0.014870
1061.328881	-0.016402
1061.494115	-0.015432
1061.659330	-0.015103
1061.824527	-0.017229
1061.989706	-0.018271
1062.154867	-0.018315
1062.320010	-0.019730
1062.485134	-0.019611
1062.650240	-0.018848
1062.815328	-0.016823
1062.980398	-0.016699
1063.145449	-0.017927
1063.310482	-0.018104
1063.475497	-0.015017
1063.640494	-0.015047
1063.805473	-0.014451
1063.970433	-0.014969
1064.135375	-0.014732
1064.300299	-0.016429
1064.465204	-0.015200
1064.630092	-0.015407
1064.794961	-0.015173
1064.959812	-0.017730
1065.124645	-0.016649
1065.289459	-0.015387
1065.454256	-0.013003
1065.619034	-0.013301
1065.783793	-0.012601
1065.948535	-0.013599
1066.113258	-0.013114
1066.277964	-0.013570
1066.442651	-0.011408
1066.607319	-0.011550
1066.771970	-0.011484
1066.936602	-0.013593
1067.101216	-0.013284
1067.265812	-0.011833
1067.430389	-0.011501
1067.594949	-0.011237
1067.759490	-0.008285
1067.924013	-0.009505
1068.088518	-0.010418
1068.253004	-0.010978
1068.417472	-0.010093
1068.581922	-0.011795
1068.746354	-0.014499
1068.910768	-0.013862
1069.075163	-0.012771
1069.239540	-0.015456
1069.403899	-0.013969
1069.568240	-0.013760
1069.732562	-0.015105
1069.896866	-0.016816
1070.061152	-0.015875
1070.225420	-0.014746
1070.389670	-0.015105
1070.553901	-0.015304
1070.718114	-0.013655
1070.882309	-0.013800
1071.046486	-0.013070
1071.210644	-0.011017
1071.374784	-0.008968
1071.538906	-0.008199
1071.703010	-0.007657
1071.867096	-0.008475
1072.031163	-0.009375
1072.195212	-0.009389
1072.359243	-0.010317
1072.523256	-0.011283
1072.687250	-0.013151
1072.851226	-0.013865
1073.015184	-0.016054
1073.179124	-0.013554
1073.343045	-0.012972
1073.506949	-0.012141
1073.670834	-0.011642
1073.834701	-0.012421
1073.998549	-0.012479
1074.162380	-0.011112
1074.326192	-0.010516
1074.489986	-0.009912
1074.653761	-0.010768
1074.817519	-0.009745
1074.981258	-0.011230
1075.144979	-0.014965
1075.308682	-0.013025
1075.472367	-0.013415
1075.636033	-0.012516
1075.799681	-0.013872
1075.963311	-0.013186
1076.126923	-0.014587
1076.290516	-0.016057
1076.454092	-0.015997
1076.617649	-0.013883
1076.781187	-0.013738
1076.944708	-0.012067
1077.108210	-0.012748
1077.271695	-0.010918
1077.435160	-0.010835
1077.598608	-0.010991
1077.762038	-0.013970
1077.925449	-0.014449
1078.088842	-0.013716
1078.252217	-0.014521
1078.415573	-0.017211
1078.578912	-0.016429
1078.742232	-0.018044
1078.905534	-0.018923
1079.068817	-0.019198
1079.232083	-0.015817
1079.395330	-0.014830
1079.558559	-0.014578
1079.721770	-0.012937
1079.884962	-0.012439
1080.048136	-0.012615
1080.211293	-0.010674
1080.374430	-0.008966
1080.537550	-0.010877
1080.700651	-0.013838
1080.863735	-0.012928
1081.026800	-0.015440
1081.189846	-0.019198
1081.352875	-0.017735
1081.515885	-0.018610
1081.678877	-0.019367
1081.841851	-0.018773
1082.004807	-0.016595
1082.167744	-0.013708
1082.330663	-0.015181
1082.493564	-0.013848
1082.656447	-0.011188
1082.819312	-0.010939
1082.982158	-0.009887
1083.144986	-0.008735
1083.307796	-0.010885
1083.470587	-0.011466
1083.633361	-0.012263
1083.796116	-0.012306
1083.958853	-0.010977
1084.121571	-0.010033
1084.284272	-0.011683
1084.446954	-0.012255
1084.609618	-0.013320
1084.772264	-0.011491
1084.934892	-0.012783
1085.097501	-0.013319
1085.260092	-0.013322
1085.422665	-0.013631
1085.585220	-0.017961
1085.747756	-0.018264
1085.910274	-0.020590
1086.072774	-0.022526
1086.235256	-0.022705
1086.397720	-0.022258
1086.560165	-0.020069
1086.722592	-0.019086
1086.885001	-0.018964
1087.047392	-0.016764
1087.209764	-0.017096
1087.372119	-0.015053
1087.534455	-0.010769
1087.696772	-0.014573
1087.859072	-0.014106
1088.021353	-0.015464
1088.183616	-0.016316
1088.345861	-0.015854
1088.508088	-0.014521
1088.670296	-0.011889
1088.832486	-0.012428
1088.994658	-0.016696
1089.156812	-0.013943
1089.318948	-0.012732
1089.481065	-0.012765
1089.643164	-0.011109
1089.805245	-0.011068
1089.967308	-0.012274
1090.129352	-0.012505
1090.291378	-0.012180
1090.453386	-0.011146
1090.615376	-0.011746
1090.777347	-0.011599
1090.939301	-0.013068
1091.101236	-0.014700
1091.263153	-0.015634
1091.425051	-0.013556
1091.586932	-0.014532
1091.748794	-0.017095
1091.910638	-0.015435
1092.072463	-0.017186
1092.234271	-0.019356
1092.396060	-0.017090
1092.557831	-0.017404
1092.719584	-0.013193
1092.881319	-0.014398
1093.043035	-0.011105
1093.204733	-0.007136
1093.366413	-0.008034
1093.528075	-0.007623
1093.689718	-0.007500
1093.851343	-0.010236
1094.012950	-0.010324
1094.174539	-0.016268
1094.336110	-0.018176
1094.497662	-0.016684
1094.659196	-0.017974
1094.820712	-0.018761
1094.982210	-0.016868
1095.143689	-0.015579
1095.305151	-0.012137
1095.466594	-0.013495
1095.628018	-0.013162
1095.789425	-0.010087
1095.950813	-0.015562
1096.112183	-0.016305
1096.273535	-0.014276
1096.434869	-0.014565
1096.596184	-0.012681
1096.757482	-0.014147
1096.918761	-0.013842
1097.080021	-0.013011
1097.241264	-0.014663
1097.402488	-0.014177
1097.563694	-0.014158
1097.724882	-0.017060
1097.886052	-0.014719
1098.047203	-0.015364
1098.208336	-0.015084
1098.369451	-0.013759
1098.530548	-0.012215
1098.691627	-0.010766
1098.852687	-0.010608
1099.013729	-0.009848
1099.174753	-0.010346
1099.335758	-0.012318
1099.496746	-0.012237
1099.657715	-0.011705
1099.818666	-0.009772
1099.979599	-0.010183
1100.140513	-0.013509
1100.301409	-0.015615
1100.462287	-0.017455
1100.623147	-0.017169
1100.783989	-0.017062
1100.944812	-0.019093
1101.105617	-0.023882
1101.266404	-0.026899
1101.427173	-0.029676
1101.587923	-0.028831
1101.748656	-0.028946
1101.909370	-0.028371
1102.070066	-0.024707
1102.230743	-0.022617
1102.391403	-0.025380
1102.552044	-0.019765
1102.712667	-0.016694
1102.873271	-0.011017
1103.033858	-0.012139
1103.194426	-0.009123
1103.354976	-0.006146
1103.515508	-0.006902
1103.676021	-0.007238
1103.836517	-0.001710
1103.996994	-0.002680
1104.157453	-0.006194
1104.317893	-0.008219
1104.478316	-0.008788
1104.638720	-0.009934
1104.799106	-0.012051
1104.959474	-0.011225
1105.119823	-0.014746
1105.280155	-0.015904
1105.440468	-0.015799
1105.600763	-0.014509
1105.761039	-0.019515
1105.921298	-0.018024
1106.081538	-0.017211
1106.241760	-0.017568
1106.401964	-0.019352
1106.562149	-0.016784
1106.722316	-0.020091
1106.882465	-0.020279
1107.042596	-0.021556
1107.202709	-0.016629
1107.362803	-0.017246
1107.522879	-0.018941
1107.682937	-0.017992
1107.842977	-0.017908
1108.002999	-0.016038
1108.163002	-0.011690
1108.322987	-0.012078
1108.482954	-0.008074
1108.642902	-0.012750
1108.802833	-0.011838
1108.962745	-0.010209
1109.122639	-0.008400
1109.282515	-0.012424
1109.442372	-0.013893
1109.602211	-0.015062
1109.762032	-0.012614
1109.921835	-0.017330
1110.081620	-0.016007
1110.241386	-0.014476
1110.401134	-0.011571
1110.560864	-0.018500
1110.720576	-0.013618
1110.880269	-0.015221
1111.039945	-0.015290
1111.199602	-0.016525
1111.359240	-0.012622
1111.518861	-0.009399
1111.678463	-0.006519
1111.838047	-0.007515
1111.997613	-0.003216
1112.157161	-0.005775
1112.316690	-0.003357
1112.476202	-0.004320
1112.635695	-0.006267
1112.795169	-0.008732
1112.954626	-0.006692
1113.114064	-0.010025
1113.273484	-0.013725
1113.432886	-0.013021
1113.592270	-0.014059
1113.751635	-0.014749
1113.910983	-0.014959
1114.070312	-0.014747
1114.229622	-0.009964
1114.388915	-0.011439
1114.548189	-0.007878
1114.707445	-0.007076
1114.866683	-0.008700
1115.025903	-0.006952
1115.185104	-0.007918
1115.344287	-0.008863
1115.503452	-0.007602
1115.662599	-0.011575
1115.821727	-0.013091
1115.980838	-0.019547
1116.139930	-0.017969
1116.299004	-0.018570
1116.458059	-0.017523
1116.617097	-0.018109
1116.776116	-0.018231
1116.935117	-0.017730
1117.094099	-0.017353
1117.253064	-0.016232
1117.412010	-0.015211
1117.570938	-0.018150
1117.729848	-0.016104
1117.888740	-0.016769
1118.047613	-0.014717
1118.206468	-0.009713
1118.365305	-0.009186
1118.524124	-0.010080
1118.682924	-0.013619
1118.841707	-0.011119
1119.000471	-0.010218
1119.159216	-0.013923
1119.317944	-0.013310
1119.476653	-0.013097
1119.635344	-0.015339
1119.794017	-0.018449
1119.952672	-0.017988
1120.111308	-0.014081
1120.269927	-0.016987
1120.428527	-0.018794
1120.587108	-0.015799
1120.745672	-0.020700
1120.904217	-0.026277
1121.062744	-0.026452
1121.221253	-0.025905
1121.379744	-0.025395
1121.538216	-0.022406
1121.696671	-0.018297
1121.855107	-0.012860
1122.013524	-0.018659
1122.171924	-0.021028
1122.330305	-0.014054
1122.488668	-0.014866
1122.647013	-0.012621
1122.805340	-0.007810
1122.963648	-0.013282
1123.121938	-0.015016
1123.280210	-0.013620
1123.438464	-0.001679
1123.596700	0.006803
1123.754917	0.006103
1123.913116	0.005971
1124.071297	0.005850
1124.229459	-0.000178
1124.387604	0.000692
1124.545730	0.002365
1124.703838	0.000522
1124.861928	-0.005995
1125.019999	-0.003340
1125.178052	-0.001109
1125.336088	-0.002888
1125.494104	-0.001232
1125.652103	0.003297
1125.810083	0.006531
1125.968045	0.003336
1126.125989	-0.000015
1126.283915	-0.000357
1126.441823	-0.001017
1126.599712	-0.007253
1126.757583	-0.002504
1126.915436	-0.005360
1127.073270	-0.006442
1127.231087	-0.011407
1127.388885	-0.004544
1127.546665	-0.005022
1127.704426	-0.004931
1127.862170	-0.004113
1128.019895	-0.008634
1128.177602	-0.013414
1128.335291	-0.016749
1128.492961	-0.016097
1128.650614	-0.012797
1128.808248	-0.020813
1128.965864	-0.019088
1129.123461	-0.018459
1129.281041	-0.028384
1129.438602	-0.021613
1129.596145	-0.020667
1129.753670	-0.017799
1129.911176	-0.020897
1130.068665	-0.020852
1130.226135	-0.021027
1130.383587	-0.018317
1130.541020	-0.017365
1130.698436	-0.010950
1130.855833	-0.011412
1131.013212	-0.003442
1131.170573	-0.000367
1131.327915	0.000687
1131.485239	-0.007366
1131.642545	-0.001343
1131.799833	-0.002602
1131.957103	0.000305
1132.114354	-0.000820
1132.271588	-0.005480
1132.428803	-0.011341
1132.585999	-0.019481
1132.743178	-0.017422
1132.900338	-0.014691
1133.057480	-0.011989
1133.214604	-0.010790
1133.371710	-0.010302
1133.528797	-0.010203
1133.685866	-0.003059
1133.842917	-0.001717
1133.999950	0.007062
1134.156964	0.006261
1134.313960	0.013464
1134.470938	0.006842
1134.627898	0.010115
1134.784840	0.011726
1134.941763	0.011938
1135.098668	0.006006
1135.255555	0.001204
1135.412424	0.000917
1135.569274	-0.001493
1135.726107	-0.002193
1135.882921	-0.000053
1136.039716	-0.003718
1136.196494	-0.007414
1136.353253	-0.006402
1136.509995	-0.009195
1136.666717	-0.009112
1136.823422	-0.012569
1136.980109	-0.012918
1137.136777	-0.015424
1137.293427	-0.018825
1137.450059	-0.021301
1137.606672	-0.017348
1137.763267	-0.020335
1137.919844	-0.017693
1138.076403	-0.013345
1138.232944	-0.015002
1138.389466	-0.014109
1138.545971	-0.009511
1138.702457	-0.011278
1138.858924	-0.009407
1139.015374	-0.013333
1139.171805	-0.011420
1139.328218	-0.012098
1139.484613	-0.013657
1139.640990	-0.016703
1139.797348	-0.014027
1139.953688	-0.016078
1140.110010	-0.022072
1140.266314	-0.025005
1140.422600	-0.018548
1140.578867	-0.021411
1140.735116	-0.017914
1140.891347	-0.022739
1141.047559	-0.015549
1141.203754	-0.014593
1141.359930	-0.020281
1141.516088	-0.012304
1141.672228	-0.007815
1141.828349	-0.015194
1141.984452	-0.013447
1142.140537	-0.014799
1142.296604	-0.009058
1142.452653	-0.012253
1142.608683	-0.011521
1142.764695	-0.005497
1142.920689	-0.008329
1143.076665	-0.012983
1143.232622	-0.019867
1143.388562	-0.022612
1143.544483	-0.020736
1143.700385	-0.013880
1143.856270	-0.014543
1144.012136	-0.017572
1144.167985	-0.022930
1144.323814	-0.020252
1144.479626	-0.016753
1144.635420	-0.007887
1144.791195	-0.006835
1144.946952	-0.009290
1145.102691	-0.008359
1145.258411	-0.002310
1145.414113	0.002259
1145.569798	0.006447
1145.725463	0.006683
1145.881111	0.006825
1146.036741	0.006262
1146.192352	0.010759
1146.347945	0.010930
1146.503519	0.003001
1146.659076	0.004314
1146.814614	-0.001388
1146.970134	0.002077
1147.125636	0.002356
1147.281120	0.001243
1147.436585	0.007662
1147.592032	0.006563
1147.747461	0.010524
1147.902872	0.009767
1148.058265	0.011821
1148.213639	0.015618
1148.368995	0.005860
1148.524333	0.010731
1148.679653	0.016482
1148.834954	0.009991
1148.990237	0.008864
1149.145502	0.007136
1149.300749	0.009622
1149.455977	0.003428
1149.611188	0.004657
1149.766380	0.007327
1149.921553	0.009799
1150.076709	-0.001174
1150.231846	-0.008379
1150.386966	-0.001961
1150.542066	-0.000678
1150.697149	-0.009363
1150.852214	-0.006939
1151.007260	-0.017040
1151.162288	-0.014690
1151.317298	-0.029395
1151.472289	-0.020297
1151.627263	-0.021524
1151.782218	-0.025058
1151.937155	-0.022491
1152.092073	-0.025415
1152.246974	-0.026422
1152.401856	-0.025064
1152.556720	-0.030201
1152.711566	-0.019706
1152.866393	-0.020589
1153.021203	-0.015724
1153.175994	-0.013062
1153.330767	-0.022050
1153.485521	-0.013368
1153.640258	-0.010390
1153.794976	0.000617
1153.949676	0.001653
1154.104358	0.005784
1154.259021	-0.001196
1154.413667	0.003254
1154.568294	-0.001537
1154.722903	-0.000646
1154.877493	0.004616
1155.032066	-0.002450
1155.186620	-0.010349
1155.341156	-0.003140
1155.495674	-0.012395
1155.650173	-0.011435
1155.804654	-0.010092
1155.959118	-0.007025
1156.113562	-0.001442
1156.267989	-0.002939
1156.422397	-0.007953
1156.576788	-0.008850
1156.731160	-0.010144
1156.885513	-0.006192
1157.039849	0.008351
1157.194166	0.003867
1157.348465	-0.003787
1157.502746	-0.002911
1157.657009	-0.010011
1157.811253	0.006189
1157.965479	0.000224
1158.119687	-0.001697
1158.273877	0.001270
1158.428048	-0.011422
1158.582201	-0.014493
1158.736337	-0.010503
1158.890453	-0.015417
1159.044552	-0.011711
1159.198632	-0.009804
1159.352694	-0.007574
1159.506738	-0.009383
1159.660764	-0.012463
1159.814771	-0.009050
1159.968761	-0.004308
1160.122732	0.006902
1160.276685	0.017572
1160.430619	0.015570
1160.584535	0.006768
1160.738434	0.020914
1160.892313	0.027800
1161.046175	0.029940
1161.200019	0.035306
1161.353844	0.024676
1161.507651	0.016528
1161.661440	-0.004118
1161.815210	0.001091
1161.968962	-0.003004
1162.122697	-0.007364
1162.276412	-0.015156
1162.430110	-0.013236
1162.583789	-0.022667
1162.737451	-0.016133
1162.891094	-0.026587
1163.044718	-0.009524
1163.198325	-0.007921
1163.351913	-0.007516
1163.505483	-0.015909
1163.659035	-0.014212
1163.812569	-0.016144
1163.966084	-0.007067
1164.119581	0.000344
1164.273060	0.014027
1164.426521	0.008157
1164.579964	0.009586
1164.733388	0.011616
1164.886794	0.015681
1165.040182	0.032082
1165.193551	0.035756
1165.346903	0.023548
1165.500236	0.022749
1165.653551	0.016621
1165.806848	0.033948
1165.960126	0.029216
1166.113386	0.029414
1166.266628	0.038122
1166.419852	0.033432
1166.573058	0.019187
1166.726245	0.028792
1166.879414	0.027398
1167.032565	0.015024
1167.185698	-0.002621
1167.338812	-0.004595
1167.491909	-0.016090
1167.644987	-0.021007
1167.798046	-0.032002
1167.951088	-0.021968
1168.104111	-0.018151
1168.257117	-0.018289
1168.410103	-0.001962
1168.563072	0.010727
1168.716023	0.005722
1168.868955	0.015654
1169.021869	0.036598
1169.174765	0.030706
1169.327642	0.013586
1169.480501	0.015251
1169.633343	0.011058
1169.786165	0.013414
1169.938970	0.000559
1170.091757	0.004097
1170.244525	0.010230
1170.397275	-0.008766
1170.550007	-0.010825
1170.702720	0.001738
1170.855415	-0.005258
1171.008092	-0.015229
1171.160751	-0.031947
1171.313392	-0.041931
1171.466014	0.042051
1171.618619	-0.099703
1171.771205	-0.099703
1171.923772	-0.099703
