sample name	sample
index	1381
start time	 05-03-2021  02:54:45 PM


Wavelength (nm)	Absorbance
494.344910	-0.159299
494.563924	-0.159299
494.782919	-0.159299
495.001897	0.103872
495.220856	-0.013155
495.439797	0.016726
495.658719	0.023370
495.877624	-0.019559
496.096510	-0.009083
496.315378	0.006100
496.534227	0.091911
496.753059	0.083137
496.971872	0.062256
497.190667	0.031460
497.409444	0.041735
497.628203	0.042324
497.846943	0.042941
498.065665	0.039992
498.284369	0.039669
498.503055	0.039395
498.721723	0.040595
498.940372	0.039652
499.159003	0.039376
499.377616	0.039453
499.596210	0.039219
499.814787	0.038967
500.033345	0.038645
500.251885	0.038255
500.470406	0.036700
500.688910	0.035033
500.907395	0.035010
501.125862	0.035696
501.344311	0.034834
501.562742	0.035566
501.781154	0.035400
501.999548	0.035888
502.217924	0.037239
502.436282	0.038781
502.654621	0.038759
502.872942	0.038733
503.091245	0.037256
503.309530	0.036416
503.527797	0.035397
503.746045	0.036572
503.964275	0.037105
504.182487	0.036727
504.400681	0.035134
504.618856	0.035919
504.837013	0.036699
505.055152	0.038845
505.273273	0.039725
505.491376	0.039404
505.709460	0.039080
505.927526	0.039409
506.145574	0.038664
506.363604	0.039596
506.581615	0.040084
506.799608	0.039862
507.017583	0.038821
507.235540	0.039157
507.453478	0.039400
507.671399	0.038412
507.889301	0.038320
508.107185	0.038457
508.325050	0.038138
508.542898	0.038121
508.760727	0.038149
508.978538	0.037612
509.196330	0.036780
509.414105	0.037087
509.631861	0.036864
509.849599	0.036639
510.067319	0.037450
510.285021	0.037714
510.502704	0.037439
510.720369	0.037115
510.938016	0.038151
511.155645	0.038267
511.373255	0.037942
511.590848	0.038541
511.808422	0.037364
512.025977	0.036249
512.243515	0.036979
512.461034	0.037336
512.678536	0.037520
512.896018	0.036758
513.113483	0.036003
513.330930	0.036285
513.548358	0.038022
513.765768	0.038884
513.983160	0.039831
514.200533	0.039018
514.417889	0.039261
514.635226	0.039385
514.852545	0.039662
515.069845	0.040934
515.287128	0.040571
515.504392	0.039230
515.721638	0.039407
515.938866	0.038789
516.156075	0.038846
516.373267	0.037641
516.590440	0.037340
516.807594	0.037428
517.024731	0.036390
517.241850	0.037280
517.458950	0.036787
517.676032	0.036797
517.893095	0.036950
518.110141	0.036899
518.327168	0.037469
518.544177	0.037871
518.761168	0.036899
518.978141	0.037418
519.195095	0.036903
519.412031	0.037510
519.628949	0.038563
519.845849	0.038700
520.062731	0.038659
520.279594	0.038570
520.496439	0.038277
520.713266	0.039457
520.930074	0.039273
521.146865	0.040157
521.363637	0.039955
521.580391	0.039329
521.797127	0.038885
522.013844	0.039277
522.230543	0.039099
522.447224	0.039414
522.663887	0.038657
522.880532	0.038517
523.097158	0.037490
523.313766	0.037639
523.530356	0.036885
523.746928	0.037538
523.963481	0.037718
524.180017	0.038200
524.396534	0.038354
524.613032	0.038432
524.829513	0.039337
525.045975	0.039686
525.262420	0.039762
525.478845	0.039977
525.695253	0.039762
525.911643	0.040200
526.128014	0.040370
526.344367	0.040136
526.560702	0.041174
526.777018	0.041120
526.993316	0.040941
527.209597	0.040978
527.425858	0.041087
527.642102	0.041411
527.858328	0.041277
528.074535	0.041333
528.290724	0.041552
528.506894	0.040760
528.723047	0.040631
528.939181	0.040833
529.155297	0.041007
529.371395	0.041705
529.587475	0.041505
529.803536	0.041765
530.019579	0.041542
530.235604	0.041224
530.451611	0.041970
530.667600	0.041422
530.883570	0.042001
531.099522	0.042318
531.315456	0.042261
531.531372	0.043090
531.747269	0.042855
531.963148	0.043776
532.179009	0.044342
532.394852	0.044570
532.610676	0.045139
532.826482	0.045094
533.042271	0.044972
533.258040	0.045109
533.473792	0.044834
533.689525	0.044906
533.905240	0.044516
534.120937	0.044999
534.336616	0.045161
534.552277	0.045488
534.767919	0.045619
534.983543	0.046169
535.199149	0.046161
535.414736	0.046670
535.630306	0.046491
535.845857	0.046415
536.061390	0.046311
536.276904	0.046265
536.492401	0.046135
536.707879	0.046256
536.923339	0.045562
537.138781	0.045740
537.354204	0.045655
537.569610	0.046777
537.784997	0.047141
538.000366	0.046914
538.215716	0.047136
538.431049	0.047308
538.646363	0.047404
538.861659	0.048025
539.076937	0.047987
539.292196	0.048128
539.507438	0.047259
539.722661	0.047519
539.937866	0.047979
540.153052	0.047771
540.368221	0.048382
540.583371	0.048041
540.798503	0.048305
541.013617	0.048730
541.228712	0.048368
541.443789	0.048714
541.658848	0.048542
541.873889	0.048733
542.088912	0.048856
542.303916	0.048833
542.518902	0.049111
542.733870	0.048908
542.948820	0.048706
543.163752	0.048777
543.378665	0.048620
543.593560	0.048917
543.808437	0.048445
544.023295	0.048188
544.238136	0.048042
544.452958	0.048131
544.667762	0.048394
544.882548	0.048737
545.097315	0.049064
545.312064	0.049333
545.526795	0.049019
545.741508	0.049433
545.956203	0.049429
546.170879	0.049330
546.385537	0.049420
546.600177	0.049005
546.814799	0.048811
547.029402	0.048483
547.243988	0.048531
547.458555	0.048523
547.673103	0.048478
547.887634	0.048625
548.102146	0.048856
548.316640	0.048687
548.531116	0.048944
548.745574	0.048978
548.960013	0.049151
549.174435	0.049396
549.388838	0.049545
549.603222	0.049478
549.817589	0.049725
550.031937	0.049603
550.246267	0.050094
550.460579	0.050552
550.674873	0.050843
550.889148	0.051041
551.103405	0.050694
551.317644	0.051170
551.531865	0.051566
551.746068	0.051883
551.960252	0.052290
552.174418	0.052353
552.388566	0.052307
552.602696	0.052544
552.816807	0.053061
553.030900	0.053495
553.244975	0.053219
553.459032	0.053396
553.673070	0.053404
553.887091	0.053630
554.101093	0.053902
554.315077	0.053925
554.529042	0.053979
554.742990	0.053814
554.956919	0.053967
555.170830	0.054088
555.384722	0.053891
555.598597	0.053989
555.812453	0.054134
556.026291	0.054340
556.240111	0.054590
556.453913	0.054659
556.667696	0.054653
556.881461	0.054436
557.095208	0.054829
557.308937	0.055225
557.522647	0.055301
557.736339	0.055371
557.950013	0.054907
558.163669	0.054731
558.377307	0.054570
558.590926	0.054851
558.804527	0.054882
559.018110	0.054671
559.231675	0.054123
559.445221	0.053967
559.658749	0.053967
559.872259	0.054507
560.085751	0.054362
560.299225	0.054465
560.512680	0.054101
560.726117	0.054168
560.939536	0.053952
561.152937	0.054526
561.366319	0.054407
561.579683	0.054237
561.793029	0.053849
562.006357	0.054108
562.219667	0.054105
562.432958	0.054113
562.646231	0.054305
562.859486	0.054694
563.072723	0.054272
563.285941	0.054642
563.499141	0.054538
563.712323	0.054802
563.925487	0.054539
564.138632	0.054322
564.351760	0.054630
564.564869	0.054406
564.777960	0.053884
564.991032	0.054132
565.204087	0.054001
565.417123	0.054134
565.630141	0.053956
565.843140	0.054509
566.056122	0.054834
566.269085	0.054479
566.482030	0.054434
566.694957	0.054703
566.907866	0.054580
567.120756	0.054591
567.333628	0.054428
567.546482	0.054254
567.759318	0.053766
567.972135	0.053442
568.184935	0.053524
568.397716	0.053554
568.610478	0.053432
568.823223	0.053680
569.035949	0.053916
569.248657	0.054052
569.461347	0.054484
569.674019	0.054624
569.886672	0.054951
570.099308	0.054963
570.311925	0.055369
570.524523	0.055560
570.737104	0.055362
570.949666	0.055183
571.162210	0.055463
571.374736	0.055260
571.587244	0.055354
571.799733	0.055456
572.012205	0.055716
572.224658	0.055589
572.437092	0.055754
572.649509	0.055820
572.861907	0.055760
573.074287	0.055450
573.286649	0.055600
573.498993	0.055644
573.711318	0.055590
573.923625	0.055645
574.135914	0.055741
574.348185	0.055734
574.560438	0.055809
574.772672	0.056092
574.984888	0.056238
575.197086	0.056052
575.409266	0.056189
575.621427	0.056299
575.833570	0.056238
576.045695	0.056283
576.257802	0.056170
576.469890	0.056528
576.681961	0.056370
576.894013	0.056669
577.106046	0.057115
577.318062	0.057076
577.530059	0.056773
577.742039	0.056890
577.954000	0.056747
578.165942	0.057048
578.377867	0.056887
578.589773	0.056938
578.801661	0.056613
579.013531	0.056385
579.225382	0.056336
579.437216	0.056404
579.649031	0.056587
579.860828	0.056563
580.072606	0.056797
580.284367	0.056829
580.496109	0.056887
580.707833	0.057282
580.919539	0.057333
581.131227	0.057671
581.342896	0.057915
581.554547	0.057882
581.766180	0.058523
581.977795	0.058141
582.189391	0.057881
582.400969	0.058047
582.612529	0.057743
582.824071	0.058016
583.035595	0.057956
583.247100	0.058188
583.458587	0.058069
583.670056	0.057850
583.881506	0.058084
584.092939	0.058460
584.304353	0.058188
584.515749	0.058499
584.727127	0.058268
584.938486	0.058215
585.149828	0.058022
585.361151	0.058246
585.572456	0.058016
585.783742	0.057956
585.995011	0.057840
586.206261	0.058117
586.417493	0.058168
586.628706	0.058247
586.839902	0.058415
587.051079	0.058163
587.262238	0.058223
587.473379	0.058442
587.684502	0.058438
587.895606	0.058780
588.106692	0.058799
588.317760	0.058593
588.528810	0.058615
588.739841	0.058650
588.950855	0.058879
589.161850	0.058764
589.372827	0.058606
589.583785	0.058493
589.794726	0.058348
590.005648	0.058311
590.216552	0.058358
590.427437	0.058323
590.638305	0.058016
590.849154	0.057939
591.059985	0.058112
591.270798	0.058454
591.481592	0.058791
591.692369	0.058855
591.903127	0.058940
592.113867	0.058988
592.324588	0.059054
592.535292	0.059279
592.745977	0.059372
592.956644	0.059367
593.167293	0.059272
593.377923	0.059374
593.588536	0.059372
593.799130	0.059279
594.009706	0.059434
594.220263	0.059352
594.430803	0.059502
594.641324	0.059792
594.851827	0.059858
595.062312	0.060018
595.272778	0.060021
595.483227	0.059817
595.693657	0.059913
595.904069	0.059987
596.114462	0.060247
596.324838	0.060150
596.535195	0.060283
596.745534	0.060371
596.955855	0.060430
597.166157	0.060439
597.376441	0.060983
597.586707	0.061217
597.796955	0.060961
598.007185	0.060824
598.217396	0.061018
598.427589	0.060864
598.637764	0.060938
598.847921	0.060978
599.058060	0.061126
599.268180	0.061020
599.478282	0.061054
599.688366	0.061431
599.898431	0.061679
600.108479	0.061755
600.318508	0.062176
600.528519	0.062281
600.738511	0.062230
600.948486	0.062266
601.158442	0.062290
601.368380	0.062296
601.578300	0.062373
601.788202	0.062540
601.998085	0.062628
602.207950	0.062399
602.417797	0.062648
602.627626	0.062681
602.837436	0.062691
603.047228	0.062873
603.257002	0.062706
603.466758	0.062799
603.676496	0.062810
603.886215	0.062458
604.095916	0.062661
604.305599	0.062637
604.515264	0.062993
604.724910	0.063232
604.934538	0.063120
605.144148	0.063372
605.353740	0.063709
605.563314	0.063621
605.772869	0.064321
605.982406	0.064397
606.191925	0.064255
606.401425	0.064153
606.610908	0.063896
606.820372	0.063866
607.029818	0.063727
607.239246	0.063472
607.448655	0.063816
607.658047	0.063529
607.867420	0.063396
608.076775	0.063159
608.286111	0.062698
608.495430	0.062798
608.704730	0.062916
608.914012	0.063466
609.123275	0.063622
609.332521	0.063503
609.541748	0.063683
609.750957	0.064013
609.960148	0.064326
610.169321	0.064714
610.378475	0.064886
610.587611	0.064826
610.796729	0.064667
611.005829	0.064577
611.214910	0.064778
611.423974	0.064961
611.633019	0.064871
611.842045	0.064859
612.051054	0.065115
612.260044	0.064997
612.469017	0.065283
612.677970	0.065379
612.886906	0.065321
613.095824	0.065205
613.304723	0.064984
613.513604	0.064905
613.722467	0.065108
613.931311	0.064780
614.140138	0.065094
614.348946	0.065140
614.557736	0.065174
614.766507	0.064997
614.975261	0.065056
615.183996	0.065156
615.392713	0.065243
615.601412	0.065167
615.810092	0.065461
616.018754	0.065669
616.227399	0.065419
616.436024	0.065596
616.644632	0.065736
616.853222	0.065959
617.061793	0.066105
617.270346	0.066087
617.478880	0.066142
617.687397	0.066152
617.895895	0.065883
618.104375	0.066266
618.312837	0.066098
618.521281	0.066397
618.729706	0.066171
618.938113	0.066070
619.146502	0.066119
619.354873	0.066060
619.563226	0.066172
619.771560	0.066304
619.979876	0.066116
620.188174	0.066198
620.396453	0.066251
620.604715	0.066330
620.812958	0.066582
621.021183	0.066730
621.229390	0.067033
621.437578	0.067123
621.645748	0.066940
621.853900	0.067217
622.062034	0.067348
622.270150	0.067518
622.478247	0.067669
622.686326	0.067483
622.894387	0.067530
623.102430	0.067508
623.310454	0.067229
623.518461	0.067605
623.726449	0.067607
623.934418	0.067711
624.142370	0.067567
624.350303	0.067555
624.558218	0.067496
624.766115	0.067562
624.973994	0.067764
625.181855	0.068112
625.389697	0.068049
625.597521	0.068042
625.805327	0.068072
626.013114	0.067994
626.220883	0.068203
626.428634	0.068514
626.636367	0.068402
626.844082	0.068415
627.051778	0.068388
627.259457	0.068483
627.467117	0.068564
627.674758	0.068464
627.882382	0.068894
628.089987	0.068682
628.297574	0.068593
628.505143	0.068963
628.712694	0.068985
628.920226	0.069056
629.127740	0.069090
629.335236	0.069051
629.542714	0.069366
629.750174	0.069235
629.957615	0.069449
630.165038	0.069781
630.372443	0.069704
630.579829	0.069803
630.787198	0.069845
630.994548	0.069740
631.201880	0.069969
631.409194	0.070045
631.616489	0.070345
631.823766	0.070472
632.031025	0.070360
632.238266	0.070568
632.445489	0.070500
632.652693	0.070715
632.859879	0.070858
633.067047	0.070919
633.274197	0.070837
633.481329	0.070707
633.688442	0.070642
633.895537	0.070563
634.102614	0.070415
634.309672	0.070613
634.516713	0.070703
634.723735	0.070682
634.930739	0.070624
635.137724	0.070614
635.344692	0.070298
635.551641	0.070221
635.758572	0.070340
635.965485	0.070500
636.172379	0.070185
636.379256	0.070154
636.586114	0.070271
636.792954	0.070125
636.999775	0.070221
637.206579	0.070622
637.413364	0.070778
637.620131	0.070793
637.826880	0.070446
638.033610	0.070594
638.240323	0.070526
638.447017	0.070559
638.653692	0.070803
638.860350	0.070773
639.066990	0.070724
639.273611	0.070562
639.480214	0.070771
639.686798	0.071089
639.893365	0.071311
640.099913	0.071419
640.306443	0.071343
640.512955	0.071407
640.719449	0.071344
640.925924	0.071349
641.132381	0.071626
641.338820	0.071479
641.545241	0.071546
641.751644	0.071489
641.958028	0.071632
642.164394	0.071818
642.370742	0.071948
642.577071	0.072191
642.783383	0.072418
642.989676	0.072595
643.195951	0.072857
643.402207	0.072859
643.608446	0.073023
643.814666	0.072985
644.020868	0.073024
644.227052	0.073044
644.433218	0.073141
644.639365	0.073114
644.845494	0.073074
645.051605	0.072929
645.257698	0.072881
645.463772	0.072911
645.669828	0.072945
645.875866	0.072961
646.081886	0.073001
646.287888	0.072909
646.493871	0.072893
646.699836	0.072998
646.905783	0.073172
647.111712	0.073402
647.317622	0.073336
647.523514	0.073504
647.729388	0.073514
647.935244	0.073363
648.141082	0.073439
648.346901	0.073546
648.552702	0.073538
648.758485	0.073544
648.964250	0.073733
649.169996	0.073745
649.375724	0.073698
649.581434	0.073995
649.787126	0.074347
649.992800	0.074362
650.198455	0.074384
650.404092	0.074619
650.609711	0.074853
650.815311	0.074856
651.020894	0.075054
651.226458	0.075042
651.432004	0.075176
651.637532	0.075323
651.843041	0.075479
652.048532	0.075521
652.254006	0.075464
652.459460	0.075760
652.664897	0.075881
652.870315	0.075984
653.075716	0.076355
653.281097	0.076465
653.486461	0.076351
653.691807	0.076342
653.897134	0.076511
654.102443	0.076801
654.307734	0.076665
654.513006	0.076690
654.718261	0.076720
654.923497	0.076500
655.128715	0.076332
655.333915	0.076611
655.539096	0.076745
655.744259	0.076942
655.949404	0.076976
656.154531	0.077101
656.359640	0.076998
656.564730	0.077029
656.769802	0.077137
656.974856	0.077322
657.179892	0.077164
657.384909	0.077128
657.589908	0.076969
657.794889	0.076930
657.999852	0.076832
658.204797	0.077066
658.409723	0.076981
658.614631	0.077165
658.819521	0.077120
659.024393	0.076940
659.229246	0.077090
659.434081	0.077072
659.638898	0.076570
659.843697	0.076275
660.048478	0.076023
660.253240	0.076159
660.457984	0.075989
660.662710	0.075818
660.867417	0.075986
661.072107	0.075808
661.276778	0.075668
661.481431	0.076144
661.686066	0.076438
661.890682	0.076645
662.095281	0.076709
662.299861	0.076939
662.504422	0.077087
662.708966	0.076946
662.913491	0.077070
663.117999	0.077346
663.322488	0.077386
663.526958	0.077489
663.731411	0.077564
663.935845	0.077540
664.140261	0.077492
664.344659	0.077577
664.549038	0.077735
664.753400	0.077730
664.957743	0.077829
665.162068	0.077985
665.366375	0.078028
665.570663	0.077914
665.774933	0.078063
665.979185	0.078178
666.183419	0.078428
666.387635	0.078513
666.591832	0.078661
666.796011	0.078761
667.000172	0.078773
667.204315	0.078950
667.408439	0.079215
667.612545	0.079449
667.816634	0.079548
668.020703	0.079601
668.224755	0.079873
668.428788	0.080039
668.632803	0.080139
668.836800	0.079991
669.040779	0.079861
669.244739	0.079875
669.448681	0.079922
669.652605	0.080114
669.856511	0.079942
670.060399	0.079944
670.264268	0.079985
670.468119	0.080047
670.671952	0.080216
670.875767	0.080242
671.079563	0.080380
671.283341	0.080420
671.487101	0.080247
671.690843	0.080514
671.894567	0.080693
672.098272	0.080853
672.301959	0.080853
672.505628	0.081054
672.709278	0.081273
672.912911	0.081206
673.116525	0.081435
673.320121	0.081626
673.523699	0.081848
673.727258	0.081937
673.930799	0.081963
674.134322	0.082068
674.337827	0.082111
674.541314	0.082308
674.744782	0.082587
674.948232	0.082428
675.151664	0.082490
675.355078	0.082469
675.558474	0.082554
675.761851	0.082847
675.965210	0.082934
676.168551	0.082967
676.371873	0.082875
676.575178	0.082817
676.778464	0.082774
676.981732	0.082757
677.184981	0.082662
677.388213	0.082677
677.591426	0.082477
677.794621	0.082505
677.997798	0.082620
678.200956	0.082667
678.404097	0.082705
678.607219	0.082861
678.810323	0.083064
679.013408	0.083263
679.216476	0.083373
679.419525	0.083449
679.622556	0.083649
679.825569	0.083583
680.028563	0.083541
680.231540	0.083669
680.434498	0.083851
680.637438	0.083847
680.840359	0.083784
681.043263	0.083700
681.246148	0.083785
681.449015	0.083827
681.651864	0.083977
681.854694	0.084337
682.057506	0.084433
682.260301	0.084395
682.463076	0.084457
682.665834	0.084494
682.868573	0.084695
683.071295	0.084941
683.273998	0.084861
683.476682	0.085139
683.679349	0.085209
683.881997	0.085456
684.084627	0.085557
684.287239	0.085721
684.489833	0.085885
684.692408	0.086010
684.894965	0.086000
685.097504	0.086180
685.300025	0.086321
685.502527	0.086372
685.705012	0.086360
685.907478	0.086523
686.109925	0.086636
686.312355	0.086860
686.514766	0.086811
686.717159	0.086926
686.919534	0.087034
687.121891	0.086766
687.324230	0.086739
687.526550	0.086706
687.728852	0.086579
687.931136	0.086488
688.133401	0.086407
688.335649	0.086267
688.537878	0.086214
688.740089	0.086187
688.942281	0.086475
689.144456	0.086620
689.346612	0.086752
689.548750	0.087038
689.750870	0.087195
689.952971	0.087169
690.155055	0.087360
690.357120	0.087494
690.559167	0.087647
690.761195	0.087634
690.963206	0.087619
691.165198	0.087498
691.367172	0.087332
691.569128	0.087442
691.771065	0.087727
691.972984	0.087924
692.174885	0.088040
692.376768	0.088170
692.578633	0.088305
692.780479	0.088292
692.982308	0.088426
693.184118	0.088672
693.385909	0.088774
693.587683	0.088738
693.789438	0.088747
693.991175	0.088659
694.192894	0.088587
694.394595	0.088509
694.596277	0.088543
694.797941	0.088649
694.999587	0.088604
695.201215	0.088383
695.402824	0.088416
695.604416	0.088467
695.805989	0.088586
696.007543	0.088722
696.209080	0.088883
696.410598	0.089159
696.612099	0.089182
696.813580	0.089375
697.015044	0.089703
697.216490	0.089902
697.417917	0.089922
697.619326	0.090042
697.820717	0.089981
698.022089	0.089995
698.223444	0.089928
698.424780	0.090016
698.626098	0.090171
698.827397	0.090098
699.028679	0.090141
699.229942	0.090374
699.431187	0.090284
699.632414	0.090461
699.833622	0.090544
700.034813	0.090717
700.235985	0.090858
700.437139	0.090751
700.638274	0.090731
700.839392	0.090692
701.040491	0.090787
701.241572	0.090907
701.442635	0.090942
701.643679	0.091044
701.844706	0.091022
702.045714	0.090908
702.246704	0.090964
702.447675	0.091188
702.648629	0.091231
702.849564	0.091144
703.050481	0.091395
703.251380	0.091464
703.452260	0.091409
703.653122	0.091354
703.853966	0.091341
704.054792	0.091171
704.255600	0.091143
704.456389	0.091193
704.657160	0.091052
704.857913	0.090743
705.058648	0.090657
705.259365	0.090421
705.460063	0.090287
705.660743	0.090309
705.861405	0.090375
706.062048	0.090392
706.262674	0.090275
706.463281	0.090370
706.663870	0.090511
706.864441	0.090412
707.064993	0.090640
707.265527	0.090736
707.466043	0.090819
707.666541	0.090885
707.867021	0.090601
708.067482	0.090515
708.267925	0.090416
708.468350	0.090150
708.668757	0.090324
708.869145	0.090183
709.069516	0.090114
709.269868	0.090042
709.470201	0.089866
709.670517	0.090003
709.870814	0.090010
710.071093	0.089874
710.271354	0.090005
710.471597	0.089835
710.671821	0.089889
710.872028	0.090027
711.072216	0.089990
711.272385	0.089905
711.472537	0.089931
711.672670	0.090072
711.872785	0.090211
712.072882	0.090320
712.272961	0.090299
712.473021	0.090201
712.673063	0.090121
712.873087	0.090348
713.073093	0.090501
713.273081	0.090593
713.473050	0.090343
713.673001	0.090439
713.872934	0.090446
714.072849	0.090440
714.272745	0.090608
714.472623	0.090474
714.672483	0.090309
714.872325	0.090316
715.072148	0.090069
715.271954	0.090144
715.471741	0.089937
715.671509	0.089725
715.871260	0.089775
716.070992	0.089608
716.270707	0.089787
716.470403	0.089748
716.670080	0.089797
716.869740	0.089938
717.069381	0.090036
717.269004	0.090136
717.468609	0.090263
717.668195	0.090171
717.867764	0.090074
718.067314	0.089890
718.266846	0.089960
718.466360	0.089603
718.665855	0.089490
718.865332	0.089164
719.064791	0.088992
719.264232	0.088722
719.463655	0.088695
719.663059	0.088512
719.862445	0.088517
720.061813	0.088306
720.261163	0.088543
720.460494	0.088471
720.659807	0.088365
720.859102	0.088262
721.058379	0.088226
721.257638	0.088080
721.456878	0.088214
721.656100	0.088006
721.855304	0.087911
722.054490	0.087761
722.253657	0.087690
722.452806	0.087725
722.651937	0.087829
722.851050	0.087903
723.050145	0.087892
723.249221	0.087913
723.448279	0.088065
723.647319	0.088094
723.846340	0.087978
724.045344	0.087916
724.244329	0.087904
724.443296	0.087666
724.642245	0.087652
724.841175	0.087555
725.040088	0.087392
725.238982	0.087024
725.437857	0.086743
725.636715	0.086629
725.835554	0.086654
726.034376	0.086464
726.233179	0.086485
726.431963	0.086370
726.630730	0.086457
726.829478	0.086723
727.028208	0.086972
727.226920	0.086916
727.425614	0.086874
727.624289	0.086577
727.822946	0.086808
728.021585	0.086841
728.220206	0.086726
728.418808	0.086602
728.617392	0.086195
728.815958	0.086069
729.014506	0.086466
729.213036	0.086627
729.411547	0.086908
729.610040	0.086971
729.808515	0.087022
730.006972	0.087330
730.205410	0.087120
730.403831	0.087152
730.602233	0.087236
730.800616	0.086804
730.998982	0.086658
731.197329	0.086321
731.395658	0.086013
731.593969	0.085850
731.792262	0.085513
731.990536	0.085689
732.188793	0.085584
732.387031	0.085462
732.585250	0.085390
732.783452	0.085272
732.981635	0.085493
733.179800	0.085774
733.377947	0.085710
733.576076	0.085372
733.774186	0.085218
733.972278	0.085208
734.170352	0.085070
734.368408	0.085169
734.566446	0.085276
734.764465	0.085206
734.962466	0.085027
735.160449	0.084992
735.358413	0.085322
735.556360	0.085277
735.754288	0.085256
735.952198	0.085300
736.150090	0.085374
736.347963	0.085255
736.545818	0.085113
736.743655	0.084978
736.941474	0.084873
737.139275	0.084760
737.337057	0.084803
737.534821	0.084829
737.732567	0.084776
737.930295	0.084528
738.128005	0.084780
738.325696	0.084835
738.523369	0.084911
738.721024	0.085217
738.918660	0.085397
739.116279	0.085297
739.313879	0.085416
739.511461	0.085348
739.709024	0.085591
739.906570	0.085184
740.104097	0.085195
740.301606	0.085076
740.499097	0.085060
740.696569	0.084982
740.894024	0.085185
741.091460	0.085040
741.288878	0.085086
741.486277	0.085011
741.683659	0.085119
741.881022	0.084958
742.078367	0.085016
742.275694	0.084609
742.473002	0.084603
742.670293	0.084456
742.867565	0.084453
743.064819	0.084569
743.262054	0.084449
743.459272	0.084425
743.656471	0.084568
743.853652	0.084611
744.050815	0.084783
744.247959	0.084509
744.445085	0.084604
744.642194	0.084445
744.839283	0.084173
745.036355	0.084145
745.233408	0.084207
745.430444	0.083965
745.627461	0.083845
745.824459	0.083693
746.021440	0.083749
746.218402	0.083457
746.415346	0.083399
746.612272	0.083389
746.809180	0.083413
747.006069	0.083406
747.202940	0.083472
747.399793	0.083361
747.596628	0.083242
747.793444	0.083005
747.990243	0.083101
748.187023	0.083155
748.383784	0.083163
748.580528	0.083070
748.777253	0.083071
748.973960	0.083147
749.170649	0.083139
749.367320	0.083295
749.563973	0.083453
749.760607	0.083365
749.957223	0.083415
750.153821	0.083331
750.350400	0.083443
750.546962	0.083193
750.743505	0.083051
750.940030	0.082750
751.136536	0.082518
751.333025	0.082572
751.529495	0.082611
751.725947	0.082549
751.922381	0.082615
752.118796	0.082491
752.315194	0.082537
752.511573	0.082430
752.707934	0.082526
752.904276	0.082644
753.100601	0.082508
753.296907	0.082264
753.493195	0.082250
753.689465	0.082417
753.885716	0.082398
754.081949	0.082039
754.278164	0.081960
754.474361	0.082022
754.670540	0.081891
754.866700	0.081810
755.062843	0.081795
755.258967	0.081495
755.455072	0.081056
755.651160	0.080904
755.847229	0.080966
756.043280	0.080873
756.239313	0.080785
756.435328	0.080671
756.631324	0.080712
756.827302	0.080699
757.023262	0.080818
757.219204	0.080925
757.415127	0.081067
757.611033	0.081075
757.806920	0.081095
758.002788	0.081021
758.198639	0.081080
758.394471	0.080880
758.590286	0.080875
758.786081	0.080872
758.981859	0.080958
759.177619	0.080748
759.373360	0.080760
759.569083	0.080697
759.764788	0.080712
759.960474	0.080540
760.156143	0.080487
760.351793	0.080351
760.547425	0.080137
760.743038	0.079884
760.938634	0.079826
761.134211	0.079885
761.329770	0.079929
761.525311	0.079773
761.720833	0.079900
761.916338	0.080041
762.111824	0.080015
762.307292	0.080122
762.502741	0.080373
762.698173	0.080466
762.893586	0.080367
763.088981	0.080461
763.284358	0.080665
763.479716	0.080630
763.675057	0.080520
763.870379	0.080560
764.065683	0.080477
764.260968	0.080279
764.456236	0.080058
764.651485	0.079891
764.846716	0.079604
765.041929	0.079584
765.237123	0.079429
765.432299	0.079384
765.627457	0.079232
765.822597	0.079131
766.017719	0.078925
766.212822	0.078792
766.407907	0.078901
766.602974	0.078676
766.798023	0.078487
766.993054	0.078517
767.188066	0.078336
767.383060	0.078325
767.578036	0.078154
767.772993	0.078132
767.967933	0.078127
768.162854	0.077844
768.357757	0.077803
768.552642	0.077862
768.747508	0.077769
768.942356	0.077729
769.137186	0.077642
769.331998	0.077486
769.526792	0.077390
769.721567	0.077320
769.916324	0.077513
770.111063	0.077678
770.305784	0.077389
770.500486	0.077341
770.695171	0.077520
770.889837	0.077324
771.084484	0.077465
771.279114	0.077296
771.473725	0.077339
771.668318	0.077298
771.862893	0.077122
772.057450	0.077165
772.251988	0.077277
772.446509	0.077215
772.641011	0.077419
772.835494	0.077474
773.029960	0.077759
773.224407	0.077594
773.418836	0.077440
773.613247	0.077610
773.807640	0.077697
774.002014	0.077309
774.196370	0.077124
774.390708	0.077159
774.585028	0.077092
774.779330	0.077038
774.973613	0.077057
775.167878	0.077112
775.362125	0.077108
775.556354	0.076961
775.750564	0.077082
775.944756	0.077111
776.138930	0.077038
776.333086	0.077283
776.527223	0.076988
776.721343	0.077089
776.915444	0.077242
777.109526	0.077276
777.303591	0.077343
777.497637	0.077446
777.691666	0.077384
777.885676	0.077398
778.079667	0.077204
778.273641	0.077518
778.467596	0.077622
778.661533	0.077704
778.855452	0.077893
779.049352	0.078004
779.243235	0.078295
779.437099	0.078527
779.630945	0.078592
779.824773	0.078700
780.018582	0.078853
780.212373	0.078831
780.406146	0.078951
780.599901	0.078828
780.793638	0.078952
780.987356	0.078645
781.181056	0.078627
781.374738	0.078705
781.568402	0.078619
781.762047	0.078445
781.955674	0.078541
782.149283	0.078107
782.342874	0.078133
782.536447	0.078058
782.730001	0.078171
782.923537	0.078377
783.117055	0.078422
783.310555	0.078474
783.504036	0.078417
783.697499	0.078480
783.890944	0.078803
784.084371	0.078770
784.277780	0.078757
784.471170	0.078784
784.664542	0.078627
784.857896	0.078582
785.051231	0.078624
785.244549	0.078880
785.437848	0.078756
785.631129	0.078521
785.824392	0.078482
786.017636	0.078371
786.210863	0.078269
786.404071	0.078236
786.597260	0.078224
786.790432	0.077944
786.983585	0.077753
787.176721	0.077795
787.369838	0.077743
787.562936	0.077633
787.756017	0.077606
787.949079	0.077586
788.142123	0.077562
788.335149	0.077463
788.528156	0.077717
788.721146	0.077958
788.914117	0.078003
789.107070	0.078204
789.300005	0.078482
789.492921	0.078749
789.685819	0.079073
789.878699	0.079402
790.071561	0.079554
790.264405	0.079779
790.457230	0.079844
790.650037	0.079844
790.842826	0.079971
791.035597	0.079785
791.228349	0.079856
791.421084	0.079930
791.613800	0.079811
791.806497	0.080133
791.999177	0.080257
792.191838	0.080383
792.384481	0.080698
792.577106	0.081069
792.769713	0.081485
792.962301	0.081686
793.154871	0.081648
793.347423	0.081692
793.539957	0.081772
793.732473	0.081740
793.924970	0.081731
794.117449	0.081695
794.309910	0.081616
794.502353	0.081469
794.694777	0.081313
794.887183	0.081506
795.079571	0.081676
795.271941	0.081423
795.464293	0.081627
795.656626	0.081526
795.848941	0.081646
796.041238	0.081612
796.233516	0.081970
796.425777	0.082289
796.618019	0.082359
796.810243	0.082675
797.002449	0.082976
797.194636	0.082980
797.386805	0.083257
797.578956	0.083307
797.771089	0.083441
797.963204	0.083592
798.155300	0.083595
798.347378	0.083781
798.539438	0.083562
798.731480	0.083694
798.923503	0.083826
799.115509	0.083797
799.307496	0.083699
799.499465	0.083711
799.691415	0.083572
799.883348	0.083728
800.075262	0.083551
800.267158	0.083717
800.459035	0.083709
800.650895	0.083422
800.842736	0.083423
801.034559	0.083540
801.226364	0.083745
801.418150	0.083687
801.609919	0.083621
801.801669	0.083876
801.993401	0.083675
802.185114	0.083595
802.376810	0.084173
802.568487	0.084329
802.760146	0.084711
802.951787	0.084671
803.143409	0.084971
803.335014	0.085082
803.526600	0.085125
803.718168	0.085484
803.909717	0.085715
804.101249	0.085594
804.292762	0.085719
804.484257	0.085729
804.675734	0.086066
804.867192	0.086072
805.058632	0.086029
805.250054	0.086329
805.441458	0.086167
805.632844	0.086276
805.824211	0.086464
806.015561	0.086637
806.206891	0.086705
806.398204	0.086448
806.589499	0.086437
806.780775	0.086568
806.972033	0.086378
807.163273	0.086684
807.354495	0.086697
807.545698	0.086571
807.736883	0.086417
807.928050	0.086377
808.119199	0.086572
808.310329	0.086930
808.501441	0.087182
808.692535	0.087528
808.883611	0.087591
809.074669	0.087822
809.265708	0.088039
809.456729	0.088312
809.647732	0.088185
809.838717	0.088319
810.029683	0.088369
810.220632	0.088171
810.411562	0.088175
810.602474	0.088296
810.793367	0.088301
810.984242	0.088413
811.175100	0.088561
811.365938	0.088877
811.556759	0.088696
811.747562	0.088376
811.938346	0.088585
812.129112	0.088605
812.319860	0.088869
812.510589	0.088906
812.701300	0.088926
812.891994	0.088765
813.082668	0.088941
813.273325	0.089307
813.463964	0.089541
813.654584	0.089737
813.845186	0.089619
814.035769	0.089558
814.226335	0.089608
814.416882	0.089670
814.607411	0.089711
814.797922	0.089661
814.988415	0.089420
815.178889	0.089561
815.369345	0.089649
815.559783	0.089996
815.750203	0.089995
815.940605	0.090127
816.130988	0.090269
816.321353	0.090564
816.511700	0.090687
816.702028	0.090918
816.892339	0.091039
817.082631	0.091188
817.272905	0.090981
817.463161	0.091055
817.653398	0.091172
817.843617	0.091276
818.033819	0.091086
818.224001	0.091027
818.414166	0.090898
818.604312	0.090803
818.794440	0.090777
818.984550	0.090777
819.174642	0.091035
819.364716	0.091063
819.554771	0.091337
819.744808	0.091465
819.934827	0.091674
820.124827	0.092236
820.314810	0.092779
820.504774	0.092815
820.694720	0.093254
820.884647	0.093216
821.074557	0.093330
821.264448	0.093388
821.454321	0.093731
821.644176	0.093995
821.834012	0.093995
822.023831	0.093881
822.213631	0.094119
822.403413	0.094096
822.593176	0.094400
822.782922	0.094541
822.972649	0.094659
823.162358	0.094959
823.352049	0.095321
823.541721	0.095636
823.731376	0.095996
823.921012	0.096110
824.110629	0.096532
824.300229	0.096594
824.489811	0.096922
824.679374	0.096943
824.868919	0.097093
825.058445	0.096846
825.247954	0.096977
825.437444	0.097061
825.626916	0.097439
825.816370	0.097581
826.005806	0.097761
826.195223	0.097962
826.384622	0.098346
826.574003	0.098435
826.763366	0.098495
826.952711	0.098552
827.142037	0.098590
827.331345	0.098493
827.520635	0.098376
827.709906	0.098273
827.899160	0.098240
828.088395	0.097966
828.277612	0.097866
828.466810	0.097960
828.655991	0.097864
828.845153	0.097777
829.034297	0.097799
829.223423	0.097795
829.412531	0.098073
829.601620	0.097925
829.790691	0.098171
829.979744	0.098462
830.168779	0.098545
830.357795	0.098560
830.546793	0.098881
830.735773	0.098931
830.924735	0.099143
831.113679	0.099021
831.302604	0.099454
831.491511	0.099451
831.680400	0.099377
831.869271	0.099634
832.058123	0.099914
832.246957	0.100069
832.435773	0.100133
832.624571	0.099876
832.813351	0.100114
833.002112	0.099931
833.190855	0.099887
833.379580	0.099862
833.568287	0.100199
833.756975	0.100450
833.945645	0.100548
834.134297	0.100580
834.322931	0.100976
834.511547	0.101406
834.700144	0.101656
834.888723	0.102053
835.077284	0.102545
835.265826	0.102586
835.454351	0.102802
835.642857	0.102669
835.831345	0.103020
836.019815	0.103666
836.208266	0.103382
836.396699	0.103849
836.585114	0.104195
836.773511	0.104327
836.961890	0.104576
837.150250	0.104684
837.338592	0.105171
837.526916	0.105480
837.715222	0.105616
837.903510	0.106267
838.091779	0.106631
838.280030	0.106988
838.468263	0.107411
838.656477	0.107699
838.844674	0.108029
839.032852	0.108523
839.221012	0.109114
839.409153	0.109106
839.597277	0.109321
839.785382	0.109507
839.973469	0.109502
840.161538	0.109554
840.349589	0.109788
840.537621	0.109997
840.725635	0.109793
840.913631	0.109607
841.101609	0.109903
841.289568	0.110029
841.477509	0.110047
841.665432	0.110375
841.853337	0.110780
842.041224	0.111161
842.229092	0.111449
842.416942	0.111980
842.604774	0.112238
842.792588	0.112266
842.980383	0.112193
843.168160	0.112401
843.355919	0.112454
843.543660	0.112519
843.731382	0.112456
843.919087	0.112449
844.106773	0.112742
844.294441	0.112919
844.482090	0.113276
844.669722	0.113905
844.857335	0.114063
845.044930	0.114145
845.232507	0.114331
845.420065	0.114300
845.607605	0.114529
845.795127	0.114411
845.982631	0.114648
846.170117	0.115041
846.357584	0.114856
846.545033	0.115131
846.732464	0.115550
846.919877	0.115684
847.107272	0.116028
847.294648	0.116206
847.482006	0.116276
847.669346	0.116325
847.856667	0.116253
848.043971	0.116582
848.231256	0.116642
848.418523	0.116668
848.605771	0.116896
848.793002	0.117092
848.980214	0.117284
849.167408	0.117509
849.354584	0.117716
849.541742	0.117901
849.728881	0.117894
849.916002	0.117902
850.103105	0.118021
850.290190	0.117796
850.477256	0.117779
850.664304	0.117939
850.851334	0.118110
851.038346	0.118265
851.225340	0.118366
851.412315	0.118573
851.599272	0.118992
851.786211	0.119301
851.973132	0.119430
852.160034	0.119505
852.346918	0.119609
852.533784	0.119501
852.720632	0.119558
852.907462	0.119520
853.094273	0.119516
853.281066	0.119529
853.467841	0.119456
853.654598	0.119768
853.841336	0.119805
854.028056	0.120060
854.214758	0.120153
854.401442	0.120351
854.588107	0.120577
854.774755	0.120772
854.961384	0.120589
855.147995	0.120731
855.334587	0.121116
855.521162	0.121421
855.707718	0.121691
855.894256	0.122161
856.080775	0.122424
856.267277	0.122839
856.453760	0.123163
856.640225	0.123781
856.826672	0.124072
857.013101	0.124261
857.199511	0.124656
857.385903	0.124405
857.572277	0.124327
857.758633	0.124484
857.944970	0.124498
858.131290	0.124734
858.317591	0.124699
858.503873	0.124664
858.690138	0.124760
858.876384	0.124938
859.062612	0.125374
859.248822	0.125795
859.435014	0.126042
859.621188	0.126306
859.807343	0.126530
859.993480	0.126946
860.179599	0.127212
860.365699	0.127386
860.551781	0.127508
860.737846	0.127573
860.923891	0.127776
861.109919	0.128118
861.295929	0.128182
861.481920	0.128522
861.667893	0.128934
861.853848	0.129162
862.039784	0.129613
862.225702	0.129696
862.411603	0.129714
862.597484	0.130148
862.783348	0.130106
862.969193	0.130266
863.155021	0.130240
863.340830	0.129733
863.526620	0.130121
863.712393	0.130022
863.898147	0.130472
864.083883	0.131115
864.269601	0.130875
864.455301	0.131138
864.640982	0.131159
864.826645	0.131247
865.012290	0.131498
865.197917	0.131243
865.383526	0.131441
865.569116	0.131339
865.754688	0.131087
865.940242	0.131297
866.125777	0.131043
866.311295	0.131000
866.496794	0.130880
866.682275	0.130874
866.867737	0.131192
867.053182	0.131052
867.238608	0.130907
867.424016	0.130827
867.609406	0.130749
867.794778	0.131133
867.980131	0.131664
868.165466	0.131744
868.350783	0.132208
868.536082	0.132469
868.721362	0.132516
868.906625	0.133150
869.091869	0.133643
869.277094	0.133706
869.462302	0.133783
869.647491	0.133584
869.832662	0.133443
870.017815	0.133621
870.202950	0.133422
870.388066	0.133735
870.573165	0.133781
870.758245	0.133804
870.943306	0.134185
871.128350	0.134145
871.313375	0.134447
871.498382	0.135027
871.683371	0.135078
871.868342	0.135162
872.053294	0.135223
872.238229	0.135271
872.423144	0.135506
872.608042	0.135713
872.792922	0.135974
872.977783	0.136212
873.162626	0.136076
873.347451	0.136259
873.532258	0.136538
873.717046	0.136260
873.901816	0.136327
874.086568	0.136105
874.271302	0.136312
874.456017	0.136129
874.640715	0.135923
874.825394	0.136615
875.010055	0.136533
875.194697	0.136686
875.379322	0.137146
875.563928	0.137219
875.748516	0.137672
875.933085	0.137527
876.117637	0.137912
876.302170	0.138355
876.486685	0.138129
876.671182	0.138049
876.855661	0.138034
877.040121	0.138089
877.224563	0.138178
877.408987	0.138364
877.593393	0.138372
877.777780	0.138532
877.962150	0.138412
878.146501	0.138400
878.330833	0.138766
878.515148	0.139111
878.699444	0.139647
878.883722	0.139799
879.067982	0.139731
879.252224	0.139983
879.436447	0.140080
879.620653	0.140284
879.804840	0.140514
879.989008	0.140321
880.173159	0.140206
880.357291	0.139957
880.541405	0.139768
880.725501	0.139410
880.909579	0.139521
881.093638	0.139212
881.277680	0.139216
881.461703	0.138756
881.645707	0.139135
881.829694	0.138941
882.013662	0.138943
882.197612	0.139093
882.381544	0.139378
882.565458	0.139351
882.749353	0.139698
882.933230	0.139911
883.117089	0.140146
883.300930	0.139923
883.484753	0.140303
883.668557	0.140173
883.852343	0.139805
884.036111	0.139937
884.219861	0.139772
884.403592	0.139592
884.587305	0.139245
884.771000	0.139358
884.954677	0.139371
885.138335	0.139409
885.321976	0.139645
885.505598	0.139955
885.689201	0.140075
885.872787	0.140140
886.056354	0.140657
886.239904	0.141049
886.423434	0.141014
886.606947	0.140955
886.790442	0.141035
886.973918	0.140934
887.157376	0.141108
887.340816	0.141149
887.524237	0.141210
887.707641	0.140875
887.891026	0.140570
888.074393	0.140975
888.257741	0.141383
888.441072	0.141001
888.624384	0.141083
888.807678	0.141022
888.990954	0.140634
889.174211	0.140621
889.357451	0.140714
889.540672	0.140811
889.723875	0.140800
889.907059	0.140545
890.090226	0.140903
890.273374	0.140744
890.456504	0.140488
890.639616	0.140522
890.822709	0.140310
891.005785	0.140193
891.188842	0.140008
891.371881	0.139569
891.554901	0.139503
891.737904	0.139147
891.920888	0.139496
892.103854	0.139748
892.286802	0.139885
892.469731	0.140187
892.652643	0.140071
892.835536	0.140175
893.018410	0.140556
893.201267	0.140666
893.384106	0.140945
893.566926	0.140491
893.749728	0.140058
893.932511	0.139623
894.115277	0.139503
894.298024	0.139638
894.480753	0.139342
894.663464	0.138850
894.846157	0.138647
895.028831	0.138190
895.211487	0.138642
895.394125	0.138964
895.576745	0.139506
895.759346	0.139447
895.941930	0.139580
896.124495	0.139903
896.307041	0.139748
896.489570	0.139694
896.672080	0.139611
896.854573	0.139112
897.037046	0.139068
897.219502	0.138660
897.401940	0.138137
897.584359	0.137547
897.766760	0.137474
897.949143	0.137829
898.131507	0.137960
898.313854	0.137966
898.496182	0.137547
898.678492	0.137422
898.860783	0.137262
899.043057	0.137474
899.225312	0.137553
899.407549	0.137437
899.589768	0.137318
899.771968	0.136723
899.954151	0.136688
900.136315	0.136278
900.318461	0.136094
900.500588	0.136168
900.682698	0.135782
900.864789	0.135583
901.046862	0.135300
901.228917	0.135091
901.410953	0.134804
901.592971	0.134715
901.774972	0.135017
901.956953	0.134796
902.138917	0.134358
902.320862	0.134412
902.502790	0.134148
902.684699	0.134187
902.866589	0.133792
903.048462	0.133912
903.230316	0.133352
903.412152	0.133327
903.593970	0.133287
903.775770	0.133380
903.957551	0.133077
904.139314	0.132639
904.321059	0.132290
904.502786	0.132031
904.684494	0.132287
904.866185	0.132566
905.047857	0.132483
905.229510	0.132317
905.411146	0.132027
905.592763	0.132078
905.774363	0.132437
905.955943	0.132237
906.137506	0.132470
906.319051	0.131819
906.500577	0.131784
906.682085	0.131624
906.863575	0.131556
907.045046	0.131819
907.226500	0.131790
907.407935	0.131911
907.589352	0.131384
907.770750	0.131053
907.952131	0.131340
908.133493	0.131257
908.314837	0.131531
908.496163	0.131088
908.677470	0.130431
908.858760	0.130481
909.040031	0.130006
909.221284	0.130362
909.402518	0.130405
909.583735	0.129841
909.764933	0.129208
909.946113	0.128592
910.127275	0.128516
910.308418	0.128565
910.489544	0.128368
910.670651	0.127849
910.851740	0.128008
911.032810	0.127780
911.213863	0.127737
911.394897	0.127322
911.575913	0.126721
911.756911	0.126253
911.937890	0.125720
912.118851	0.124998
912.299794	0.124724
912.480719	0.124168
912.661626	0.123376
912.842514	0.123288
913.023384	0.123295
913.204236	0.123624
913.385070	0.123490
913.565886	0.123385
913.746683	0.123245
913.927462	0.122753
914.108223	0.122258
914.288965	0.122353
914.469690	0.121598
914.650396	0.121178
914.831084	0.120680
915.011754	0.120907
915.192405	0.120754
915.373038	0.120815
915.553653	0.121024
915.734250	0.120623
915.914829	0.119899
916.095389	0.119837
916.275931	0.119540
916.456455	0.119347
916.636961	0.117863
916.817448	0.117300
916.997917	0.116466
917.178368	0.115959
917.358801	0.115741
917.539216	0.115393
917.719612	0.114786
917.899990	0.114853
918.080350	0.114353
918.260692	0.114460
918.441015	0.114361
918.621320	0.114154
918.801607	0.114149
918.981876	0.114151
919.162127	0.114219
919.342359	0.113880
919.522573	0.113555
919.702769	0.112981
919.882947	0.113204
920.063106	0.111916
920.243247	0.111837
920.423370	0.111629
920.603475	0.111038
920.783562	0.110230
920.963630	0.109771
921.143680	0.109874
921.323712	0.109671
921.503725	0.108816
921.683721	0.109759
921.863698	0.109548
922.043657	0.109244
922.223598	0.108765
922.403520	0.109048
922.583424	0.109263
922.763311	0.108118
922.943178	0.107921
923.123028	0.108116
923.302859	0.107487
923.482673	0.107039
923.662467	0.106650
923.842244	0.106355
924.022003	0.105726
924.201743	0.105684
924.381465	0.105544
924.561169	0.105268
924.740854	0.104245
924.920522	0.104044
925.100171	0.103542
925.279802	0.102765
925.459414	0.102381
925.639009	0.102446
925.818585	0.101528
925.998143	0.100953
926.177683	0.100026
926.357205	0.099651
926.536708	0.098608
926.716193	0.098461
926.895660	0.097833
927.075109	0.097406
927.254539	0.097050
927.433951	0.096668
927.613345	0.096747
927.792721	0.096661
927.972079	0.096412
928.151418	0.096237
928.330739	0.095886
928.510042	0.095757
928.689327	0.095060
928.868593	0.094094
929.047841	0.094079
929.227071	0.093466
929.406283	0.093056
929.585476	0.092558
929.764652	0.092346
929.943809	0.091181
930.122948	0.090737
930.302068	0.090749
930.481171	0.090610
930.660255	0.090051
930.839321	0.089549
931.018369	0.089218
931.197398	0.089607
931.376409	0.089102
931.555402	0.088949
931.734377	0.088817
931.913334	0.087786
932.092272	0.087005
932.271192	0.085978
932.450094	0.085309
932.628978	0.083914
932.807844	0.083032
932.986691	0.081975
933.165520	0.080681
933.344331	0.079591
933.523123	0.079145
933.701898	0.079023
933.880654	0.078810
934.059392	0.078254
934.238111	0.078891
934.416813	0.078397
934.595496	0.078027
934.774161	0.078195
934.952808	0.077857
935.131437	0.077709
935.310047	0.077407
935.488639	0.076397
935.667213	0.076199
935.845769	0.075519
936.024306	0.075557
936.202825	0.075352
936.381326	0.075637
936.559809	0.075321
936.738274	0.075071
936.916720	0.074541
937.095148	0.074481
937.273558	0.073835
937.451950	0.072805
937.630323	0.071932
937.808678	0.071597
937.987015	0.070367
938.165334	0.070293
938.343635	0.069496
938.521917	0.068465
938.700181	0.067912
938.878427	0.067051
939.056655	0.067460
939.234864	0.066360
939.413055	0.065031
939.591228	0.065172
939.769383	0.063577
939.947519	0.062877
940.125638	0.062128
940.303738	0.062355
940.481820	0.061517
940.659883	0.059998
940.837929	0.059582
941.015956	0.059425
941.193965	0.057130
941.371955	0.057255
941.549928	0.056965
941.727882	0.057720
941.905818	0.056637
942.083736	0.056940
942.261636	0.056894
942.439517	0.056258
942.617380	0.055849
942.795225	0.056587
942.973052	0.055729
943.150860	0.055916
943.328651	0.054192
943.506423	0.053575
943.684176	0.053123
943.861912	0.053610
944.039629	0.053395
944.217328	0.053178
944.395009	0.052442
944.572672	0.053151
944.750317	0.051425
944.927943	0.051704
945.105551	0.052208
945.283141	0.051319
945.460712	0.049846
945.638265	0.049709
945.815801	0.049814
945.993317	0.049488
946.170816	0.048353
946.348297	0.047790
946.525759	0.046468
946.703203	0.045660
946.880629	0.044928
947.058036	0.045356
947.235425	0.044385
947.412797	0.044749
947.590149	0.044770
947.767484	0.044327
947.944800	0.045124
948.122099	0.045856
948.299379	0.044827
948.476640	0.045897
948.653884	0.044287
948.831109	0.043424
949.008316	0.041250
949.185505	0.041630
949.362676	0.041470
949.539828	0.040419
949.716962	0.039197
949.894078	0.039082
950.071176	0.037658
950.248256	0.038308
950.425317	0.038219
950.602360	0.038084
950.779385	0.036237
950.956391	0.035676
951.133380	0.036301
951.310350	0.036005
951.487302	0.035904
951.664235	0.035200
951.841151	0.034174
952.018048	0.033576
952.194927	0.033127
952.371788	0.032260
952.548631	0.032173
952.725455	0.030340
952.902261	0.030228
953.079049	0.028821
953.255819	0.030184
953.432570	0.029210
953.609303	0.030087
953.786018	0.030884
953.962715	0.029892
954.139394	0.029269
954.316054	0.030379
954.492696	0.030559
954.669320	0.031259
954.845926	0.030236
955.022513	0.031096
955.199083	0.031097
955.375634	0.029477
955.552166	0.030755
955.728681	0.031427
955.905177	0.030036
956.081655	0.030443
956.258115	0.031562
956.434557	0.030434
956.610980	0.029544
956.787385	0.029102
956.963772	0.029100
957.140141	0.028863
957.316492	0.027978
957.492824	0.027761
957.669138	0.026867
957.845434	0.026775
958.021712	0.029151
958.197971	0.029090
958.374212	0.028565
958.550435	0.029645
958.726640	0.030767
958.902826	0.029077
959.078995	0.030260
959.255145	0.031825
959.431277	0.028925
959.607390	0.027752
959.783486	0.028369
959.959563	0.028395
960.135622	0.027293
960.311662	0.027224
960.487685	0.027977
960.663689	0.025873
960.839675	0.024527
961.015643	0.026805
961.191593	0.025546
961.367524	0.025875
961.543437	0.026336
961.719332	0.028216
961.895209	0.026431
962.071067	0.029733
962.246907	0.033553
962.422730	0.032819
962.598533	0.031977
962.774319	0.034254
962.950086	0.035469
963.125835	0.036029
963.301566	0.035640
963.477279	0.038861
963.652973	0.035090
963.828650	0.034295
964.004308	0.035519
964.179947	0.035669
964.355569	0.035224
964.531172	0.035121
964.706757	0.034843
964.882324	0.034950
965.057873	0.033878
965.233403	0.032810
965.408916	0.031726
965.584410	0.030145
965.759885	0.030867
965.935343	0.029359
966.110782	0.029418
966.286203	0.030325
966.461606	0.030308
966.636991	0.030282
966.812357	0.033775
966.987705	0.033596
967.163035	0.034438
967.338347	0.034350
967.513641	0.034453
967.688916	0.034222
967.864173	0.033492
968.039412	0.032202
968.214632	0.033032
968.389835	0.031839
968.565019	0.034012
968.740185	0.034903
968.915333	0.035425
969.090462	0.036206
969.265573	0.035796
969.440667	0.034466
969.615741	0.037662
969.790798	0.038171
969.965836	0.038649
970.140856	0.038071
970.315858	0.038242
970.490842	0.037954
970.665808	0.035269
970.840755	0.034872
971.015684	0.035066
971.190595	0.030816
971.365487	0.030837
971.540362	0.030100
971.715218	0.029528
971.890056	0.028405
972.064875	0.028849
972.239677	0.029352
972.414460	0.028592
972.589225	0.028657
972.763972	0.030919
972.938700	0.028906
973.113411	0.028925
973.288103	0.028860
973.462777	0.029584
973.637432	0.030294
973.812070	0.032287
973.986689	0.031150
974.161290	0.031668
974.335873	0.030105
974.510437	0.030187
974.684984	0.032915
974.859512	0.033950
975.034022	0.033789
975.208513	0.031003
975.382987	0.029754
975.557442	0.032540
975.731879	0.033776
975.906298	0.035126
976.080698	0.036865
976.255080	0.034713
976.429445	0.035346
976.603790	0.036102
976.778118	0.037626
976.952427	0.038682
977.126719	0.037211
977.300992	0.036834
977.475246	0.037717
977.649483	0.036944
977.823701	0.035479
977.997901	0.036081
978.172083	0.032806
978.346247	0.032572
978.520392	0.032052
978.694519	0.030155
978.868628	0.030553
979.042719	0.030825
979.216791	0.030894
979.390845	0.032730
979.564882	0.029006
979.738899	0.030909
979.912899	0.030509
980.086880	0.031100
980.260843	0.035727
980.434788	0.035673
980.608715	0.036035
980.782623	0.034136
980.956514	0.036229
981.130386	0.037305
981.304240	0.036639
981.478075	0.037056
981.651892	0.036331
981.825692	0.034601
981.999472	0.032460
982.173235	0.030010
982.346980	0.031997
982.520706	0.029124
982.694414	0.028784
982.868104	0.029018
983.041775	0.028332
983.215428	0.028658
983.389064	0.027210
983.562680	0.025915
983.736279	0.025974
983.909860	0.026167
984.083422	0.025803
984.256966	0.027462
984.430491	0.029271
984.603999	0.030640
984.777488	0.030216
984.950959	0.029662
985.124412	0.031974
985.297847	0.033058
985.471263	0.031655
985.644661	0.031444
985.818041	0.030841
985.991403	0.031133
986.164747	0.030143
986.338072	0.029797
986.511379	0.031125
986.684668	0.031045
986.857938	0.030151
987.031191	0.029268
987.204425	0.029316
987.377641	0.029218
987.550839	0.027412
987.724018	0.027929
987.897179	0.027586
988.070322	0.027090
988.243447	0.025342
988.416554	0.024854
988.589642	0.026015
988.762712	0.026836
988.935764	0.027985
989.108798	0.030067
989.281813	0.030124
989.454811	0.030396
989.627790	0.030444
989.800751	0.032381
989.973693	0.034131
990.146617	0.035069
990.319524	0.036405
990.492412	0.035194
990.665281	0.034446
990.838133	0.034828
991.010966	0.034721
991.183781	0.036304
991.356578	0.036038
991.529356	0.035025
991.702117	0.033761
991.874859	0.032563
992.047583	0.032825
992.220288	0.032207
992.392976	0.032404
992.565645	0.034098
992.738296	0.033098
992.910929	0.034322
993.083543	0.036999
993.256139	0.038942
993.428718	0.037471
993.601277	0.035861
993.773819	0.036493
993.946342	0.035410
994.118848	0.033908
994.291335	0.033824
994.463803	0.033268
994.636254	0.030858
994.808686	0.030101
994.981100	0.031617
995.153496	0.034472
995.325874	0.033403
995.498233	0.033773
995.670574	0.034709
995.842897	0.034080
996.015202	0.034666
996.187488	0.036024
996.359757	0.036670
996.532007	0.037426
996.704239	0.036348
996.876452	0.036115
997.048648	0.036878
997.220825	0.035926
997.392984	0.034911
997.565124	0.034092
997.737247	0.030650
997.909351	0.028898
998.081437	0.028054
998.253505	0.027121
998.425554	0.027866
998.597586	0.027664
998.769599	0.027782
998.941594	0.029305
999.113571	0.028050
999.285529	0.030475
999.457469	0.030717
999.629391	0.030580
999.801295	0.030752
999.973181	0.030405
1000.145048	0.029412
1000.316897	0.029547
1000.488728	0.028712
1000.660541	0.028674
1000.832335	0.028974
1001.004111	0.028743
1001.175869	0.029478
1001.347609	0.029173
1001.519331	0.029190
1001.691034	0.029958
1001.862719	0.030354
1002.034386	0.030918
1002.206035	0.031003
1002.377665	0.029338
1002.549277	0.029320
1002.720871	0.028072
1002.892447	0.029242
1003.064004	0.027892
1003.235544	0.025925
1003.407065	0.027220
1003.578568	0.025546
1003.750052	0.026814
1003.921519	0.028036
1004.092967	0.028447
1004.264397	0.029125
1004.435809	0.028203
1004.607202	0.029330
1004.778577	0.028435
1004.949934	0.026619
1005.121273	0.027650
1005.292594	0.028358
1005.463896	0.029402
1005.635180	0.030432
1005.806446	0.029698
1005.977694	0.030380
1006.148923	0.031079
1006.320135	0.032120
1006.491328	0.033019
1006.662503	0.034188
1006.833659	0.032716
1007.004798	0.031300
1007.175918	0.030449
1007.347020	0.030949
1007.518103	0.030046
1007.689169	0.028368
1007.860216	0.029817
1008.031245	0.030362
1008.202256	0.030215
1008.373248	0.029820
1008.544223	0.030521
1008.715179	0.029315
1008.886117	0.029060
1009.057036	0.028046
1009.227938	0.028007
1009.398821	0.026436
1009.569686	0.026175
1009.740533	0.026509
1009.911361	0.027959
1010.082172	0.027803
1010.252964	0.028562
1010.423738	0.027290
1010.594493	0.027911
1010.765231	0.028867
1010.935950	0.029628
1011.106651	0.028795
1011.277334	0.028709
1011.447998	0.028209
1011.618645	0.028391
1011.789273	0.029776
1011.959882	0.030033
1012.130474	0.030781
1012.301048	0.029705
1012.471603	0.029357
1012.642140	0.027518
1012.812658	0.026288
1012.983159	0.026134
1013.153641	0.024931
1013.324105	0.022144
1013.494551	0.023132
1013.664979	0.023416
1013.835388	0.024406
1014.005779	0.025645
1014.176152	0.027262
1014.346507	0.028120
1014.516843	0.027779
1014.687162	0.030159
1014.857462	0.030620
1015.027744	0.030719
1015.198007	0.028067
1015.368252	0.027469
1015.538480	0.025471
1015.708689	0.026342
1015.878879	0.027231
1016.049052	0.027161
1016.219206	0.025107
1016.389342	0.026128
1016.559460	0.025771
1016.729559	0.027694
1016.899641	0.027888
1017.069704	0.029521
1017.239749	0.030023
1017.409775	0.029481
1017.579784	0.029569
1017.749774	0.028729
1017.919746	0.029554
1018.089700	0.028636
1018.259635	0.028179
1018.429553	0.027678
1018.599452	0.027129
1018.769333	0.026915
1018.939195	0.026711
1019.109040	0.026064
1019.278866	0.028471
1019.448674	0.027813
1019.618464	0.027102
1019.788235	0.028830
1019.957989	0.030618
1020.127724	0.030323
1020.297441	0.028124
1020.467139	0.027720
1020.636820	0.028917
1020.806482	0.026943
1020.976126	0.026701
1021.145752	0.028695
1021.315359	0.025529
1021.484948	0.024274
1021.654519	0.024593
1021.824072	0.025309
1021.993607	0.025111
1022.163123	0.024090
1022.332621	0.023318
1022.502101	0.023441
1022.671563	0.024013
1022.841007	0.026287
1023.010432	0.026537
1023.179839	0.027727
1023.349228	0.028695
1023.518598	0.029674
1023.687951	0.029382
1023.857285	0.032162
1024.026601	0.033210
1024.195899	0.032398
1024.365178	0.032826
1024.534439	0.032372
1024.703682	0.032956
1024.872907	0.032559
1025.042114	0.029902
1025.211302	0.030374
1025.380472	0.028222
1025.549624	0.024864
1025.718758	0.023282
1025.887873	0.021181
1026.056970	0.021031
1026.226049	0.017395
1026.395110	0.016671
1026.564153	0.018022
1026.733177	0.017570
1026.902183	0.018088
1027.071171	0.019638
1027.240141	0.021251
1027.409092	0.021702
1027.578026	0.021540
1027.746940	0.022115
1027.915837	0.021445
1028.084716	0.021537
1028.253576	0.022690
1028.422418	0.021821
1028.591242	0.022161
1028.760048	0.020959
1028.928835	0.020957
1029.097604	0.019710
1029.266355	0.020568
1029.435088	0.021309
1029.603803	0.020564
1029.772499	0.019440
1029.941177	0.019790
1030.109837	0.020861
1030.278478	0.022566
1030.447102	0.022314
1030.615707	0.023535
1030.784294	0.022955
1030.952863	0.023133
1031.121413	0.023743
1031.289945	0.024215
1031.458460	0.024637
1031.626955	0.023208
1031.795433	0.022123
1031.963892	0.022055
1032.132334	0.022853
1032.300756	0.022973
1032.469161	0.023913
1032.637548	0.023599
1032.805916	0.024091
1032.974266	0.024381
1033.142598	0.024370
1033.310911	0.025658
1033.479207	0.025425
1033.647484	0.025800
1033.815743	0.027039
1033.983983	0.027615
1034.152206	0.027974
1034.320410	0.028005
1034.488596	0.028304
1034.656764	0.027823
1034.824914	0.026713
1034.993045	0.027020
1035.161158	0.026019
1035.329253	0.025357
1035.497330	0.024490
1035.665388	0.025379
1035.833428	0.025310
1036.001450	0.023946
1036.169454	0.022383
1036.337440	0.022270
1036.505407	0.022656
1036.673356	0.023500
1036.841287	0.024799
1037.009200	0.022698
1037.177094	0.020733
1037.344970	0.021472
1037.512828	0.022419
1037.680668	0.024940
1037.848489	0.025622
1038.016293	0.025511
1038.184078	0.023503
1038.351845	0.022653
1038.519593	0.024774
1038.687324	0.025576
1038.855036	0.023439
1039.022730	0.021355
1039.190406	0.021597
1039.358063	0.021143
1039.525702	0.021048
1039.693323	0.020587
1039.860926	0.020021
1040.028511	0.019853
1040.196077	0.019293
1040.363625	0.021821
1040.531155	0.024465
1040.698667	0.024230
1040.866161	0.024256
1041.033636	0.024279
1041.201093	0.024948
1041.368532	0.024180
1041.535952	0.024810
1041.703355	0.024904
1041.870739	0.021349
1042.038105	0.019174
1042.205452	0.017161
1042.372782	0.017333
1042.540093	0.018560
1042.707386	0.019455
1042.874661	0.019666
1043.041918	0.018491
1043.209156	0.018131
1043.376376	0.019062
1043.543578	0.018923
1043.710762	0.020373
1043.877927	0.021030
1044.045074	0.020377
1044.212203	0.022143
1044.379314	0.023370
1044.546407	0.024940
1044.713481	0.024898
1044.880537	0.024853
1045.047575	0.024545
1045.214595	0.022910
1045.381596	0.022659
1045.548579	0.023715
1045.715544	0.022472
1045.882491	0.022388
1046.049420	0.021367
1046.216330	0.020196
1046.383222	0.020332
1046.550096	0.021304
1046.716951	0.023272
1046.883789	0.022863
1047.050608	0.021251
1047.217409	0.020224
1047.384192	0.019437
1047.550956	0.018543
1047.717703	0.021172
1047.884431	0.021997
1048.051140	0.023296
1048.217832	0.023511
1048.384505	0.023790
1048.551161	0.023676
1048.717798	0.024272
1048.884416	0.023044
1049.051017	0.024752
1049.217599	0.027095
1049.384163	0.026237
1049.550709	0.025447
1049.717237	0.025187
1049.883746	0.023807
1050.050237	0.025825
1050.216710	0.026893
1050.383165	0.028518
1050.549601	0.027005
1050.716019	0.023328
1050.882420	0.025353
1051.048801	0.025756
1051.215165	0.025321
1051.381510	0.025606
1051.547837	0.024040
1051.714146	0.022915
1051.880437	0.025120
1052.046709	0.025847
1052.212964	0.026724
1052.379200	0.026156
1052.545417	0.024963
1052.711617	0.024416
1052.877798	0.024259
1053.043961	0.024705
1053.210106	0.025224
1053.376233	0.022357
1053.542341	0.021614
1053.708432	0.022816
1053.874504	0.023121
1054.040557	0.025036
1054.206593	0.025934
1054.372610	0.026346
1054.538609	0.023883
1054.704590	0.024771
1054.870553	0.026261
1055.036497	0.025947
1055.202424	0.024011
1055.368331	0.022393
1055.534221	0.022166
1055.700093	0.022200
1055.865946	0.023595
1056.031781	0.025876
1056.197598	0.023577
1056.363397	0.024118
1056.529177	0.025147
1056.694939	0.026137
1056.860683	0.027871
1057.026409	0.025594
1057.192116	0.025293
1057.357806	0.024861
1057.523477	0.023577
1057.689130	0.025217
1057.854764	0.023164
1058.020381	0.022801
1058.185979	0.020921
1058.351559	0.020969
1058.517120	0.020155
1058.682664	0.019779
1058.848189	0.016705
1059.013696	0.016750
1059.179185	0.016846
1059.344656	0.017405
1059.510108	0.017809
1059.675542	0.019565
1059.840958	0.019586
1060.006356	0.021958
1060.171735	0.021806
1060.337096	0.023896
1060.502439	0.024488
1060.667764	0.022830
1060.833071	0.022450
1060.998359	0.020045
1061.163629	0.020607
1061.328881	0.021231
1061.494115	0.021437
1061.659330	0.020581
1061.824527	0.021447
1061.989706	0.023114
1062.154867	0.023469
1062.320010	0.024457
1062.485134	0.026497
1062.650240	0.024346
1062.815328	0.024373
1062.980398	0.024879
1063.145449	0.026025
1063.310482	0.026145
1063.475497	0.023016
1063.640494	0.023730
1063.805473	0.024523
1063.970433	0.024364
1064.135375	0.024670
1064.300299	0.023834
1064.465204	0.022989
1064.630092	0.022940
1064.794961	0.023163
1064.959812	0.026338
1065.124645	0.027663
1065.289459	0.026894
1065.454256	0.028213
1065.619034	0.030657
1065.783793	0.030029
1065.948535	0.029326
1066.113258	0.030969
1066.277964	0.030718
1066.442651	0.030111
1066.607319	0.028421
1066.771970	0.028943
1066.936602	0.027911
1067.101216	0.025342
1067.265812	0.024597
1067.430389	0.026035
1067.594949	0.024150
1067.759490	0.025491
1067.924013	0.026820
1068.088518	0.026269
1068.253004	0.027887
1068.417472	0.027303
1068.581922	0.028751
1068.746354	0.030414
1068.910768	0.028071
1069.075163	0.028823
1069.239540	0.028332
1069.403899	0.025688
1069.568240	0.026525
1069.732562	0.022180
1069.896866	0.023485
1070.061152	0.022008
1070.225420	0.020007
1070.389670	0.021730
1070.553901	0.021748
1070.718114	0.019244
1070.882309	0.019797
1071.046486	0.018615
1071.210644	0.020639
1071.374784	0.020500
1071.538906	0.022687
1071.703010	0.022984
1071.867096	0.021653
1072.031163	0.022655
1072.195212	0.024416
1072.359243	0.025604
1072.523256	0.029281
1072.687250	0.028771
1072.851226	0.027298
1073.015184	0.025830
1073.179124	0.028219
1073.343045	0.029541
1073.506949	0.031783
1073.670834	0.031644
1073.834701	0.030347
1073.998549	0.028197
1074.162380	0.027998
1074.326192	0.029885
1074.489986	0.029563
1074.653761	0.026804
1074.817519	0.028986
1074.981258	0.024940
1075.144979	0.025009
1075.308682	0.026706
1075.472367	0.026928
1075.636033	0.027562
1075.799681	0.029516
1075.963311	0.030158
1076.126923	0.032407
1076.290516	0.030968
1076.454092	0.032080
1076.617649	0.030919
1076.781187	0.029293
1076.944708	0.028002
1077.108210	0.027721
1077.271695	0.024712
1077.435160	0.025284
1077.598608	0.023435
1077.762038	0.023985
1077.925449	0.024318
1078.088842	0.024148
1078.252217	0.024654
1078.415573	0.026396
1078.578912	0.025830
1078.742232	0.024777
1078.905534	0.024728
1079.068817	0.025472
1079.232083	0.024195
1079.395330	0.024647
1079.558559	0.024332
1079.721770	0.023324
1079.884962	0.023629
1080.048136	0.024634
1080.211293	0.026750
1080.374430	0.028139
1080.537550	0.030574
1080.700651	0.030966
1080.863735	0.030284
1081.026800	0.029410
1081.189846	0.031768
1081.352875	0.030069
1081.515885	0.028772
1081.678877	0.027947
1081.841851	0.025585
1082.004807	0.023566
1082.167744	0.022652
1082.330663	0.025396
1082.493564	0.028163
1082.656447	0.027992
1082.819312	0.029867
1082.982158	0.030864
1083.144986	0.030259
1083.307796	0.034098
1083.470587	0.034956
1083.633361	0.036735
1083.796116	0.037467
1083.958853	0.036277
1084.121571	0.036524
1084.284272	0.033795
1084.446954	0.035858
1084.609618	0.037271
1084.772264	0.035876
1084.934892	0.034577
1085.097501	0.035109
1085.260092	0.032611
1085.422665	0.034078
1085.585220	0.032398
1085.747756	0.032602
1085.910274	0.032609
1086.072774	0.032511
1086.235256	0.031587
1086.397720	0.032885
1086.560165	0.032521
1086.722592	0.032715
1086.885001	0.030662
1087.047392	0.031037
1087.209764	0.032521
1087.372119	0.032006
1087.534455	0.031267
1087.696772	0.030878
1087.859072	0.031299
1088.021353	0.029134
1088.183616	0.029188
1088.345861	0.029784
1088.508088	0.029340
1088.670296	0.029672
1088.832486	0.029539
1088.994658	0.029338
1089.156812	0.028852
1089.318948	0.026040
1089.481065	0.025403
1089.643164	0.023943
1089.805245	0.023224
1089.967308	0.022070
1090.129352	0.022083
1090.291378	0.020442
1090.453386	0.020305
1090.615376	0.021074
1090.777347	0.021629
1090.939301	0.022249
1091.101236	0.021819
1091.263153	0.024207
1091.425051	0.025222
1091.586932	0.023773
1091.748794	0.025155
1091.910638	0.021907
1092.072463	0.020172
1092.234271	0.023686
1092.396060	0.026315
1092.557831	0.028959
1092.719584	0.029963
1092.881319	0.029103
1093.043035	0.030180
1093.204733	0.028765
1093.366413	0.031420
1093.528075	0.034888
1093.689718	0.031864
1093.851343	0.032230
1094.012950	0.030202
1094.174539	0.027701
1094.336110	0.030100
1094.497662	0.029588
1094.659196	0.029567
1094.820712	0.033160
1094.982210	0.033055
1095.143689	0.032298
1095.305151	0.032327
1095.466594	0.032704
1095.628018	0.034621
1095.789425	0.033514
1095.950813	0.033881
1096.112183	0.035739
1096.273535	0.032481
1096.434869	0.032105
1096.596184	0.032791
1096.757482	0.029467
1096.918761	0.028237
1097.080021	0.027539
1097.241264	0.027046
1097.402488	0.026119
1097.563694	0.025222
1097.724882	0.027390
1097.886052	0.023346
1098.047203	0.021080
1098.208336	0.021560
1098.369451	0.022904
1098.530548	0.025176
1098.691627	0.026715
1098.852687	0.025176
1099.013729	0.027090
1099.174753	0.026557
1099.335758	0.028689
1099.496746	0.031596
1099.657715	0.031652
1099.818666	0.028474
1099.979599	0.025689
1100.140513	0.024160
1100.301409	0.025901
1100.462287	0.024161
1100.623147	0.022268
1100.783989	0.024541
1100.944812	0.023073
1101.105617	0.023622
1101.266404	0.032019
1101.427173	0.031144
1101.587923	0.033703
1101.748656	0.037620
1101.909370	0.040607
1102.070066	0.041546
1102.230743	0.038448
1102.391403	0.039018
1102.552044	0.040294
1102.712667	0.035554
1102.873271	0.036602
1103.033858	0.035110
1103.194426	0.031230
1103.354976	0.023096
1103.515508	0.024665
1103.676021	0.028110
1103.836517	0.026737
1103.996994	0.025174
1104.157453	0.022838
1104.317893	0.022961
1104.478316	0.024936
1104.638720	0.025297
1104.799106	0.029285
1104.959474	0.026638
1105.119823	0.022512
1105.280155	0.027857
1105.440468	0.026756
1105.600763	0.030783
1105.761039	0.027427
1105.921298	0.023509
1106.081538	0.025661
1106.241760	0.026873
1106.401964	0.029450
1106.562149	0.033314
1106.722316	0.029422
1106.882465	0.031398
1107.042596	0.025000
1107.202709	0.024814
1107.362803	0.024938
1107.522879	0.024042
1107.682937	0.023939
1107.842977	0.018754
1108.002999	0.013453
1108.163002	0.015482
1108.322987	0.012778
1108.482954	0.017743
1108.642902	0.017919
1108.802833	0.021248
1108.962745	0.022395
1109.122639	0.023819
1109.282515	0.028623
1109.442372	0.032427
1109.602211	0.033064
1109.762032	0.035231
1109.921835	0.033759
1110.081620	0.035195
1110.241386	0.031742
1110.401134	0.030542
1110.560864	0.028929
1110.720576	0.024340
1110.880269	0.021308
1111.039945	0.020610
1111.199602	0.020484
1111.359240	0.019335
1111.518861	0.019314
1111.678463	0.019676
1111.838047	0.019486
1111.997613	0.018119
1112.157161	0.023113
1112.316690	0.027325
1112.476202	0.025513
1112.635695	0.027219
1112.795169	0.028146
1112.954626	0.032128
1113.114064	0.033245
1113.273484	0.036889
1113.432886	0.040211
1113.592270	0.038630
1113.751635	0.035991
1113.910983	0.034454
1114.070312	0.038182
1114.229622	0.039389
1114.388915	0.037177
1114.548189	0.037615
1114.707445	0.035328
1114.866683	0.028458
1115.025903	0.029355
1115.185104	0.031375
1115.344287	0.037102
1115.503452	0.034953
1115.662599	0.038503
1115.821727	0.039731
1115.980838	0.036696
1116.139930	0.035574
1116.299004	0.040283
1116.458059	0.038101
1116.617097	0.037026
1116.776116	0.035970
1116.935117	0.033839
1117.094099	0.027532
1117.253064	0.026681
1117.412010	0.027206
1117.570938	0.027396
1117.729848	0.026111
1117.888740	0.027223
1118.047613	0.022890
1118.206468	0.026485
1118.365305	0.025099
1118.524124	0.025495
1118.682924	0.026128
1118.841707	0.031672
1119.000471	0.032068
1119.159216	0.036933
1119.317944	0.036406
1119.476653	0.045062
1119.635344	0.041004
1119.794017	0.046773
1119.952672	0.049929
1120.111308	0.049168
1120.269927	0.048236
1120.428527	0.048260
1120.587108	0.047018
1120.745672	0.049068
1120.904217	0.044144
1121.062744	0.042236
1121.221253	0.041637
1121.379744	0.041693
1121.538216	0.039367
1121.696671	0.038480
1121.855107	0.034559
1122.013524	0.034162
1122.171924	0.027945
1122.330305	0.027017
1122.488668	0.029053
1122.647013	0.025203
1122.805340	0.021340
1122.963648	0.025825
1123.121938	0.026984
1123.280210	0.031674
1123.438464	0.033808
1123.596700	0.036411
1123.754917	0.033249
1123.913116	0.031974
1124.071297	0.033446
1124.229459	0.045123
1124.387604	0.041756
1124.545730	0.043525
1124.703838	0.040741
1124.861928	0.034375
1125.019999	0.036875
1125.178052	0.041569
1125.336088	0.038062
1125.494104	0.033972
1125.652103	0.025266
1125.810083	0.023218
1125.968045	0.025979
1126.125989	0.031620
1126.283915	0.032990
1126.441823	0.032543
1126.599712	0.033036
1126.757583	0.037049
1126.915436	0.041408
1127.073270	0.043219
1127.231087	0.045448
1127.388885	0.035811
1127.546665	0.033249
1127.704426	0.038333
1127.862170	0.042992
1128.019895	0.043402
1128.177602	0.037267
1128.335291	0.031901
1128.492961	0.029678
1128.650614	0.029854
1128.808248	0.031988
1128.965864	0.031591
1129.123461	0.027269
1129.281041	0.028715
1129.438602	0.026951
1129.596145	0.030637
1129.753670	0.032288
1129.911176	0.033318
1130.068665	0.030048
1130.226135	0.034635
1130.383587	0.031529
1130.541020	0.033998
1130.698436	0.032140
1130.855833	0.035868
1131.013212	0.042413
1131.170573	0.051629
1131.327915	0.049740
1131.485239	0.048226
1131.642545	0.039491
1131.799833	0.040594
1131.957103	0.044863
1132.114354	0.045147
1132.271588	0.042452
1132.428803	0.035903
1132.585999	0.029845
1132.743178	0.028094
1132.900338	0.035110
1133.057480	0.037622
1133.214604	0.039068
1133.371710	0.034661
1133.528797	0.025839
1133.685866	0.022281
1133.842917	0.019570
1133.999950	0.016797
1134.156964	0.022443
1134.313960	0.014000
1134.470938	0.021919
1134.627898	0.021637
1134.784840	0.019132
1134.941763	0.019495
1135.098668	0.018629
1135.255555	0.024157
1135.412424	0.024765
1135.569274	0.022718
1135.726107	0.026790
1135.882921	0.022932
1136.039716	0.027617
1136.196494	0.029083
1136.353253	0.037065
1136.509995	0.042157
1136.666717	0.040843
1136.823422	0.041748
1136.980109	0.038489
1137.136777	0.046337
1137.293427	0.042285
1137.450059	0.036679
1137.606672	0.044735
1137.763267	0.039976
1137.919844	0.043901
1138.076403	0.042265
1138.232944	0.042001
1138.389466	0.042975
1138.545971	0.039508
1138.702457	0.039340
1138.858924	0.042597
1139.015374	0.031853
1139.171805	0.035315
1139.328218	0.029238
1139.484613	0.024311
1139.640990	0.028240
1139.797348	0.029656
1139.953688	0.029746
1140.110010	0.021852
1140.266314	0.021826
1140.422600	0.020867
1140.578867	0.023895
1140.735116	0.026736
1140.891347	0.032609
1141.047559	0.036242
1141.203754	0.035649
1141.359930	0.033094
1141.516088	0.044413
1141.672228	0.040335
1141.828349	0.043196
1141.984452	0.037765
1142.140537	0.035512
1142.296604	0.033513
1142.452653	0.028908
1142.608683	0.032237
1142.764695	0.036173
1142.920689	0.026849
1143.076665	0.029714
1143.232622	0.025971
1143.388562	0.033650
1143.544483	0.039410
1143.700385	0.043692
1143.856270	0.039038
1144.012136	0.040205
1144.167985	0.039067
1144.323814	0.043717
1144.479626	0.045833
1144.635420	0.043825
1144.791195	0.034534
1144.946952	0.029177
1145.102691	0.035488
1145.258411	0.033259
1145.414113	0.026797
1145.569798	0.026303
1145.725463	0.031042
1145.881111	0.027162
1146.036741	0.035398
1146.192352	0.036061
1146.347945	0.034085
1146.503519	0.029017
1146.659076	0.032711
1146.814614	0.034932
1146.970134	0.034408
1147.125636	0.036477
1147.281120	0.033595
1147.436585	0.025321
1147.592032	0.030173
1147.747461	0.040429
1147.902872	0.033047
1148.058265	0.030779
1148.213639	0.032294
1148.368995	0.032224
1148.524333	0.034346
1148.679653	0.040509
1148.834954	0.047311
1148.990237	0.046481
1149.145502	0.039409
1149.300749	0.043465
1149.455977	0.044646
1149.611188	0.043527
1149.766380	0.045811
1149.921553	0.034895
1150.076709	0.027703
1150.231846	0.032192
1150.386966	0.028172
1150.542066	0.028910
1150.697149	0.019686
1150.852214	0.016603
1151.007260	0.015160
1151.162288	0.009351
1151.317298	0.016738
1151.472289	0.018369
1151.627263	0.016560
1151.782218	0.019114
1151.937155	0.018142
1152.092073	0.031870
1152.246974	0.038270
1152.401856	0.038882
1152.556720	0.034589
1152.711566	0.031845
1152.866393	0.035495
1153.021203	0.027908
1153.175994	0.028645
1153.330767	0.031586
1153.485521	0.024187
1153.640258	0.024170
1153.794976	0.022317
1153.949676	0.034885
1154.104358	0.035808
1154.259021	0.032791
1154.413667	0.039589
1154.568294	0.037852
1154.722903	0.035015
1154.877493	0.035539
1155.032066	0.040919
1155.186620	0.044144
1155.341156	0.037487
1155.495674	0.034203
1155.650173	0.033723
1155.804654	0.029857
1155.959118	0.034265
1156.113562	0.031990
1156.267989	0.040014
1156.422397	0.035900
1156.576788	0.035878
1156.731160	0.042414
1156.885513	0.041406
1157.039849	0.044610
1157.194166	0.048780
1157.348465	0.047401
1157.502746	0.050574
1157.657009	0.050703
1157.811253	0.051246
1157.965479	0.049058
1158.119687	0.044598
1158.273877	0.046121
1158.428048	0.048773
1158.582201	0.036584
1158.736337	0.028783
1158.890453	0.029259
1159.044552	0.018143
1159.198632	0.023495
1159.352694	0.024630
1159.506738	0.024584
1159.660764	0.023467
1159.814771	0.021217
1159.968761	0.032908
1160.122732	0.030442
1160.276685	0.031075
1160.430619	0.036576
1160.584535	0.023237
1160.738434	0.024740
1160.892313	0.028290
1161.046175	0.029886
1161.200019	0.017457
1161.353844	0.007913
1161.507651	0.012032
1161.661440	0.022377
1161.815210	0.022878
1161.968962	0.030335
1162.122697	0.036631
1162.276412	0.026783
1162.430110	0.018949
1162.583789	0.033660
1162.737451	0.040087
1162.891094	0.034926
1163.044718	0.027942
1163.198325	0.027523
1163.351913	0.028839
1163.505483	0.034138
1163.659035	0.049310
1163.812569	0.055815
1163.966084	0.048682
1164.119581	0.051895
1164.273060	0.058771
1164.426521	0.062502
1164.579964	0.061386
1164.733388	0.060985
1164.886794	0.055414
1165.040182	0.041805
1165.193551	0.040998
1165.346903	0.047319
1165.500236	0.054956
1165.653551	0.057009
1165.806848	0.051982
1165.960126	0.060366
1166.113386	0.044897
1166.266628	0.033397
1166.419852	0.038378
1166.573058	0.047706
1166.726245	0.031073
1166.879414	0.029871
1167.032565	0.031797
1167.185698	0.030220
1167.338812	0.027504
1167.491909	0.036924
1167.644987	0.043928
1167.798046	0.037355
1167.951088	0.026636
1168.104111	0.035323
1168.257117	0.031345
1168.410103	0.033094
1168.563072	0.036877
1168.716023	0.033811
1168.868955	0.037673
1169.021869	0.029398
1169.174765	0.035071
1169.327642	0.040221
1169.480501	0.041610
1169.633343	0.022945
1169.786165	0.013819
1169.938970	0.000788
1170.091757	0.002256
1170.244525	0.000470
1170.397275	0.003756
1170.550007	0.005073
1170.702720	0.000584
1170.855415	0.005726
1171.008092	0.020124
1171.160751	0.024602
1171.313392	0.029300
1171.466014	0.051101
1171.618619	0.025839
1171.771205	0.025839
1171.923772	0.025839
