sample name	sample
index	583
start time	 03-16-2021  03:55:28 PM
880	0.011072
Peak Time (s)	180.036
Peak Height 	0.01107
calc peak height	180,183
Baseline Time (s)	11.536
Baseline Value 	-0.003142
subtract baseline	10,4
Abs	-0.006528
Peak Time (s)	181.035
Peak Height 	-0.006528
calc peak height	180,183
Baseline Time (s)	9.04
Baseline Value 	0.00238
subtract baseline	10,3
PK_550	0.003182
Peak Time (s)	181.035
Peak Height 	0.003182
calc peak height	180,183
Baseline Time (s)	8.537
Baseline Value 	9.3124E-4
subtract baseline	10,2
PK_880	-0.004120
Peak Time (s)	180.537
Peak Height 	-0.00412
calc peak height	180,183
Baseline Time (s)	11.036
Baseline Value 	0.001682
subtract baseline	10,1


Time (s)	A880-A510	A880-A775	A880-A975	A880	I510	I775	I975	I880	
0.034500	0.000338	0.000616	0.001060	0.002584	5592.374745	33866.984736	3636.244160	18327.312552
0.535000	-0.003028	-0.000754	-0.000767	0.005899	5550.798570	33534.666486	3626.901420	18209.712067
1.035000	-0.002869	-0.000408	-0.003272	0.004107	5562.871773	33685.904816	3625.615672	18273.181500
1.537500	-0.002078	0.000244	-0.000858	0.000671	5589.226093	33977.032499	3636.235294	18395.600391
2.035500	-0.001000	-0.000096	0.000064	0.000307	5598.275844	33978.806676	3638.588967	18408.634689
2.536000	-0.003569	-0.001104	-0.005706	0.004277	5557.478840	33624.491533	3620.934319	18267.147144
3.036500	0.001338	-0.000569	0.004797	-0.000770	5619.817336	34021.990781	3649.308653	18447.213752
3.537000	0.001030	0.000221	0.002594	0.001143	5605.783211	33941.634406	3641.698343	18378.706147
4.036000	0.000441	-0.000502	-0.002653	-0.000016	5609.381777	33972.809947	3634.211747	18420.190251
4.537000	0.000111	-0.000012	-0.000714	0.000347	5605.009475	33981.925058	3637.088942	18407.180828
5.035000	0.002050	-0.000589	0.000396	-0.000151	5620.411522	33976.289562	3640.037523	18425.024597
5.535000	-0.000321	-0.000132	0.003680	0.000183	5603.322670	33985.058912	3645.472393	18413.046461
6.035000	-0.002288	-0.001262	0.001022	-0.001071	5598.836778	33993.933970	3642.881066	18458.036582
6.535500	0.000995	-0.001525	0.001189	-0.000703	5617.230309	33948.805545	3642.511796	18444.832811
7.036000	-0.000466	0.000458	0.001869	0.000085	5603.029184	34034.375813	3642.312616	18416.581027
7.536000	0.000904	0.000306	0.004422	0.000093	5611.620968	34022.870261	3647.012457	18416.291439
8.039500	0.001170	0.000169	0.002454	0.000042	5613.621170	34016.768832	3643.470104	18418.118834
8.536500	0.003951	0.000000	-0.000378	0.000389	5629.051281	33979.772710	3637.628026	18405.687687
9.040500	-0.001414	-0.001066	0.000000	-0.000162	5598.619776	33942.929611	3639.330450	18425.421151
9.534500	-0.000181	0.000163	0.008519	0.000611	5601.510862	33975.491253	3653.669503	18397.728442
10.035000	0.001826	0.001113	0.004918	0.000848	5612.669020	34026.593280	3646.532365	18389.246095
10.535000	0.001153	-0.000437	0.001627	-0.000262	5615.437178	33995.059399	3642.504808	18428.999542
11.035500	0.000000	-0.000535	-0.001743	-0.000700	5610.918429	34019.485990	3637.123731	18444.723921
11.535500	-0.001576	0.000390	-0.005434	0.000000	5596.581282	34035.572910	3629.129330	18419.616131
12.036000	0.000313	-0.000561	-0.004014	-0.000484	5611.534305	34002.108296	3632.586474	18436.983663
12.536500	-0.001215	0.000040	0.007297	-0.000098	5599.465253	34017.524514	3652.711041	18423.120223
13.040000	0.001723	-0.000621	0.003040	-0.001362	5626.017158	34060.734675	3647.146346	18468.484037
13.536500	0.001550	0.000348	-0.000461	0.000012	5616.214867	34031.686230	3638.165526	18419.184505
14.034500	-0.003830	-0.000424	-0.008930	0.003590	5560.123279	33721.380528	3616.400522	18291.540848
14.534500	-0.001943	-0.000469	-0.003068	0.001080	5587.504109	33896.796278	3631.460918	18380.957049
15.034500	0.000034	-0.000764	0.005999	-0.001188	5614.215751	34038.001419	3652.323284	18462.229008
15.534500	-0.000889	0.000171	0.001445	-0.000492	5603.998479	34055.185478	3642.594508	18437.252614
16.036000	-0.001570	-0.000970	0.003168	0.002783	5579.192027	33739.890225	3639.738951	18320.216260
16.535000	-0.001428	-0.000345	0.008883	-0.001274	5605.531277	34074.224353	3657.880990	18465.325960
17.036500	0.000845	0.000311	0.002393	-0.003133	5631.697845	34255.360121	3649.233309	18532.278702
17.536500	-0.001482	0.000715	0.008304	0.001046	5590.608541	33983.912004	3652.455365	18382.185211
18.037000	-0.001166	-0.001079	-0.000661	0.001420	5590.243512	33829.089414	3635.226791	18368.825412
18.539500	-0.002029	-0.000354	-0.003923	0.000525	5590.444110	33944.719096	3630.918305	18400.823226
19.037500	-0.002366	-0.000524	0.002890	0.000972	5585.535479	33900.619548	3642.558601	18384.834652
19.538000	-0.001097	0.000330	0.001527	0.000975	5593.468204	33961.463955	3640.045115	18384.717430
20.042500	-0.002527	-0.001259	-0.001309	0.001479	5581.363479	33812.121860	3633.937291	18366.724521
20.535500	0.000582	-0.000480	0.002089	0.001011	5603.795707	33900.981422	3641.013113	18383.439272
21.036000	0.002564	-0.000319	0.001224	0.001275	5614.639379	33893.600571	3638.939612	18373.993171
21.536000	-0.001501	0.000074	0.003114	0.001322	5588.760171	33918.334855	3642.325388	18372.315068
22.039500	-0.000616	-0.000071	0.001418	0.002186	5588.892635	33846.372479	3637.626890	18341.497613
22.536500	0.000873	0.000286	0.003179	0.001519	5602.428081	33919.373363	3642.083311	18365.277945
23.037000	-0.002069	-0.000231	0.002480	0.000681	5589.222585	33942.395745	3642.340192	18395.250824
23.537000	-0.001034	-0.000813	0.007705	0.000541	5596.589929	33910.774925	3652.281506	18400.240627
24.034500	-0.002037	-0.000757	0.002753	0.001919	5581.672084	33816.560424	3640.565556	18351.029141
24.535000	-0.000115	0.000280	0.002007	0.002156	5592.217923	33873.521959	3638.760124	18342.549651
25.035000	-0.001605	-0.000290	-0.001984	0.000994	5590.165644	33915.813987	3633.590709	18384.052345
25.535500	-0.000356	-0.001249	0.000438	0.000751	5599.523852	33864.648605	3638.458091	18392.715596
26.035500	0.000343	-0.000440	0.000303	0.002687	5591.763365	33784.451202	3634.673214	18323.655891
26.536000	-0.000995	0.000123	0.005201	0.001764	5589.158650	33890.226846	3645.361191	18356.528931
27.035500	0.000095	-0.000036	0.003156	-0.001179	5614.546986	34089.647145	3647.023801	18461.922791
27.536500	0.000005	-0.000228	-0.000191	-0.001708	5617.320579	34113.843956	3641.820733	18480.937929
28.039500	-0.000975	-0.000575	-0.001023	-0.000849	5605.705343	34027.215953	3638.713612	18450.058991
28.537000	-0.002302	-0.000760	0.001417	0.002693	5575.188707	33761.209184	3636.696159	18323.432330
29.037500	-0.000618	-0.000340	0.003802	-0.000935	5608.500330	34050.308392	3647.769346	18453.152422
29.535000	-0.001128	-0.000223	0.001926	-0.000609	5603.226521	34035.240846	3643.695656	18441.438724
30.035500	0.000660	0.001026	0.000719	0.000123	5609.888213	34072.447906	3640.127087	18415.223759
30.535500	-0.001457	0.000064	-0.006434	0.003008	5578.494676	33797.400478	3621.903075	18312.213221
31.036000	-0.000764	-0.000052	-0.001488	0.001980	5589.252872	33862.362718	3632.698123	18348.832474
31.536000	0.000244	0.000341	0.005837	0.000126	5607.242193	34022.995287	3649.575604	18415.098715
32.036500	-0.001035	-0.000470	0.002250	-0.000631	5603.951738	34019.143983	3644.334132	18442.232732
32.539500	-0.002992	0.000044	-0.000551	0.001777	5576.598132	33883.753600	3634.775240	18356.090478
33.037500	0.000528	0.000068	0.003619	-0.000854	5615.229761	34073.744412	3647.279253	18450.251146
33.537500	-0.000812	-0.000047	0.004586	0.001260	5593.465091	33914.089084	3645.155779	18374.527523
34.034500	-0.002519	0.000482	-0.000721	0.001870	5578.966576	33908.314812	3634.295148	18352.758568
34.535500	-0.000194	-0.000620	0.004680	0.001876	5593.483125	33829.331902	3644.192807	18352.564397
35.036000	-0.001353	-0.000295	0.004605	0.001722	5587.185376	33863.480274	3644.339245	18358.054472
35.535500	-0.002159	0.000241	0.002576	0.002151	5579.459969	33871.118647	3639.813176	18342.740004
36.036000	-0.004454	-0.000606	0.002161	0.003005	5559.871593	33749.949691	3637.486477	18312.315825
36.536500	-0.003260	-0.000761	0.002437	0.001330	5577.714516	33858.142070	3641.065651	18372.030444
37.036500	-0.000040	-0.001162	0.001152	0.001247	5598.398723	33835.552149	3638.859826	18375.018080
37.537000	-0.001935	-0.000421	-0.000483	0.001775	5583.214369	33850.755432	3634.904016	18356.165227
38.037500	-0.001098	-0.000523	-0.008707	0.002987	5580.866578	33757.200610	3617.874468	18312.980276
38.535000	-0.003000	-0.000762	-0.001315	0.000980	5581.525390	33883.069220	3634.835264	18384.545460
39.034500	0.000438	0.000273	-0.000098	0.002263	5595.019679	33865.381160	3634.715887	18338.761837
39.535000	-0.002301	-0.000035	0.002888	0.001918	5580.028215	33867.997939	3640.813796	18351.047219
40.036000	-0.001698	-0.000335	0.005129	0.002821	5578.155240	33782.350546	3643.276638	18318.868921
40.535000	0.000472	0.000331	0.006396	0.002391	5594.427666	33860.379086	3646.412454	18334.173521
41.035500	-0.000122	-0.000157	0.003056	0.002392	5590.693672	33825.543258	3640.251955	18334.149126
41.536500	-0.001931	0.000535	0.000817	0.002343	5579.685321	33878.358451	3636.240252	18335.904934
42.048500	-0.002471	0.000580	0.002054	0.003452	5569.409796	33802.549385	3636.472259	18296.420561
42.537000	0.001758	0.000850	0.000094	0.002733	5600.361572	33873.015395	3634.208510	18322.020467
43.037500	-0.000325	-0.000251	0.003039	0.001882	5592.624505	33855.216042	3641.157675	18352.341408
43.534500	-0.001154	0.000218	0.002166	-0.003068	5618.588745	34243.903789	3648.689422	18529.908561
44.035000	-0.002741	0.000241	0.000195	0.003680	5566.313022	33762.175987	3632.666346	18288.312474
44.535000	0.000066	-0.000301	0.006676	-0.001017	5613.334897	34058.993934	3653.268371	18456.102756
45.036000	-0.001038	0.000156	0.004560	-0.000430	5602.669688	34049.630512	3648.236063	18435.015185
45.536000	-0.000753	-0.000580	0.002412	-0.001125	5608.846288	34046.709556	3645.547599	18459.989990
46.036500	-0.003249	-0.000588	0.001769	0.003627	5563.492244	33707.107703	3635.632881	18290.216757
46.536500	-0.001877	0.000011	0.004354	0.001073	5587.967907	33931.675722	3645.075012	18381.236770
47.037000	-0.001943	0.000148	0.002851	0.003030	5575.321467	33801.782845	3638.704747	18311.420023
47.536500	0.000428	0.000211	0.006395	0.001956	5596.884008	33882.873131	3647.216750	18349.701384
48.035000	-0.000980	-0.000767	0.005138	0.003118	5580.780706	33730.493643	3642.744853	18308.288601
48.535500	-0.001590	0.000170	-0.001120	0.002010	5583.899170	33876.087194	3633.313464	18347.772974
49.035000	-0.000272	0.000125	0.008724	-0.000917	5610.564961	34082.352336	3656.911321	18452.488361
49.538500	-0.000243	-0.000146	0.007297	-0.003066	5624.357478	34217.513414	3658.268145	18529.861301
50.036000	-0.001670	0.000043	0.001300	0.006709	5554.177565	33533.714733	3629.174705	18181.091974
50.536500	-0.001378	0.000234	0.000842	-0.004565	5626.663272	34353.352683	3649.011888	18584.026402
51.036500	-0.000906	-0.005665	-0.010677	0.205257	4571.694696	22037.721831	3326.989905	12559.214997
51.539500	-0.012349	-0.016404	-0.004369	-0.099471	6214.740505	40565.933526	3834.018943	22424.636290
52.037000	-0.021095	-0.037812	-0.013569	-0.300956	8084.037645	59922.983829	4386.256160	33974.195463
52.537500	0.002839	-0.033248	0.015147	-0.298909	8353.614803	60254.398521	4484.023400	33827.898844
53.035000	-0.008670	-0.019184	0.004044	-0.222240	7345.707630	52554.077931	4183.651176	28816.246568
53.535000	-0.024310	-0.014645	-0.011862	-0.207046	7038.851448	51350.513010	4090.974013	27923.867264
54.034500	-0.019110	-0.008589	-0.014547	-0.229249	7310.477180	54608.384016	4148.360951	29238.576114
54.536000	-0.008832	-0.006153	-0.013196	-0.235957	7487.652974	55708.792306	4172.819910	29649.197260
55.036000	-0.005349	-0.004640	-0.014443	-0.235481	7519.742084	55835.075910	4167.549811	29619.820430
55.536000	-0.005588	-0.002485	-0.006896	-0.209353	7245.752849	52991.922324	4112.055613	28057.358956
56.037000	-0.004028	-0.001035	-0.011042	-0.188247	7053.115570	50774.963105	4040.345321	26862.049048
56.537000	-0.001936	-0.000043	-0.010663	-0.170821	6907.941334	48997.051529	3994.241113	25918.049608
57.037000	-0.006023	-0.002256	-0.008323	-0.134695	6550.698709	45101.565603	3908.040459	24077.572655
57.535000	-0.004901	-0.003246	-0.013478	-0.111819	6370.796063	42844.611597	3841.440918	22988.868462
58.035000	-0.006907	-0.003943	-0.011525	-0.095031	6222.474163	41268.202756	3807.898580	22225.641263
58.535500	-0.006320	-0.003781	-0.012794	-0.075297	6077.809624	39577.130268	3762.321131	21365.324600
59.035000	-0.006348	-0.004014	-0.007077	-0.058829	5958.198136	38193.285787	3739.833200	20676.782909
59.535500	-0.008853	-0.004044	-0.009679	-0.039458	5806.416655	36651.112971	3695.563429	19899.539975
60.036000	-0.013119	-0.003778	-0.012753	-0.022934	5669.082948	35410.677906	3657.924265	19263.364295
60.536500	-0.013853	-0.003336	-0.012332	-0.022398	5660.911136	35403.711370	3657.709833	19243.156580
61.039500	-0.010698	-0.000935	-0.010835	-0.023889	5690.940358	35696.370065	3663.337566	19299.493144
61.537000	-0.012760	0.000719	-0.008366	-0.021628	5662.980461	35650.508920	3663.729609	19214.111597
62.037000	-0.017930	-0.000257	-0.019255	-0.026212	5659.213461	35923.731927	3651.894127	19387.641689
62.535000	-0.014857	-0.000874	-0.013398	-0.029469	5700.188583	36125.143109	3669.060043	19512.077572
63.038000	-0.013615	-0.001467	-0.008135	-0.031174	5719.469638	36210.414657	3682.427774	19577.582051
63.535500	-0.014530	-0.000483	-0.010733	-0.028688	5697.231141	36095.321624	3672.653107	19482.152101
64.035500	-0.018945	-0.001021	-0.009816	-0.021924	5625.346240	35541.739425	3661.551964	19225.266787
64.536500	-0.013604	-0.001455	-0.013721	-0.025647	5683.487982	35789.953983	3661.208308	19366.168541
65.036000	-0.015816	-0.000631	-0.013337	-0.025854	5670.528293	35868.179233	3662.323726	19374.059261
65.539000	-0.014204	-0.000431	-0.011524	-0.025396	5677.977952	35848.622733	3664.885445	19356.646399
66.037000	-0.017031	-0.000921	-0.012783	-0.020270	5626.995396	35425.115143	3652.882042	19163.048650
66.536500	-0.014317	-0.000435	-0.014643	-0.024339	5670.418459	35768.145946	3657.014931	19316.513484
67.034500	-0.012868	-0.000995	-0.013754	-0.025111	5684.785547	35784.154313	3660.136768	19345.799594
67.535000	-0.013707	-0.000631	-0.011557	-0.024654	5676.396733	35777.198691	3663.419383	19328.476972
68.035000	-0.018514	-0.001565	-0.014756	-0.019211	5610.897480	35297.871383	3647.245669	19123.349171
68.535500	-0.012491	-0.001240	-0.020856	-0.023480	5676.666355	35642.407158	3643.859221	19284.011518
69.036000	-0.013326	-0.000200	-0.018101	-0.023111	5668.887439	35693.041897	3648.274536	19270.047039
69.536000	-0.010632	0.000409	-0.014273	-0.021727	5677.349476	35634.613017	3652.822311	19217.852188
70.036000	-0.015958	-0.001081	-0.016573	-0.016520	5610.048198	35133.632581	3638.936909	19022.909292
70.536500	-0.015291	-0.001179	-0.015832	-0.021498	5645.912558	35497.896666	3649.492135	19209.231379
71.037000	-0.014316	-0.000974	-0.007808	-0.021434	5651.741965	35508.495180	3664.417747	19206.806309
71.537000	-0.010848	0.000310	-0.015113	-0.019949	5664.482576	35493.435324	3647.951313	19151.020220
72.037500	-0.012048	0.001081	-0.017937	-0.018581	5648.000905	35448.628636	3640.216271	19099.796974
72.535500	-0.014285	0.000336	-0.014348	-0.017960	5629.771163	35346.428262	3645.685241	19076.586638
73.035000	-0.011062	0.000265	-0.014425	-0.017352	5646.440734	35295.699077	3644.418428	19053.879493
73.535500	-0.010822	0.001152	-0.010021	-0.016966	5645.509681	35333.077910	3651.872179	19039.498488
74.035500	-0.012148	-0.000078	-0.013328	-0.017143	5638.171884	35254.581295	3646.061430	19046.104765
74.536500	-0.011957	0.000747	-0.014578	-0.015561	5629.318186	35198.189697	3640.838291	18987.243353
75.039000	-0.013089	0.000796	-0.007881	-0.015113	5619.295138	35168.510450	3652.409008	18970.628196
75.537000	-0.011613	0.001365	-0.014997	-0.014568	5625.195051	35170.323079	3638.247790	18950.411582
76.037000	-0.013205	0.000715	-0.017996	-0.008959	5579.857361	34708.458554	3622.630581	18743.916974
76.537500	-0.010475	0.000461	-0.013084	-0.013602	5626.282284	35031.581750	3639.983662	18914.655191
77.035000	-0.011334	0.000260	-0.007649	-0.013773	5621.920703	35029.414114	3650.345111	18920.989148
77.535000	-0.010071	0.000804	-0.012709	-0.013114	5625.749710	35020.869399	3639.776063	18896.625163
78.035000	-0.014339	-0.000818	-0.018136	-0.007913	5566.288960	34520.104388	3620.503510	18705.734099
78.536000	-0.008012	0.001805	-0.011763	-0.011487	5628.495585	34974.568999	3638.525930	18836.649504
79.036000	-0.012367	0.000749	-0.015296	-0.011769	5602.730955	34917.483005	3632.590829	18847.038838
79.536000	-0.008400	0.001656	-0.011769	-0.010661	5620.795475	34902.704091	3637.005249	18806.322576
80.036500	-0.011785	0.001161	-0.013008	-0.004347	5560.002673	34404.750721	3623.305051	18576.130632
80.537000	-0.008220	0.001472	-0.007355	-0.009669	5615.652599	34816.136513	3643.288361	18769.920743
81.037000	-0.009169	0.002376	-0.012443	-0.009192	5606.646623	34847.475532	3633.092577	18752.447690
81.537500	-0.009240	0.002292	-0.013917	-0.008362	5600.970037	34780.358913	3628.911145	18722.109961
82.035000	-0.014715	0.000892	-0.014616	-0.003241	5535.110794	34305.183422	3618.443073	18536.181059
82.535500	-0.012015	0.001257	-0.017266	-0.008930	5587.120749	34746.106591	3623.891989	18742.886352
83.035500	-0.010491	0.002635	-0.005193	-0.007238	5586.067954	34723.034770	3642.793465	18681.118790
83.536000	-0.011808	0.001377	-0.008773	-0.007754	5581.062038	34668.733575	3637.166938	18699.916836
84.036000	-0.014086	0.001460	-0.016012	-0.001780	5530.008383	34240.637585	3613.355096	18483.525552
84.539500	-0.011961	0.001597	-0.008761	-0.006736	5573.757196	34610.406373	3635.328215	18662.832413
85.036500	-0.011071	0.001585	-0.012289	-0.006956	5580.680407	34625.596015	3629.313328	18670.844090
85.537000	-0.009221	0.002163	-0.014527	-0.006239	5587.769235	34615.456989	3623.978316	18644.775737
86.037500	-0.014803	0.000921	-0.021040	-0.000663	5518.789008	34121.374643	3602.526309	18443.405697
86.535000	-0.008566	0.000979	-0.014565	-0.006362	5592.635918	34537.995220	3624.129109	18649.225383
87.035000	-0.011046	0.002020	-0.019235	-0.005674	5572.841608	34563.741572	3614.545721	18624.230308
87.535500	-0.010025	0.001969	-0.010443	-0.005236	5576.474858	34528.086690	3629.540980	18608.351496
88.035500	-0.012389	0.001669	-0.008994	-0.000286	5531.248881	34148.025451	3623.221650	18429.871156
88.536000	-0.007986	0.002036	-0.014157	-0.004684	5585.762758	34492.828179	3621.847406	18588.341862
89.036500	-0.007216	0.002535	-0.018357	-0.004384	5588.702116	34507.266606	3613.815358	18577.482394
89.536500	-0.009598	0.001357	-0.015960	-0.005249	5579.221227	34484.482391	3619.629567	18608.820484
90.036500	-0.010593	0.002441	-0.015522	0.000462	5537.681812	34149.771961	3610.252796	18403.079908
90.537500	-0.007289	0.002217	-0.012790	-0.004170	5586.905625	34468.617873	3623.380637	18569.748605
91.034500	-0.008462	0.002498	-0.010252	-0.003919	5578.010276	34470.798528	3627.504057	18560.677580
91.534500	-0.007575	0.002943	-0.005993	-0.003200	5579.051904	34450.857504	3633.926687	18534.678263
92.035500	-0.010310	0.001517	-0.010922	-0.001926	5554.150637	34255.273109	3622.704514	18488.777783
92.535500	-0.008375	0.002161	-0.008956	-0.003614	5576.643983	34424.130853	3629.295821	18549.631945
93.036000	-0.008844	0.001906	-0.020585	-0.003797	5574.864291	34418.839451	3608.830835	18556.237168
93.536500	-0.010459	0.001350	-0.018846	-0.003901	5565.463740	34386.112922	3612.090985	18560.019415
94.039000	-0.010045	0.002090	-0.010400	0.000184	5542.765003	34144.494621	3619.857821	18413.040084
94.536500	-0.009161	0.001691	-0.001126	-0.003283	5569.691177	34366.062015	3642.999703	18537.689995
95.037000	-0.010310	0.002803	-0.014174	-0.002607	5558.359496	34397.616917	3618.098368	18513.292832
95.537500	-0.009920	0.002315	-0.011077	-0.003004	5563.239816	34391.023150	3624.364110	18527.599721
96.035000	-0.011020	0.002765	-0.011771	0.001613	5528.003289	34090.275055	3614.862626	18361.939835
96.535000	-0.010342	0.000927	-0.014813	-0.003222	5561.982816	34306.306471	3618.058018	18535.500156
97.035500	-0.008081	0.001481	-0.009722	-0.002966	5574.439823	34327.837705	3626.739886	18526.254422
97.536000	-0.007622	0.002558	-0.007093	-0.001875	5570.507800	34326.870993	3629.520995	18486.937358
98.035000	-0.010411	0.002864	-0.012169	0.002818	5524.349930	34010.871988	3612.015623	18318.966408
98.539500	-0.008971	0.001964	-0.011384	-0.002535	5566.223840	34331.608405	3622.968384	18510.702529
99.037000	-0.009474	0.001519	-0.008304	-0.002652	5563.824615	34307.930940	3628.735100	18514.928706
99.537000	-0.008870	0.002253	-0.013752	-0.001550	5560.737822	34281.283061	3616.966493	18475.256417
100.037000	-0.014475	0.000876	-0.017548	0.003838	5493.440694	33796.119499	3600.761519	18282.706108
100.537500	-0.008758	0.002196	-0.011381	-0.001696	5562.335345	34287.675173	3621.467825	18480.483017
101.035000	-0.010638	0.002346	-0.012085	-0.001281	5548.138074	34268.562505	3619.463746	18465.578155
101.538000	-0.010138	0.002416	-0.011141	-0.001709	5553.872221	34304.540791	3621.922234	18480.963195
102.035500	-0.013672	0.001536	-0.014836	0.003889	5497.995807	33839.530639	3605.421321	18280.907438
102.536000	-0.010056	0.001787	-0.011848	-0.001357	5552.200683	34233.702232	3620.022884	18468.308577
103.035500	-0.008832	0.001997	-0.013328	-0.001618	5561.389519	34267.683501	3617.842915	18477.683053
103.536000	-0.011244	0.002621	-0.011140	-0.000878	5541.921897	34259.295599	3620.434534	18451.109524
104.036500	-0.011529	0.001483	-0.010939	0.004867	5505.055089	33766.155063	3610.566775	18246.211478
104.537000	-0.007489	0.002795	-0.013020	-0.000734	5564.239251	34261.445327	3616.815924	18445.918753
105.034500	-0.009008	0.001989	-0.011535	-0.001418	5559.063271	34252.653345	3620.693447	18470.508643
105.535000	-0.010983	0.001992	-0.012001	-0.000935	5543.882968	34218.032265	3618.996496	18453.167912
106.035000	-0.013225	0.002408	-0.016305	0.004229	5498.639500	33877.413345	3602.249219	18268.819297
106.535000	-0.010538	0.002297	-0.009813	-0.000727	5545.342642	34225.057175	3622.542911	18445.689326
107.035500	-0.010434	0.002392	-0.007249	-0.000829	5546.613230	34239.226253	3627.345760	18449.353839
107.536000	-0.008452	0.002183	-0.010867	-0.000677	5557.922676	34213.192240	3620.563310	18443.899890
108.039500	-0.010374	0.002072	-0.008119	0.004296	5515.555571	33848.651901	3616.586172	18266.448912
108.536500	-0.009156	0.002716	-0.007928	0.000119	5548.643423	34194.228988	3624.411001	18415.359090
109.037000	-0.011291	0.001562	-0.011483	-0.000972	5542.208664	34189.683765	3619.988250	18454.476482
109.536500	-0.010743	0.002597	-0.008410	0.000189	5538.441517	34180.660354	3623.418799	18412.857674
110.034000	-0.012247	0.002105	-0.016474	0.004902	5500.489649	33807.896122	3600.779181	18244.965628
110.537500	-0.010282	0.001666	-0.016717	-0.000320	5544.411688	34150.257413	3609.523707	18431.101998
111.034500	-0.010312	0.001501	-0.006913	-0.000395	5544.685510	34143.764080	3627.168819	18433.773489
111.535000	-0.008289	0.002539	-0.014761	0.000088	5554.191795	34183.651220	3612.260111	18416.447133
112.036000	-0.012583	0.001477	-0.017524	0.004177	5502.843666	33814.793498	3600.211023	18270.669887
112.536000	-0.011098	0.001790	-0.014417	-0.000439	5540.120169	34167.725471	3613.806114	18435.352119
113.036500	-0.009428	0.001988	-0.010129	-0.000053	5548.027349	34154.199116	3620.767001	18421.507872
113.536000	-0.010243	0.002416	-0.007959	0.000342	5540.570428	34156.565039	3623.954870	18407.371601
114.037000	-0.013685	0.001227	-0.021272	0.003964	5497.459824	33812.202556	3594.069615	18278.248312
114.537500	-0.010915	0.002092	-0.009919	-0.000318	5540.497995	34180.771133	3621.618325	18431.015846
115.035000	-0.010543	0.002035	-0.011291	-0.000256	5542.405063	34172.173482	3619.050065	18428.791172
115.535000	-0.010576	0.001918	-0.009286	-0.000415	5543.182752	34175.239972	3622.928414	18434.489678
116.035000	-0.014465	0.001508	-0.013560	0.005487	5483.554507	33723.846903	3604.855040	18224.254875
116.535500	-0.011711	0.001624	-0.014900	-0.000357	5535.844361	34149.894495	3612.803084	18432.411318
117.036000	-0.007926	0.001523	-0.017828	-0.000038	5557.214357	34119.625003	3607.065529	18420.969007
117.541500	-0.010916	0.002257	-0.010504	0.000334	5536.483657	34145.714204	3619.402965	18407.646777
118.036500	-0.013511	0.000764	-0.009304	0.004929	5492.678865	33710.680921	3613.353960	18244.016797
118.537000	-0.009125	0.001170	-0.017343	-0.000499	5552.654846	34127.440880	3608.732941	18437.497049
119.037000	-0.008851	0.002127	-0.011674	-0.000156	5552.226178	34171.607408	3618.186037	18425.193740
119.534500	-0.006632	0.001700	-0.017796	0.000177	5563.906435	34116.909603	3606.742598	18413.262140
120.034500	-0.014036	0.001066	-0.016463	0.005791	5484.309073	33670.933071	3599.246398	18213.495910
120.537500	-0.008706	0.001781	-0.009975	0.000306	5550.266096	34113.457307	3620.399969	18408.656373
121.035500	-0.007888	0.002765	-0.010101	0.000606	5553.473347	34162.725117	3619.638500	18397.935642
121.535500	-0.008966	0.002119	-0.008138	0.000553	5547.142542	34120.005627	3623.252755	18399.825544
122.036000	-0.014428	0.001222	-0.015210	0.005855	5481.563050	33677.502925	3601.323136	18211.250959
122.537500	-0.008331	0.002530	-0.010178	0.001207	5547.022776	34102.489797	3618.423380	18376.417188
123.036000	-0.007378	0.002175	-0.011048	0.000824	5555.273889	34104.565276	3617.553655	18390.106947
123.537500	-0.007365	0.001758	-0.005879	0.000121	5559.712794	34125.161585	3628.105644	18415.297546
124.037000	-0.012845	0.001213	-0.010270	0.005855	5491.105700	33676.873879	3610.003127	18211.265096
124.537500	-0.009147	0.001294	-0.013220	0.000090	5548.879645	34094.021419	3614.993434	18416.391034
125.035000	-0.007297	0.001976	-0.014701	0.000714	5556.460038	34098.163020	3611.258597	18394.067511
125.535500	-0.009131	0.002823	-0.014360	0.001327	5541.355676	34115.014155	3610.778195	18372.156481
126.035500	-0.010978	0.001102	-0.008718	0.000054	5537.821391	34082.822004	3623.107299	18417.678578
126.536000	-0.009774	0.001660	-0.009142	0.000445	5542.823997	34094.801766	3621.644094	18403.679112
127.038500	-0.007912	0.002168	-0.004205	0.001050	5550.582656	34087.878663	3629.454721	18382.059503
127.536500	-0.007152	0.002834	-0.010373	0.001367	5553.316573	34112.929466	3617.790551	18370.728099
128.036500	-0.009954	0.000713	-0.011564	0.006315	5505.827096	33608.867818	3606.908487	18194.985796
128.537000	-0.009562	0.001893	-0.008462	0.000201	5545.633213	34129.045499	3623.302641	18412.408512
129.037000	-0.007728	0.002502	-0.004285	0.001063	5551.636439	34110.898207	3629.285906	18381.592470
129.535000	-0.007694	0.003307	-0.015233	0.001705	5547.881001	34122.645514	3608.567344	18358.659212
130.035000	-0.010546	0.001182	-0.014230	0.006064	5503.763750	33659.845168	3602.671921	18203.881927
130.535500	-0.009060	0.002375	-0.010927	0.000918	5544.310401	34112.151445	3617.602938	18386.758129
131.035500	-0.012466	0.000815	-0.009950	0.000023	5528.880388	34064.417777	3620.950999	18418.775227
131.538500	-0.009585	0.000937	-0.009805	0.000086	5546.198446	34068.628683	3621.098555	18416.526311
132.036500	-0.011811	0.001281	-0.016498	0.006338	5494.433804	33647.400077	3598.234211	18194.177766
132.536500	-0.005021	0.002711	-0.009249	0.001724	5564.306001	34078.424402	3619.161111	18357.970366
133.037000	-0.011514	0.002738	-0.010376	0.001310	5526.833001	34110.094002	3617.887912	18372.764589
133.537000	-0.010127	0.001350	-0.009239	0.001092	5536.677141	34026.129232	3620.310715	18380.552255
134.037500	-0.014009	0.001305	-0.011497	0.006289	5481.471644	33652.595970	3607.072431	18195.922415
134.535000	-0.009738	0.001613	-0.006232	0.000882	5540.354414	34060.005873	3626.093440	18388.047926
135.035000	-0.008223	0.001407	-0.002632	0.001059	5548.601475	34032.563294	3632.294133	18381.736226
135.535500	-0.009582	0.002337	-0.003687	0.002191	5533.275863	34018.139460	3628.325549	18341.324919
136.035500	-0.011056	0.001259	-0.012775	0.007023	5494.858963	33597.352654	3603.539167	18170.008586
136.535500	-0.009960	0.002252	-0.009957	0.002011	5532.056611	34024.932575	3617.383548	18347.735221
137.036500	-0.007703	0.003380	-0.007631	0.002573	5542.474234	34065.471794	3620.537541	18327.691295
137.537000	-0.010914	0.002156	-0.010007	0.001564	5528.949066	34050.059531	3618.091224	18363.671515
138.037000	-0.009587	0.001843	-0.011517	0.001335	5538.500807	34044.025321	3615.807645	18371.850380
138.537500	-0.008232	0.001351	-0.010269	0.001744	5544.317911	33979.468771	3617.302713	18357.246113
139.034500	-0.009013	0.001601	-0.015093	0.001892	5538.606590	33986.795131	3608.485372	18351.980744
139.535000	-0.010352	0.001977	-0.009135	0.001902	5530.324894	34013.006995	3619.046157	18351.621035
140.035500	-0.011702	0.001721	-0.008862	0.007702	5486.861415	33582.084148	3609.228508	18146.112834
140.536000	-0.008476	0.001650	-0.010195	0.001443	5544.677110	34022.484968	3617.972741	18368.014891
141.039000	-0.006920	0.001868	-0.012233	0.001604	5553.286879	34026.594818	3614.057882	18362.265640
141.536500	-0.009548	0.002618	-0.016609	0.002387	5532.280875	34024.209468	3604.947082	18334.336348
142.037000	-0.013441	0.002237	-0.013145	0.008081	5474.117048	33591.708112	3601.041175	18132.756494
142.537000	-0.008947	0.002245	-0.014754	0.002342	5536.243087	34000.683102	3608.288378	18335.926228
143.037000	-0.010350	0.002233	-0.010889	0.002706	5525.412607	33973.781475	3614.486660	18322.962470
143.535000	-0.009576	0.002374	-0.011854	0.002661	5530.429096	33987.047030	3612.853056	18324.574644
144.035000	-0.013309	0.001096	-0.018797	0.007651	5477.493276	33541.529658	3591.975594	18147.889278
144.535500	-0.009046	0.002169	-0.011339	0.002797	5532.843588	33962.642833	3613.525564	18319.721976
145.035500	-0.008265	0.003447	-0.013115	0.003140	5535.530173	34029.589309	3609.772773	18307.516490
145.535500	-0.008081	0.001696	-0.008436	0.002530	5540.410641	33947.942855	3619.174107	18329.235578
146.036500	-0.013760	0.002290	-0.013129	0.008948	5467.012063	33534.231735	3599.556917	18102.303621
146.536500	-0.008878	0.002269	-0.009253	0.002743	5534.208052	33973.676134	3617.333371	18321.647316
147.036500	-0.011629	0.002717	-0.012378	0.003549	5512.463590	33948.058249	3610.352343	18292.986376
147.536500	-0.009162	0.001910	-0.013981	0.002411	5534.499859	33971.805972	3609.531298	18333.483622
148.037500	-0.013744	0.001022	-0.016202	0.008307	5470.949867	33490.063028	3595.329663	18124.829350
148.535000	-0.011915	0.002401	-0.008510	0.003227	5512.680098	33948.524677	3617.796559	18304.431902
149.035000	-0.008728	0.002212	-0.008467	0.003234	5532.117185	33934.531181	3617.861248	18304.184909
149.535500	-0.009747	0.001923	-0.015556	0.002618	5529.638067	33957.826282	3606.388804	18326.085414
150.035500	-0.013655	0.002420	-0.020249	0.009406	5464.906720	33511.171267	3586.463039	18086.255878
150.538500	-0.007938	0.002218	-0.010634	0.003413	5535.867484	33922.114160	3613.683569	18297.820600
151.036500	-0.007977	0.002423	-0.007554	0.003170	5537.117024	33954.191100	3619.607171	18306.462978
151.536500	-0.007726	0.002010	-0.010126	0.002540	5542.535007	33969.699091	3616.138752	18328.874998
152.037000	-0.010268	0.001075	-0.011192	0.003970	5518.195020	33800.907339	3611.706533	18278.041295
152.537500	-0.005443	0.002056	-0.014271	0.002921	5554.273912	33945.756688	3608.120079	18315.327167
153.037500	-0.009276	0.003377	-0.009696	0.003704	5525.878578	33984.219111	3614.834378	18287.481377
153.535000	-0.006310	0.003649	-0.010194	0.004318	5540.307921	33959.706459	3612.858169	18265.678275
154.035000	-0.011382	0.002145	-0.010835	0.005318	5503.212895	33781.154731	3609.953311	18230.243688
154.535500	-0.008180	0.002177	-0.008645	0.003111	5536.234540	33940.818683	3617.762217	18308.561883
155.036000	-0.009558	0.000906	-0.014009	0.002725	5530.145837	33877.594969	3608.926630	18322.280964
155.536000	-0.008914	0.002458	-0.007632	0.003458	5529.601702	33936.036740	3618.952394	18296.213031
156.036500	-0.009452	0.002767	-0.014103	0.005396	5514.468289	33819.865995	3604.063895	18227.480934
156.536500	-0.011786	0.001994	-0.011855	0.002941	5515.208674	33939.844408	3612.354924	18314.592657
157.037000	-0.008530	0.001946	-0.015803	0.003050	5534.452871	33928.564664	3605.195322	18310.707202
157.537500	-0.009064	0.002411	-0.012667	0.003568	5528.009070	33924.874916	3609.808078	18292.313890
158.034500	-0.009697	0.001986	-0.010856	0.005082	5514.891077	33786.614298	3610.333339	18238.592505
158.534500	-0.007422	0.002085	-0.011177	0.003191	5540.398437	33928.466135	3613.113690	18305.704042
159.035500	-0.009445	0.001693	-0.012589	0.003028	5528.983158	33912.171041	3610.901411	18311.514507
159.535500	-0.009981	0.002365	-0.012674	0.003349	5523.735387	33937.199614	3610.183218	18300.093735
160.038500	-0.012560	0.002263	-0.017540	0.009160	5472.930010	33517.383970	3591.539828	18094.864170
160.536000	-0.008356	0.001812	-0.016928	0.003449	5533.076549	33890.588153	3602.525930	18296.533422
161.036500	-0.008707	0.002071	-0.017213	0.003899	5528.165102	33876.912035	3601.239511	18280.543764
161.536500	-0.008783	0.002213	-0.016269	0.003820	5528.184717	33892.662185	3603.029244	18283.337862
162.037000	-0.012800	0.002281	-0.015866	0.009485	5469.546075	33495.726539	3593.870813	18083.456542
162.537000	-0.011344	0.002350	-0.009473	0.003784	5512.767156	33905.018451	3615.086302	18284.625162
163.034500	-0.010128	0.001978	-0.005835	0.003558	5521.562404	33894.641258	3621.991881	18292.676273
163.535000	-0.010439	0.002297	-0.012145	0.003507	5519.972835	33921.073253	3610.840026	18294.480449
164.035500	-0.008626	0.001985	-0.010854	0.009463	5494.796462	33476.460574	3602.630745	18084.247511
164.538500	-0.007630	0.001306	-0.013784	0.003110	5539.619710	33878.648510	3608.644582	18308.580351
165.036000	-0.007916	0.002409	-0.006672	0.003873	5533.171858	33902.925723	3619.925661	18281.460800
165.536500	-0.008404	0.002203	-0.008833	0.003988	5529.480602	33879.982077	3615.863401	18277.392333
166.037000	-0.009961	0.001818	-0.011518	0.009356	5487.382625	33472.282975	3601.657703	18088.009487
166.537000	-0.009868	0.002075	-0.011175	0.003593	5522.939170	33899.075720	3612.405188	18291.427566
167.037500	-0.006409	0.003204	-0.008991	0.004054	5541.322919	33946.820850	3615.465418	18275.052002
167.537500	-0.008592	0.002756	-0.008826	0.003892	5528.912751	33926.332684	3616.046417	18280.782120
168.035000	-0.006519	0.002440	-0.009732	0.004003	5540.964164	33895.851374	3614.237973	18276.872271
168.535000	-0.008387	0.002818	-0.009780	0.004284	5527.769439	33902.803224	3613.654048	18266.890375
169.035500	-0.007664	0.002861	-0.008002	0.004624	5530.113722	33881.582998	3616.210654	18254.837191
169.536000	-0.007789	0.001398	-0.004910	0.003399	5536.863164	33864.608486	3623.939240	18298.306735
170.036000	-0.009712	0.001987	-0.007648	0.004938	5515.678104	33796.877012	3616.281884	18243.685637
170.577000	-0.007744	0.002648	-0.004390	0.004133	5532.632614	33901.445890	3623.555098	18272.238230
171.036000	-0.006771	0.002202	-0.007713	0.004444	5536.696608	33847.432337	3617.047260	18261.208504
171.537000	-0.008445	0.001826	-0.004039	0.003553	5531.891487	33884.151162	3625.230170	18292.826948
172.034500	-0.012666	0.002162	-0.013278	0.010382	5464.981919	33424.268329	3596.802490	18052.077965
172.536000	-0.006319	0.002006	-0.007996	0.004010	5542.149473	33864.399341	3617.315933	18276.610270
173.035000	-0.004889	0.003209	-0.009977	0.005130	5544.055601	33870.321674	3611.803980	18236.904474
173.535500	-0.007952	0.001226	-0.011423	0.003639	5534.387751	33835.253392	3611.882940	18289.786399
174.038500	-0.009311	0.001762	-0.003092	0.004579	5520.319633	33806.494000	3625.089671	18256.435373
174.535500	-0.009235	0.001253	-0.009655	0.003135	5529.612226	33873.061904	3615.918312	18307.684250
175.036000	-0.008522	0.002668	-0.010041	0.004537	5525.388495	33874.000747	3612.739755	18257.896750
175.536500	-0.007632	0.003135	-0.005216	0.004847	5528.944175	33885.243192	3620.790360	18246.937681
176.037000	-0.007510	0.002357	-0.007500	0.004853	5529.652741	33829.271770	3616.697063	18246.699148
176.534500	-0.009794	0.001632	-0.009989	0.004053	5520.576260	33834.612537	3613.691539	18275.068850
177.035000	-0.009157	0.003511	-0.006987	0.005125	5517.923273	33892.185796	3617.126375	18237.073915
177.535000	-0.008036	0.002551	-0.005033	0.004838	5526.522419	33844.166371	3621.133568	18247.226970
178.035500	-0.007711	0.002039	-0.007327	0.004439	5530.957717	33836.158983	3617.743884	18261.371842
178.535500	-0.005773	0.002989	-0.011619	0.004955	5539.692193	33867.121535	3609.209349	18243.095333
179.036000	-0.006366	0.002730	-0.009042	0.004536	5538.622352	33878.478752	3614.515218	18257.932967
179.535500	-0.005159	0.003069	-0.005633	0.005179	5542.089491	33856.782630	3619.448116	18235.157121
180.036000	-0.009790	0.002453	-0.009949	0.011072	5478.080742	33396.252680	3601.398790	18027.941421
180.536500	-0.004120	0.002261	-0.008200	0.004648	5551.772708	33837.094073	3615.815460	18253.973062
181.034500	-0.007092	0.003182	-0.006528	0.005653	5527.311917	33831.082586	3617.002780	18218.377633
181.539500	-0.005691	0.002021	-0.013766	0.004141	5545.210129	33856.091421	3606.859136	18271.946961
182.037000	-0.007201	0.003052	-0.009097	0.010942	5494.472194	33447.499837	3603.118429	18032.494603
182.535500	-0.005459	0.002477	-0.006839	0.004735	5542.980869	33846.259557	3618.087471	18250.883571
183.035500	-0.007821	0.003343	-0.010593	0.005360	5524.645738	33863.475458	3610.306589	18228.764561
183.535500	-0.009582	0.002715	-0.008799	0.004603	5518.510345	33872.625798	3614.828818	18255.564721
184.036000	-0.011919	0.002514	-0.018149	0.010935	5466.139016	33410.115291	3587.440368	18032.733385
184.536500	-0.006352	0.002582	-0.009456	0.004682	5537.814869	33857.559882	3613.523240	18252.784998
185.036500	-0.006307	0.002585	-0.009465	0.004979	5536.260331	33836.529335	3612.977478	18242.235151
185.537000	-0.007646	0.002464	-0.009582	0.004893	5528.571734	33834.038314	3612.923685	18245.279970
186.037000	-0.011560	0.000789	-0.014734	0.010005	5473.861755	33354.329027	3594.931456	18065.263389
