sample name	sample
index	415
start time	 03-08-2021  11:19:35 AM


Wavelength (nm)	Absorbance
494.344910	-0.573555
494.563924	-0.573555
494.782919	-0.573555
495.001897	-0.268213
495.220856	-0.352889
495.439797	-0.297878
495.658719	-0.284213
495.877624	-0.257945
496.096510	-0.216140
496.315378	-0.173527
496.534227	-0.147905
496.753059	-0.076664
496.971872	0.066070
497.190667	0.004970
497.409444	0.007648
497.628203	0.008356
497.846943	0.006567
498.065665	0.005911
498.284369	0.005831
498.503055	0.005656
498.721723	0.005413
498.940372	0.005330
499.159003	0.004491
499.377616	0.004554
499.596210	0.003710
499.814787	0.004004
500.033345	0.004147
500.251885	0.003679
500.470406	0.003705
500.688910	0.002918
500.907395	0.002561
501.125862	0.003363
501.344311	0.002499
501.562742	0.002817
501.781154	0.003642
501.999548	0.003056
502.217924	0.002657
502.436282	0.002940
502.654621	0.002563
502.872942	0.002499
503.091245	0.001996
503.309530	0.002667
503.527797	0.002729
503.746045	0.001807
503.964275	0.002297
504.182487	0.002680
504.400681	0.001979
504.618856	0.003333
504.837013	0.003827
505.055152	0.003520
505.273273	0.002861
505.491376	0.001997
505.709460	0.002155
505.927526	0.001818
506.145574	0.002419
506.363604	0.002238
506.581615	0.001306
506.799608	0.001250
507.017583	0.001230
507.235540	0.001445
507.453478	0.001543
507.671399	0.001195
507.889301	0.001067
508.107185	0.000528
508.325050	0.001216
508.542898	0.001254
508.760727	0.000824
508.978538	0.000940
509.196330	0.001303
509.414105	0.002577
509.631861	0.002376
509.849599	0.003069
510.067319	0.002924
510.285021	0.002727
510.502704	0.002691
510.720369	0.002876
510.938016	0.003135
511.155645	0.002663
511.373255	0.001588
511.590848	0.002010
511.808422	0.002181
512.025977	0.002198
512.243515	0.001958
512.461034	0.002388
512.678536	0.002421
512.896018	0.003148
513.113483	0.003385
513.330930	0.003702
513.548358	0.003402
513.765768	0.003137
513.983160	0.003158
514.200533	0.003347
514.417889	0.003082
514.635226	0.002627
514.852545	0.002505
515.069845	0.002115
515.287128	0.002346
515.504392	0.002594
515.721638	0.002192
515.938866	0.002342
516.156075	0.002430
516.373267	0.002968
516.590440	0.003806
516.807594	0.003353
517.024731	0.003564
517.241850	0.004404
517.458950	0.004653
517.676032	0.004561
517.893095	0.004554
518.110141	0.004630
518.327168	0.004528
518.544177	0.003969
518.761168	0.004077
518.978141	0.004556
519.195095	0.003728
519.412031	0.003569
519.628949	0.003597
519.845849	0.003620
520.062731	0.002734
520.279594	0.002505
520.496439	0.002294
520.713266	0.002315
520.930074	0.001847
521.146865	0.001984
521.363637	0.002489
521.580391	0.003098
521.797127	0.002979
522.013844	0.003785
522.230543	0.003889
522.447224	0.004237
522.663887	0.004602
522.880532	0.004502
523.097158	0.003880
523.313766	0.003175
523.530356	0.002496
523.746928	0.002190
523.963481	0.002565
524.180017	0.002692
524.396534	0.002917
524.613032	0.002554
524.829513	0.002592
525.045975	0.003117
525.262420	0.003686
525.478845	0.004155
525.695253	0.004358
525.911643	0.004125
526.128014	0.003979
526.344367	0.003776
526.560702	0.004022
526.777018	0.004056
526.993316	0.003737
527.209597	0.003537
527.425858	0.004001
527.642102	0.004202
527.858328	0.003983
528.074535	0.004219
528.290724	0.004335
528.506894	0.004461
528.723047	0.004551
528.939181	0.005122
529.155297	0.005146
529.371395	0.004766
529.587475	0.004915
529.803536	0.005036
530.019579	0.004756
530.235604	0.004841
530.451611	0.004463
530.667600	0.004450
530.883570	0.003995
531.099522	0.004293
531.315456	0.004189
531.531372	0.004317
531.747269	0.004449
531.963148	0.004905
532.179009	0.005245
532.394852	0.005353
532.610676	0.005332
532.826482	0.005980
533.042271	0.005256
533.258040	0.004819
533.473792	0.004595
533.689525	0.004416
533.905240	0.004318
534.120937	0.003344
534.336616	0.003345
534.552277	0.003638
534.767919	0.003424
534.983543	0.004068
535.199149	0.004649
535.414736	0.004733
535.630306	0.005010
535.845857	0.004692
536.061390	0.005548
536.276904	0.005919
536.492401	0.006019
536.707879	0.006253
536.923339	0.006318
537.138781	0.006135
537.354204	0.006098
537.569610	0.006242
537.784997	0.006747
538.000366	0.006554
538.215716	0.006484
538.431049	0.006384
538.646363	0.005913
538.861659	0.005880
539.076937	0.006235
539.292196	0.006284
539.507438	0.006338
539.722661	0.006244
539.937866	0.006393
540.153052	0.006281
540.368221	0.006401
540.583371	0.006403
540.798503	0.006321
541.013617	0.006081
541.228712	0.006004
541.443789	0.005772
541.658848	0.005734
541.873889	0.005723
542.088912	0.005466
542.303916	0.005417
542.518902	0.005707
542.733870	0.005706
542.948820	0.005529
543.163752	0.005738
543.378665	0.006111
543.593560	0.006252
543.808437	0.006411
544.023295	0.006837
544.238136	0.006953
544.452958	0.006851
544.667762	0.007276
544.882548	0.007727
545.097315	0.008145
545.312064	0.008145
545.526795	0.007824
545.741508	0.007515
545.956203	0.007561
546.170879	0.007466
546.385537	0.007480
546.600177	0.007351
546.814799	0.007283
547.029402	0.006716
547.243988	0.006554
547.458555	0.006896
547.673103	0.007005
547.887634	0.006865
548.102146	0.006932
548.316640	0.006957
548.531116	0.006822
548.745574	0.006589
548.960013	0.006941
549.174435	0.006923
549.388838	0.006657
549.603222	0.006649
549.817589	0.006504
550.031937	0.006312
550.246267	0.006312
550.460579	0.006252
550.674873	0.006506
550.889148	0.006346
551.103405	0.006363
551.317644	0.006548
551.531865	0.006279
551.746068	0.006397
551.960252	0.006447
552.174418	0.006585
552.388566	0.006543
552.602696	0.006092
552.816807	0.006125
553.030900	0.005862
553.244975	0.006020
553.459032	0.006233
553.673070	0.006266
553.887091	0.006318
554.101093	0.006166
554.315077	0.006080
554.529042	0.006558
554.742990	0.006422
554.956919	0.006512
555.170830	0.006478
555.384722	0.006821
555.598597	0.006656
555.812453	0.006716
556.026291	0.007025
556.240111	0.007208
556.453913	0.007040
556.667696	0.007020
556.881461	0.007426
557.095208	0.007377
557.308937	0.007133
557.522647	0.007221
557.736339	0.007106
557.950013	0.006826
558.163669	0.006798
558.377307	0.006764
558.590926	0.006935
558.804527	0.006555
559.018110	0.006486
559.231675	0.006503
559.445221	0.007175
559.658749	0.007330
559.872259	0.007457
560.085751	0.007351
560.299225	0.007559
560.512680	0.007545
560.726117	0.008060
560.939536	0.008398
561.152937	0.008430
561.366319	0.007916
561.579683	0.007986
561.793029	0.007891
562.006357	0.007910
562.219667	0.007876
562.432958	0.007987
562.646231	0.007525
562.859486	0.006952
563.072723	0.007081
563.285941	0.007210
563.499141	0.007102
563.712323	0.006969
563.925487	0.007203
564.138632	0.007098
564.351760	0.007058
564.564869	0.007105
564.777960	0.007115
564.991032	0.007148
565.204087	0.007153
565.417123	0.007035
565.630141	0.006985
565.843140	0.006904
566.056122	0.007210
566.269085	0.007232
566.482030	0.007387
566.694957	0.007714
566.907866	0.007687
567.120756	0.007752
567.333628	0.008085
567.546482	0.008713
567.759318	0.008762
567.972135	0.008623
568.184935	0.008743
568.397716	0.008754
568.610478	0.008716
568.823223	0.008885
569.035949	0.008766
569.248657	0.008668
569.461347	0.008500
569.674019	0.008436
569.886672	0.008393
570.099308	0.008445
570.311925	0.008719
570.524523	0.008861
570.737104	0.008513
570.949666	0.008462
571.162210	0.008771
571.374736	0.008762
571.587244	0.008686
571.799733	0.008765
572.012205	0.008732
572.224658	0.008300
572.437092	0.008351
572.649509	0.008596
572.861907	0.008940
573.074287	0.008873
573.286649	0.009156
573.498993	0.009589
573.711318	0.009639
573.923625	0.009746
574.135914	0.010124
574.348185	0.010091
574.560438	0.010107
574.772672	0.009834
574.984888	0.009952
575.197086	0.009937
575.409266	0.009625
575.621427	0.009622
575.833570	0.009723
576.045695	0.009743
576.257802	0.009945
576.469890	0.009996
576.681961	0.010314
576.894013	0.010276
577.106046	0.010086
577.318062	0.010157
577.530059	0.010094
577.742039	0.009950
577.954000	0.009789
578.165942	0.009820
578.377867	0.009569
578.589773	0.009226
578.801661	0.009188
579.013531	0.008929
579.225382	0.009089
579.437216	0.009103
579.649031	0.009349
579.860828	0.009624
580.072606	0.009539
580.284367	0.009864
580.496109	0.009993
580.707833	0.010137
580.919539	0.010926
581.131227	0.010869
581.342896	0.011410
581.554547	0.011570
581.766180	0.011503
581.977795	0.011671
582.189391	0.011885
582.400969	0.012167
582.612529	0.012126
582.824071	0.011790
583.035595	0.011936
583.247100	0.011777
583.458587	0.011356
583.670056	0.011271
583.881506	0.011228
584.092939	0.011001
584.304353	0.010825
584.515749	0.010708
584.727127	0.010740
584.938486	0.010918
585.149828	0.010855
585.361151	0.011051
585.572456	0.011434
585.783742	0.011503
585.995011	0.011804
586.206261	0.012030
586.417493	0.012128
586.628706	0.011973
586.839902	0.012077
587.051079	0.012215
587.262238	0.012577
587.473379	0.012215
587.684502	0.012144
587.895606	0.011759
588.106692	0.011872
588.317760	0.011774
588.528810	0.011958
588.739841	0.011635
588.950855	0.011505
589.161850	0.011141
589.372827	0.011382
589.583785	0.011399
589.794726	0.011645
590.005648	0.011656
590.216552	0.011802
590.427437	0.011606
590.638305	0.011921
590.849154	0.011898
591.059985	0.011951
591.270798	0.011865
591.481592	0.011982
591.692369	0.011903
591.903127	0.011785
592.113867	0.011885
592.324588	0.011844
592.535292	0.011672
592.745977	0.011949
592.956644	0.012055
593.167293	0.012319
593.377923	0.012125
593.588536	0.012349
593.799130	0.012369
594.009706	0.012540
594.220263	0.012948
594.430803	0.013031
594.641324	0.013073
594.851827	0.013298
595.062312	0.013270
595.272778	0.013745
595.483227	0.013424
595.693657	0.013677
595.904069	0.013477
596.114462	0.013601
596.324838	0.013542
596.535195	0.013433
596.745534	0.013315
596.955855	0.013158
597.166157	0.012833
597.376441	0.013088
597.586707	0.012739
597.796955	0.012688
598.007185	0.012564
598.217396	0.012645
598.427589	0.012435
598.637764	0.012539
598.847921	0.012742
599.058060	0.013032
599.268180	0.013335
599.478282	0.013494
599.688366	0.013727
599.898431	0.013726
600.108479	0.013910
600.318508	0.014263
600.528519	0.014063
600.738511	0.013994
600.948486	0.014084
601.158442	0.014056
601.368380	0.014430
601.578300	0.014599
601.788202	0.014539
601.998085	0.014333
602.207950	0.014201
602.417797	0.014297
602.627626	0.014369
602.837436	0.014358
603.047228	0.014247
603.257002	0.013818
603.466758	0.013724
603.676496	0.013934
603.886215	0.013949
604.095916	0.014223
604.305599	0.014249
604.515264	0.014476
604.724910	0.014232
604.934538	0.014187
605.144148	0.014513
605.353740	0.014489
605.563314	0.014441
605.772869	0.014867
605.982406	0.014847
606.191925	0.015047
606.401425	0.014730
606.610908	0.014806
606.820372	0.014942
607.029818	0.014861
607.239246	0.014680
607.448655	0.014938
607.658047	0.014775
607.867420	0.014713
608.076775	0.014733
608.286111	0.014784
608.495430	0.014803
608.704730	0.014887
608.914012	0.015037
609.123275	0.015190
609.332521	0.015133
609.541748	0.015214
609.750957	0.015401
609.960148	0.015418
610.169321	0.015549
610.378475	0.015791
610.587611	0.015686
610.796729	0.015460
611.005829	0.015661
611.214910	0.015651
611.423974	0.015527
611.633019	0.015413
611.842045	0.015356
612.051054	0.015412
612.260044	0.015480
612.469017	0.015808
612.677970	0.015958
612.886906	0.015920
613.095824	0.015748
613.304723	0.015867
613.513604	0.015858
613.722467	0.016032
613.931311	0.016238
614.140138	0.016175
614.348946	0.015809
614.557736	0.015895
614.766507	0.015931
614.975261	0.015982
615.183996	0.016090
615.392713	0.016072
615.601412	0.015883
615.810092	0.015669
616.018754	0.015789
616.227399	0.016125
616.436024	0.016147
616.644632	0.016300
616.853222	0.016475
617.061793	0.016472
617.270346	0.016584
617.478880	0.016783
617.687397	0.017095
617.895895	0.017030
618.104375	0.016982
618.312837	0.017115
618.521281	0.017151
618.729706	0.017112
618.938113	0.017252
619.146502	0.017088
619.354873	0.016968
619.563226	0.016878
619.771560	0.016852
619.979876	0.016876
620.188174	0.016864
620.396453	0.016824
620.604715	0.016611
620.812958	0.016467
621.021183	0.016765
621.229390	0.017000
621.437578	0.016954
621.645748	0.016906
621.853900	0.016897
622.062034	0.016661
622.270150	0.016661
622.478247	0.017058
622.686326	0.017090
622.894387	0.017203
623.102430	0.017127
623.310454	0.017198
623.518461	0.017575
623.726449	0.017663
623.934418	0.018005
624.142370	0.018216
624.350303	0.018017
624.558218	0.018094
624.766115	0.018054
624.973994	0.017946
625.181855	0.018052
625.389697	0.018002
625.597521	0.017987
625.805327	0.017835
626.013114	0.017642
626.220883	0.017708
626.428634	0.017674
626.636367	0.017737
626.844082	0.018034
627.051778	0.017967
627.259457	0.017902
627.467117	0.018095
627.674758	0.018386
627.882382	0.018544
628.089987	0.018692
628.297574	0.018874
628.505143	0.018933
628.712694	0.018880
628.920226	0.019012
629.127740	0.019045
629.335236	0.018793
629.542714	0.018763
629.750174	0.018704
629.957615	0.018640
630.165038	0.018684
630.372443	0.018613
630.579829	0.018468
630.787198	0.018382
630.994548	0.018260
631.201880	0.018279
631.409194	0.018141
631.616489	0.018222
631.823766	0.018261
632.031025	0.018157
632.238266	0.018078
632.445489	0.018240
632.652693	0.018068
632.859879	0.018085
633.067047	0.018032
633.274197	0.018092
633.481329	0.017937
633.688442	0.017988
633.895537	0.018029
634.102614	0.018156
634.309672	0.018169
634.516713	0.018360
634.723735	0.018420
634.930739	0.018573
635.137724	0.018705
635.344692	0.018938
635.551641	0.018915
635.758572	0.019065
635.965485	0.019112
636.172379	0.019163
636.379256	0.019225
636.586114	0.019377
636.792954	0.019509
636.999775	0.019472
637.206579	0.019396
637.413364	0.019703
637.620131	0.019669
637.826880	0.019724
638.033610	0.019890
638.240323	0.019885
638.447017	0.019783
638.653692	0.019748
638.860350	0.019723
639.066990	0.019965
639.273611	0.019822
639.480214	0.019856
639.686798	0.019729
639.893365	0.019560
640.099913	0.019782
640.306443	0.019817
640.512955	0.019777
640.719449	0.019869
640.925924	0.019723
641.132381	0.019933
641.338820	0.020082
641.545241	0.020133
641.751644	0.020312
641.958028	0.020274
642.164394	0.020498
642.370742	0.020761
642.577071	0.021078
642.783383	0.021216
642.989676	0.021062
643.195951	0.020909
643.402207	0.021016
643.608446	0.020841
643.814666	0.020513
644.020868	0.020368
644.227052	0.020296
644.433218	0.019972
644.639365	0.019770
644.845494	0.019746
645.051605	0.019967
645.257698	0.019936
645.463772	0.020125
645.669828	0.020389
645.875866	0.020460
646.081886	0.020421
646.287888	0.020555
646.493871	0.020702
646.699836	0.020769
646.905783	0.020718
647.111712	0.020657
647.317622	0.020665
647.523514	0.020777
647.729388	0.020858
647.935244	0.021074
648.141082	0.021096
648.346901	0.021160
648.552702	0.021142
648.758485	0.021012
648.964250	0.021279
649.169996	0.021439
649.375724	0.021615
649.581434	0.021535
649.787126	0.021507
649.992800	0.021466
650.198455	0.021475
650.404092	0.021561
650.609711	0.021614
650.815311	0.021545
651.020894	0.021295
651.226458	0.021122
651.432004	0.021318
651.637532	0.021351
651.843041	0.021322
652.048532	0.021334
652.254006	0.021452
652.459460	0.021586
652.664897	0.021655
652.870315	0.021865
653.075716	0.022003
653.281097	0.021907
653.486461	0.021979
653.691807	0.022178
653.897134	0.022383
654.102443	0.022245
654.307734	0.022221
654.513006	0.022263
654.718261	0.022213
654.923497	0.022252
655.128715	0.022335
655.333915	0.022137
655.539096	0.021954
655.744259	0.021847
655.949404	0.022029
656.154531	0.022192
656.359640	0.022182
656.564730	0.022287
656.769802	0.022188
656.974856	0.022109
657.179892	0.022176
657.384909	0.022257
657.589908	0.022097
657.794889	0.022062
657.999852	0.022033
658.204797	0.022217
658.409723	0.022124
658.614631	0.022055
658.819521	0.022245
659.024393	0.022468
659.229246	0.022619
659.434081	0.022800
659.638898	0.022898
659.843697	0.022885
660.048478	0.022796
660.253240	0.023205
660.457984	0.023473
660.662710	0.023528
660.867417	0.023435
661.072107	0.023362
661.276778	0.023518
661.481431	0.023485
661.686066	0.023589
661.890682	0.023476
662.095281	0.023190
662.299861	0.023156
662.504422	0.023048
662.708966	0.023168
662.913491	0.023374
663.117999	0.023376
663.322488	0.023534
663.526958	0.023701
663.731411	0.024019
663.935845	0.024057
664.140261	0.024189
664.344659	0.024343
664.549038	0.024251
664.753400	0.024129
664.957743	0.024166
665.162068	0.024198
665.366375	0.024083
665.570663	0.023897
665.774933	0.024143
665.979185	0.024079
666.183419	0.023995
666.387635	0.024003
666.591832	0.024251
666.796011	0.024385
667.000172	0.024466
667.204315	0.024725
667.408439	0.024814
667.612545	0.024767
667.816634	0.024846
668.020703	0.025152
668.224755	0.025436
668.428788	0.025544
668.632803	0.025587
668.836800	0.025662
669.040779	0.025486
669.244739	0.025647
669.448681	0.025773
669.652605	0.025823
669.856511	0.025753
670.060399	0.025732
670.264268	0.025681
670.468119	0.025504
670.671952	0.025366
670.875767	0.025362
671.079563	0.025388
671.283341	0.025248
671.487101	0.025261
671.690843	0.025239
671.894567	0.025329
672.098272	0.025388
672.301959	0.025548
672.505628	0.025619
672.709278	0.025704
672.912911	0.025579
673.116525	0.025723
673.320121	0.025551
673.523699	0.025653
673.727258	0.025556
673.930799	0.025409
674.134322	0.025269
674.337827	0.025318
674.541314	0.025336
674.744782	0.025469
674.948232	0.025292
675.151664	0.025642
675.355078	0.025732
675.558474	0.025782
675.761851	0.026036
675.965210	0.026180
676.168551	0.026124
676.371873	0.026259
676.575178	0.026180
676.778464	0.026443
676.981732	0.026385
677.184981	0.026273
677.388213	0.026326
677.591426	0.026169
677.794621	0.026244
677.997798	0.026400
678.200956	0.026309
678.404097	0.026424
678.607219	0.026394
678.810323	0.026485
679.013408	0.026533
679.216476	0.026446
679.419525	0.026466
679.622556	0.026415
679.825569	0.026518
680.028563	0.026549
680.231540	0.026621
680.434498	0.026579
680.637438	0.026556
680.840359	0.026502
681.043263	0.026687
681.246148	0.026848
681.449015	0.027064
681.651864	0.026888
681.854694	0.026954
682.057506	0.027029
682.260301	0.027165
682.463076	0.027291
682.665834	0.027413
682.868573	0.027430
683.071295	0.027492
683.273998	0.027461
683.476682	0.027658
683.679349	0.027913
683.881997	0.028004
684.084627	0.027946
684.287239	0.027904
684.489833	0.027938
684.692408	0.027984
684.894965	0.027871
685.097504	0.027866
685.300025	0.027889
685.502527	0.027715
685.705012	0.027702
685.907478	0.027804
686.109925	0.027832
686.312355	0.027859
686.514766	0.027827
686.717159	0.027946
686.919534	0.027973
687.121891	0.027997
687.324230	0.028061
687.526550	0.028140
687.728852	0.028253
687.931136	0.028307
688.133401	0.028485
688.335649	0.028582
688.537878	0.028643
688.740089	0.028756
688.942281	0.028772
689.144456	0.028653
689.346612	0.028787
689.548750	0.028726
689.750870	0.028670
689.952971	0.028609
690.155055	0.028670
690.357120	0.028614
690.559167	0.028572
690.761195	0.028535
690.963206	0.028735
691.165198	0.028590
691.367172	0.028566
691.569128	0.028533
691.771065	0.028581
691.972984	0.028612
692.174885	0.028753
692.376768	0.028724
692.578633	0.028730
692.780479	0.028613
692.982308	0.028592
693.184118	0.028633
693.385909	0.028561
693.587683	0.028532
693.789438	0.028395
693.991175	0.028386
694.192894	0.028406
694.394595	0.028562
694.596277	0.028674
694.797941	0.028840
694.999587	0.028944
695.201215	0.029199
695.402824	0.029291
695.604416	0.029329
695.805989	0.029366
696.007543	0.029605
696.209080	0.029488
696.410598	0.029478
696.612099	0.029334
696.813580	0.029325
697.015044	0.029407
697.216490	0.029434
697.417917	0.029676
697.619326	0.029694
697.820717	0.029560
698.022089	0.029606
698.223444	0.029614
698.424780	0.029805
698.626098	0.029803
698.827397	0.029797
699.028679	0.029798
699.229942	0.029737
699.431187	0.029658
699.632414	0.029511
699.833622	0.029589
700.034813	0.029740
700.235985	0.029659
700.437139	0.029801
700.638274	0.029630
700.839392	0.029673
701.040491	0.029677
701.241572	0.029851
701.442635	0.029887
701.643679	0.029846
701.844706	0.029855
702.045714	0.029893
702.246704	0.029645
702.447675	0.029867
702.648629	0.029780
702.849564	0.029810
703.050481	0.029778
703.251380	0.029796
703.452260	0.029901
703.653122	0.029848
703.853966	0.029756
704.054792	0.029908
704.255600	0.029831
704.456389	0.029979
704.657160	0.029934
704.857913	0.029813
705.058648	0.030102
705.259365	0.030118
705.460063	0.029989
705.660743	0.030064
705.861405	0.030102
706.062048	0.030042
706.262674	0.029923
706.463281	0.029931
706.663870	0.030041
706.864441	0.029874
707.064993	0.029758
707.265527	0.029925
707.466043	0.030103
707.666541	0.030080
707.867021	0.030219
708.067482	0.030448
708.267925	0.030369
708.468350	0.030370
708.668757	0.030467
708.869145	0.030676
709.069516	0.030810
709.269868	0.030698
709.470201	0.030901
709.670517	0.031093
709.870814	0.031058
710.071093	0.031194
710.271354	0.031393
710.471597	0.031501
710.671821	0.031482
710.872028	0.031357
711.072216	0.031282
711.272385	0.031085
711.472537	0.030826
711.672670	0.030722
711.872785	0.030810
712.072882	0.030616
712.272961	0.030531
712.473021	0.030454
712.673063	0.030293
712.873087	0.030379
713.073093	0.030512
713.273081	0.030518
713.473050	0.030596
713.673001	0.030682
713.872934	0.030584
714.072849	0.030751
714.272745	0.030828
714.472623	0.030916
714.672483	0.030714
714.872325	0.030554
715.072148	0.030620
715.271954	0.030498
715.471741	0.030253
715.671509	0.030279
715.871260	0.030005
716.070992	0.029787
716.270707	0.029910
716.470403	0.029984
716.670080	0.030002
716.869740	0.029967
717.069381	0.030125
717.269004	0.030205
717.468609	0.030123
717.668195	0.030347
717.867764	0.030424
718.067314	0.030292
718.266846	0.030370
718.466360	0.030505
718.665855	0.030495
718.865332	0.030235
719.064791	0.030098
719.264232	0.030261
719.463655	0.030016
719.663059	0.029905
719.862445	0.030012
720.061813	0.029892
720.261163	0.029660
720.460494	0.029540
720.659807	0.029433
720.859102	0.029549
721.058379	0.029346
721.257638	0.029184
721.456878	0.029306
721.656100	0.029273
721.855304	0.029270
722.054490	0.029337
722.253657	0.029211
722.452806	0.029273
722.651937	0.029135
722.851050	0.029375
723.050145	0.029589
723.249221	0.029593
723.448279	0.029468
723.647319	0.029460
723.846340	0.029490
724.045344	0.029681
724.244329	0.029736
724.443296	0.029733
724.642245	0.029656
724.841175	0.029588
725.040088	0.029666
725.238982	0.029756
725.437857	0.029841
725.636715	0.029905
725.835554	0.029890
726.034376	0.029892
726.233179	0.029896
726.431963	0.029728
726.630730	0.029801
726.829478	0.029653
727.028208	0.029596
727.226920	0.029640
727.425614	0.029583
727.624289	0.029839
727.822946	0.029750
728.021585	0.029770
728.220206	0.029971
728.418808	0.029888
728.617392	0.029844
728.815958	0.029761
729.014506	0.029749
729.213036	0.029673
729.411547	0.029360
729.610040	0.029419
729.808515	0.029404
730.006972	0.029198
730.205410	0.029051
730.403831	0.028955
730.602233	0.029001
730.800616	0.028902
730.998982	0.028805
731.197329	0.028630
731.395658	0.028661
731.593969	0.028663
731.792262	0.028712
731.990536	0.028878
732.188793	0.028926
732.387031	0.028860
732.585250	0.028781
732.783452	0.028907
732.981635	0.029088
733.179800	0.029004
733.377947	0.029043
733.576076	0.029120
733.774186	0.028912
733.972278	0.028793
734.170352	0.028734
734.368408	0.028831
734.566446	0.028592
734.764465	0.028438
734.962466	0.028332
735.160449	0.028144
735.358413	0.028105
735.556360	0.028277
735.754288	0.028396
735.952198	0.028420
736.150090	0.028387
736.347963	0.028390
736.545818	0.028565
736.743655	0.028618
736.941474	0.028715
737.139275	0.028680
737.337057	0.028808
737.534821	0.028778
737.732567	0.028528
737.930295	0.028551
738.128005	0.028772
738.325696	0.028679
738.523369	0.028843
738.721024	0.028916
738.918660	0.028866
739.116279	0.028687
739.313879	0.028708
739.511461	0.029126
739.709024	0.028714
739.906570	0.028482
740.104097	0.028446
740.301606	0.028390
740.499097	0.028189
740.696569	0.028089
740.894024	0.027826
741.091460	0.027789
741.288878	0.027570
741.486277	0.027790
741.683659	0.027865
741.881022	0.027776
742.078367	0.027664
742.275694	0.027529
742.473002	0.027530
742.670293	0.027699
742.867565	0.027656
743.064819	0.027658
743.262054	0.027585
743.459272	0.027526
743.656471	0.027647
743.853652	0.027564
744.050815	0.027667
744.247959	0.027719
744.445085	0.027633
744.642194	0.027594
744.839283	0.027600
745.036355	0.027690
745.233408	0.027629
745.430444	0.027395
745.627461	0.027287
745.824459	0.027183
746.021440	0.026952
746.218402	0.026846
746.415346	0.026723
746.612272	0.026693
746.809180	0.026554
747.006069	0.026497
747.202940	0.026641
747.399793	0.026810
747.596628	0.026902
747.793444	0.026880
747.990243	0.027022
748.187023	0.026979
748.383784	0.026767
748.580528	0.026823
748.777253	0.026824
748.973960	0.026813
749.170649	0.026708
749.367320	0.026677
749.563973	0.026783
749.760607	0.026639
749.957223	0.026761
750.153821	0.026867
750.350400	0.026791
750.546962	0.026755
750.743505	0.026550
750.940030	0.026442
751.136536	0.026325
751.333025	0.026180
751.529495	0.026261
751.725947	0.026208
751.922381	0.026125
752.118796	0.026097
752.315194	0.026193
752.511573	0.026317
752.707934	0.026500
752.904276	0.026697
753.100601	0.026820
753.296907	0.026518
753.493195	0.026374
753.689465	0.026385
753.885716	0.026294
754.081949	0.026045
754.278164	0.025866
754.474361	0.025677
754.670540	0.025698
754.866700	0.025638
755.062843	0.026012
755.258967	0.026245
755.455072	0.026389
755.651160	0.026515
755.847229	0.026745
756.043280	0.026819
756.239313	0.027007
756.435328	0.026762
756.631324	0.026890
756.827302	0.026971
757.023262	0.026741
757.219204	0.026656
757.415127	0.026594
757.611033	0.026465
757.806920	0.026525
758.002788	0.026509
758.198639	0.026685
758.394471	0.026559
758.590286	0.026357
758.786081	0.026506
758.981859	0.026514
759.177619	0.026431
759.373360	0.026398
759.569083	0.026188
759.764788	0.026095
759.960474	0.025785
760.156143	0.025631
760.351793	0.025486
760.547425	0.025297
760.743038	0.025161
760.938634	0.025264
761.134211	0.025349
761.329770	0.025446
761.525311	0.025328
761.720833	0.025561
761.916338	0.025692
762.111824	0.025794
762.307292	0.025974
762.502741	0.026042
762.698173	0.026135
762.893586	0.026023
763.088981	0.026064
763.284358	0.026274
763.479716	0.026051
763.675057	0.026005
763.870379	0.026200
764.065683	0.026058
764.260968	0.026134
764.456236	0.026161
764.651485	0.026471
764.846716	0.026317
765.041929	0.025975
765.237123	0.026070
765.432299	0.026111
765.627457	0.025910
765.822597	0.025973
766.017719	0.025746
766.212822	0.025735
766.407907	0.025570
766.602974	0.025690
766.798023	0.025732
766.993054	0.025793
767.188066	0.025710
767.383060	0.025711
767.578036	0.025643
767.772993	0.025786
767.967933	0.025792
768.162854	0.025794
768.357757	0.025777
768.552642	0.025811
768.747508	0.025737
768.942356	0.025689
769.137186	0.025743
769.331998	0.025797
769.526792	0.025620
769.721567	0.025356
769.916324	0.025352
770.111063	0.025206
770.305784	0.025275
770.500486	0.025324
770.695171	0.025431
770.889837	0.025338
771.084484	0.025479
771.279114	0.025656
771.473725	0.025770
771.668318	0.025838
771.862893	0.025878
772.057450	0.025617
772.251988	0.025441
772.446509	0.025348
772.641011	0.025350
772.835494	0.025167
773.029960	0.025062
773.224407	0.025040
773.418836	0.024891
773.613247	0.024803
773.807640	0.025092
774.002014	0.025090
774.196370	0.025071
774.390708	0.024846
774.585028	0.024631
774.779330	0.024704
774.973613	0.024772
775.167878	0.024514
775.362125	0.024630
775.556354	0.024676
775.750564	0.024821
775.944756	0.025043
776.138930	0.025293
776.333086	0.025560
776.527223	0.025410
776.721343	0.025153
776.915444	0.025386
777.109526	0.025476
777.303591	0.025114
777.497637	0.025178
777.691666	0.025020
777.885676	0.024920
778.079667	0.025086
778.273641	0.025089
778.467596	0.025221
778.661533	0.025124
778.855452	0.025149
779.049352	0.025441
779.243235	0.025367
779.437099	0.025595
779.630945	0.025642
779.824773	0.025313
780.018582	0.025276
780.212373	0.025057
780.406146	0.025037
780.599901	0.024734
780.793638	0.024576
780.987356	0.024579
781.181056	0.024410
781.374738	0.024436
781.568402	0.024525
781.762047	0.024768
781.955674	0.024984
782.149283	0.025076
782.342874	0.025157
782.536447	0.025135
782.730001	0.025068
782.923537	0.024961
783.117055	0.024891
783.310555	0.024884
783.504036	0.024781
783.697499	0.024899
783.890944	0.024900
784.084371	0.025059
784.277780	0.025294
784.471170	0.025326
784.664542	0.025450
784.857896	0.025506
785.051231	0.025523
785.244549	0.025383
785.437848	0.025254
785.631129	0.025244
785.824392	0.025359
786.017636	0.025303
786.210863	0.025351
786.404071	0.025272
786.597260	0.025326
786.790432	0.025290
786.983585	0.025400
787.176721	0.025557
787.369838	0.025827
787.562936	0.025646
787.756017	0.025621
787.949079	0.025702
788.142123	0.025671
788.335149	0.025607
788.528156	0.025632
788.721146	0.025720
788.914117	0.025751
789.107070	0.025629
789.300005	0.025704
789.492921	0.025563
789.685819	0.025523
789.878699	0.025290
790.071561	0.025465
790.264405	0.025539
790.457230	0.025535
790.650037	0.025479
790.842826	0.025412
791.035597	0.025477
791.228349	0.025643
791.421084	0.025431
791.613800	0.025825
791.806497	0.025631
791.999177	0.025514
792.191838	0.025426
792.384481	0.025412
792.577106	0.025413
792.769713	0.025466
792.962301	0.025468
793.154871	0.025635
793.347423	0.025598
793.539957	0.025705
793.732473	0.025797
793.924970	0.025969
794.117449	0.025977
794.309910	0.025971
794.502353	0.025891
794.694777	0.025941
794.887183	0.025957
795.079571	0.025885
795.271941	0.025844
795.464293	0.025902
795.656626	0.025763
795.848941	0.025681
796.041238	0.025715
796.233516	0.025759
796.425777	0.025812
796.618019	0.025883
796.810243	0.026064
797.002449	0.026101
797.194636	0.026015
797.386805	0.025938
797.578956	0.026196
797.771089	0.026234
797.963204	0.026382
798.155300	0.026417
798.347378	0.026529
798.539438	0.026445
798.731480	0.026437
798.923503	0.026491
799.115509	0.026707
799.307496	0.026579
799.499465	0.026657
799.691415	0.026486
799.883348	0.026510
800.075262	0.026448
800.267158	0.026528
800.459035	0.026632
800.650895	0.026652
800.842736	0.026731
801.034559	0.026683
801.226364	0.026575
801.418150	0.026744
801.609919	0.026811
801.801669	0.026848
801.993401	0.026814
802.185114	0.026812
802.376810	0.026848
802.568487	0.026697
802.760146	0.026816
802.951787	0.026865
803.143409	0.026743
803.335014	0.026743
803.526600	0.026755
803.718168	0.026762
803.909717	0.026852
804.101249	0.026973
804.292762	0.027073
804.484257	0.027094
804.675734	0.027067
804.867192	0.027277
805.058632	0.027012
805.250054	0.026932
805.441458	0.026836
805.632844	0.026700
805.824211	0.026765
806.015561	0.026803
806.206891	0.026858
806.398204	0.027089
806.589499	0.026977
806.780775	0.027175
806.972033	0.027347
807.163273	0.027469
807.354495	0.027465
807.545698	0.027350
807.736883	0.027562
807.928050	0.027517
808.119199	0.027488
808.310329	0.027373
808.501441	0.027408
808.692535	0.027367
808.883611	0.027424
809.074669	0.027457
809.265708	0.027558
809.456729	0.027226
809.647732	0.027139
809.838717	0.027038
810.029683	0.027099
810.220632	0.027260
810.411562	0.027339
810.602474	0.027371
810.793367	0.027357
810.984242	0.027358
811.175100	0.027502
811.365938	0.027744
811.556759	0.027783
811.747562	0.027914
811.938346	0.027699
812.129112	0.027635
812.319860	0.027550
812.510589	0.027660
812.701300	0.027709
812.891994	0.027846
813.082668	0.027696
813.273325	0.027646
813.463964	0.027321
813.654584	0.027563
813.845186	0.027520
814.035769	0.027583
814.226335	0.027453
814.416882	0.027562
814.607411	0.027519
814.797922	0.027496
814.988415	0.027695
815.178889	0.028215
815.369345	0.028132
815.559783	0.028420
815.750203	0.028595
815.940605	0.028949
816.130988	0.028922
816.321353	0.029055
816.511700	0.029348
816.702028	0.029569
816.892339	0.029723
817.082631	0.029767
817.272905	0.029771
817.463161	0.029688
817.653398	0.029503
817.843617	0.029504
818.033819	0.029355
818.224001	0.029184
818.414166	0.029002
818.604312	0.028918
818.794440	0.028884
818.984550	0.028878
819.174642	0.028856
819.364716	0.028952
819.554771	0.028923
819.744808	0.029105
819.934827	0.029170
820.124827	0.029204
820.314810	0.028955
820.504774	0.029067
820.694720	0.028925
820.884647	0.028982
821.074557	0.028996
821.264448	0.029170
821.454321	0.029202
821.644176	0.029364
821.834012	0.029316
822.023831	0.029547
822.213631	0.029563
822.403413	0.029589
822.593176	0.029697
822.782922	0.029785
822.972649	0.029571
823.162358	0.029528
823.352049	0.029186
823.541721	0.029043
823.731376	0.029038
823.921012	0.028937
824.110629	0.028837
824.300229	0.028808
824.489811	0.028561
824.679374	0.028713
824.868919	0.028701
825.058445	0.028969
825.247954	0.029110
825.437444	0.029016
825.626916	0.028974
825.816370	0.029153
826.005806	0.028931
826.195223	0.029078
826.384622	0.029042
826.574003	0.029061
826.763366	0.029131
826.952711	0.029424
827.142037	0.029721
827.331345	0.029975
827.520635	0.029929
827.709906	0.030154
827.899160	0.030286
828.088395	0.030305
828.277612	0.030502
828.466810	0.030919
828.655991	0.030860
828.845153	0.030644
829.034297	0.030756
829.223423	0.030940
829.412531	0.030881
829.601620	0.031000
829.790691	0.031098
829.979744	0.031002
830.168779	0.030694
830.357795	0.030705
830.546793	0.030869
830.735773	0.030601
830.924735	0.030625
831.113679	0.030767
831.302604	0.030919
831.491511	0.030747
831.680400	0.030704
831.869271	0.030636
832.058123	0.030521
832.246957	0.030471
832.435773	0.030693
832.624571	0.030598
832.813351	0.030726
833.002112	0.030587
833.190855	0.030835
833.379580	0.031068
833.568287	0.031236
833.756975	0.031463
833.945645	0.031448
834.134297	0.031663
834.322931	0.031823
834.511547	0.031634
834.700144	0.031655
834.888723	0.031611
835.077284	0.031632
835.265826	0.031545
835.454351	0.031337
835.642857	0.031676
835.831345	0.031663
836.019815	0.031657
836.208266	0.032041
836.396699	0.032058
836.585114	0.032259
836.773511	0.032243
836.961890	0.032266
837.150250	0.032654
837.338592	0.032505
837.526916	0.032658
837.715222	0.032800
837.903510	0.032662
838.091779	0.032823
838.280030	0.032913
838.468263	0.032937
838.656477	0.032934
838.844674	0.032909
839.032852	0.033088
839.221012	0.033017
839.409153	0.033257
839.597277	0.033360
839.785382	0.033658
839.973469	0.033609
840.161538	0.033798
840.349589	0.034205
840.537621	0.034186
840.725635	0.034190
840.913631	0.033996
841.101609	0.033948
841.289568	0.034234
841.477509	0.034049
841.665432	0.034280
841.853337	0.034350
842.041224	0.034409
842.229092	0.034618
842.416942	0.034821
842.604774	0.035325
842.792588	0.035384
842.980383	0.035357
843.168160	0.035425
843.355919	0.035232
843.543660	0.035329
843.731382	0.035288
843.919087	0.035444
844.106773	0.035330
844.294441	0.035377
844.482090	0.035626
844.669722	0.035792
844.857335	0.035945
845.044930	0.036323
845.232507	0.036372
845.420065	0.036446
845.607605	0.036272
845.795127	0.036311
845.982631	0.036228
846.170117	0.036062
846.357584	0.036068
846.545033	0.036222
846.732464	0.036233
846.919877	0.036399
847.107272	0.036634
847.294648	0.036822
847.482006	0.036953
847.669346	0.037030
847.856667	0.037217
848.043971	0.037108
848.231256	0.037066
848.418523	0.037205
848.605771	0.037256
848.793002	0.037049
848.980214	0.037014
849.167408	0.037338
849.354584	0.037458
849.541742	0.037387
849.728881	0.037625
849.916002	0.037705
850.103105	0.037667
850.290190	0.037747
850.477256	0.038132
850.664304	0.038333
850.851334	0.038196
851.038346	0.038240
851.225340	0.038398
851.412315	0.038711
851.599272	0.038909
851.786211	0.039104
851.973132	0.039216
852.160034	0.039140
852.346918	0.039026
852.533784	0.039254
852.720632	0.039379
852.907462	0.039629
853.094273	0.039561
853.281066	0.039386
853.467841	0.039641
853.654598	0.039604
853.841336	0.039842
854.028056	0.040265
854.214758	0.040322
854.401442	0.040395
854.588107	0.040338
854.774755	0.040403
854.961384	0.040607
855.147995	0.040364
855.334587	0.040412
855.521162	0.040365
855.707718	0.040367
855.894256	0.040386
856.080775	0.040384
856.267277	0.040396
856.453760	0.040307
856.640225	0.040489
856.826672	0.040624
857.013101	0.040600
857.199511	0.040426
857.385903	0.040443
857.572277	0.040448
857.758633	0.040606
857.944970	0.040646
858.131290	0.040980
858.317591	0.040875
858.503873	0.041014
858.690138	0.041118
858.876384	0.041276
859.062612	0.041520
859.248822	0.041689
859.435014	0.041794
859.621188	0.041906
859.807343	0.041661
859.993480	0.041702
860.179599	0.041659
860.365699	0.041774
860.551781	0.041992
860.737846	0.041754
860.923891	0.041765
861.109919	0.041807
861.295929	0.041942
861.481920	0.042139
861.667893	0.042389
861.853848	0.042295
862.039784	0.042211
862.225702	0.042348
862.411603	0.042311
862.597484	0.042498
862.783348	0.042493
862.969193	0.042538
863.155021	0.042730
863.340830	0.042805
863.526620	0.043112
863.712393	0.043448
863.898147	0.043642
864.083883	0.043814
864.269601	0.043935
864.455301	0.044023
864.640982	0.044261
864.826645	0.044356
865.012290	0.044315
865.197917	0.044365
865.383526	0.044569
865.569116	0.044434
865.754688	0.044508
865.940242	0.044804
866.125777	0.044822
866.311295	0.044749
866.496794	0.044724
866.682275	0.044830
866.867737	0.045201
867.053182	0.045056
867.238608	0.045074
867.424016	0.045335
867.609406	0.045239
867.794778	0.045207
867.980131	0.045326
868.165466	0.045209
868.350783	0.045136
868.536082	0.045128
868.721362	0.045474
868.906625	0.045563
869.091869	0.045674
869.277094	0.045347
869.462302	0.045585
869.647491	0.045507
869.832662	0.045463
870.017815	0.045653
870.202950	0.045443
870.388066	0.045357
870.573165	0.045551
870.758245	0.045490
870.943306	0.045642
871.128350	0.045784
871.313375	0.045940
871.498382	0.046364
871.683371	0.046486
871.868342	0.046614
872.053294	0.046600
872.238229	0.046687
872.423144	0.046651
872.608042	0.046543
872.792922	0.046572
872.977783	0.046434
873.162626	0.046305
873.347451	0.046342
873.532258	0.046334
873.717046	0.046232
873.901816	0.046152
874.086568	0.046081
874.271302	0.046508
874.456017	0.046129
874.640715	0.046364
874.825394	0.046281
875.010055	0.046379
875.194697	0.046521
875.379322	0.046703
875.563928	0.046635
875.748516	0.046826
875.933085	0.046651
876.117637	0.046991
876.302170	0.047107
876.486685	0.047467
876.671182	0.047297
876.855661	0.047331
877.040121	0.047367
877.224563	0.047542
877.408987	0.047719
877.593393	0.048008
877.777780	0.048099
877.962150	0.048051
878.146501	0.047983
878.330833	0.048391
878.515148	0.048484
878.699444	0.048317
878.883722	0.048380
879.067982	0.048374
879.252224	0.048077
879.436447	0.048093
879.620653	0.048139
879.804840	0.048178
879.989008	0.047986
880.173159	0.048053
880.357291	0.048200
880.541405	0.048015
880.725501	0.047876
880.909579	0.048139
881.093638	0.047875
881.277680	0.047735
881.461703	0.047588
881.645707	0.047590
881.829694	0.047313
882.013662	0.047243
882.197612	0.047340
882.381544	0.047568
882.565458	0.047566
882.749353	0.047734
882.933230	0.047970
883.117089	0.047931
883.300930	0.048000
883.484753	0.048239
883.668557	0.048343
883.852343	0.048606
884.036111	0.048578
884.219861	0.048657
884.403592	0.048685
884.587305	0.048765
884.771000	0.048952
884.954677	0.049074
885.138335	0.048982
885.321976	0.048895
885.505598	0.048827
885.689201	0.048839
885.872787	0.048521
886.056354	0.048349
886.239904	0.048078
886.423434	0.048138
886.606947	0.048140
886.790442	0.048366
886.973918	0.048721
887.157376	0.048786
887.340816	0.048908
887.524237	0.049215
887.707641	0.049565
887.891026	0.049749
888.074393	0.049752
888.257741	0.049418
888.441072	0.049131
888.624384	0.048922
888.807678	0.048822
888.990954	0.048726
889.174211	0.048752
889.357451	0.048621
889.540672	0.048610
889.723875	0.048711
889.907059	0.049057
890.090226	0.049225
890.273374	0.049199
890.456504	0.049035
890.639616	0.049052
890.822709	0.049062
891.005785	0.049287
891.188842	0.049435
891.371881	0.049294
891.554901	0.048753
891.737904	0.048535
891.920888	0.048489
892.103854	0.048650
892.286802	0.048662
892.469731	0.048755
892.652643	0.048546
892.835536	0.048280
893.018410	0.048461
893.201267	0.048902
893.384106	0.049118
893.566926	0.049537
893.749728	0.049362
893.932511	0.049191
894.115277	0.048773
894.298024	0.048981
894.480753	0.049367
894.663464	0.049202
894.846157	0.049186
895.028831	0.049179
895.211487	0.048828
895.394125	0.048677
895.576745	0.048686
895.759346	0.049188
895.941930	0.049206
896.124495	0.048689
896.307041	0.048705
896.489570	0.048930
896.672080	0.048750
896.854573	0.048754
897.037046	0.049034
897.219502	0.049175
897.401940	0.048977
897.584359	0.048571
897.766760	0.048965
897.949143	0.048927
898.131507	0.048399
898.313854	0.048694
898.496182	0.048820
898.678492	0.048859
898.860783	0.048636
899.043057	0.048212
899.225312	0.048253
899.407549	0.048093
899.589768	0.048324
899.771968	0.048589
899.954151	0.048498
900.136315	0.048000
900.318461	0.047785
900.500588	0.047744
900.682698	0.047907
900.864789	0.048043
901.046862	0.047606
901.228917	0.047242
901.410953	0.047176
901.592971	0.046686
901.774972	0.046897
901.956953	0.046729
902.138917	0.046533
902.320862	0.046450
902.502790	0.046266
902.684699	0.046692
902.866589	0.046724
903.048462	0.046548
903.230316	0.046481
903.412152	0.046209
903.593970	0.046360
903.775770	0.046484
903.957551	0.046415
904.139314	0.046635
904.321059	0.046346
904.502786	0.046221
904.684494	0.046052
904.866185	0.046227
905.047857	0.046249
905.229510	0.046081
905.411146	0.045814
905.592763	0.045697
905.774363	0.045406
905.955943	0.045320
906.137506	0.045405
906.319051	0.045324
906.500577	0.045221
906.682085	0.045323
906.863575	0.045513
907.045046	0.045561
907.226500	0.045594
907.407935	0.045606
907.589352	0.045462
907.770750	0.045246
907.952131	0.045545
908.133493	0.045251
908.314837	0.044918
908.496163	0.044717
908.677470	0.044899
908.858760	0.045024
909.040031	0.044744
909.221284	0.044803
909.402518	0.044711
909.583735	0.044176
909.764933	0.044181
909.946113	0.044224
910.127275	0.043757
910.308418	0.043468
910.489544	0.043003
910.670651	0.043216
910.851740	0.043065
911.032810	0.042878
911.213863	0.042907
911.394897	0.043186
911.575913	0.043191
911.756911	0.043543
911.937890	0.043315
912.118851	0.043445
912.299794	0.042881
912.480719	0.042839
912.661626	0.042636
912.842514	0.042622
913.023384	0.041941
913.204236	0.042075
913.385070	0.041636
913.565886	0.041676
913.746683	0.041383
913.927462	0.041637
914.108223	0.041302
914.288965	0.041505
914.469690	0.041359
914.650396	0.041303
914.831084	0.040935
915.011754	0.040961
915.192405	0.040735
915.373038	0.040773
915.553653	0.040683
915.734250	0.040680
915.914829	0.040534
916.095389	0.040187
916.275931	0.040237
916.456455	0.040308
916.636961	0.040016
916.817448	0.039805
916.997917	0.039336
917.178368	0.038713
917.358801	0.038767
917.539216	0.038419
917.719612	0.038266
917.899990	0.037901
918.080350	0.037218
918.260692	0.037448
918.441015	0.037378
918.621320	0.037505
918.801607	0.037413
918.981876	0.037127
919.162127	0.037120
919.342359	0.037078
919.522573	0.036797
919.702769	0.036865
919.882947	0.036467
920.063106	0.036344
920.243247	0.035834
920.423370	0.035991
920.603475	0.035622
920.783562	0.035493
920.963630	0.035057
921.143680	0.035261
921.323712	0.035201
921.503725	0.034947
921.683721	0.034880
921.863698	0.035266
922.043657	0.035263
922.223598	0.035493
922.403520	0.035178
922.583424	0.035641
922.763311	0.035302
922.943178	0.035222
923.123028	0.034952
923.302859	0.034521
923.482673	0.034310
923.662467	0.034392
923.842244	0.034312
924.022003	0.034629
924.201743	0.034177
924.381465	0.034143
924.561169	0.033816
924.740854	0.033954
924.920522	0.033518
925.100171	0.033105
925.279802	0.032129
925.459414	0.031632
925.639009	0.030609
925.818585	0.030292
925.998143	0.029585
926.177683	0.029409
926.357205	0.028876
926.536708	0.028915
926.716193	0.028804
926.895660	0.028533
927.075109	0.028155
927.254539	0.028273
927.433951	0.028151
927.613345	0.028266
927.792721	0.027884
927.972079	0.027621
928.151418	0.027382
928.330739	0.027038
928.510042	0.026650
928.689327	0.026505
928.868593	0.026236
929.047841	0.025889
929.227071	0.026130
929.406283	0.025848
929.585476	0.025581
929.764652	0.025084
929.943809	0.024752
930.122948	0.025024
930.302068	0.024913
930.481171	0.024584
930.660255	0.024495
930.839321	0.024004
931.018369	0.023839
931.197398	0.023256
931.376409	0.023005
931.555402	0.022488
931.734377	0.021958
931.913334	0.021008
932.092272	0.020883
932.271192	0.020826
932.450094	0.020733
932.628978	0.019966
932.807844	0.020327
932.986691	0.020692
933.165520	0.020527
933.344331	0.020526
933.523123	0.020184
933.701898	0.019497
933.880654	0.018850
934.059392	0.018493
934.238111	0.018788
934.416813	0.018512
934.595496	0.018268
934.774161	0.018140
934.952808	0.017979
935.131437	0.018334
935.310047	0.018763
935.488639	0.018643
935.667213	0.018389
935.845769	0.017803
936.024306	0.017266
936.202825	0.016890
936.381326	0.016675
936.559809	0.016342
936.738274	0.015830
936.916720	0.015023
937.095148	0.014950
937.273558	0.014834
937.451950	0.014864
937.630323	0.014784
937.808678	0.014468
937.987015	0.014417
938.165334	0.014092
938.343635	0.013894
938.521917	0.014422
938.700181	0.013819
938.878427	0.013163
939.056655	0.012525
939.234864	0.012060
939.413055	0.012663
939.591228	0.012323
939.769383	0.012134
939.947519	0.011499
940.125638	0.010489
940.303738	0.010175
940.481820	0.009850
940.659883	0.010028
940.837929	0.010594
941.015956	0.009409
941.193965	0.008833
941.371955	0.008051
941.549928	0.008537
941.727882	0.008805
941.905818	0.008760
942.083736	0.008843
942.261636	0.008920
942.439517	0.007767
942.617380	0.006885
942.795225	0.006335
942.973052	0.006387
943.150860	0.005562
943.328651	0.004797
943.506423	0.004501
943.684176	0.003599
943.861912	0.002687
944.039629	0.002919
944.217328	0.003644
944.395009	0.004177
944.572672	0.003914
944.750317	0.003851
944.927943	0.003597
945.105551	0.003390
945.283141	0.003193
945.460712	0.003554
945.638265	0.002727
945.815801	0.001668
945.993317	0.001006
946.170816	0.000741
946.348297	0.000908
946.525759	-0.000211
946.703203	-0.000392
946.880629	-0.000079
947.058036	-0.000713
947.235425	-0.000166
947.412797	0.000695
947.590149	0.000700
947.767484	0.001312
947.944800	0.001548
948.122099	0.002774
948.299379	0.001932
948.476640	0.002229
948.653884	0.003083
948.831109	0.002636
949.008316	0.001805
949.185505	0.001633
949.362676	0.000124
949.539828	-0.000853
949.716962	-0.001187
949.894078	-0.001401
950.071176	-0.002649
950.248256	-0.003793
950.425317	-0.004101
950.602360	-0.003044
950.779385	-0.003071
950.956391	-0.002409
951.133380	-0.003398
951.310350	-0.003894
951.487302	-0.003902
951.664235	-0.003788
951.841151	-0.004003
952.018048	-0.002527
952.194927	-0.003576
952.371788	-0.003758
952.548631	-0.002908
952.725455	-0.002089
952.902261	-0.001696
953.079049	-0.000833
953.255819	-0.000264
953.432570	0.000515
953.609303	-0.001046
953.786018	-0.002020
953.962715	-0.002336
954.139394	-0.003138
954.316054	-0.002788
954.492696	-0.004746
954.669320	-0.005614
954.845926	-0.006316
955.022513	-0.007179
955.199083	-0.007960
955.375634	-0.006672
955.552166	-0.006097
955.728681	-0.005285
955.905177	-0.004065
956.081655	-0.001651
956.258115	-0.000765
956.434557	0.000160
956.610980	0.000592
956.787385	0.001807
956.963772	0.001026
957.140141	0.000633
957.316492	0.000495
957.492824	-0.001589
957.669138	-0.001433
957.845434	-0.002479
958.021712	-0.002010
958.197971	-0.001361
958.374212	-0.000708
958.550435	-0.001061
958.726640	0.000151
958.902826	-0.001224
959.078995	-0.000645
959.255145	-0.001078
959.431277	-0.001443
959.607390	-0.001799
959.783486	-0.002866
959.959563	-0.004736
960.135622	-0.003774
960.311662	-0.004560
960.487685	-0.003951
960.663689	-0.002007
960.839675	-0.002924
961.015643	-0.001394
961.191593	-0.000850
961.367524	0.000168
961.543437	0.001281
961.719332	0.001023
961.895209	-0.001477
962.071067	0.000573
962.246907	-0.000019
962.422730	0.000307
962.598533	0.000890
962.774319	0.000368
962.950086	0.000496
963.125835	-0.000050
963.301566	0.001285
963.477279	0.004916
963.652973	0.002028
963.828650	0.000707
964.004308	0.000533
964.179947	-0.000595
964.355569	0.000315
964.531172	-0.000867
964.706757	-0.000951
964.882324	-0.001259
965.057873	-0.003152
965.233403	-0.001661
965.408916	-0.000046
965.584410	0.000678
965.759885	0.001714
965.935343	0.001042
966.110782	0.000672
966.286203	0.000349
966.461606	-0.000768
966.636991	-0.000218
966.812357	-0.000739
966.987705	-0.002846
967.163035	-0.002635
967.338347	-0.003391
967.513641	-0.003687
967.688916	-0.002269
967.864173	-0.001291
968.039412	-0.000912
968.214632	-0.000050
968.389835	0.001701
968.565019	0.002995
968.740185	0.003244
968.915333	0.003877
969.090462	0.002270
969.265573	0.002447
969.440667	0.003220
969.615741	0.005198
969.790798	0.005162
969.965836	0.004578
970.140856	0.006162
970.315858	0.005457
970.490842	0.005005
970.665808	0.006688
970.840755	0.005452
971.015684	0.005358
971.190595	0.004431
971.365487	0.002702
971.540362	0.002031
971.715218	0.001615
971.890056	0.002649
972.064875	0.004410
972.239677	0.004794
972.414460	0.006528
972.589225	0.005331
972.763972	0.005461
972.938700	0.006177
973.113411	0.006691
973.288103	0.004097
973.462777	0.004172
973.637432	0.002573
973.812070	0.001311
973.986689	0.001072
974.161290	0.002187
974.335873	0.001041
974.510437	0.001979
974.684984	0.002196
974.859512	0.004854
975.034022	0.003825
975.208513	0.003923
975.382987	0.004752
975.557442	0.003523
975.731879	0.003969
975.906298	0.004096
976.080698	0.003662
976.255080	0.002962
976.429445	0.004062
976.603790	0.003666
976.778118	0.003126
976.952427	0.002458
977.126719	0.003193
977.300992	0.001678
977.475246	0.001371
977.649483	0.001117
977.823701	0.001029
977.997901	-0.001476
978.172083	-0.000451
978.346247	-0.000261
978.520392	0.000287
978.694519	0.000781
978.868628	0.000100
979.042719	0.000788
979.216791	0.001258
979.390845	0.001558
979.564882	0.001883
979.738899	0.001358
979.912899	0.001393
980.086880	0.002909
980.260843	0.002130
980.434788	0.003739
980.608715	0.002918
980.782623	0.005224
980.956514	0.005907
981.130386	0.005740
981.304240	0.005072
981.478075	0.004566
981.651892	0.003760
981.825692	0.004032
981.999472	0.003693
982.173235	0.006226
982.346980	0.003121
982.520706	0.002204
982.694414	0.001735
982.868104	0.002815
983.041775	0.003504
983.215428	0.003039
983.389064	0.002927
983.562680	0.001587
983.736279	-0.000863
983.909860	0.001118
984.083422	0.000389
984.256966	0.002009
984.430491	0.001250
984.603999	0.001683
984.777488	0.002440
984.950959	0.002862
985.124412	0.003197
985.297847	0.004330
985.471263	0.002223
985.644661	0.002836
985.818041	0.002222
985.991403	0.003376
986.164747	0.003090
986.338072	0.002380
986.511379	0.001938
986.684668	0.002596
986.857938	0.002404
987.031191	0.002441
987.204425	0.003223
987.377641	0.003057
987.550839	0.001828
987.724018	0.001631
987.897179	0.000349
988.070322	-0.000349
988.243447	0.001902
988.416554	0.001643
988.589642	0.003106
988.762712	0.002890
988.935764	0.000884
989.108798	0.002484
989.281813	0.002797
989.454811	0.004513
989.627790	0.005645
989.800751	0.003800
989.973693	0.003381
990.146617	0.004267
990.319524	0.004146
990.492412	0.006361
990.665281	0.006235
990.838133	0.006687
991.010966	0.006271
991.183781	0.006258
991.356578	0.006130
991.529356	0.007555
991.702117	0.005698
991.874859	0.005122
992.047583	0.005469
992.220288	0.005154
992.392976	0.005631
992.565645	0.005144
992.738296	0.004779
992.910929	0.003955
993.083543	0.001579
993.256139	0.000582
993.428718	0.000729
993.601277	-0.000120
993.773819	-0.000125
993.946342	-0.001919
994.118848	-0.002930
994.291335	-0.003285
994.463803	-0.002710
994.636254	-0.002344
994.808686	0.000837
994.981100	0.000450
995.153496	0.000591
995.325874	-0.000286
995.498233	0.000964
995.670574	0.002684
995.842897	0.002149
996.015202	0.002144
996.187488	0.003055
996.359757	0.001731
996.532007	0.003749
996.704239	0.004727
996.876452	0.004554
997.048648	0.004144
997.220825	0.003720
997.392984	0.003802
997.565124	0.004300
997.737247	0.004049
997.909351	0.003318
998.081437	0.001154
998.253505	0.001076
998.425554	0.001103
998.597586	0.000075
998.769599	-0.000475
998.941594	0.000369
999.113571	0.000604
999.285529	0.002682
999.457469	0.001950
999.629391	0.003367
999.801295	0.002457
999.973181	0.002769
1000.145048	0.003787
1000.316897	0.004261
1000.488728	0.004569
1000.660541	0.005149
1000.832335	0.002978
1001.004111	0.003525
1001.175869	0.001826
1001.347609	0.002228
1001.519331	0.000816
1001.691034	0.001967
1001.862719	0.002140
1002.034386	0.001288
1002.206035	-0.000297
1002.377665	-0.000463
1002.549277	-0.000241
1002.720871	0.000422
1002.892447	-0.001139
1003.064004	0.000538
1003.235544	0.000386
1003.407065	0.000006
1003.578568	-0.000603
1003.750052	0.000996
1003.921519	0.000924
1004.092967	0.000353
1004.264397	0.000949
1004.435809	0.001729
1004.607202	0.003521
1004.778577	0.003902
1004.949934	0.004820
1005.121273	0.005011
1005.292594	0.004683
1005.463896	0.004267
1005.635180	0.005589
1005.806446	0.005898
1005.977694	0.005145
1006.148923	0.002949
1006.320135	0.002275
1006.491328	0.001429
1006.662503	0.002455
1006.833659	0.001374
1007.004798	0.001852
1007.175918	0.001697
1007.347020	0.000671
1007.518103	0.001025
1007.689169	0.001194
1007.860216	0.000336
1008.031245	0.001654
1008.202256	0.000279
1008.373248	-0.000018
1008.544223	0.000651
1008.715179	-0.000079
1008.886117	0.001169
1009.057036	0.002562
1009.227938	0.002496
1009.398821	0.002933
1009.569686	0.001186
1009.740533	0.002253
1009.911361	0.004251
1010.082172	0.004317
1010.252964	0.004875
1010.423738	0.004532
1010.594493	0.003873
1010.765231	0.003772
1010.935950	0.003371
1011.106651	0.005418
1011.277334	0.006453
1011.447998	0.005976
1011.618645	0.004825
1011.789273	0.003666
1011.959882	0.001400
1012.130474	0.000659
1012.301048	0.001342
1012.471603	0.001795
1012.642140	-0.000106
1012.812658	0.000331
1012.983159	-0.000729
1013.153641	-0.000293
1013.324105	0.000547
1013.494551	0.002414
1013.664979	0.002802
1013.835388	0.001394
1014.005779	0.000940
1014.176152	0.000991
1014.346507	-0.001218
1014.516843	-0.001924
1014.687162	-0.001042
1014.857462	-0.001454
1015.027744	-0.001928
1015.198007	-0.001867
1015.368252	-0.002192
1015.538480	-0.000755
1015.708689	-0.000373
1015.878879	-0.000368
1016.049052	-0.000008
1016.219206	0.000418
1016.389342	-0.000044
1016.559460	-0.000403
1016.729559	0.000589
1016.899641	0.000949
1017.069704	0.001151
1017.239749	0.001305
1017.409775	0.001301
1017.579784	0.001299
1017.749774	0.001033
1017.919746	0.001844
1018.089700	0.001745
1018.259635	-0.000851
1018.429553	-0.000279
1018.599452	-0.002005
1018.769333	-0.002586
1018.939195	-0.001390
1019.109040	-0.001211
1019.278866	-0.001004
1019.448674	-0.001903
1019.618464	-0.001028
1019.788235	0.001350
1019.957989	0.004143
1020.127724	0.005967
1020.297441	0.006046
1020.467139	0.005282
1020.636820	0.005726
1020.806482	0.003902
1020.976126	0.005798
1021.145752	0.005487
1021.315359	0.005176
1021.484948	0.002746
1021.654519	0.002004
1021.824072	0.001149
1021.993607	0.001223
1022.163123	0.000128
1022.332621	0.001352
1022.502101	-0.000750
1022.671563	-0.000494
1022.841007	-0.000701
1023.010432	-0.000740
1023.179839	-0.001174
1023.349228	0.000063
1023.518598	-0.000176
1023.687951	-0.000032
1023.857285	0.000140
1024.026601	0.000642
1024.195899	0.000331
1024.365178	0.000540
1024.534439	-0.000505
1024.703682	-0.003018
1024.872907	-0.004735
1025.042114	-0.003760
1025.211302	-0.003325
1025.380472	-0.003977
1025.549624	-0.004178
1025.718758	-0.003694
1025.887873	-0.004035
1026.056970	-0.002912
1026.226049	-0.000281
1026.395110	0.001498
1026.564153	0.000863
1026.733177	0.001954
1026.902183	0.002696
1027.071171	0.004051
1027.240141	0.002518
1027.409092	0.002725
1027.578026	0.003287
1027.746940	0.002685
1027.915837	0.002541
1028.084716	0.002647
1028.253576	0.002372
1028.422418	0.001189
1028.591242	0.000297
1028.760048	0.000814
1028.928835	0.000196
1029.097604	0.000344
1029.266355	0.001314
1029.435088	0.001549
1029.603803	0.000916
1029.772499	-0.000894
1029.941177	-0.000880
1030.109837	0.000318
1030.278478	0.001284
1030.447102	0.001813
1030.615707	0.000420
1030.784294	-0.000328
1030.952863	-0.001176
1031.121413	-0.001761
1031.289945	-0.001720
1031.458460	-0.000366
1031.626955	-0.001593
1031.795433	-0.002364
1031.963892	-0.002164
1032.132334	-0.002520
1032.300756	-0.004293
1032.469161	-0.003465
1032.637548	-0.001773
1032.805916	0.000096
1032.974266	-0.002038
1033.142598	-0.001781
1033.310911	-0.002251
1033.479207	-0.002797
1033.647484	-0.002551
1033.815743	0.000599
1033.983983	-0.000255
1034.152206	-0.000937
1034.320410	-0.001465
1034.488596	-0.000944
1034.656764	-0.001064
1034.824914	0.000574
1034.993045	-0.000448
1035.161158	-0.000139
1035.329253	-0.002085
1035.497330	-0.002084
1035.665388	-0.001186
1035.833428	-0.001979
1036.001450	-0.002200
1036.169454	-0.002781
1036.337440	-0.004482
1036.505407	-0.002583
1036.673356	-0.003193
1036.841287	-0.003486
1037.009200	-0.002490
1037.177094	-0.003608
1037.344970	-0.002775
1037.512828	-0.003302
1037.680668	-0.003615
1037.848489	-0.002589
1038.016293	-0.002751
1038.184078	-0.001283
1038.351845	-0.002955
1038.519593	-0.004167
1038.687324	-0.004567
1038.855036	-0.005750
1039.022730	-0.003748
1039.190406	-0.002075
1039.358063	-0.003127
1039.525702	-0.002520
1039.693323	-0.002905
1039.860926	-0.001400
1040.028511	-0.001063
1040.196077	-0.001151
1040.363625	0.000368
1040.531155	-0.000314
1040.698667	-0.001110
1040.866161	-0.000278
1041.033636	-0.001649
1041.201093	-0.001389
1041.368532	0.000294
1041.535952	0.000232
1041.703355	0.000777
1041.870739	0.000726
1042.038105	0.000481
1042.205452	0.001282
1042.372782	0.001587
1042.540093	0.000262
1042.707386	-0.000703
1042.874661	-0.002210
1043.041918	-0.000730
1043.209156	-0.000394
1043.376376	-0.000996
1043.543578	-0.000803
1043.710762	-0.001881
1043.877927	-0.002351
1044.045074	-0.001375
1044.212203	0.000041
1044.379314	0.000845
1044.546407	-0.001144
1044.713481	-0.000969
1044.880537	-0.000663
1045.047575	-0.000113
1045.214595	0.000813
1045.381596	0.001495
1045.548579	0.001043
1045.715544	0.001479
1045.882491	-0.000092
1046.049420	0.001652
1046.216330	0.000606
1046.383222	0.000080
1046.550096	0.000172
1046.716951	-0.001110
1046.883789	-0.000902
1047.050608	0.000159
1047.217409	0.000842
1047.384192	0.002761
1047.550956	0.001672
1047.717703	0.002287
1047.884431	0.003416
1048.051140	0.003883
1048.217832	0.005322
1048.384505	0.004989
1048.551161	0.004544
1048.717798	0.001763
1048.884416	0.002345
1049.051017	0.002544
1049.217599	0.003267
1049.384163	0.002056
1049.550709	0.000681
1049.717237	-0.001249
1049.883746	-0.002545
1050.050237	-0.000616
1050.216710	0.000869
1050.383165	0.000434
1050.549601	-0.000019
1050.716019	-0.001261
1050.882420	-0.000190
1051.048801	-0.002027
1051.215165	-0.000102
1051.381510	0.000809
1051.547837	-0.000475
1051.714146	-0.002145
1051.880437	-0.003542
1052.046709	-0.002330
1052.212964	-0.000819
1052.379200	-0.002421
1052.545417	0.000437
1052.711617	0.000563
1052.877798	0.000557
1053.043961	-0.001167
1053.210106	0.000175
1053.376233	0.000428
1053.542341	-0.001058
1053.708432	-0.001730
1053.874504	0.000496
1054.040557	0.000023
1054.206593	-0.002135
1054.372610	-0.002222
1054.538609	-0.001038
1054.704590	-0.001585
1054.870553	-0.002094
1055.036497	-0.001217
1055.202424	-0.001939
1055.368331	-0.003859
1055.534221	-0.004736
1055.700093	-0.003173
1055.865946	-0.003137
1056.031781	-0.002301
1056.197598	-0.001055
1056.363397	0.000366
1056.529177	-0.000700
1056.694939	-0.000302
1056.860683	0.000352
1057.026409	0.001603
1057.192116	-0.000639
1057.357806	-0.001119
1057.523477	-0.001714
1057.689130	-0.004173
1057.854764	-0.004841
1058.020381	-0.003307
1058.185979	-0.004042
1058.351559	-0.004194
1058.517120	-0.005489
1058.682664	-0.003058
1058.848189	-0.002626
1059.013696	-0.003765
1059.179185	-0.003761
1059.344656	-0.004389
1059.510108	-0.006164
1059.675542	-0.005082
1059.840958	-0.005120
1060.006356	-0.004625
1060.171735	-0.004746
1060.337096	-0.005702
1060.502439	-0.006913
1060.667764	-0.005887
1060.833071	-0.005455
1060.998359	-0.006497
1061.163629	-0.004756
1061.328881	-0.007452
1061.494115	-0.007819
1061.659330	-0.008802
1061.824527	-0.008044
1061.989706	-0.005522
1062.154867	-0.007097
1062.320010	-0.006131
1062.485134	-0.002921
1062.650240	-0.005462
1062.815328	-0.001871
1062.980398	-0.001635
1063.145449	-0.001323
1063.310482	-0.000691
1063.475497	-0.001347
1063.640494	0.001716
1063.805473	0.001430
1063.970433	0.000824
1064.135375	0.000491
1064.300299	0.000718
1064.465204	0.000997
1064.630092	0.001260
1064.794961	-0.001190
1064.959812	-0.001165
1065.124645	-0.002400
1065.289459	-0.002573
1065.454256	-0.003444
1065.619034	-0.001089
1065.783793	-0.001179
1065.948535	-0.002501
1066.113258	-0.002289
1066.277964	-0.001705
1066.442651	0.000062
1066.607319	-0.000098
1066.771970	-0.000541
1066.936602	-0.001002
1067.101216	-0.003809
1067.265812	-0.006304
1067.430389	-0.004838
1067.594949	-0.006770
1067.759490	-0.005275
1067.924013	-0.005815
1068.088518	-0.005398
1068.253004	-0.006141
1068.417472	-0.006172
1068.581922	-0.006103
1068.746354	-0.004128
1068.910768	-0.005729
1069.075163	-0.002450
1069.239540	-0.002276
1069.403899	-0.003412
1069.568240	-0.004356
1069.732562	-0.004581
1069.896866	-0.003647
1070.061152	-0.003061
1070.225420	-0.004377
1070.389670	-0.002212
1070.553901	-0.004563
1070.718114	-0.006017
1070.882309	-0.005423
1071.046486	-0.004905
1071.210644	-0.003458
1071.374784	-0.004741
1071.538906	-0.004737
1071.703010	-0.004867
1071.867096	-0.006095
1072.031163	-0.005822
1072.195212	-0.005892
1072.359243	-0.007210
1072.523256	-0.007331
1072.687250	-0.007208
1072.851226	-0.006106
1073.015184	-0.006101
1073.179124	-0.006500
1073.343045	-0.007090
1073.506949	-0.006225
1073.670834	-0.005004
1073.834701	-0.004448
1073.998549	-0.005046
1074.162380	-0.004316
1074.326192	-0.003498
1074.489986	-0.002429
1074.653761	-0.000436
1074.817519	-0.000998
1074.981258	-0.001427
1075.144979	-0.001252
1075.308682	-0.001165
1075.472367	-0.002911
1075.636033	-0.003692
1075.799681	-0.002255
1075.963311	-0.002261
1076.126923	-0.003862
1076.290516	-0.000828
1076.454092	-0.001223
1076.617649	-0.000880
1076.781187	0.000076
1076.944708	0.002941
1077.108210	0.002148
1077.271695	-0.001029
1077.435160	-0.000784
1077.598608	-0.000446
1077.762038	-0.000615
1077.925449	0.000298
1078.088842	-0.001378
1078.252217	-0.001699
1078.415573	-0.000947
1078.578912	-0.000797
1078.742232	0.000685
1078.905534	-0.001061
1079.068817	-0.002537
1079.232083	-0.002865
1079.395330	-0.003086
1079.558559	-0.003043
1079.721770	-0.003402
1079.884962	-0.005143
1080.048136	-0.004800
1080.211293	-0.005577
1080.374430	-0.005559
1080.537550	-0.004173
1080.700651	-0.005211
1080.863735	-0.006029
1081.026800	-0.004428
1081.189846	-0.005131
1081.352875	-0.004952
1081.515885	-0.004104
1081.678877	-0.004830
1081.841851	-0.003884
1082.004807	-0.004001
1082.167744	-0.004356
1082.330663	-0.005819
1082.493564	-0.007191
1082.656447	-0.007174
1082.819312	-0.008125
1082.982158	-0.009646
1083.144986	-0.010434
1083.307796	-0.009511
1083.470587	-0.008988
1083.633361	-0.008055
1083.796116	-0.003922
1083.958853	-0.002738
1084.121571	-0.003404
1084.284272	-0.003860
1084.446954	-0.003496
1084.609618	-0.001685
1084.772264	-0.002655
1084.934892	-0.002971
1085.097501	-0.003376
1085.260092	-0.003925
1085.422665	-0.007033
1085.585220	-0.007053
1085.747756	-0.006839
1085.910274	-0.006055
1086.072774	-0.006761
1086.235256	-0.006113
1086.397720	-0.005644
1086.560165	-0.007503
1086.722592	-0.009135
1086.885001	-0.007349
1087.047392	-0.005659
1087.209764	-0.003689
1087.372119	-0.006560
1087.534455	-0.006780
1087.696772	-0.007855
1087.859072	-0.005486
1088.021353	-0.004630
1088.183616	-0.004224
1088.345861	-0.005133
1088.508088	-0.004168
1088.670296	-0.004250
1088.832486	-0.001962
1088.994658	-0.002080
1089.156812	-0.001245
1089.318948	-0.003611
1089.481065	-0.001584
1089.643164	-0.004132
1089.805245	-0.003104
1089.967308	-0.003782
1090.129352	-0.005841
1090.291378	-0.005645
1090.453386	-0.005423
1090.615376	-0.006291
1090.777347	-0.006979
1090.939301	-0.008827
1091.101236	-0.006437
1091.263153	-0.006609
1091.425051	-0.007372
1091.586932	-0.004003
1091.748794	-0.004234
1091.910638	-0.004532
1092.072463	-0.006025
1092.234271	-0.006069
1092.396060	-0.005554
1092.557831	-0.006036
1092.719584	-0.005018
1092.881319	-0.005077
1093.043035	-0.004542
1093.204733	-0.005623
1093.366413	-0.004209
1093.528075	-0.003854
1093.689718	-0.005540
1093.851343	-0.005785
1094.012950	-0.003285
1094.174539	-0.004047
1094.336110	-0.004079
1094.497662	-0.007687
1094.659196	-0.008200
1094.820712	-0.006240
1094.982210	-0.002116
1095.143689	-0.000391
1095.305151	-0.000132
1095.466594	-0.004544
1095.628018	-0.004561
1095.789425	-0.006204
1095.950813	-0.005399
1096.112183	-0.006271
1096.273535	-0.007928
1096.434869	-0.009158
1096.596184	-0.008643
1096.757482	-0.009147
1096.918761	-0.008987
1097.080021	-0.008301
1097.241264	-0.007573
1097.402488	-0.007747
1097.563694	-0.005188
1097.724882	-0.009225
1097.886052	-0.011691
1098.047203	-0.012257
1098.208336	-0.010296
1098.369451	-0.009495
1098.530548	-0.008137
1098.691627	-0.004795
1098.852687	-0.003357
1099.013729	-0.003082
1099.174753	0.000246
1099.335758	0.003315
1099.496746	0.004591
1099.657715	-0.000680
1099.818666	-0.001313
1099.979599	-0.001101
1100.140513	0.002589
1100.301409	-0.000679
1100.462287	-0.003356
1100.623147	-0.004527
1100.783989	-0.005625
1100.944812	-0.003638
1101.105617	0.003385
1101.266404	0.003201
1101.427173	0.002315
1101.587923	-0.006160
1101.748656	-0.004142
1101.909370	-0.000861
1102.070066	-0.000572
1102.230743	-0.002859
1102.391403	-0.005514
1102.552044	-0.009182
1102.712667	-0.009823
1102.873271	-0.010158
1103.033858	-0.009347
1103.194426	-0.010365
1103.354976	-0.011732
1103.515508	-0.013462
1103.676021	-0.012851
1103.836517	-0.012321
1103.996994	-0.011592
1104.157453	-0.007384
1104.317893	-0.005978
1104.478316	-0.004634
1104.638720	-0.001553
1104.799106	-0.000286
1104.959474	0.002721
1105.119823	0.002205
1105.280155	0.001121
1105.440468	0.000900
1105.600763	-0.001069
1105.761039	-0.003208
1105.921298	0.000424
1106.081538	-0.004207
1106.241760	-0.005682
1106.401964	-0.004330
1106.562149	-0.003499
1106.722316	-0.000231
1106.882465	0.001772
1107.042596	0.004067
1107.202709	0.002906
1107.362803	0.000641
1107.522879	-0.000015
1107.682937	0.003216
1107.842977	0.002312
1108.002999	0.003980
1108.163002	0.000586
1108.322987	0.001711
1108.482954	-0.001622
1108.642902	0.003146
1108.802833	0.000917
1108.962745	0.003261
1109.122639	-0.001702
1109.282515	-0.002227
1109.442372	-0.003204
1109.602211	0.000681
1109.762032	-0.002538
1109.921835	-0.003745
1110.081620	-0.008118
1110.241386	-0.007699
1110.401134	-0.004133
1110.560864	-0.005341
1110.720576	-0.006136
1110.880269	-0.005843
1111.039945	-0.009304
1111.199602	-0.008944
1111.359240	-0.004726
1111.518861	-0.003920
1111.678463	-0.005234
1111.838047	-0.005127
1111.997613	0.000479
1112.157161	0.000604
1112.316690	-0.000006
1112.476202	0.000860
1112.635695	-0.000637
1112.795169	0.000123
1112.954626	-0.000060
1113.114064	0.000941
1113.273484	-0.001513
1113.432886	-0.007210
1113.592270	-0.006938
1113.751635	-0.004748
1113.910983	-0.008014
1114.070312	-0.007614
1114.229622	-0.010789
1114.388915	-0.010342
1114.548189	-0.009143
1114.707445	-0.009026
1114.866683	-0.005418
1115.025903	-0.004191
1115.185104	-0.006388
1115.344287	-0.004474
1115.503452	-0.002700
1115.662599	-0.000874
1115.821727	0.001191
1115.980838	0.001058
1116.139930	0.000701
1116.299004	0.000565
1116.458059	0.002599
1116.617097	0.004999
1116.776116	0.005801
1116.935117	0.005640
1117.094099	0.001564
1117.253064	-0.002099
1117.412010	-0.000288
1117.570938	0.000135
1117.729848	-0.003188
1117.888740	-0.005487
1118.047613	-0.008032
1118.206468	-0.009297
1118.365305	-0.010530
1118.524124	-0.007736
1118.682924	-0.006443
1118.841707	-0.012640
1119.000471	-0.013622
1119.159216	-0.008699
1119.317944	-0.011567
1119.476653	-0.009371
1119.635344	-0.003939
1119.794017	-0.002768
1119.952672	-0.005063
1120.111308	-0.001800
1120.269927	0.002144
1120.428527	0.000585
1120.587108	-0.001141
1120.745672	0.003729
1120.904217	0.003930
1121.062744	-0.001171
1121.221253	-0.005643
1121.379744	-0.004872
1121.538216	-0.004155
1121.696671	-0.001993
1121.855107	-0.002013
1122.013524	-0.000178
1122.171924	-0.007094
1122.330305	-0.008228
1122.488668	-0.005146
1122.647013	-0.001510
1122.805340	-0.000072
1122.963648	-0.002681
1123.121938	-0.005151
1123.280210	0.000244
1123.438464	-0.001758
1123.596700	0.002808
1123.754917	0.003287
1123.913116	-0.000387
1124.071297	0.000857
1124.229459	0.000706
1124.387604	-0.000585
1124.545730	0.002744
1124.703838	-0.001242
1124.861928	-0.001441
1125.019999	0.001563
1125.178052	0.000901
1125.336088	0.001949
1125.494104	-0.000293
1125.652103	-0.000790
1125.810083	-0.001267
1125.968045	-0.001089
1126.125989	-0.002197
1126.283915	-0.000008
1126.441823	-0.006031
1126.599712	-0.010580
1126.757583	-0.009705
1126.915436	-0.008636
1127.073270	-0.008740
1127.231087	-0.009262
1127.388885	-0.010729
1127.546665	-0.012453
1127.704426	-0.012057
1127.862170	-0.008703
1128.019895	-0.005444
1128.177602	-0.005737
1128.335291	-0.006148
1128.492961	-0.002157
1128.650614	-0.000899
1128.808248	-0.003248
1128.965864	0.003118
1129.123461	0.004389
1129.281041	0.002030
1129.438602	-0.000390
1129.596145	-0.001016
1129.753670	0.001283
1129.911176	-0.001840
1130.068665	-0.003967
1130.226135	-0.001129
1130.383587	-0.004884
1130.541020	-0.004956
1130.698436	-0.000253
1130.855833	0.003875
1131.013212	0.004392
1131.170573	0.004220
1131.327915	0.002351
1131.485239	0.001257
1131.642545	0.003264
1131.799833	0.003595
1131.957103	-0.000895
1132.114354	-0.004998
1132.271588	-0.006115
1132.428803	-0.003216
1132.585999	-0.004303
1132.743178	-0.002369
1132.900338	0.003241
1133.057480	-0.000658
1133.214604	0.002288
1133.371710	0.004741
1133.528797	0.007067
1133.685866	0.003612
1133.842917	-0.002717
1133.999950	-0.002675
1134.156964	-0.002733
1134.313960	-0.006656
1134.470938	-0.007843
1134.627898	-0.001733
1134.784840	-0.003905
1134.941763	-0.003406
1135.098668	0.002148
1135.255555	0.004826
1135.412424	0.003711
1135.569274	0.003675
1135.726107	0.003728
1135.882921	0.003642
1136.039716	-0.006118
1136.196494	-0.003958
1136.353253	-0.007027
1136.509995	-0.005518
1136.666717	-0.000612
1136.823422	-0.001896
1136.980109	-0.001208
1137.136777	0.000219
1137.293427	0.005667
1137.450059	0.009323
1137.606672	0.007874
1137.763267	0.010632
1137.919844	0.004134
1138.076403	-0.000956
1138.232944	0.005107
1138.389466	0.001083
1138.545971	0.000902
1138.702457	-0.002080
1138.858924	0.001310
1139.015374	0.000239
1139.171805	-0.000697
1139.328218	0.000172
1139.484613	-0.004873
1139.640990	-0.013612
1139.797348	-0.006676
1139.953688	-0.008394
1140.110010	-0.008167
1140.266314	-0.015447
1140.422600	-0.012427
1140.578867	-0.016191
1140.735116	-0.018130
1140.891347	-0.015326
1141.047559	-0.014277
1141.203754	-0.017834
1141.359930	-0.024449
1141.516088	-0.018574
1141.672228	-0.015075
1141.828349	-0.018764
1141.984452	-0.018653
1142.140537	-0.017424
1142.296604	-0.010567
1142.452653	-0.004673
1142.608683	-0.006407
1142.764695	0.001161
1142.920689	-0.002022
1143.076665	-0.000347
1143.232622	0.001261
1143.388562	0.007769
1143.544483	0.007769
1143.700385	0.007714
1143.856270	0.007728
1144.012136	0.006937
1144.167985	0.015088
1144.323814	0.013177
1144.479626	0.009918
1144.635420	0.008581
1144.791195	0.003376
1144.946952	0.007484
1145.102691	0.003947
1145.258411	-0.002884
1145.414113	-0.000088
1145.569798	-0.010818
1145.725463	-0.013940
1145.881111	-0.015427
1146.036741	-0.010719
1146.192352	-0.005453
1146.347945	-0.003948
1146.503519	-0.006285
1146.659076	0.001883
1146.814614	-0.002098
1146.970134	0.006612
1147.125636	0.012710
1147.281120	0.015015
1147.436585	0.008929
1147.592032	0.004592
1147.747461	0.001720
1147.902872	0.005594
1148.058265	0.004872
1148.213639	0.009630
1148.368995	0.000784
1148.524333	-0.007099
1148.679653	-0.007045
1148.834954	-0.005744
1148.990237	-0.004334
1149.145502	-0.007969
1149.300749	-0.010551
1149.455977	-0.012411
1149.611188	-0.013392
1149.766380	-0.013948
1149.921553	-0.014512
1150.076709	-0.018924
1150.231846	-0.016314
1150.386966	-0.014693
1150.542066	-0.013912
1150.697149	-0.014524
1150.852214	-0.014237
1151.007260	-0.013610
1151.162288	-0.006058
1151.317298	-0.000751
1151.472289	0.004453
1151.627263	0.005810
1151.782218	0.003697
1151.937155	0.008977
1152.092073	0.007381
1152.246974	0.003395
1152.401856	0.006274
1152.556720	0.006462
1152.711566	0.005499
1152.866393	0.007043
1153.021203	0.014386
1153.175994	0.018841
1153.330767	0.023264
1153.485521	0.028134
1153.640258	0.033505
1153.794976	0.022655
1153.949676	0.024378
1154.104358	0.021224
1154.259021	0.021539
1154.413667	0.009062
1154.568294	-0.002114
1154.722903	-0.006537
1154.877493	-0.005007
1155.032066	-0.009585
1155.186620	0.000718
1155.341156	-0.003732
1155.495674	0.000463
1155.650173	0.000714
1155.804654	0.005246
1155.959118	0.005837
1156.113562	0.000465
1156.267989	0.000060
1156.422397	0.004524
1156.576788	-0.003405
1156.731160	0.003681
1156.885513	0.001265
1157.039849	-0.008255
1157.194166	-0.016236
1157.348465	-0.011469
1157.502746	-0.006651
1157.657009	-0.013450
1157.811253	-0.016070
1157.965479	-0.010470
1158.119687	-0.009842
1158.273877	-0.001558
1158.428048	0.004840
1158.582201	0.002834
1158.736337	0.004596
1158.890453	0.000602
1159.044552	0.002217
1159.198632	0.001262
1159.352694	0.008470
1159.506738	-0.003264
1159.660764	-0.017742
1159.814771	-0.017162
1159.968761	-0.003817
1160.122732	-0.009334
1160.276685	-0.007063
1160.430619	-0.006347
1160.584535	-0.005640
1160.738434	-0.017586
1160.892313	-0.003504
1161.046175	0.001403
1161.200019	0.004055
1161.353844	-0.002262
1161.507651	0.001178
1161.661440	-0.004122
1161.815210	-0.009006
1161.968962	-0.009104
1162.122697	-0.002306
1162.276412	-0.011525
1162.430110	-0.004984
1162.583789	-0.002531
1162.737451	-0.004694
1162.891094	-0.002778
1163.044718	-0.005611
1163.198325	0.007691
1163.351913	0.010208
1163.505483	-0.005602
1163.659035	0.000664
1163.812569	-0.004692
1163.966084	-0.010107
1164.119581	-0.002676
1164.273060	-0.004690
1164.426521	-0.004236
1164.579964	-0.005372
1164.733388	-0.012473
1164.886794	0.000705
1165.040182	-0.013339
1165.193551	-0.011228
1165.346903	-0.005508
1165.500236	-0.006739
1165.653551	-0.009046
1165.806848	-0.001873
1165.960126	-0.008051
1166.113386	-0.010180
1166.266628	-0.014017
1166.419852	-0.012444
1166.573058	-0.022591
1166.726245	-0.023926
1166.879414	-0.031045
1167.032565	-0.031333
1167.185698	-0.031715
1167.338812	-0.033161
1167.491909	-0.034250
1167.644987	-0.035121
1167.798046	-0.028116
1167.951088	-0.018902
1168.104111	-0.034585
1168.257117	-0.034131
1168.410103	-0.031567
1168.563072	-0.027795
1168.716023	-0.023888
1168.868955	-0.016246
1169.021869	-0.011250
1169.174765	-0.013494
1169.327642	-0.020153
1169.480501	-0.009669
1169.633343	-0.001141
1169.786165	0.001412
1169.938970	-0.009797
1170.091757	-0.015658
1170.244525	-0.013625
1170.397275	-0.012821
1170.550007	-0.012761
1170.702720	-0.016794
1170.855415	-0.010347
1171.008092	-0.009834
1171.160751	-0.004912
1171.313392	0.010052
1171.466014	0.073210
1171.618619	0.052721
1171.771205	0.052721
1171.923772	0.052721
