sample name	sample
index	37
start time	 02-11-2021  01:45:17 PM
880	-0.025311
Peak Time (s)	80.537
Peak Height 	-0.02531
calc peak height	80,83
Baseline Time (s)	10.037
Baseline Value 	-0.004053
subtract baseline	10,4
Abs	-0.018025
Peak Time (s)	80.537
Peak Height 	-0.01803
calc peak height	80,83
Baseline Time (s)	9.039
Baseline Value 	0.004186
subtract baseline	10,3
PK_550	0.001655
Peak Time (s)	82.073
Peak Height 	0.001655
calc peak height	80,83
Baseline Time (s)	10.537
Baseline Value 	1.6062E-4
subtract baseline	10,2
PK_880	-0.016469
Peak Time (s)	81.037
Peak Height 	-0.01647
calc peak height	80,83
Baseline Time (s)	11.037
Baseline Value 	0.002041
subtract baseline	10,1


Time (s)	A880-A510	A880-A775	A880-A975	A880	I510	I775	I975	I880	
0.036500	-0.002417	0.000105	0.002360	0.007472	4563.976602	19684.039414	3298.982051	10721.104664
0.537000	-0.001084	0.000378	-0.001891	0.003857	4582.336684	19833.968256	3298.413309	10786.105441
1.037000	-0.001742	-0.000207	-0.010031	0.001120	4590.111894	19917.540407	3293.614505	10835.675460
1.534500	0.001735	0.001508	-0.003980	0.005484	4586.790214	19814.743362	3295.106268	10756.778752
2.035500	-0.000771	-0.000699	-0.010994	0.003131	4586.217866	19820.382373	3290.999596	10799.221829
2.535500	-0.000266	0.000552	0.001522	-0.001437	4605.302968	20047.151006	3306.270895	10882.279045
3.035500	-0.003210	0.000750	-0.005107	0.003453	4575.924307	19864.070608	3295.909136	10793.411936
3.538500	-0.004045	-0.000258	-0.009022	0.003893	4571.190631	19807.965627	3292.061824	10785.460542
4.036000	-0.002330	-0.000447	-0.004066	0.002580	4582.448940	19851.482017	3297.611113	10809.195935
4.536500	0.000985	-0.000179	-0.005792	0.002753	4594.221492	19855.196924	3295.922356	10806.069081
5.036500	0.000935	0.000188	0.000902	0.002010	4596.828776	19898.310368	3302.581657	10819.532179
5.537000	-0.000919	-0.000248	-0.008614	0.005128	4578.212807	19760.620549	3291.334989	10763.179943
6.037000	-0.003008	-0.000130	0.003706	-0.000346	4590.862508	19977.706367	3307.268433	10862.361728
6.537500	-0.000081	0.000013	0.000239	0.001767	4593.918272	19900.920995	3302.201784	10823.930477
7.035000	-0.001302	-0.000164	-0.004642	0.002136	4587.955265	19879.719408	3297.493835	10817.245419
7.535000	0.000251	0.000232	0.000603	-0.000111	4602.248290	19982.715711	3304.230220	10858.092536
8.036000	-0.002162	-0.000032	-0.013132	-0.001017	4596.560883	20007.783176	3292.765144	10874.604906
8.536500	-0.000863	-0.000102	-0.017669	-0.000997	4601.386162	20004.296182	3288.773942	10874.253444
9.039000	0.003207	0.000634	0.000000	-0.000674	4615.593809	20020.460062	3304.194157	10868.358422
9.536500	0.000652	0.001038	-0.011152	-0.002459	4612.665667	20106.431791	3295.790206	10900.991450
10.036500	-0.003113	-0.000096	0.002590	0.000000	4589.170317	19965.569409	3305.935123	10856.062003
10.537000	0.000501	0.000000	-0.011323	0.000529	4600.776165	19948.663690	3292.997599	10846.435150
11.037500	0.000000	-0.000375	0.001115	0.000052	4600.682635	19952.629545	3304.546299	10855.113531
11.535000	-0.001583	0.000622	0.008955	0.000758	4592.065109	19963.982550	3311.074794	10842.260259
12.035000	-0.000724	0.000478	-0.000454	0.000747	4595.337233	19958.822143	3302.497654	10842.472929
12.535500	0.000252	-0.000517	-0.005378	0.000692	4599.217526	19922.154406	3298.125099	10843.459032
13.035500	0.000483	0.000321	-0.005415	0.000352	4601.372624	19968.067754	3298.395647	10849.646407
13.536000	0.000076	0.001054	-0.000318	0.000803	4598.138643	19979.112352	3302.569487	10841.444171
14.036500	0.004047	0.000236	0.003216	0.000255	4615.252694	19968.525906	3306.273150	10851.409914
14.536500	0.000729	0.000025	-0.000564	0.001068	4599.601529	19928.617910	3302.108244	10836.636985
15.037000	-0.001486	0.001121	-0.003034	0.000988	4591.567270	19974.482241	3299.957504	10838.077006
15.537000	-0.001341	0.001863	0.011080	0.002242	4587.408511	19954.488830	3311.667447	10815.318574
16.034500	0.002147	-0.000144	0.010566	0.000036	4608.862995	19962.244684	3313.233727	10855.398064
16.535000	-0.000514	-0.001164	0.003521	0.000261	4597.958945	19913.766046	3306.546109	10851.313114
17.035500	0.001197	0.001037	-0.003286	0.000718	4602.686592	19981.741253	3299.974185	10842.989684
17.535500	0.000417	0.000968	-0.007805	0.000700	4599.811663	19979.793052	3295.957971	10843.326045
18.035500	-0.001651	0.001841	0.001332	0.000596	4592.420060	20017.974625	3304.249982	10845.212853
18.539000	-0.000743	-0.001108	0.004907	-0.001457	4603.577279	19982.930660	3309.387844	10882.650601
19.036500	-0.000436	0.000346	0.003165	0.000525	4597.254627	19962.297309	3305.980430	10846.499672
19.536500	0.005282	0.000258	-0.005982	-0.003496	4634.345750	20116.541391	3301.338066	10920.003884
20.037000	0.000794	0.001271	-0.003399	-0.000195	4604.618512	20026.646984	3300.693427	10859.621353
20.534500	0.000648	0.001278	-0.000283	-0.000367	4604.715649	20033.664148	3303.659360	10862.753829
21.035000	0.002577	0.000550	-0.000921	-0.000606	4612.937660	20014.505649	3303.298353	10867.111037
21.535000	-0.003353	-0.001364	-0.001685	0.004199	4572.622933	19753.438295	3298.291211	10779.935876
22.035500	-0.004111	-0.000701	-0.005919	-0.002327	4594.157310	20032.904420	3300.344367	10898.569359
22.536000	-0.003377	0.000772	-0.006009	0.005029	4569.458766	19803.879819	3293.715189	10764.978254
23.036000	-0.003387	0.000528	0.003861	0.001943	4580.883730	19914.156063	3305.323398	10820.747166
23.536500	-0.000466	0.000115	-0.004311	0.004210	4583.325001	19810.115521	3295.942496	10779.729431
24.037000	0.000896	-0.000008	0.009811	-0.001160	4608.657752	20014.318330	3313.642451	10877.215242
24.537000	0.001661	0.000196	0.005005	-0.000595	4609.415134	20000.210191	3308.685884	10866.905409
25.035000	-0.001124	0.000512	-0.004735	-0.000612	4598.948547	20013.241827	3299.867872	10867.218338
25.537500	0.000164	0.000067	-0.003464	0.004294	4585.366163	19805.012225	3296.621166	10778.220105
26.035000	-0.000674	0.001038	-0.006258	-0.000959	4601.955347	20047.493215	3298.814063	10873.555663
26.535500	0.001202	0.002372	0.016065	0.002723	4595.147999	19955.602906	3315.850599	10806.607465
27.035500	0.000778	0.000450	0.003994	0.000600	4601.552372	19963.446816	3306.668120	10845.146345
27.536000	-0.000448	0.000261	-0.002290	0.002488	4589.832391	19882.542970	3299.280177	10810.855271
28.039000	0.000204	0.001738	-0.002342	0.001429	4596.261369	19981.383994	3300.183883	10830.072340
28.536000	-0.003573	0.000003	-0.007026	0.000821	4584.379970	19937.416026	3296.542275	10841.126400
29.036500	0.000977	-0.000143	0.005009	-0.000431	4606.202448	19980.550015	3308.539446	10863.921080
29.537000	-0.001486	0.000484	-0.003128	0.000417	4593.710757	19971.909554	3300.386282	10848.466706
30.034500	-0.000792	0.001063	-0.005844	0.001270	4593.116571	19961.242925	3297.194660	10832.967331
30.537000	-0.000212	0.000035	-0.002784	0.001771	4593.410304	19901.619346	3299.479960	10823.862105
31.035000	-0.004692	0.000587	0.003305	0.000298	4582.152835	19980.611466	3306.315376	10850.639277
31.535000	0.001049	0.000675	-0.003392	0.001073	4600.788616	19953.777148	3299.561106	10836.540788
32.036000	0.003046	0.001085	0.010320	0.000855	4609.167944	19978.292254	3312.246862	10840.497654
32.539000	-0.000157	0.000406	-0.001466	0.000462	4598.544237	19967.120689	3301.841000	10847.653024
33.036000	-0.002186	-0.000071	-0.008435	0.000219	4591.827208	19957.966998	3295.825064	10852.069011
33.536500	-0.003122	0.000934	0.002537	0.001000	4585.394573	19966.740706	3304.977866	10837.873089
34.036500	-0.002212	0.000183	-0.003359	0.000274	4591.523939	19965.754529	3300.307770	10851.074996
34.537500	-0.003249	-0.000130	-0.004798	0.000361	4587.308755	19950.106663	3298.938931	10849.482496
35.034500	-0.002299	0.001221	-0.007745	0.000804	4589.211425	19985.596951	3295.918603	10841.433372
35.535000	-0.000366	0.000414	-0.004542	0.000498	4597.619212	19966.032303	3299.045622	10846.993415
36.035000	0.005573	0.000955	-0.002270	-0.003170	4634.214472	20131.136723	3304.398141	10914.020876
36.535500	-0.003865	-0.000344	-0.004649	0.002860	4575.689716	19844.637283	3296.842208	10804.127197
37.036000	0.001696	0.002270	0.008917	-0.000249	4608.237138	20067.956350	3311.969927	10860.593891
37.536000	-0.002476	-0.001065	0.012690	0.002757	4581.247277	19820.704971	3312.680752	10805.994934
38.036500	-0.000662	0.000445	-0.008275	-0.001066	4602.407286	20028.417663	3297.109830	10875.511355
38.537000	-0.003297	-0.000726	-0.011215	0.003110	4576.875420	19820.137559	3290.824085	10799.606109
39.037000	0.002188	0.001019	-0.002371	-0.000451	4610.871300	20026.811304	3301.848592	10864.281264
39.537500	0.001707	0.000780	0.000579	0.001841	4600.372894	19927.923789	3302.442140	10822.594747
40.035000	-0.000558	0.000628	0.004043	0.000698	4596.142739	19966.573017	3306.623416	10843.350020
40.534500	-0.001807	0.000110	-0.001061	0.004768	4576.247142	19788.357583	3298.340426	10769.665476
41.035500	0.000290	0.000469	-0.001667	-0.000895	4605.355242	20022.628357	3302.884000	10872.379842
41.536000	-0.001357	0.000187	-0.000346	0.003661	4582.045322	19834.135450	3299.971172	10789.636486
42.039000	0.000309	0.002009	-0.007512	-0.001978	4609.535543	20125.700668	3298.604451	10892.178066
42.536000	0.000498	0.001288	-0.002170	0.002322	4594.009233	19928.977037	3299.536610	10813.867607
43.036500	0.002846	-0.001025	-0.007159	-0.003585	4625.332215	20069.559651	3300.359842	10921.641140
43.536500	-0.020761	-0.012261	-0.006656	0.061330	4318.549455	17325.646555	3246.602478	9814.027003
44.037000	-0.054147	-0.030821	-0.005103	0.228667	3816.367136	12340.296782	3139.905286	7617.242481
44.535000	-0.058637	-0.031267	-0.021771	0.044847	4253.327828	17242.729413	3247.662898	10079.783694
45.037500	-0.055586	-0.020698	-0.017507	-0.112851	4831.924616	23978.451228	3400.119748	13203.876903
45.537500	-0.049639	-0.017802	-0.016896	-0.181244	5181.100273	27719.232594	3484.459972	14953.810569
46.036000	-0.027121	-0.012326	-0.006121	-0.134775	5062.016763	25493.540683	3439.162540	13735.127772
46.535500	-0.039619	-0.015048	-0.010488	-0.100826	4848.978091	23672.882370	3394.506441	12923.688968
47.036500	-0.039224	-0.017244	-0.023313	-0.092093	4813.086112	23159.375251	3371.060874	12725.015928
47.536500	-0.038806	-0.011974	-0.023680	-0.086392	4790.702700	23139.418479	3364.668815	12597.461974
48.037000	-0.032255	-0.010200	-0.034427	-0.079032	4787.295147	22882.093718	3346.116555	12435.230895
48.536000	-0.034899	-0.007224	-0.021547	-0.084191	4797.900523	23257.903619	3364.597826	12548.655405
49.037000	-0.039511	-0.006043	-0.042323	-0.089634	4801.418750	23569.105501	3348.839739	12669.786844
49.534500	-0.037183	-0.007136	-0.019592	-0.075424	4751.764837	22857.244589	3357.527838	12356.706918
50.035000	-0.039033	-0.005012	-0.026458	-0.060996	4685.908657	22302.783330	3336.131656	12049.131687
50.536000	-0.035944	-0.006379	-0.023599	-0.028939	4574.649569	20873.613658	3308.448162	11401.250672
51.035500	-0.028649	-0.002476	-0.022650	-0.050530	4685.582364	21953.705041	3329.653805	11832.324297
51.538500	-0.030786	-0.002662	-0.024961	-0.050073	4675.318450	21925.686060	3326.990886	11822.994158
52.038500	-0.029741	-0.002470	-0.030106	-0.054377	4696.556870	22122.561998	3326.184938	11911.424075
52.537000	-0.030745	-0.002023	-0.030926	-0.055135	4695.572457	22175.657270	3326.125137	11927.087568
53.037000	-0.029383	-0.003147	-0.028452	-0.056514	4706.552349	22186.907846	3329.830366	11955.648584
53.537000	-0.024948	-0.000746	-0.032124	-0.052972	4710.144689	22136.604146	3322.920501	11882.463923
54.038000	-0.029152	-0.001382	-0.032716	-0.055236	4702.349419	22208.412620	3324.510606	11929.166080
54.535000	-0.031519	-0.002283	-0.030159	-0.049940	4671.903634	21936.367337	3321.907109	11820.258985
55.035000	-0.026189	-0.001721	-0.026356	-0.053112	4705.717445	22099.839673	3328.570542	11885.344350
55.535500	-0.026471	-0.001376	-0.021717	-0.051782	4699.251410	22056.570606	3331.769171	11857.989689
56.035500	-0.028354	-0.001723	-0.039274	-0.050762	4687.677184	21996.714811	3314.123077	11837.074660
56.536000	-0.025893	-0.001313	-0.034267	-0.045395	4676.167534	21781.246557	3313.789560	11727.867872
57.036000	-0.022109	-0.001751	-0.018527	-0.047941	4701.339757	21872.544168	3331.137373	11779.495736
57.536500	-0.025659	-0.002044	-0.027644	-0.048035	4687.551538	21863.956643	3322.486611	11781.424987
58.037000	-0.019585	-0.001306	-0.025496	-0.045828	4702.987381	21800.287887	3322.429805	11736.623622
58.537000	-0.028736	-0.000195	-0.027445	-0.038367	4637.640701	21527.504317	3313.597747	11586.862613
59.034500	-0.019329	-0.000214	-0.017503	-0.043143	4693.274865	21731.487234	3327.497728	11682.435296
59.535000	-0.019836	0.000379	-0.014894	-0.043346	4692.062628	21765.814958	3330.206780	11686.516724
60.035000	-0.019656	0.001395	-0.025589	-0.041947	4687.212052	21749.254525	3318.675809	11658.388150
60.534500	-0.022717	-0.001424	-0.014694	-0.039382	4665.000829	21518.366721	3326.583660	11607.069426
61.038500	-0.022120	-0.001358	-0.016359	-0.042990	4681.577315	21675.618223	3328.450252	11679.346798
61.539000	-0.024595	-0.000674	-0.017506	-0.039909	4659.712346	21572.901268	3324.399336	11617.595268
62.036500	-0.025625	-0.000180	-0.019660	-0.041076	4660.249415	21644.027798	3323.459722	11640.932090
62.536500	-0.023684	-0.001282	-0.028570	-0.041535	4669.665085	21616.451642	3315.499662	11650.141035
63.037000	-0.024134	-0.001281	-0.029788	-0.040822	4665.096039	21585.975825	3313.702183	11635.855685
63.537000	-0.026979	-0.002230	-0.031038	-0.038008	4643.042774	21425.727780	3309.944951	11579.721984
64.034500	-0.022638	-0.000417	-0.012440	-0.038103	4660.304111	21506.765680	3327.519366	11581.597871
64.535000	-0.027465	-0.002402	-0.034565	-0.035843	4632.808258	21326.879176	3304.741728	11536.773525
65.035500	-0.022819	-0.002015	-0.034195	-0.037898	4658.797499	21430.179875	3306.950168	11577.532504
65.538500	-0.023531	-0.002428	-0.026833	-0.035809	4647.883715	21324.312165	3311.794570	11536.092019
66.035500	-0.026137	-0.001202	-0.017502	-0.035438	4636.366358	21360.440416	3320.163285	11528.764406
66.536500	-0.030596	-0.004168	-0.034865	-0.033759	4612.861522	21165.160180	3302.582707	11495.626897
67.037000	-0.029166	-0.002899	-0.033681	-0.035664	4625.588843	21298.388712	3305.382148	11533.227800
67.537000	-0.026232	-0.003032	-0.024381	-0.033471	4628.430076	21200.689030	3311.899901	11489.960912
68.037000	-0.023418	-0.002393	-0.026211	-0.033432	4639.116976	21225.821718	3310.176287	11489.198486
68.535000	-0.024757	-0.000939	-0.024963	-0.032542	4630.530726	21249.511066	3310.506120	11471.709638
69.035000	-0.023311	-0.002694	-0.022376	-0.033020	4637.940215	21195.947992	3313.339592	11481.099006
69.535500	-0.024881	-0.002081	-0.026168	-0.030636	4622.745337	21121.933483	3307.648531	11434.351123
70.035500	-0.023982	-0.003392	-0.035723	-0.032672	4634.008883	21152.170603	3300.830174	11474.251541
70.535500	-0.025548	-0.003636	-0.028685	-0.027270	4607.391018	20917.833488	3302.303517	11368.805286
71.036500	-0.028995	-0.002345	-0.025623	-0.030812	4607.751552	21118.257230	3308.309471	11437.798032
71.536000	-0.023217	-0.001555	-0.031139	-0.028536	4621.076912	21056.399218	3301.232580	11393.395115
72.037000	-0.022756	-0.001516	-0.022736	-0.029900	4628.069197	21114.829984	3310.123699	11419.987776
72.537000	-0.022910	-0.002373	-0.019218	-0.029946	4627.650855	21081.020269	3313.417433	11420.877439
73.037000	-0.022359	-0.001565	-0.020858	-0.029545	4628.228638	21097.977916	3311.528445	11413.064416
73.535000	-0.023185	-0.001300	-0.022732	-0.028019	4619.226319	21045.515130	3308.399326	11383.356609
74.035000	-0.018641	-0.001456	-0.018673	-0.028446	4638.307962	21056.797841	3312.532146	11391.654140
74.535000	-0.023094	-0.001363	-0.020696	-0.029419	4624.926522	21101.124808	3311.561135	11410.595910
75.038500	-0.022670	-0.002328	-0.029077	-0.029549	4627.052371	21066.383591	3304.010607	11413.139196
75.536000	-0.022672	-0.001211	-0.023606	-0.027737	4620.109643	21037.516916	3307.341385	11377.868818
76.036500	-0.020867	-0.001100	-0.011998	-0.028567	4630.200776	21076.599961	3318.874835	11394.006714
76.536500	-0.020491	0.000197	-0.025643	-0.028926	4633.028323	21145.641125	3306.567368	11401.003228
77.037000	-0.020928	-0.000953	-0.017287	-0.030148	4636.053701	21148.664749	3315.401905	11424.825101
77.537000	-0.019714	-0.000078	-0.013610	-0.027666	4631.168193	21081.648343	3316.517925	11376.487185
78.035000	-0.021840	-0.000118	-0.020322	-0.029398	4629.657481	21152.198344	3311.886750	11410.189069
78.535000	-0.027131	-0.001683	-0.031900	-0.026975	4600.287565	20986.330129	3299.148182	11363.080460
79.035500	-0.019177	0.001137	-0.015158	-0.029460	4640.156777	21207.305740	3316.747609	11411.399183
79.535000	-0.015656	-0.000063	-0.027889	-0.030743	4658.824278	21210.758841	3306.175703	11436.445789
80.035500	-0.017061	0.001065	-0.025448	-0.029299	4647.727337	21197.513903	3307.085107	11408.260239
80.536500	-0.020436	0.000277	-0.018025	-0.025311	4619.385315	20998.600627	3310.235416	11330.896022
81.036500	-0.016469	0.000172	-0.028606	-0.030394	4654.289916	21205.985082	3305.204692	11429.621183
81.536500	-0.020385	-0.000694	-0.025041	-0.030305	4638.753824	21166.035961	3308.378291	11427.895582
82.073000	-0.019162	0.001655	-0.020755	-0.029756	4641.355673	21241.412437	3311.817861	11417.167115
82.537500	-0.022613	0.000292	-0.029165	-0.027337	4618.805408	21083.322910	3301.931235	11370.103897
83.037500	-0.018584	0.001568	-0.021043	-0.030304	4645.718736	21260.803921	3312.057975	11427.873983
83.534500	-0.017266	0.000419	-0.028072	-0.029941	4649.424024	21197.372527	3305.278470	11420.782113
84.035500	-0.019059	0.000349	-0.013461	-0.030588	4644.974842	21221.520796	3319.400165	11433.414772
84.538500	-0.022187	0.000992	-0.022352	-0.026216	4616.160821	21065.861554	3307.097879	11348.395188
