sample name	sample
index	438
start time	 03-11-2021  10:31:34 AM
880	0.041384
Peak Time (s)	92.035
Peak Height 	0.04138
calc peak height	90,93
Baseline Time (s)	10.034
Baseline Value 	-0.002848
subtract baseline	10,4
Abs	0.028655
Peak Time (s)	92.035
Peak Height 	0.02865
calc peak height	90,93
Baseline Time (s)	10.536
Baseline Value 	0.003183
subtract baseline	10,3
PK_550	0.011855
Peak Time (s)	92.535
Peak Height 	0.01186
calc peak height	90,93
Baseline Time (s)	10.536
Baseline Value 	6.2987E-5
subtract baseline	10,2
PK_880	0.024135
Peak Time (s)	92.535
Peak Height 	0.02414
calc peak height	90,93
Baseline Time (s)	11.039
Baseline Value 	5.1814E-4
subtract baseline	10,1


Time (s)	A880-A510	A880-A775	A880-A975	A880	I510	I775	I975	I880	
0.034500	-0.004500	-0.000397	-0.006985	0.006964	6985.143720	45512.001456	3831.568649	23986.864999
0.535000	-0.003218	0.000334	-0.006137	0.005353	7013.780068	45743.223394	3838.202250	24065.997236
1.035500	-0.003034	-0.000012	-0.005800	0.004056	7028.510062	45837.501304	3842.629735	24129.924315
1.541500	-0.003390	-0.001154	-0.004110	0.004446	7021.083082	45685.713855	3846.164720	24110.662337
2.036000	-0.002358	-0.000280	-0.005002	0.001735	7058.484341	46041.825788	3851.131376	24244.836315
2.536500	0.000147	-0.000022	-0.003266	-0.000971	7111.086852	46338.383265	3863.339811	24379.549999
3.036500	0.001330	0.000184	0.000558	-0.001432	7127.806426	46405.406556	3875.237883	24402.586586
3.536500	-0.004578	-0.000045	-0.002196	0.004785	7005.920369	45761.988213	3850.461863	24093.970567
4.037500	-0.001042	-0.000361	-0.003941	0.000365	7085.510172	46170.486704	3857.794722	24312.897194
4.534500	-0.001457	-0.000153	-0.002978	0.000218	7082.802243	46205.982430	3860.853299	24320.226220
5.038000	-0.000180	-0.001041	-0.003924	-0.000504	7103.025468	46189.449444	3860.235256	24356.234867
5.535500	-0.002928	-0.000805	-0.002712	-0.000090	7071.095256	46171.718592	3862.437620	24335.608158
6.035500	-0.000712	-0.000053	0.001312	0.000259	7089.919432	46211.971872	3872.626795	24318.198513
6.536000	-0.000374	-0.001045	-0.002009	-0.000473	7100.748529	46185.915849	3865.439684	24354.679639
7.036500	0.000346	0.000252	-0.001149	0.000175	7101.474883	46250.915389	3866.027535	24322.382369
7.536500	-0.001671	0.000269	-0.001904	-0.000160	7084.458859	46286.180895	3864.864021	24339.058046
8.036500	-0.000080	0.000456	0.001925	0.000328	7095.611928	46255.970583	3874.142450	24314.743904
8.536500	-0.000247	-0.000172	-0.004603	-0.000065	7097.895043	46232.503269	3857.158054	24334.334935
9.034500	0.000126	0.000313	0.000946	0.000710	7093.835348	46203.399233	3870.353510	24295.745280
9.534500	0.001129	0.000803	0.000537	0.000714	7103.948517	46252.114006	3869.206608	24295.530021
10.034500	0.000714	0.000002	-0.000682	0.000000	7106.979478	46243.392978	3867.806440	24331.100184
10.535500	-0.001372	0.000000	0.000000	-0.000119	7087.064611	46255.118989	3870.028789	24337.029919
11.038500	0.000000	-0.000179	0.003128	0.000011	7099.634418	46224.144280	3878.388863	24330.564961
11.536000	-0.001034	-0.000108	-0.002446	-0.000206	7091.363245	46253.029155	3863.492101	24341.379940
12.036500	-0.001892	-0.000223	-0.002267	0.002115	7059.340343	46009.570558	3857.588708	24225.976573
12.537000	-0.001040	0.000050	-0.001373	0.000058	7088.638122	46242.402938	3865.729702	24328.225349
13.037000	0.002457	0.000666	-0.000258	-0.001667	7141.718116	46477.620942	3873.619151	24414.345889
13.537000	0.001526	0.000604	0.001701	-0.001118	7126.605108	46416.039036	3877.555338	24386.896561
14.034500	-0.002872	0.000085	-0.004982	0.004605	7024.657586	45792.682513	3843.361527	24102.837284
14.535000	-0.000532	0.000527	-0.001562	0.002896	7065.147812	46006.473142	3857.378717	24187.248906
15.035500	0.001388	0.000588	-0.001283	-0.000176	7115.611975	46319.767385	3866.626109	24339.861258
15.544500	0.000644	0.000478	0.004421	-0.001364	7120.129093	46428.105572	3885.874322	24399.185549
16.036000	-0.003808	0.000472	-0.000951	0.005347	7007.985000	45757.558311	3852.332363	24066.317413
16.536000	0.001055	0.001059	0.001080	-0.000968	7120.275638	46446.664286	3875.399261	24379.370300
17.036000	0.003382	0.000496	-0.000485	-0.001263	7147.050029	46419.735705	3871.860592	24394.128726
17.536500	0.000659	0.000193	0.003825	-0.003137	7138.361652	46578.157937	3889.193757	24488.003418
18.037000	-0.001974	0.001220	-0.002865	0.003471	7044.934864	46018.275674	3852.225827	24158.818263
18.540000	-0.002748	0.000686	-0.001446	0.001198	7059.954095	46192.005890	3862.377062	24271.503122
19.035000	-0.001512	-0.000123	-0.003629	0.001051	7073.857880	46125.818482	3856.768489	24278.809105
19.535000	-0.001360	0.001540	0.004011	0.001909	7066.760158	46206.245720	3875.550880	24236.198543
20.035500	0.000179	0.000564	-0.002370	0.003267	7068.570978	45973.251859	3854.140652	24168.915244
20.538000	-0.001976	-0.000042	-0.000647	0.000921	7070.489113	46146.742021	3865.350431	24285.232431
21.036000	-0.000440	0.000490	0.000555	0.001578	7079.354027	46134.352833	3866.860595	24252.625180
21.536000	0.001159	0.000825	-0.003130	0.001325	7098.064020	46193.150344	3857.387203	24265.179934
22.036500	-0.002556	0.000075	-0.005369	0.002000	7053.832437	46050.709031	3849.400685	24231.650349
22.537000	-0.001015	0.000786	-0.001949	0.001653	7072.802565	46156.446790	3859.733371	24248.886910
23.036500	0.001635	0.000494	0.003966	0.001114	7105.029080	46181.132734	3877.647672	24275.678402
23.537000	-0.002175	-0.000332	-0.004046	0.000334	7074.409772	46176.542522	3857.594268	24314.480398
24.038000	-0.001196	0.000139	-0.000025	0.001954	7067.957770	46061.804973	3864.213823	24233.958952
24.535500	0.001134	0.000308	0.001121	0.001311	7097.950430	46142.813959	3869.169048	24265.851664
25.036000	-0.000687	0.000810	0.000285	0.001445	7078.203255	46179.627560	3866.481032	24259.236452
25.535500	-0.000782	0.000176	0.001174	0.001004	7081.688033	46160.334770	3870.169959	24281.134879
26.036000	-0.000462	0.000029	-0.000339	0.001450	7080.414184	46101.033019	3864.738550	24258.946206
26.536000	0.000197	0.000097	-0.003920	0.000984	7091.775312	46154.408043	3856.152856	24282.103987
27.036500	-0.000825	0.000002	-0.000178	0.000725	7084.064085	46170.808899	3867.190359	24294.983731
27.537000	0.000082	0.001206	-0.000972	0.001947	7080.895620	46168.995025	3861.617470	24234.292663
28.037500	-0.001610	-0.000272	-0.003113	0.002521	7058.101179	45964.238958	3854.149138	24205.840781
28.535000	0.001420	0.000914	0.003061	-0.000684	7121.101056	46403.552618	3880.143807	24365.185866
29.043000	0.003137	0.001411	0.002417	-0.000247	7134.152892	46409.698762	3877.121981	24343.429032
29.535500	-0.001189	0.000531	-0.002082	0.003565	7051.855012	45940.282566	3854.114659	24154.185093
30.038500	-0.000603	0.000062	0.001483	-0.001189	7105.686805	46368.773132	3877.143688	24390.445416
30.535500	0.002802	0.000614	-0.000815	-0.000889	7137.294627	46394.113390	3869.905642	24375.469143
31.036500	0.000746	0.000107	-0.000443	-0.001014	7117.613264	46355.711558	3871.286358	24381.706812
31.536500	-0.001625	0.000091	0.000915	0.002836	7054.782413	45968.982321	3864.373859	24190.224604
32.037000	-0.001038	0.000387	-0.002270	0.002144	7067.629006	46067.486776	3857.498404	24224.510835
32.559500	-0.000215	0.000593	0.004578	-0.000986	7107.567982	46401.730761	3885.253887	24380.307851
33.037000	-0.000318	0.000215	0.001628	-0.001367	7110.384264	46401.972754	3878.046034	24399.326570
33.541500	-0.003728	0.000378	-0.003575	0.005076	7011.465430	45775.072585	3845.908820	24079.658324
34.035000	-0.002470	0.000049	-0.001923	0.004296	7031.742313	45819.740880	3852.546640	24118.082479
34.535500	0.000760	0.000855	-0.000568	-0.000767	7115.244573	46406.062261	3870.252534	24369.373121
35.036000	-0.001508	0.000742	0.001181	0.001347	7070.921486	46182.579205	3869.238471	24264.081841
35.536000	-0.000322	0.000791	-0.004286	0.003053	7065.692936	46017.201277	3849.484981	24179.496801
36.036000	-0.001039	0.001014	0.000697	0.002646	7062.574768	46079.931061	3864.296621	24199.636351
36.536500	-0.002182	0.000723	0.003983	0.001840	7059.191228	46131.435575	3875.665679	24239.606347
37.036500	0.001559	0.000630	-0.001537	0.002303	7092.211489	46075.927266	3859.078594	24216.649833
37.537000	-0.000611	0.001077	-0.000682	0.002684	7066.496021	46082.503766	3860.386049	24197.776526
38.035000	-0.002104	-0.000107	-0.002347	0.001723	7061.149285	46060.261492	3858.447555	24245.427338
38.535000	-0.002457	-0.000140	-0.005763	0.001573	7059.116325	46071.894962	3849.493554	24252.862817
39.035000	-0.002425	0.001093	-0.000219	0.002721	7047.932969	46080.481443	3861.561267	24195.953431
39.535500	0.000065	0.001039	-0.001487	0.002238	7077.795684	46123.289997	3859.397307	24219.887532
40.035500	-0.001664	0.000606	-0.000261	0.002099	7061.795597	46093.856478	3863.161218	24226.761706
40.536000	-0.000429	0.000923	-0.002916	0.002460	7070.584373	46089.529281	3854.859069	24208.887379
41.036500	-0.001297	0.000279	-0.004251	0.001985	7066.621320	46072.649032	3852.500059	24232.407810
41.536500	-0.002300	-0.000116	-0.000994	0.001421	7062.209442	46089.419032	3863.007568	24260.391307
42.037000	-0.001380	-0.000178	-0.000371	0.001889	7066.752006	46036.635627	3863.438084	24237.171019
42.534500	-0.002291	0.000155	0.000741	0.001929	7057.205403	46065.881662	3866.402812	24235.205070
43.035000	-0.001099	-0.000335	-0.002589	0.001990	7068.564654	46010.864519	3857.047008	24232.165514
43.535000	-0.001160	0.000486	0.002177	0.002324	7064.591720	46059.445239	3869.289854	24215.609014
44.038500	-0.001475	0.000433	-0.001948	0.003233	7052.316783	45963.576825	3855.393419	24170.612638
44.535500	-0.001612	0.000846	0.000023	0.002788	7055.402539	46049.166686	3862.043545	24192.643510
45.036000	0.001538	0.001363	-0.000601	-0.001615	7131.794577	46542.603928	3872.516885	24411.727396
45.536500	0.001562	0.001557	0.003194	-0.000126	7116.869272	46412.096454	3878.954766	24337.365020
46.036000	-0.003687	-0.000031	-0.000671	0.005040	7012.230965	45738.131871	3853.940198	24081.431515
46.536500	0.000125	0.001286	0.003468	0.000066	7100.341107	46365.686153	3879.186102	24327.836226
47.037500	0.000191	0.001041	0.005461	-0.000404	7105.772726	46388.172197	3886.098291	24351.223885
47.537500	0.001370	0.000290	-0.001545	0.000785	7105.665510	46193.621423	3863.242811	24291.996332
48.035000	-0.002236	0.000539	-0.000699	0.005384	7023.236302	45760.550166	3852.921469	24064.493715
48.535000	0.002114	0.000894	0.002818	-0.000425	7125.534970	46375.538196	3878.737768	24352.263955
49.036000	-0.000831	-0.000314	-0.000121	0.002590	7065.222073	45953.237976	3862.190275	24202.415982
49.536000	0.001482	0.000915	0.001216	0.001092	7103.694656	46225.465469	3870.043662	24276.752405
50.040000	-0.002991	0.000520	0.000962	0.006051	7009.104991	45692.615297	3855.646237	24031.671419
50.536000	0.001885	0.000970	0.004061	-0.000338	7122.313292	46374.405699	3881.977349	24347.930386
51.036000	-0.000727	0.000506	-0.002856	-0.000704	7099.509365	46364.598902	3863.737639	24366.226990
51.537000	0.000492	0.000792	0.001479	-0.000028	7105.013812	46325.481836	3873.891731	24332.520172
52.037500	-0.001642	-0.000260	-0.006790	0.001908	7063.924706	46026.478620	3845.778392	24236.216590
52.534500	0.003644	0.000984	-0.000912	-0.000008	7136.886167	46342.635848	3867.189757	24331.492857
53.035000	-0.041082	-0.014952	0.031308	0.416115	4235.910113	18859.119364	3160.726924	10991.834736
53.538000	-0.024918	-0.005444	-0.011070	0.099471	6004.171119	36905.562717	3598.617768	19901.153769
54.035500	-0.030389	-0.061455	-0.022521	-0.212656	9393.751456	64362.892330	4532.323052	38002.876234
54.536000	-0.118795	-0.284567	-0.105583	-0.443951	12001.320161	65535.000000	5292.605011	62838.712780
55.036000	-0.036024	-0.162130	-0.013032	-0.321514	11189.488947	65535.000000	5117.761430	48062.213430
55.536500	-0.039414	-0.155432	-0.010504	-0.314815	10994.570380	65535.000000	5094.304364	47367.759449
56.036500	-0.034910	-0.129221	-0.011906	-0.288604	10590.226432	65535.000000	4944.555895	44751.131880
56.537000	-0.029323	-0.126830	-0.020226	-0.286213	10648.501329	65535.000000	4888.982358	44520.189303
57.037500	-0.008335	-0.121237	-0.010586	-0.280620	10935.286167	65535.000000	4909.817819	43984.932382
57.534500	-0.009011	-0.094888	-0.006827	-0.254271	10438.488678	65535.000000	4795.957098	41554.056240
58.035500	-0.005109	-0.068815	-0.007911	-0.226096	10017.873390	65231.617089	4657.013230	39112.738447
58.535500	-0.009447	-0.045627	-0.005073	-0.192291	9402.643545	63722.378226	4519.810552	36385.205557
59.036000	-0.008173	-0.028360	-0.010880	-0.160328	8945.412986	61693.142042	4365.182977	33994.405584
59.536000	-0.008692	-0.018742	-0.005905	-0.129420	8509.484932	58872.473054	4266.539452	31844.005454
60.036500	-0.011596	-0.014636	-0.008302	-0.102434	8123.154810	55991.412024	4161.662340	30087.578373
60.536500	-0.007944	-0.012504	-0.005233	-0.087963	7989.730250	54499.536628	4122.836459	29189.691908
61.037000	-0.010589	-0.010283	-0.005782	-0.063563	7670.426597	51922.298038	4041.360589	27741.974911
61.537000	-0.013352	-0.009297	-0.004125	-0.038665	7363.765283	49287.266737	3969.556309	26346.161826
62.035000	-0.012854	-0.007866	-0.001933	-0.021235	7185.455515	47603.350282	3924.519511	25415.514219
62.535000	-0.013499	-0.006737	-0.003218	-0.016744	7132.738525	47257.406488	3907.858716	25181.750530
63.034500	-0.003643	-0.003969	0.000834	-0.013175	7197.351341	47175.295912	3909.242583	24997.643219
63.535500	-0.003232	-0.002458	-0.002362	-0.003112	7098.519763	46308.750692	3871.780807	24486.705045
64.070000	-0.005494	-0.002714	-0.002581	0.004359	7001.066681	45540.321008	3850.573356	24114.975805
64.536500	-0.006364	-0.001914	-0.001674	0.011457	6922.887292	44924.027097	3833.772803	23767.674866
65.036500	-0.006086	-0.002719	-0.005175	0.007964	6959.704938	45186.024780	3833.748842	23937.878219
65.540500	-0.003113	-0.001570	0.000879	0.009110	6977.662934	45186.255073	3847.051815	23881.892483
66.040000	-0.005704	-0.001876	0.000779	0.011571	6928.198750	44916.655437	3840.093114	23762.145534
66.537500	-0.003398	-0.001510	-0.000662	0.008294	6982.889360	45271.916748	3845.075382	23921.719595
67.035000	-0.000215	0.000373	0.000438	0.009942	6998.060769	45295.065876	3843.587905	23841.331616
67.538000	0.000189	-0.000293	0.007749	0.010406	6997.463174	45184.443122	3862.340620	23818.754807
68.035000	-0.002849	-0.000471	0.001093	0.014970	6922.908290	44723.435647	3831.763165	23597.875436
68.535500	0.000813	-0.000476	0.005333	0.010132	7006.361537	45193.305233	3856.441135	23832.077158
69.036000	0.002316	0.000424	0.003182	0.010919	7013.463656	45204.320681	3848.397966	23793.795590
69.536500	0.002794	0.000645	0.002466	0.012248	7005.016392	45096.163770	3842.831239	23729.299653
70.036500	0.001186	0.001404	0.005908	0.016818	6944.225320	44726.019705	3839.772525	23509.089606
70.537000	0.004104	0.000722	0.006422	0.012348	7017.025660	45093.918368	3853.348612	23724.465276
71.037000	0.007253	0.002615	0.004834	0.014993	7022.042594	45020.657106	3841.809293	23596.769132
71.537500	0.006447	0.002553	0.006382	0.015946	7004.577052	44921.951709	3843.423824	23550.947555
72.035000	0.005945	0.003038	0.008338	0.020934	6950.510075	44486.745244	3835.213630	23312.719778
72.535500	0.008199	0.003534	0.008365	0.018347	6998.142244	44784.159478	3842.287956	23435.901637
73.035500	0.009133	0.003793	0.009834	0.019428	6996.690623	44704.636897	3843.341921	23384.321028
73.535500	0.009903	0.003861	0.008560	0.019619	7002.425956	44692.803329	3839.368311	23375.240678
74.039000	0.010012	0.005176	0.008553	0.020501	6994.773230	44734.600144	3836.962722	23333.274983
74.536500	0.010892	0.004816	0.007798	0.020504	7003.449057	44699.506337	3834.917984	23333.134779
75.037000	0.010712	0.005287	0.011506	0.021436	6992.454491	44655.072491	3842.429436	23288.903021
75.534000	0.011511	0.005090	0.008778	0.021219	7002.503132	44656.957191	3835.632717	23299.198778
76.035000	0.013780	0.005824	0.014290	0.021076	7026.461785	44741.651440	3850.996350	23305.961322
76.534500	0.011908	0.005283	0.011103	0.021517	7003.480777	44646.770576	3841.114682	23285.023975
77.038000	0.012817	0.006679	0.017138	0.023385	6993.995244	44601.298240	3852.470830	23196.652801
77.535000	0.013136	0.005873	0.008922	0.022153	7009.350304	44642.396393	3833.500981	23254.910106
78.036000	0.014141	0.006715	0.012982	0.022290	7017.976921	44710.473847	3844.121722	23248.437656
78.536000	0.015558	0.007379	0.014832	0.023053	7024.478332	44700.926367	3847.076913	23212.327848
79.036500	0.014185	0.006254	0.015617	0.023824	7003.181659	44518.064176	3847.115833	23175.921174
79.536500	0.018064	0.007447	0.013236	0.024301	7037.010984	44587.018035	3839.350960	23153.423269
80.040000	0.014976	0.008169	0.015758	0.029544	6954.633852	44153.622642	3832.008547	22907.901727
80.537500	0.017063	0.009066	0.014029	0.026154	7008.617231	44564.540835	3836.487501	23066.332993
81.035000	0.016443	0.007795	0.010046	0.027539	6988.772277	44309.480098	3822.074067	23001.442732
81.534500	0.016698	0.008090	0.014527	0.026928	6997.328684	44396.244130	3835.739253	23030.023843
82.035500	0.016738	0.009278	0.014036	0.032064	6947.211863	44019.281589	3820.649180	22790.931882
82.535500	0.018380	0.008366	0.018082	0.027960	7003.765222	44323.755249	3842.569711	22981.751473
83.035500	0.017580	0.010155	0.018023	0.031408	6961.885827	44165.182558	3833.086473	22821.300175
83.536000	0.016554	0.008779	0.013804	0.029063	6974.841366	44257.783815	3828.048760	22930.280539
84.036500	0.016761	0.009135	0.020010	0.032349	6944.648800	43978.506876	3835.907707	22777.714066
84.537000	0.018967	0.010133	0.018217	0.031066	6978.883521	44195.768129	3834.531121	22837.163461
85.037000	0.016990	0.008726	0.019602	0.033231	6938.267797	43856.137949	3832.427788	22736.956828
85.535000	0.018971	0.010105	0.022309	0.032037	6969.373382	44100.525063	3842.978280	22792.180108
86.035000	0.018218	0.009224	0.014401	0.035400	6929.094228	43698.136423	3812.757184	22637.080514
86.537500	0.021815	0.009970	0.020314	0.032484	6992.996057	44045.154011	3836.365558	22771.491794
87.035500	0.018302	0.009320	0.017754	0.035462	6929.319037	43701.404385	3821.499454	22634.241981
87.535500	0.021950	0.010634	0.022417	0.033922	6980.125896	43971.517855	3838.159578	22705.081981
88.036000	0.017728	0.009878	0.019947	0.037526	6903.711723	43559.656754	3821.846794	22539.714844
88.536500	0.019861	0.010639	0.022632	0.033866	6960.143834	43977.340394	3838.894519	22707.668793
89.036500	0.021357	0.010451	0.018190	0.034162	6971.936248	43931.391010	3826.140924	22694.044739
89.537000	0.022194	0.011329	0.019264	0.035297	6969.006376	43907.045535	3825.976377	22641.834032
90.037500	0.020530	0.010530	0.024213	0.034742	6958.125844	43883.960933	3840.805747	22667.368064
90.538000	0.021739	0.011091	0.023536	0.035707	6960.507183	43845.604530	3836.359327	22622.988037
91.035500	0.018899	0.011340	0.025612	0.039961	6891.489554	43468.209619	3830.492375	22428.704421
91.535500	0.022381	0.011817	0.024573	0.037001	6954.116842	43791.822991	3835.666903	22563.684803
92.035500	0.020767	0.011586	0.028655	0.041384	6895.793821	43357.963295	3834.853518	22364.145107
92.535500	0.024135	0.011855	0.023329	0.036965	6971.692368	43798.961702	3832.411263	22565.367694
93.036000	0.022870	0.011793	0.026977	0.037579	6953.245030	43735.034839	3840.605672	22537.258581
93.536500	0.023110	0.011859	0.023762	0.038006	6951.417165	43700.900530	3830.774268	22517.756736
94.037000	0.019491	0.011426	0.024617	0.042180	6875.820306	43268.651166	3821.887212	22328.107222
94.537000	0.023544	0.011869	0.025336	0.038271	6953.081390	43676.918577	3834.300543	22505.692271
95.037500	0.021261	0.012110	0.023345	0.043812	6877.150036	43180.213062	3814.166285	22254.453719
95.610000	0.024314	0.012318	0.030642	0.039659	6947.026285	43588.464468	3844.910232	22442.454969
96.035000	0.024346	0.012745	0.027576	0.040008	6943.926201	43595.787092	3835.654957	22426.569658
96.563000	0.024553	0.012181	0.029159	0.039850	6947.489242	43557.636739	3840.365471	22433.747229
97.035500	0.022548	0.011835	0.024775	0.045012	6877.992302	43043.165782	3814.776513	22200.489197
97.536000	0.023088	0.012588	0.025698	0.040805	6923.903821	43506.162492	3828.459808	22390.407601
98.036000	0.025695	0.012818	0.029076	0.041490	6942.625178	43463.415224	3835.704171	22359.326165
98.537000	0.025255	0.013392	0.028101	0.041914	6934.203754	43477.569928	3831.936266	22340.166005
99.036500	0.020210	0.011845	0.027544	0.046107	6845.098476	42942.514766	3819.222709	22151.334413
