sample name	sample
index	657
start time	 03-22-2021  10:08:14 AM
880	0.037795
Peak Time (s)	180.536
Peak Height 	0.03779
calc peak height	180,183
Baseline Time (s)	8.539
Baseline Value 	-0.007137
subtract baseline	10,4
Abs	0.009317
Peak Time (s)	181.537
Peak Height 	0.009317
calc peak height	180,183
Baseline Time (s)	11.535
Baseline Value 	0.005665
subtract baseline	10,3
PK_550	0.004707
Peak Time (s)	181.537
Peak Height 	0.004707
calc peak height	180,183
Baseline Time (s)	10.537
Baseline Value 	9.6978E-4
subtract baseline	10,2
PK_880	0.005020
Peak Time (s)	181.036
Peak Height 	0.00502
calc peak height	180,183
Baseline Time (s)	10.537
Baseline Value 	0.00422
subtract baseline	10,1


Time (s)	A880-A510	A880-A775	A880-A975	A880	I510	I775	I975	I880	
0.036000	0.000081	-0.000273	-0.004918	0.001332	7385.371451	46139.319348	3864.072498	24212.615178
0.536500	-0.003933	-0.000871	-0.005989	0.005192	7300.904144	45695.775244	3850.405057	24021.999985
1.037000	-0.001853	0.000003	-0.006429	0.006930	7304.533393	45610.354793	3844.415716	23936.718277
1.537500	0.001161	-0.000217	-0.002835	0.000473	7406.413275	46231.032446	3872.305913	24255.303109
2.035000	0.001247	0.000219	-0.001008	0.000718	7404.690798	46250.130575	3876.755328	24243.124485
2.535000	-0.001799	-0.000238	-0.009851	0.003706	7339.557068	45906.103286	3843.873637	24095.223818
3.035500	0.000203	-0.000628	0.003146	0.000112	7399.923425	46225.980786	3890.236826	24273.227524
3.535500	-0.000680	-0.000794	-0.001119	-0.000244	7394.209634	46244.985091	3879.153860	24290.955751
4.038500	0.001234	0.000076	-0.000707	0.000607	7405.750609	46246.900827	3877.916052	24248.639887
4.536000	-0.000385	-0.001002	-0.002929	-0.000083	7395.663873	46208.059411	3873.602695	24282.925278
5.036500	0.000197	0.000474	-0.004823	0.000628	7394.261810	46284.741840	3866.303867	24247.569892
5.536500	0.000888	-0.000356	-0.001345	0.000095	7407.559057	46254.993269	3877.559848	24274.088881
6.037000	-0.000216	-0.000161	-0.005432	0.000300	7393.338267	46253.971130	3865.519109	24263.894017
6.537500	-0.000259	-0.000259	-0.000991	0.000652	7389.061422	46208.849590	3876.989521	24246.404206
7.034500	0.000300	0.000059	0.001234	0.000338	7398.530008	46272.165553	3884.163704	24261.994095
7.535000	-0.001705	-0.001054	-0.002560	-0.000689	7387.925719	46263.569844	3876.344883	24313.130829
8.036000	-0.000657	-0.000455	-0.000979	-0.000286	7394.915780	46283.254592	3879.669275	24293.057185
8.539000	0.000147	-0.000185	0.003483	0.000000	7400.537622	46281.633291	3891.515722	24278.813046
9.036000	0.000596	0.000248	-0.004656	0.000365	7401.447528	46288.411319	3867.506731	24260.650483
9.536500	0.000434	0.000051	-0.001214	0.000113	7402.430114	46293.986444	3877.877958	24273.185800
10.036500	-0.002182	0.000040	0.000587	-0.000029	7375.624892	46307.149185	3883.369702	24280.259141
10.536500	0.000000	0.000000	0.002274	0.000427	7394.308007	46257.373181	3886.862238	24257.584211
11.037500	-0.000218	-0.000344	-0.000445	-0.000205	7398.789798	46286.179796	3880.946829	24288.991696
11.535000	-0.000078	-0.001510	0.000000	-0.001345	7412.716212	46283.564885	3885.434717	24345.814578
12.035000	0.000487	-0.000505	0.002030	-0.000693	7411.775377	46319.067642	3889.350936	24313.327017
12.535000	-0.001195	-0.000363	-0.001045	0.000098	7384.930629	46254.019543	3878.397728	24273.961401
13.038500	0.002827	-0.000122	0.000243	-0.001947	7451.063594	46483.799203	3887.838362	24375.928715
13.536000	-0.000090	-0.000136	0.002166	-0.001322	7412.335619	46419.481663	3891.530681	24344.700538
14.036000	0.002034	-0.000053	-0.002128	-0.000471	7426.222655	46342.177403	3876.949172	24302.282612
14.536500	-0.001923	-0.000177	-0.001634	0.002744	7348.543823	46008.029074	3869.305484	24142.735053
15.037000	0.000601	-0.000581	-0.003404	-0.000935	7415.651470	46335.738746	3874.662288	24325.393498
15.565000	0.001628	-0.000144	-0.002464	-0.001166	7429.379213	46402.913960	3877.961290	24336.920456
16.037000	0.000550	0.000089	0.000086	-0.001122	7417.131203	46421.904148	3885.048010	24334.709408
16.538000	-0.003109	-0.000805	0.000184	0.002670	7336.607631	45952.715792	3874.612248	24146.349722
17.035500	-0.001133	-0.000639	-0.004966	-0.001811	7406.309962	46418.053906	3872.737325	24369.132628
17.538000	0.002379	-0.000778	0.002804	-0.003576	7464.028767	46581.913641	3899.804204	24457.453081
18.036000	0.001599	-0.000427	-0.001152	-0.001421	7431.850080	46400.101623	3882.388241	24349.646394
18.536000	-0.000713	-0.000053	-0.002840	0.002954	7359.299450	45999.403701	3865.348176	24132.353777
19.036000	0.000000	-0.000645	0.000561	0.000825	7389.997465	46152.937164	3880.881693	24237.821357
19.537000	-0.001016	-0.000754	-0.000776	0.000946	7377.687547	46129.880285	3876.765398	24231.812335
20.036500	-0.000347	-0.000452	-0.003598	0.000969	7384.674248	46157.808427	3868.777159	24230.650109
20.537000	-0.001681	-0.000068	-0.001724	0.002194	7357.057196	46073.716215	3870.594916	24169.942200
21.034500	0.000253	0.000208	-0.002785	0.001284	7387.763610	46192.310342	3870.171388	24215.029387
21.535000	0.000612	-0.000168	0.000080	0.000820	7396.675956	46201.091758	3879.533355	24238.039235
22.038500	-0.000346	0.000184	0.000842	0.001543	7378.468497	46163.957721	3879.643885	24202.155242
22.536000	-0.002665	-0.000296	-0.003080	0.002566	7342.485853	46013.837239	3865.759981	24151.491705
23.036000	-0.001318	-0.000598	0.000219	0.000686	7377.224738	46171.439427	3880.303998	24244.693644
23.536000	-0.000340	-0.000064	-0.007915	0.000871	7385.810049	46206.435894	3857.024165	24235.522421
24.039500	-0.000408	0.000567	0.000557	0.001840	7374.595813	46172.653553	3878.003653	24187.472016
24.537000	-0.000523	0.000114	-0.000171	0.001180	7380.485152	46193.377176	3877.811548	24220.181901
25.036000	-0.001300	0.000466	-0.000207	0.001432	7369.369486	46203.258992	3876.997784	24207.654612
25.537000	-0.003605	-0.000693	-0.004718	0.000613	7353.363568	46169.230482	3866.638882	24248.317968
26.034500	0.000918	0.000105	-0.001451	0.001004	7398.000646	46210.039839	3874.701433	24228.909072
26.538000	-0.001428	-0.000836	-0.001008	0.001286	7369.570331	46087.695466	3875.154861	24214.922842
27.035000	-0.000062	-0.000412	-0.001481	0.001207	7385.177671	46137.938869	3874.045450	24218.838350
27.536000	-0.000002	-0.000089	-0.001240	0.001707	7380.414399	46120.289225	3873.316516	24194.027969
28.036000	0.000238	-0.000077	0.001356	-0.001595	7418.883375	46452.915424	3890.002185	24358.337622
28.536500	-0.001375	-0.000243	-0.000567	0.004027	7340.651169	45873.690474	3868.700213	24079.358357
29.064000	0.000707	-0.000164	-0.004384	-0.001710	7425.246739	46455.598414	3874.085644	24364.043979
29.537000	-0.000021	0.000236	0.006747	-0.000556	7404.759327	46379.806854	3902.456673	24306.504756
30.037000	0.001678	-0.000341	-0.002458	-0.000956	7427.631982	46361.986811	3877.385025	24326.446414
30.537500	-0.000263	-0.000544	-0.006517	0.003746	7355.614321	45871.660662	3852.937255	24093.227571
31.038000	0.000569	0.000261	0.003301	-0.000866	7414.544622	46413.492204	3893.469175	24321.930557
31.535500	-0.003189	-0.000898	0.000606	0.001780	7345.296898	46032.126000	3878.308320	24190.411947
32.035500	-0.000650	0.000039	-0.000296	0.002349	7366.492580	46068.864051	3874.166790	24162.234248
32.539000	-0.005099	-0.000847	-0.003619	0.002835	7313.581414	45932.168574	3863.507508	24138.227712
33.036500	-0.000510	0.000459	0.000398	-0.000976	7404.002291	46444.545906	3885.520752	24327.447829
33.536500	-0.000089	-0.000665	-0.000216	-0.001549	7414.818147	46389.025713	3885.402562	24356.013146
34.037000	0.000554	-0.000839	-0.000583	-0.001822	7424.803891	46398.987308	3885.135094	24369.636238
34.537500	-0.002168	0.000090	-0.001470	0.004298	7329.255406	45879.798459	3865.418202	24065.999733
35.034500	-0.000735	-0.000655	-0.004306	0.001224	7377.721441	46111.995201	3866.083428	24218.010110
35.540500	-0.000073	0.000151	0.000264	0.002361	7372.592004	46078.871770	3875.708059	24161.657752
36.035500	-0.000627	0.000032	0.000211	0.001779	7372.887022	46125.152651	3877.198238	24190.479716
36.535500	-0.002797	-0.000934	-0.001981	0.000850	7359.516699	46121.456567	3873.646194	24236.568624
37.036000	-0.000193	0.000503	-0.000085	0.002493	7369.868116	46100.892613	3874.356348	24155.122314
37.536000	-0.001559	-0.000322	-0.000035	0.001724	7363.430985	46095.267316	3876.659912	24193.199698
38.036500	-0.000836	0.000016	0.001433	0.001757	7370.866265	46125.692395	3880.707386	24191.543577
38.536500	-0.001274	-0.000845	-0.002971	0.001609	7367.738859	46054.482880	3868.739960	24198.883219
39.037000	-0.000319	-0.000149	0.002357	0.001692	7377.155714	46115.757826	3883.508548	24194.796467
39.537500	-0.002004	0.000054	-0.000686	0.002000	7355.659727	46105.236602	3874.049805	24179.509312
40.037500	-0.000839	-0.000214	0.001711	0.001692	7371.547855	46109.325340	3881.679379	24194.800439
40.535000	-0.003962	-0.000628	-0.000484	0.001701	7337.856380	46067.082952	3875.463572	24194.367637
41.035000	0.001054	0.000281	0.001133	0.002386	7384.496279	46089.411287	3878.085178	24160.401705
41.535000	-0.001083	0.000093	0.003743	0.001850	7367.203567	46124.155268	3886.992443	24186.958057
42.035000	-0.002536	-0.000062	-0.001273	0.001648	7353.731464	46128.866184	3873.390897	24196.969312
42.536500	-0.001750	0.000260	-0.000313	0.003406	7343.290717	45985.556012	3871.151488	24110.000383
43.036500	0.000306	0.000092	-0.001379	0.001512	7385.859804	46157.872972	3873.476019	24203.700846
43.536500	-0.001550	-0.000184	-0.000650	0.002039	7360.129858	46077.574953	3874.044245	24177.581023
44.037000	-0.000334	-0.000321	-0.003896	0.001590	7378.095611	46108.784406	3866.206041	24199.834371
44.540000	-0.001084	-0.000623	-0.000492	0.003263	7351.977859	45911.899092	3871.050823	24117.077421
45.037000	0.005135	0.000222	0.007830	-0.002706	7484.848204	46595.162753	3911.791305	24413.874616
45.535000	0.000497	0.000017	0.001607	-0.000642	7411.330157	46366.421456	3888.004027	24310.805025
46.066000	-0.000222	-0.000233	0.003360	-0.001053	7407.964651	46382.585244	3894.171893	24331.263132
46.536000	-0.001566	-0.000187	-0.008102	0.004934	7328.893983	45789.217071	3845.302586	24034.712029
47.035500	0.001748	0.000421	0.000487	-0.000332	7421.576531	46375.814669	3883.945364	24295.336093
47.535500	0.000503	0.000270	0.001304	-0.000424	7409.018039	46369.925845	3886.524590	24299.940745
48.036500	0.001438	0.001190	0.001532	-0.000036	7414.970671	46423.457864	3886.069888	24280.603445
48.537000	0.000338	-0.000027	0.003306	0.005001	7348.583943	45798.454222	3876.842189	24031.421898
49.040000	-0.002564	-0.000066	-0.003217	0.003017	7338.729081	45991.757967	3864.119457	24129.197327
49.537500	0.001332	0.000795	0.001926	0.000181	7411.460447	46361.911554	3886.573512	24269.823691
50.035000	0.001861	0.000465	0.002936	0.000079	7418.327036	46338.933758	3889.732841	24274.864360
50.540500	-0.002825	0.000019	-0.000049	0.005316	7311.379527	45771.738777	3866.543758	24015.924661
51.035500	0.001947	0.000421	0.004446	-0.001260	7433.888277	46469.256331	3897.871046	24341.584155
51.536000	0.001097	0.000537	0.003693	-0.000606	7417.466193	46415.058389	3893.845589	24308.969327
52.035500	0.002323	0.000695	0.008595	0.001601	7406.792683	46209.347256	3901.568013	24199.312049
52.536500	0.011077	0.002474	-0.004855	0.011735	7391.795439	45380.354893	3835.586068	23702.726612
53.036500	-0.036304	-0.011059	0.012083	0.210855	5352.715393	28858.014755	3430.499676	15967.633248
53.539500	-0.034098	-0.017741	-0.011262	-0.064914	7745.669889	51302.256188	4043.148824	27762.573131
54.037000	-0.035225	-0.154495	-0.012453	-0.313222	11626.991155	65535.000000	5108.520270	47118.213388
54.537000	-0.032185	-0.158540	-0.006593	-0.317267	11774.082587	65535.000000	5165.161146	47534.138984
55.035000	-0.052726	-0.137030	-0.014643	-0.295757	10935.165215	65535.000000	4999.874960	45366.181603
55.534500	-0.041733	-0.122827	-0.008026	-0.281554	10874.408729	65535.000000	4959.243784	43992.467280
56.035500	-0.029164	-0.104826	-0.015761	-0.263553	10772.606121	65535.000000	4826.559360	42314.690730
56.536000	-0.001999	-0.118493	-0.016003	-0.277220	11569.997962	65535.000000	4894.790026	43582.118155
57.036000	-0.008153	-0.095003	-0.015766	-0.253730	10983.685649	65535.000000	4777.931372	41428.041062
57.536500	-0.009376	-0.082802	-0.011760	-0.241529	10731.064434	65535.000000	4738.213818	40354.335430
58.039500	-0.011735	-0.049102	-0.010162	-0.197325	9912.897821	64033.578588	4543.383329	36707.399461
58.533500	-0.007589	-0.035725	-0.005432	-0.176109	9634.271455	62936.521189	4472.979510	35084.578134
59.037500	-0.012655	-0.019646	-0.007385	-0.132624	8899.131645	59253.129701	4292.215942	31996.206390
59.535000	-0.015816	-0.014202	-0.008866	-0.099601	8402.272494	55773.750628	4167.040112	29848.933144
60.035000	-0.014728	-0.011176	-0.008112	-0.078081	8139.472298	53561.242131	4096.360786	28535.006564
60.535500	-0.016208	-0.007423	-0.006724	-0.053104	7817.022759	51135.583238	4020.067035	27089.393644
61.035500	-0.013405	-0.006083	-0.006934	-0.036473	7656.158375	49460.098007	3968.082587	26171.963318
61.536500	-0.015001	-0.005333	-0.004753	-0.023010	7486.700626	48111.263067	3934.366389	25454.584953
62.036500	-0.013948	-0.005084	-0.003934	-0.013574	7394.875759	47160.825899	3909.194574	24964.856872
62.539500	-0.013475	-0.003888	-0.009541	-0.003955	7296.705315	46306.840852	3865.925646	24476.474657
63.037000	-0.011505	-0.003788	-0.009152	0.002980	7244.262493	45626.011779	3847.786464	24131.035644
63.537000	-0.008975	-0.003013	-0.008156	-0.000270	7305.372743	46025.808431	3859.523226	24292.275091
64.035000	-0.007965	-0.002707	-0.002074	-0.002204	7336.814899	46249.816638	3881.995613	24388.776717
64.534500	-0.009194	-0.003735	-0.006113	-0.001935	7320.773457	46119.820160	3869.864019	24375.282159
65.048000	-0.007159	-0.003513	-0.006474	-0.006593	7392.790377	46610.438125	3881.961340	24609.337178
65.539000	-0.007359	-0.003737	-0.005388	-0.006779	7392.652280	46606.644391	3885.568761	24618.773801
66.041500	-0.006392	-0.003624	-0.008548	-0.006216	7397.028980	46561.217557	3875.047343	24590.334192
66.536500	-0.010172	-0.004203	-0.009702	-0.000892	7299.246096	45969.035843	3856.957978	24323.218399
67.039500	-0.006624	-0.003795	-0.008790	-0.004339	7374.193430	46354.855662	3869.101122	24495.777421
67.536500	-0.005471	-0.003032	-0.006044	-0.003238	7374.757033	46320.885691	3873.716375	24440.527792
68.037500	-0.005841	-0.003074	-0.009741	-0.002754	7365.542159	46268.097965	3862.021839	24416.270656
68.537500	-0.008875	-0.003435	-0.008619	0.003699	7264.377909	45589.858516	3847.273236	24095.528201
69.035000	-0.005809	-0.002453	-0.004886	0.001073	7324.806570	45947.644869	3864.885659	24225.483159
69.535500	-0.004923	-0.001710	-0.007177	0.003367	7309.795344	45793.570727	3852.163616	24111.947529
70.035500	-0.004498	-0.002178	-0.001219	0.004213	7305.299767	45663.294389	3866.356076	24070.187646
70.536000	-0.006254	-0.002386	-0.009076	0.007395	7253.054331	45329.310031	3835.911459	23913.979190
71.036500	-0.002572	-0.001398	-0.007292	0.004985	7317.603361	45664.117032	3847.386829	24032.202914
71.539000	-0.003302	-0.001450	-0.006560	0.005301	7306.455480	45627.771123	3848.530047	24016.642384
72.036500	-0.004627	-0.002516	-0.007373	0.004568	7300.158324	45594.936360	3848.313068	24052.735832
72.536500	-0.006930	-0.001608	-0.006314	0.009775	7221.013494	45172.409801	3836.952118	23797.878462
73.035000	-0.003461	-0.000662	-0.007417	0.005280	7304.983998	45707.804883	3846.232646	24017.687869
73.537500	-0.002148	-0.001165	-0.008445	0.005393	7317.780491	45646.889504	3843.104801	24012.142444
74.035000	-0.000328	-0.000605	-0.002731	0.005140	7339.945715	45727.272943	3859.563196	24024.571491
74.535500	-0.002266	0.000484	-0.003793	0.006969	7299.739390	45654.058153	3851.560824	23934.832974
75.035500	-0.004037	-0.000333	-0.007266	0.004826	7303.692708	45785.355477	3847.895703	24040.016119
75.536000	-0.003757	-0.000573	-0.003339	0.004860	7306.307897	45758.203543	3858.653861	24038.351788
76.039000	-0.003189	-0.000392	-0.004334	0.004587	7315.269108	45803.233181	3856.652262	24051.788889
76.536500	-0.003460	-0.000086	-0.009704	0.006009	7297.243126	45692.578858	3837.977835	23981.875257
77.036500	-0.003148	-0.000078	-0.004782	0.004863	7312.758220	45806.985131	3854.646220	24038.186701
77.537000	-0.001539	-0.000479	-0.002832	0.004456	7334.301540	45807.564737	3861.185387	24058.226778
78.037500	0.000742	-0.000244	-0.003609	0.004442	7358.947613	45832.405387	3859.064461	24058.940926
78.537500	-0.000142	-0.000159	-0.004565	0.005272	7340.522954	45758.381265	3854.115623	24018.073982
79.035500	-0.001719	-0.000154	-0.004585	0.003713	7340.335301	45913.794192	3858.380008	24094.858183
79.535500	-0.002781	-0.000540	-0.004654	0.004446	7321.130729	45802.568869	3856.157279	24058.742875
80.035500	-0.002674	0.000564	-0.007739	0.004715	7319.405139	45885.573134	3846.902159	24045.501498
80.538000	-0.002819	-0.000800	-0.002804	0.003754	7328.112341	45845.487855	3863.217713	24092.837127
81.036500	-0.001574	-0.000773	-0.004571	0.003601	7343.089822	45863.350654	3858.730428	24100.401354
81.537000	-0.001805	0.000254	-0.004094	0.004543	7330.529354	45871.849885	3857.438449	24053.966186
82.037000	-0.002887	-0.001685	-0.006100	0.003025	7335.197909	45829.978087	3856.086514	24128.847279
82.537000	-0.001685	-0.000680	-0.005007	0.004093	7336.618797	45823.689504	3856.155937	24076.112057
83.035000	-0.002632	-0.000453	-0.003631	0.003933	7328.202611	45862.092637	3860.416999	24084.004252
83.537000	-0.002130	-0.000746	-0.000985	0.003718	7335.869468	45854.417698	3868.395030	24094.610861
84.035000	-0.001553	-0.000813	-0.003741	0.003744	7341.782869	45845.190636	3860.638488	24093.345281
84.535500	-0.003552	-0.001408	-0.004743	0.004936	7307.683923	45668.046284	3854.552457	24034.613213
85.038500	-0.001967	-0.001452	0.000384	0.003372	7341.335723	45818.612100	3873.204265	24111.690553
85.536000	-0.003943	-0.000877	-0.003195	0.003276	7321.211512	45885.344836	3863.460170	24116.438838
86.036500	-0.004035	-0.000799	-0.001291	0.004104	7311.399982	45810.784834	3866.460736	24075.593646
86.536000	-0.002947	-0.000692	-0.001454	0.004412	7319.719377	45790.892516	3865.147945	24060.421520
87.035500	-0.002902	-0.000519	0.000180	0.004138	7323.119518	45835.191009	3870.481615	24073.885879
87.540000	-0.004336	-0.001070	-0.002467	0.003943	7309.906463	45799.940152	3863.630121	24083.525938
88.034500	-0.003501	-0.000923	-0.002388	0.003912	7319.146585	45817.523805	3863.937714	24085.054487
88.537500	-0.004240	-0.000984	-0.000949	0.004461	7305.412616	45757.104847	3866.418734	24057.998917
89.035000	-0.004874	-0.000854	0.000078	0.004028	7303.272835	45812.833488	3870.503924	24079.300035
89.537500	-0.003015	-0.000528	0.002848	0.004439	7318.706998	45804.518206	3877.135804	24059.086003
90.038000	-0.003122	-0.001190	-0.006282	0.004337	7318.651117	45748.931582	3851.953918	24064.091539
90.536500	-0.005215	-0.001264	-0.005084	0.007670	7261.107316	45412.518991	3846.078101	23900.539975
91.035000	-0.003928	-0.000846	0.001164	0.004311	7310.330832	45785.663664	3872.758497	24065.391503
91.536500	-0.002231	-0.000407	-0.001049	0.004581	7325.554120	45802.360860	3865.804083	24052.071923
92.037500	-0.003419	-0.001109	-0.003797	0.004876	7309.733879	45703.476037	3857.337852	24037.553418
92.537500	-0.004903	-0.000644	-0.003198	0.007989	7261.028806	45442.158193	3850.386501	23884.922086
93.035500	-0.005648	-0.001386	0.001326	0.004302	7292.134737	45732.876560	3873.237402	24065.802973
93.534500	-0.004252	-0.000100	-0.003587	0.005176	7297.684887	45773.804423	3857.091109	24022.825849
94.038500	-0.006558	-0.000640	-0.002962	0.006558	7258.678001	45583.673864	3854.994386	23954.984140
94.535500	-0.006533	-0.000698	-0.002738	0.010190	7220.826384	45220.759569	3845.598457	23777.684403
95.036000	-0.003568	-0.000244	-0.001679	0.005533	7301.154645	45724.169228	3861.397254	24005.257531
95.536500	-0.002414	-0.000054	-0.001566	0.006106	7307.338706	45686.253160	3860.116705	23977.141590
96.036500	-0.003476	-0.000226	-0.001552	0.007823	7277.847987	45499.709882	3855.394469	23893.060129
96.537000	-0.005605	-0.001332	-0.001654	0.009055	7242.432749	45269.847861	3851.706436	23832.921972
97.037000	-0.002812	-0.000132	-0.000146	0.006254	7301.532373	45663.823146	3863.657319	23969.859520
97.535000	-0.004513	-0.001087	-0.000797	0.006122	7284.874857	45582.479532	3862.210794	23976.346619
98.035000	-0.004946	0.000252	-0.001004	0.009023	7249.692432	45428.549148	3853.588348	23834.482256
98.538000	-0.002653	-0.000728	-0.003157	0.006639	7299.133494	45566.949165	3854.229681	23951.003780
99.036000	-0.001959	-0.000418	-0.001467	0.007238	7300.142266	45538.459489	3857.250543	23921.680222
99.538500	-0.004950	-0.000143	-0.001317	0.007659	7264.005023	45523.955271	3856.496735	23901.059861
100.036500	-0.005029	0.000075	-0.004797	0.010807	7230.104352	45236.076635	3838.275581	23747.731948
100.537000	-0.004475	-0.000768	0.000737	0.007785	7267.690350	45450.002653	3861.851353	23894.886653
101.037000	-0.003293	-0.000617	0.000253	0.008015	7277.749565	45442.287100	3859.867105	23883.676474
101.535500	-0.003172	0.000154	-0.001507	0.008843	7270.283207	45436.613610	3852.697811	23843.267213
102.034000	-0.005374	-0.000389	0.003328	0.011349	7220.824704	45137.701636	3859.148310	23721.440430
102.534500	-0.003936	-0.000103	-0.001683	0.009507	7255.225339	45346.127126	3850.378909	23810.917725
103.038000	-0.004401	-0.000430	0.000930	0.008952	7256.167805	45368.496256	3859.143886	23837.940026
103.535500	-0.005221	-0.000127	0.001024	0.009491	7241.879671	45345.300729	3857.907799	23811.673499
104.036000	-0.004577	0.000223	-0.001152	0.013380	7207.962152	44999.275232	3841.203196	23623.240654
104.536000	-0.006310	0.000566	0.003658	0.010867	7216.089299	45278.325467	3861.405069	23744.817526
105.036500	-0.004343	-0.000078	-0.000123	0.010051	7245.226847	45295.165523	3853.184221	23784.454353
105.537000	-0.004051	0.000336	0.002867	0.011236	7235.865724	45219.713462	3858.181808	23726.942839
106.037000	-0.004510	0.000139	0.004790	0.011218	7231.235361	45202.185198	3863.580304	23727.805908
106.537000	-0.004499	-0.000021	0.000460	0.010976	7233.888694	45210.172280	3852.239271	23739.549629
107.037500	-0.004775	0.000209	0.003070	0.011418	7226.373323	45189.412713	3858.240938	23718.096094
107.538000	-0.003845	-0.000257	0.000760	0.011536	7234.873404	45132.363634	3851.523109	23712.397832
108.035500	-0.004583	0.000793	0.006938	0.012663	7215.363044	45124.742436	3865.539989	23657.831451
108.536000	-0.004859	0.000109	0.004100	0.014362	7194.808338	44892.689231	3852.942660	23575.909117
109.038500	-0.004590	0.000246	0.002833	0.012322	7218.856222	45104.755360	3855.079129	23674.344423
109.536000	-0.004769	0.000349	0.004149	0.012721	7212.822314	45075.844026	3857.620415	23655.052184
110.036500	-0.005630	-0.000751	-0.000884	0.012114	7210.171501	45027.722190	3845.405662	23684.392140
110.536500	-0.006544	0.000155	0.000000	0.016316	7157.168534	44707.781885	3836.335434	23482.056926
111.037000	-0.004077	-0.000867	0.002553	0.013007	7217.056470	44929.507318	3852.409446	23641.227819
111.537500	-0.003899	-0.000040	-0.000470	0.013571	7213.036054	44955.147413	3842.547384	23614.023376
112.040500	-0.005439	-0.000453	0.002800	0.013363	7199.165274	44935.165629	3852.108910	23624.042093
112.534500	-0.006233	-0.000434	-0.001897	0.017854	7144.547096	44502.440590	3827.012680	23408.458114
113.040500	-0.004469	0.000609	0.005294	0.014473	7197.698979	44930.483460	3855.934740	23570.538373
113.535500	-0.006428	-0.000371	0.004018	0.014074	7181.519441	44873.981394	3853.508941	23589.759352
114.038500	-0.007448	-0.000652	-0.002725	0.019932	7110.852854	44282.137402	3819.186268	23309.488158
114.536500	-0.004996	0.000846	0.006404	0.017786	7157.964258	44632.443514	3849.849380	23411.701977
115.039000	-0.005097	0.000712	0.004353	0.015986	7175.508260	44793.624579	3849.159211	23497.860775
115.537000	-0.005357	-0.000455	-0.000657	0.015284	7180.083236	44748.639289	3837.356865	23531.574786
116.040000	-0.007580	-0.000797	-0.001091	0.019984	7108.971429	44263.292382	3823.439825	23307.011045
116.540500	-0.004692	0.000457	0.002622	0.018611	7152.604478	44515.360751	3837.223424	23372.352698
117.037500	-0.004864	0.000958	0.002904	0.016556	7172.020517	44762.214002	3843.613227	23470.555599
117.535500	-0.005383	-0.000115	0.002934	0.016776	7164.400202	44637.230694	3843.094128	23460.024373
118.043500	-0.008657	-0.000183	0.000485	0.021155	7086.122441	44209.983276	3824.532486	23251.431340
118.535500	-0.007496	-0.000902	0.001357	0.020007	7109.598423	44251.010824	3829.990336	23305.900381
119.039500	-0.004806	-0.000580	0.001891	0.017404	7163.870050	44531.852905	3838.524871	23429.996534
119.536000	-0.006607	0.000799	0.003493	0.018463	7134.451417	44562.548194	3840.004085	23379.390424
120.039000	-0.006559	-0.000605	-0.000631	0.022480	7093.973741	44043.365607	3817.968222	23188.748095
120.536500	-0.005719	-0.000209	0.001124	0.018070	7147.607999	44503.434549	3834.620237	23398.183322
121.042000	-0.006621	-0.000513	0.002580	0.018243	7136.576376	44457.526364	3838.112997	23389.915486
121.535000	-0.006129	0.000288	0.008059	0.019354	7130.228230	44427.695064	3850.090854	23336.950746
122.040000	-0.010553	-0.000592	0.002255	0.024152	7036.810138	43885.749081	3821.227011	23109.907402
122.535500	-0.006197	-0.000201	0.004002	0.019254	7130.555166	44390.339742	3839.236006	23341.722044
123.041500	-0.005573	-0.000554	0.001608	0.019592	7133.491757	44324.040365	3831.798333	23325.647891
123.535500	-0.005543	-0.000019	0.004446	0.019947	7130.164888	44341.390117	3838.557405	23308.775995
124.039000	-0.008775	-0.000798	0.002046	0.024798	7048.167906	43805.028030	3818.930815	23079.517875
124.536500	-0.007064	0.000438	0.006145	0.021241	7101.432786	44261.219814	3839.663132	23247.382426
125.039500	-0.004746	-0.000301	0.002586	0.020799	7129.593974	44232.725817	3831.175779	23268.317434
125.539500	-0.007671	-0.000098	0.006418	0.021169	7095.989457	44216.775293	3840.604311	23250.773084
126.040500	-0.007908	-0.000796	0.003476	0.020985	7095.458613	44167.692147	3833.086938	23259.501705
126.535000	-0.008352	0.000397	0.001053	0.021692	7083.776429	44214.073663	3824.616180	23226.008008
127.041000	-0.005827	0.000234	0.005646	0.022316	7103.081052	44138.950845	3835.369225	23196.508235
127.535500	-0.007131	-0.000875	0.006041	0.022023	7092.805083	44061.205188	3837.243719	23210.366680
128.035500	-0.011439	0.000093	-0.000392	0.029045	6979.268808	43488.674732	3801.125822	22880.909358
128.536000	-0.008445	-0.000515	0.003868	0.022567	7073.978535	44043.681172	3829.859459	23184.622720
129.036500	-0.007520	-0.000156	0.002157	0.022971	7079.243105	44039.365492	3824.143214	23165.539630
129.537000	-0.005954	0.000481	0.005447	0.023790	7086.820138	44022.141992	3830.827011	23126.966244
130.039500	-0.010583	-0.000257	-0.000708	0.028989	6988.292323	43461.081766	3800.437839	22883.494215
130.537500	-0.009627	-0.000558	0.002588	0.026387	7023.703509	43677.575711	3816.124093	23004.969690
131.037000	-0.009605	-0.000692	0.005507	0.023828	7049.577233	43906.998257	3830.884332	23125.145920
131.535000	-0.006031	0.000054	0.000079	0.024656	7077.268990	43899.282595	3814.042398	23086.201009
132.035500	-0.012775	-0.000162	0.003271	0.030635	6950.426229	43315.787302	3806.617118	22807.051639
132.535500	-0.009236	-0.000482	0.001086	0.027571	7015.792030	43573.185416	3808.953216	22949.629334
133.037000	-0.007620	-0.000327	0.005712	0.024991	7057.848109	43831.358566	3828.288427	23070.448897
133.536000	-0.007111	-0.000222	0.001949	0.024962	7063.265449	43844.048214	3818.230129	23071.803126
134.036000	-0.008057	-0.000088	0.005491	0.025846	7044.859269	43773.144415	3825.382829	23030.341736
134.540000	-0.008100	-0.000191	0.002689	0.028045	7022.389935	43555.899348	3811.960771	22927.476153
135.043000	-0.007421	-0.000466	0.002356	0.025761	7052.099979	43745.381288	3817.179400	23034.329466
135.537500	-0.008799	-0.000814	0.001679	0.025651	7039.369941	43722.955486	3815.660905	23039.488083
136.037500	-0.011959	-0.000418	0.001767	0.032462	6940.505110	43121.472314	3797.805424	22722.513073
136.535500	-0.009917	-0.000134	0.006816	0.029165	6993.158956	43456.072679	3820.012804	22875.308041
137.035500	-0.007839	-0.000020	0.006615	0.026825	7037.225811	43687.093363	3825.774202	22984.504602
137.535000	-0.007016	-0.000048	0.007309	0.026914	7044.582730	43675.968125	3827.408029	22980.309289
138.035500	-0.014789	-0.001180	0.003772	0.031532	6921.928916	43137.171706	3805.565787	22765.517302
138.536000	-0.008750	0.000093	-0.000046	0.029936	6997.094241	43405.102049	3799.685838	22839.490563
139.039000	-0.007986	-0.000006	0.003346	0.027674	7027.247725	43608.335107	3814.709569	22944.815289
139.537000	-0.008106	-0.000083	0.005211	0.027623	7026.560108	43605.869263	3819.844592	22947.207334
140.037000	-0.011624	-0.000882	-0.001737	0.033096	6937.575288	43019.442082	3786.950799	22693.258880
140.535000	-0.010451	-0.000713	0.006501	0.030388	6975.756905	43287.308430	3815.888023	22818.484685
141.035000	-0.007230	0.000126	-0.001070	0.028021	7031.335879	43588.052057	3802.039666	22928.607790
141.535500	-0.008283	-0.000471	0.007709	0.028328	7017.751964	43503.026971	3824.670575	22914.307187
142.035500	-0.012732	-0.000934	0.000775	0.033912	6918.769492	42938.939880	3791.386770	22655.679966
142.535500	-0.008369	-0.000268	0.003471	0.031439	6985.954018	43230.766318	3805.012588	22769.789534
143.036000	-0.007924	-0.000194	0.004290	0.028763	7016.990926	43488.207535	3814.320985	22894.042892
143.539000	-0.007376	-0.000304	0.001152	0.028907	7021.024039	43464.382888	3805.580143	22887.324533
144.037000	-0.009542	-0.000769	0.001226	0.033751	6951.576853	42969.097531	3792.990250	22663.072040
144.537000	-0.008618	0.000551	0.003757	0.029945	6998.313790	43447.221077	3809.745187	22839.075596
145.037500	-0.006599	-0.000243	0.004685	0.029997	7017.893569	43367.879443	3812.077756	22836.635907
145.537000	-0.007610	-0.000118	0.006395	0.030334	7004.468403	43348.036564	3815.748506	22821.003308
146.038000	-0.011608	-0.000072	0.000606	0.035926	6910.104880	42832.365470	3785.681197	22563.211545
146.538000	-0.007442	-0.000858	0.006306	0.030303	7006.440541	43281.798398	3815.592532	22822.448379
147.038500	-0.008161	-0.000321	0.005828	0.030940	6992.967400	43272.381839	3812.614274	22792.906255
147.535500	-0.007692	0.000036	0.007825	0.031180	6995.251256	43283.390127	3817.314494	22781.812671
148.039000	-0.010758	-0.000310	0.003688	0.036400	6913.766788	42766.650679	3792.502033	22541.512040
148.536500	-0.007519	0.000216	0.006644	0.031842	6990.387933	43238.298031	3812.382491	22751.155216
149.037000	-0.005034	0.001287	0.005495	0.033295	7000.633467	43202.736991	3805.459853	22684.092890
149.534500	-0.004738	0.000914	0.007238	0.032838	7008.126506	43210.467484	3811.309522	22705.144341
150.035000	-0.007585	-0.000119	0.002056	0.036538	6943.418875	42771.466717	3787.867484	22535.168849
150.535000	-0.005104	0.001144	0.005113	0.033786	6995.060243	43143.658191	3803.146598	22661.478700
151.035500	-0.006337	0.000554	0.003561	0.033354	6987.118625	43128.996043	3800.185244	22681.386509
151.536000	-0.004620	0.000903	0.002304	0.033970	6998.042537	43104.071420	3795.247457	22652.987449
152.036000	-0.010144	-0.000332	0.000192	0.038197	6902.259954	42599.173231	3778.702667	22459.465625
152.538500	-0.005744	0.001039	0.007378	0.036716	6959.765661	42861.978982	3801.387815	22527.052826
153.036500	-0.005164	0.000877	0.003094	0.034697	6985.441307	43034.152387	3795.414551	22619.591483
153.536500	-0.006149	0.000415	0.003461	0.034555	6977.096664	43004.424781	3796.754987	22626.113746
154.037000	-0.008495	0.001601	-0.000411	0.039864	6902.078527	42623.573730	3772.832702	22383.629324
154.537000	-0.006122	0.001256	0.006262	0.037573	6947.629661	42802.842632	3796.182474	22487.902615
155.035000	-0.004447	0.001032	0.004021	0.035267	6986.894706	42995.558329	3796.354234	22593.423772
155.535000	-0.002741	0.001912	0.006806	0.035957	6996.970127	43013.181643	3801.880456	22561.793963
156.035500	-0.006215	0.001291	-0.000248	0.040880	6914.371053	42501.849118	3770.636053	22337.561503
156.536000	-0.005460	0.001553	0.006961	0.038538	6944.653790	42741.244063	3795.480893	22443.901545
157.039000	-0.001849	0.002352	0.005111	0.036569	6999.749155	42997.164542	3795.794717	22533.753673
157.536000	-0.002010	0.002171	0.002982	0.037298	6990.913342	42912.963290	3788.302648	22500.468979
158.036500	-0.002270	0.002481	0.001575	0.037227	6989.047827	42948.258514	3784.815895	22503.716362
158.537000	-0.003236	0.002341	0.002944	0.039910	6953.025014	42687.440790	3781.397516	22381.564590
159.037500	-0.003023	0.002331	0.006075	0.037072	6983.110562	42948.584481	3797.007135	22510.757426
159.537500	-0.002318	0.002627	0.004314	0.037172	6989.104795	42966.769072	3792.118562	22506.204122
160.035000	-0.001553	0.002104	0.005692	0.036992	6998.480692	42935.030422	3796.210275	22514.412285
160.535000	-0.001789	0.003082	0.006067	0.039645	6969.889947	42780.211952	3790.232656	22393.591576
161.035500	-0.001262	0.002683	0.001557	0.037658	6994.757616	42926.963635	3783.644964	22484.003297
161.538500	-0.000544	0.002668	0.001214	0.037093	7007.520956	42977.934228	3784.224000	22509.816447
162.036000	-0.001450	0.002223	0.007439	0.036483	7004.575965	42993.287695	3802.165293	22537.713219
162.536500	-0.001200	0.002811	0.004354	0.039144	6980.650762	42801.354816	3787.062585	22416.330456
163.036500	-0.000693	0.002964	0.006089	0.037039	7006.575871	43010.393842	3797.133880	22512.297945
163.537000	-0.001321	0.002729	0.003060	0.036889	7001.819912	43002.569250	3789.575692	22519.161563
164.037000	-0.000491	0.003441	0.002753	0.039044	6988.665505	42868.876523	3783.151789	22420.907552
164.538000	-0.000500	0.004104	0.005482	0.037672	7002.201840	43057.560868	3793.871251	22483.399940
165.035000	0.000541	0.002657	0.001387	0.036819	7021.071718	43002.341959	3785.388632	22522.337627
165.535500	0.000920	0.003710	0.002819	0.037170	7021.342822	43067.511459	3788.208661	22506.280827
166.038500	0.000139	0.003030	0.003721	0.038301	7002.297346	42899.555296	3787.612565	22454.714873
166.536000	-0.001506	0.003376	0.002449	0.039020	6978.854666	42865.104249	3782.424731	22421.997702
167.036000	0.002318	0.004068	0.006448	0.037553	7031.498976	43065.166208	3796.723814	22488.793240
167.536500	0.000466	0.003448	0.003056	0.036606	7022.444433	43095.597952	3790.305539	22532.061791
168.037000	-0.000645	0.003694	0.006690	0.038466	6992.869374	42945.758722	3794.961123	22447.208700
168.537000	0.003167	0.003329	0.005901	0.036371	7051.877542	43106.415955	3798.398816	22542.825483
169.037500	0.002902	0.003882	0.002269	0.036678	7046.132673	43129.345924	3788.060502	22528.800751
169.538000	0.002424	0.004622	0.010793	0.037239	7035.707490	43145.952116	3809.057652	22503.133702
170.035500	-0.002927	0.003253	0.002183	0.039913	6956.027023	42771.172428	3779.413113	22381.387388
170.538000	0.002264	0.004539	0.004599	0.036832	7038.180037	43176.126851	3793.759534	22521.753608
171.036000	0.002083	0.004321	0.003289	0.036743	7037.264152	43164.133265	3790.558358	22525.831218
171.536000	0.001950	0.004442	0.001742	0.036634	7037.019136	43185.607516	3786.797820	22530.816093
172.036000	0.002475	0.004289	0.005140	0.037775	7030.849058	43065.165970	3792.703245	22478.691569
172.536500	0.003615	0.004127	-0.000031	0.036043	7059.695046	43211.315964	3783.717313	22557.859299
173.036500	0.001771	0.004092	0.001114	0.036302	7038.546005	43183.793403	3786.022529	22545.967704
173.537000	0.002534	0.004872	0.001349	0.036619	7043.027648	43227.096913	3785.812831	22531.496064
174.037000	0.002425	0.005041	0.005341	0.037812	7029.976702	43131.577409	3793.132470	22476.990057
174.535000	0.003696	0.004764	0.003522	0.036331	7057.601758	43243.862829	3792.245686	22544.659317
175.037500	0.003499	0.004779	0.000187	0.036183	7057.111181	43259.120952	3783.919867	22551.441297
175.535500	0.002228	0.003896	0.004092	0.036114	7045.024145	43183.137845	3794.314385	22554.609028
176.038000	0.002622	0.004296	0.002626	0.037253	7037.547609	43114.330288	3787.489865	22502.520745
176.536000	0.002277	0.002952	0.001919	0.036136	7045.293915	43093.164591	3788.560734	22553.595911
177.039000	0.003130	0.004018	0.004027	0.035836	7056.898231	43220.413241	3794.874194	22567.342817
177.536500	0.003455	0.005020	0.003776	0.036273	7055.761392	43273.114266	3793.065904	22547.300846
178.037500	0.003613	0.004375	0.003403	0.035738	7062.741966	43262.886800	3793.490998	22571.811985
178.537000	0.002062	0.004013	0.003583	0.037272	7031.749873	43086.175222	3789.939935	22501.623231
179.035000	0.002160	0.003642	0.005691	0.035262	7052.911364	43238.899995	3800.771648	22593.657438
179.538000	0.002936	0.004362	0.003612	0.035493	7058.393825	43284.555254	3794.682604	22583.047674
180.035000	0.003119	0.004184	0.003950	0.035721	7057.946036	43246.652315	3794.973896	22572.610385
180.535500	0.002701	0.003880	-0.000616	0.037795	7032.913047	43025.273338	3777.650578	22477.791284
181.036000	0.005020	0.004029	0.004842	0.035665	7077.695237	43237.340529	3797.466949	22575.149370
181.536500	0.002220	0.004707	0.009317	0.035553	7050.581311	43311.181599	3809.616789	22580.278086
182.037000	0.003784	0.004569	0.004609	0.035623	7065.625987	43291.707057	3796.964015	22577.078804
182.536500	0.002298	0.004641	0.001983	0.036713	7039.715355	43196.732132	3787.218783	22527.164030
183.037000	0.004587	0.005003	0.005045	0.036139	7068.518309	43284.050685	3796.751459	22553.428090
183.540000	0.003752	0.004069	0.003071	0.035764	7063.890713	43231.901104	3792.551695	22570.641640
184.037500	0.003104	0.003958	0.004848	0.036369	7051.261863	43165.127040	3795.629207	22542.914492
184.535500	0.005115	0.003907	-0.001115	0.037320	7061.940117	43071.867129	3777.585596	22499.438838
185.035500	0.003950	0.004189	0.003130	0.035143	7072.150571	43301.092049	3794.335644	22599.087206
185.566000	0.001945	0.003952	0.003557	0.035238	7050.985126	43270.098021	3795.209295	22594.757218
186.044000	0.003431	0.004604	0.004254	0.035875	7059.530812	43271.473538	3795.368263	22565.541497
186.536500	0.004145	0.004182	0.002898	0.036562	7059.801571	43168.052244	3790.006209	22534.083419
187.036500	0.005840	0.004879	0.007953	0.035879	7083.819909	43296.731471	3805.125510	22565.333822
187.537000	0.004018	0.004756	0.003045	0.035554	7068.690497	43315.700583	3793.034799	22580.269005
188.037500	0.003750	0.004319	0.009245	0.036113	7060.347534	43222.683746	3807.934040	22554.632338
188.540500	0.004353	0.004033	0.001000	0.036335	7064.191314	43175.335628	3785.643190	22544.484728
