sample name	sample
index	1298
start time	 04-29-2021  03:38:14 PM


Wavelength (nm)	Absorbance
494.344910	NaN
494.563924	NaN
494.782919	NaN
495.001897	-1.077931
495.220856	NaN
495.439797	NaN
495.658719	0.210671
495.877624	0.722035
496.096510	0.140869
496.315378	-0.180939
496.534227	-0.279206
496.753059	-0.143225
496.971872	0.053327
497.190667	0.076278
497.409444	0.056677
497.628203	0.057307
497.846943	0.053633
498.065665	0.051349
498.284369	0.051898
498.503055	0.052051
498.721723	0.051830
498.940372	0.051345
499.159003	0.049991
499.377616	0.050031
499.596210	0.050018
499.814787	0.050106
500.033345	0.051601
500.251885	0.050891
500.470406	0.050118
500.688910	0.049750
500.907395	0.049610
501.125862	0.049271
501.344311	0.049010
501.562742	0.047759
501.781154	0.047710
501.999548	0.045830
502.217924	0.046563
502.436282	0.047723
502.654621	0.048003
502.872942	0.047920
503.091245	0.047581
503.309530	0.047084
503.527797	0.047584
503.746045	0.047632
503.964275	0.047515
504.182487	0.048729
504.400681	0.048726
504.618856	0.048053
504.837013	0.047627
505.055152	0.047336
505.273273	0.047624
505.491376	0.048159
505.709460	0.048343
505.927526	0.049679
506.145574	0.047664
506.363604	0.047002
506.581615	0.047164
506.799608	0.048060
507.017583	0.048691
507.235540	0.049063
507.453478	0.047890
507.671399	0.048382
507.889301	0.046730
508.107185	0.047830
508.325050	0.047803
508.542898	0.048448
508.760727	0.047992
508.978538	0.047441
509.196330	0.047509
509.414105	0.047162
509.631861	0.045695
509.849599	0.047199
510.067319	0.046934
510.285021	0.046433
510.502704	0.045972
510.720369	0.045132
510.938016	0.045136
511.155645	0.045086
511.373255	0.046426
511.590848	0.046968
511.808422	0.046791
512.025977	0.045880
512.243515	0.045673
512.461034	0.045570
512.678536	0.046027
512.896018	0.046603
513.113483	0.046847
513.330930	0.046525
513.548358	0.046787
513.765768	0.046212
513.983160	0.046653
514.200533	0.047043
514.417889	0.046867
514.635226	0.046562
514.852545	0.045987
515.069845	0.045412
515.287128	0.045409
515.504392	0.044740
515.721638	0.045521
515.938866	0.045177
516.156075	0.044928
516.373267	0.044353
516.590440	0.045024
516.807594	0.044847
517.024731	0.044802
517.241850	0.044593
517.458950	0.044736
517.676032	0.044572
517.893095	0.044513
518.110141	0.045036
518.327168	0.046130
518.544177	0.046228
518.761168	0.047140
518.978141	0.047326
519.195095	0.047005
519.412031	0.046823
519.628949	0.046250
519.845849	0.046337
520.062731	0.045669
520.279594	0.045182
520.496439	0.044968
520.713266	0.043890
520.930074	0.043281
521.146865	0.043206
521.363637	0.044095
521.580391	0.044054
521.797127	0.045033
522.013844	0.045181
522.230543	0.045479
522.447224	0.044919
522.663887	0.045806
522.880532	0.046004
523.097158	0.046374
523.313766	0.045830
523.530356	0.046374
523.746928	0.045748
523.963481	0.045899
524.180017	0.045847
524.396534	0.046455
524.613032	0.046345
524.829513	0.046192
525.045975	0.046118
525.262420	0.045858
525.478845	0.045552
525.695253	0.045651
525.911643	0.046135
526.128014	0.046015
526.344367	0.045934
526.560702	0.045806
526.777018	0.046646
526.993316	0.046819
527.209597	0.047156
527.425858	0.047344
527.642102	0.047089
527.858328	0.046922
528.074535	0.047359
528.290724	0.047551
528.506894	0.047401
528.723047	0.047017
528.939181	0.047144
529.155297	0.047401
529.371395	0.047196
529.587475	0.046887
529.803536	0.046581
530.019579	0.046365
530.235604	0.045835
530.451611	0.046105
530.667600	0.046496
530.883570	0.045806
531.099522	0.045521
531.315456	0.045238
531.531372	0.045831
531.747269	0.045724
531.963148	0.045183
532.179009	0.045233
532.394852	0.044780
532.610676	0.044505
532.826482	0.044762
533.042271	0.044960
533.258040	0.045036
533.473792	0.044607
533.689525	0.044758
533.905240	0.045857
534.120937	0.045945
534.336616	0.046525
534.552277	0.046707
534.767919	0.046672
534.983543	0.046224
535.199149	0.046353
535.414736	0.047039
535.630306	0.047433
535.845857	0.046631
536.061390	0.046658
536.276904	0.045902
536.492401	0.045112
536.707879	0.045389
536.923339	0.045361
537.138781	0.045346
537.354204	0.045193
537.569610	0.044895
537.784997	0.044608
538.000366	0.044751
538.215716	0.044937
538.431049	0.045573
538.646363	0.045583
538.861659	0.045831
539.076937	0.046474
539.292196	0.046097
539.507438	0.045893
539.722661	0.045808
539.937866	0.045349
540.153052	0.045738
540.368221	0.045268
540.583371	0.045266
540.798503	0.045354
541.013617	0.044596
541.228712	0.044360
541.443789	0.044469
541.658848	0.044712
541.873889	0.045048
542.088912	0.045182
542.303916	0.045530
542.518902	0.045295
542.733870	0.045013
542.948820	0.045228
543.163752	0.045542
543.378665	0.045525
543.593560	0.045886
543.808437	0.046077
544.023295	0.045637
544.238136	0.045767
544.452958	0.045375
544.667762	0.046005
544.882548	0.045837
545.097315	0.045850
545.312064	0.046109
545.526795	0.045730
545.741508	0.045568
545.956203	0.045693
546.170879	0.045905
546.385537	0.046486
546.600177	0.046164
546.814799	0.046534
547.029402	0.046262
547.243988	0.046039
547.458555	0.046244
547.673103	0.046151
547.887634	0.046130
548.102146	0.045820
548.316640	0.045705
548.531116	0.045544
548.745574	0.045341
548.960013	0.045625
549.174435	0.045257
549.388838	0.045124
549.603222	0.045120
549.817589	0.045158
550.031937	0.044958
550.246267	0.044870
550.460579	0.044935
550.674873	0.045121
550.889148	0.045210
551.103405	0.046030
551.317644	0.046296
551.531865	0.046649
551.746068	0.046469
551.960252	0.046507
552.174418	0.046604
552.388566	0.046675
552.602696	0.046566
552.816807	0.046660
553.030900	0.046283
553.244975	0.045861
553.459032	0.046085
553.673070	0.046256
553.887091	0.046351
554.101093	0.046252
554.315077	0.046206
554.529042	0.046064
554.742990	0.046201
554.956919	0.046356
555.170830	0.046657
555.384722	0.046286
555.598597	0.046820
555.812453	0.046686
556.026291	0.046826
556.240111	0.046985
556.453913	0.046808
556.667696	0.046515
556.881461	0.046465
557.095208	0.046553
557.308937	0.046365
557.522647	0.045966
557.736339	0.046161
557.950013	0.045860
558.163669	0.045847
558.377307	0.045718
558.590926	0.045925
558.804527	0.045743
559.018110	0.045953
559.231675	0.046034
559.445221	0.045516
559.658749	0.045494
559.872259	0.045870
560.085751	0.045620
560.299225	0.046260
560.512680	0.045964
560.726117	0.045763
560.939536	0.045568
561.152937	0.045494
561.366319	0.046087
561.579683	0.046158
561.793029	0.046070
562.006357	0.046337
562.219667	0.046153
562.432958	0.046254
562.646231	0.046534
562.859486	0.046746
563.072723	0.046540
563.285941	0.046429
563.499141	0.046477
563.712323	0.046478
563.925487	0.046331
564.138632	0.046430
564.351760	0.046462
564.564869	0.046511
564.777960	0.046153
564.991032	0.046360
565.204087	0.046469
565.417123	0.046390
565.630141	0.046400
565.843140	0.046586
566.056122	0.046561
566.269085	0.046526
566.482030	0.046785
566.694957	0.047054
566.907866	0.047126
567.120756	0.047088
567.333628	0.047102
567.546482	0.047073
567.759318	0.046884
567.972135	0.046966
568.184935	0.047063
568.397716	0.046937
568.610478	0.047030
568.823223	0.046936
569.035949	0.046742
569.248657	0.046515
569.461347	0.046485
569.674019	0.046477
569.886672	0.046410
570.099308	0.046113
570.311925	0.045869
570.524523	0.045463
570.737104	0.045388
570.949666	0.045576
571.162210	0.045929
571.374736	0.046038
571.587244	0.046110
571.799733	0.046027
572.012205	0.046312
572.224658	0.046537
572.437092	0.046726
572.649509	0.046638
572.861907	0.046902
573.074287	0.046761
573.286649	0.046417
573.498993	0.046396
573.711318	0.046443
573.923625	0.046546
574.135914	0.046280
574.348185	0.046144
574.560438	0.046473
574.772672	0.046141
574.984888	0.046479
575.197086	0.046611
575.409266	0.046516
575.621427	0.046358
575.833570	0.045941
576.045695	0.046175
576.257802	0.046007
576.469890	0.046013
576.681961	0.045977
576.894013	0.045566
577.106046	0.045643
577.318062	0.045712
577.530059	0.045836
577.742039	0.045834
577.954000	0.045697
578.165942	0.046204
578.377867	0.046023
578.589773	0.046202
578.801661	0.046253
579.013531	0.046195
579.225382	0.046047
579.437216	0.045913
579.649031	0.045996
579.860828	0.046135
580.072606	0.045610
580.284367	0.045630
580.496109	0.045426
580.707833	0.045450
580.919539	0.045643
581.131227	0.045523
581.342896	0.045569
581.554547	0.045911
581.766180	0.045726
581.977795	0.046365
582.189391	0.046121
582.400969	0.046068
582.612529	0.046309
582.824071	0.046566
583.035595	0.046709
583.247100	0.046591
583.458587	0.046571
583.670056	0.046588
583.881506	0.046174
584.092939	0.046550
584.304353	0.046815
584.515749	0.046544
584.727127	0.046428
584.938486	0.046637
585.149828	0.046804
585.361151	0.046551
585.572456	0.046510
585.783742	0.046685
585.995011	0.046921
586.206261	0.047072
586.417493	0.047031
586.628706	0.046929
586.839902	0.046797
587.051079	0.046713
587.262238	0.046972
587.473379	0.046858
587.684502	0.046742
587.895606	0.046538
588.106692	0.046470
588.317760	0.046712
588.528810	0.046613
588.739841	0.046850
588.950855	0.046959
589.161850	0.046833
589.372827	0.047161
589.583785	0.047288
589.794726	0.047489
590.005648	0.047403
590.216552	0.047534
590.427437	0.047925
590.638305	0.047897
590.849154	0.048116
591.059985	0.048220
591.270798	0.048322
591.481592	0.048263
591.692369	0.048219
591.903127	0.048293
592.113867	0.048045
592.324588	0.048030
592.535292	0.048276
592.745977	0.048280
592.956644	0.048317
593.167293	0.048006
593.377923	0.047860
593.588536	0.047913
593.799130	0.047941
594.009706	0.047850
594.220263	0.047775
594.430803	0.047611
594.641324	0.047689
594.851827	0.047458
595.062312	0.047676
595.272778	0.047804
595.483227	0.047801
595.693657	0.047812
595.904069	0.047970
596.114462	0.047784
596.324838	0.047643
596.535195	0.047466
596.745534	0.047871
596.955855	0.047842
597.166157	0.048116
597.376441	0.047767
597.586707	0.047632
597.796955	0.047512
598.007185	0.047487
598.217396	0.047464
598.427589	0.047408
598.637764	0.047048
598.847921	0.046834
599.058060	0.046590
599.268180	0.046949
599.478282	0.046949
599.688366	0.047018
599.898431	0.047035
600.108479	0.046945
600.318508	0.046982
600.528519	0.047306
600.738511	0.047791
600.948486	0.047647
601.158442	0.047574
601.368380	0.047432
601.578300	0.046946
601.788202	0.046927
601.998085	0.047023
602.207950	0.047305
602.417797	0.046776
602.627626	0.046574
602.837436	0.046685
603.047228	0.046658
603.257002	0.046671
603.466758	0.047088
603.676496	0.047042
603.886215	0.047112
604.095916	0.046547
604.305599	0.046668
604.515264	0.046481
604.724910	0.046475
604.934538	0.046190
605.144148	0.046427
605.353740	0.046646
605.563314	0.046748
605.772869	0.046956
605.982406	0.047174
606.191925	0.047176
606.401425	0.047303
606.610908	0.047235
606.820372	0.047363
607.029818	0.047200
607.239246	0.046919
607.448655	0.046903
607.658047	0.046720
607.867420	0.046648
608.076775	0.046825
608.286111	0.046715
608.495430	0.046485
608.704730	0.046486
608.914012	0.046567
609.123275	0.046789
609.332521	0.047002
609.541748	0.047015
609.750957	0.047024
609.960148	0.046912
610.169321	0.046878
610.378475	0.046988
610.587611	0.046978
610.796729	0.047023
611.005829	0.046897
611.214910	0.046804
611.423974	0.046536
611.633019	0.046521
611.842045	0.046572
612.051054	0.046875
612.260044	0.047073
612.469017	0.047051
612.677970	0.046952
612.886906	0.047061
613.095824	0.046824
613.304723	0.046964
613.513604	0.046987
613.722467	0.046816
613.931311	0.046543
614.140138	0.046407
614.348946	0.046505
614.557736	0.046410
614.766507	0.046442
614.975261	0.046505
615.183996	0.046510
615.392713	0.046536
615.601412	0.046461
615.810092	0.046559
616.018754	0.046434
616.227399	0.046538
616.436024	0.046506
616.644632	0.046205
616.853222	0.046257
617.061793	0.046214
617.270346	0.046108
617.478880	0.046216
617.687397	0.046023
617.895895	0.046212
618.104375	0.045897
618.312837	0.045952
618.521281	0.045845
618.729706	0.045556
618.938113	0.045525
619.146502	0.045611
619.354873	0.045628
619.563226	0.045646
619.771560	0.045365
619.979876	0.045489
620.188174	0.045339
620.396453	0.045650
620.604715	0.045704
620.812958	0.045671
621.021183	0.045737
621.229390	0.045750
621.437578	0.045757
621.645748	0.045855
621.853900	0.046001
622.062034	0.045929
622.270150	0.045869
622.478247	0.045923
622.686326	0.046131
622.894387	0.045984
623.102430	0.046059
623.310454	0.045869
623.518461	0.045749
623.726449	0.045381
623.934418	0.045505
624.142370	0.045228
624.350303	0.045177
624.558218	0.044924
624.766115	0.044974
624.973994	0.044942
625.181855	0.045122
625.389697	0.045392
625.597521	0.045617
625.805327	0.045654
626.013114	0.045703
626.220883	0.045868
626.428634	0.045973
626.636367	0.046029
626.844082	0.046091
627.051778	0.046285
627.259457	0.046128
627.467117	0.045928
627.674758	0.045907
627.882382	0.046186
628.089987	0.046102
628.297574	0.045998
628.505143	0.045752
628.712694	0.045600
628.920226	0.045381
629.127740	0.045453
629.335236	0.045625
629.542714	0.045603
629.750174	0.045275
629.957615	0.045146
630.165038	0.045080
630.372443	0.045149
630.579829	0.045110
630.787198	0.045184
630.994548	0.045160
631.201880	0.045128
631.409194	0.045078
631.616489	0.045207
631.823766	0.045214
632.031025	0.045399
632.238266	0.045519
632.445489	0.045703
632.652693	0.045561
632.859879	0.045652
633.067047	0.045613
633.274197	0.045724
633.481329	0.045936
633.688442	0.046098
633.895537	0.046033
634.102614	0.046083
634.309672	0.046095
634.516713	0.046130
634.723735	0.046113
634.930739	0.046312
635.137724	0.046383
635.344692	0.046379
635.551641	0.046415
635.758572	0.046499
635.965485	0.046502
636.172379	0.046761
636.379256	0.046864
636.586114	0.046935
636.792954	0.047037
636.999775	0.047200
637.206579	0.047342
637.413364	0.047342
637.620131	0.047476
637.826880	0.047596
638.033610	0.047400
638.240323	0.047590
638.447017	0.047515
638.653692	0.047686
638.860350	0.047740
639.066990	0.047633
639.273611	0.047716
639.480214	0.047584
639.686798	0.047586
639.893365	0.047668
640.099913	0.047501
640.306443	0.047740
640.512955	0.047375
640.719449	0.047017
640.925924	0.047049
641.132381	0.046932
641.338820	0.046800
641.545241	0.046573
641.751644	0.046580
641.958028	0.046851
642.164394	0.046797
642.370742	0.046876
642.577071	0.047011
642.783383	0.047145
642.989676	0.047286
643.195951	0.047530
643.402207	0.047797
643.608446	0.047660
643.814666	0.047667
644.020868	0.047781
644.227052	0.047755
644.433218	0.047781
644.639365	0.047690
644.845494	0.047749
645.051605	0.047909
645.257698	0.047920
645.463772	0.047991
645.669828	0.048149
645.875866	0.047847
646.081886	0.047888
646.287888	0.047966
646.493871	0.047914
646.699836	0.048063
646.905783	0.047812
647.111712	0.047821
647.317622	0.047901
647.523514	0.047790
647.729388	0.048080
647.935244	0.048172
648.141082	0.048019
648.346901	0.048068
648.552702	0.048126
648.758485	0.048311
648.964250	0.048368
649.169996	0.048163
649.375724	0.047995
649.581434	0.048041
649.787126	0.048083
649.992800	0.048391
650.198455	0.048464
650.404092	0.048263
650.609711	0.048268
650.815311	0.048245
651.020894	0.048545
651.226458	0.048680
651.432004	0.048640
651.637532	0.048596
651.843041	0.048595
652.048532	0.048439
652.254006	0.048594
652.459460	0.048521
652.664897	0.048612
652.870315	0.048833
653.075716	0.048786
653.281097	0.048692
653.486461	0.048795
653.691807	0.048854
653.897134	0.049118
654.102443	0.048965
654.307734	0.049060
654.513006	0.048970
654.718261	0.048741
654.923497	0.048772
655.128715	0.048817
655.333915	0.048773
655.539096	0.048781
655.744259	0.048941
655.949404	0.049180
656.154531	0.049393
656.359640	0.049690
656.564730	0.049814
656.769802	0.049951
656.974856	0.050109
657.179892	0.050388
657.384909	0.050494
657.589908	0.050461
657.794889	0.050520
657.999852	0.050467
658.204797	0.050383
658.409723	0.050456
658.614631	0.050508
658.819521	0.050640
659.024393	0.050578
659.229246	0.050503
659.434081	0.050461
659.638898	0.050507
659.843697	0.050441
660.048478	0.050558
660.253240	0.050516
660.457984	0.050713
660.662710	0.050583
660.867417	0.050572
661.072107	0.050733
661.276778	0.050704
661.481431	0.050593
661.686066	0.050718
661.890682	0.050431
662.095281	0.050687
662.299861	0.050610
662.504422	0.050856
662.708966	0.050789
662.913491	0.050629
663.117999	0.050626
663.322488	0.050795
663.526958	0.050976
663.731411	0.051219
663.935845	0.050829
664.140261	0.050740
664.344659	0.050434
664.549038	0.050705
664.753400	0.050809
664.957743	0.050773
665.162068	0.050688
665.366375	0.050402
665.570663	0.050325
665.774933	0.050423
665.979185	0.050354
666.183419	0.050576
666.387635	0.050391
666.591832	0.050275
666.796011	0.050320
667.000172	0.050340
667.204315	0.050349
667.408439	0.050268
667.612545	0.050368
667.816634	0.050350
668.020703	0.050328
668.224755	0.050247
668.428788	0.050268
668.632803	0.050170
668.836800	0.050175
669.040779	0.050242
669.244739	0.050209
669.448681	0.050061
669.652605	0.050097
669.856511	0.049949
670.060399	0.050052
670.264268	0.050062
670.468119	0.050101
670.671952	0.050105
670.875767	0.050046
671.079563	0.050401
671.283341	0.050549
671.487101	0.050517
671.690843	0.050689
671.894567	0.050618
672.098272	0.050685
672.301959	0.050775
672.505628	0.050561
672.709278	0.050570
672.912911	0.050225
673.116525	0.050262
673.320121	0.050457
673.523699	0.050373
673.727258	0.050339
673.930799	0.050306
674.134322	0.050245
674.337827	0.050398
674.541314	0.050492
674.744782	0.050727
674.948232	0.050694
675.151664	0.050601
675.355078	0.050681
675.558474	0.050877
675.761851	0.050922
675.965210	0.050938
676.168551	0.050918
676.371873	0.050995
676.575178	0.051019
676.778464	0.050931
676.981732	0.050969
677.184981	0.051032
677.388213	0.051129
677.591426	0.051360
677.794621	0.051553
677.997798	0.051836
678.200956	0.051879
678.404097	0.052095
678.607219	0.052384
678.810323	0.052568
679.013408	0.052541
679.216476	0.052392
679.419525	0.052252
679.622556	0.052297
679.825569	0.052295
680.028563	0.052415
680.231540	0.052327
680.434498	0.052552
680.637438	0.052392
680.840359	0.052519
681.043263	0.052739
681.246148	0.052592
681.449015	0.052584
681.651864	0.052448
681.854694	0.052481
682.057506	0.052360
682.260301	0.052177
682.463076	0.052391
682.665834	0.052409
682.868573	0.052227
683.071295	0.052529
683.273998	0.052642
683.476682	0.052785
683.679349	0.052488
683.881997	0.052560
684.084627	0.052464
684.287239	0.052355
684.489833	0.052158
684.692408	0.052289
684.894965	0.052214
685.097504	0.052320
685.300025	0.052177
685.502527	0.052385
685.705012	0.052336
685.907478	0.052470
686.109925	0.052511
686.312355	0.052814
686.514766	0.052806
686.717159	0.052850
686.919534	0.052712
687.121891	0.052828
687.324230	0.052874
687.526550	0.053064
687.728852	0.052897
687.931136	0.053074
688.133401	0.053076
688.335649	0.053242
688.537878	0.053243
688.740089	0.053477
688.942281	0.053632
689.144456	0.053621
689.346612	0.053610
689.548750	0.053934
689.750870	0.053945
689.952971	0.053952
690.155055	0.053852
690.357120	0.054046
690.559167	0.053832
690.761195	0.053885
690.963206	0.053946
691.165198	0.053812
691.367172	0.053695
691.569128	0.053699
691.771065	0.053698
691.972984	0.053815
692.174885	0.053779
692.376768	0.053881
692.578633	0.053742
692.780479	0.053686
692.982308	0.053872
693.184118	0.053843
693.385909	0.053591
693.587683	0.053755
693.789438	0.053748
693.991175	0.053695
694.192894	0.053594
694.394595	0.053630
694.596277	0.053702
694.797941	0.053597
694.999587	0.053549
695.201215	0.053594
695.402824	0.053433
695.604416	0.053350
695.805989	0.053342
696.007543	0.053583
696.209080	0.053562
696.410598	0.053529
696.612099	0.053335
696.813580	0.053427
697.015044	0.053647
697.216490	0.053712
697.417917	0.053745
697.619326	0.053694
697.820717	0.053477
698.022089	0.053510
698.223444	0.053656
698.424780	0.053946
698.626098	0.053917
698.827397	0.053803
699.028679	0.053769
699.229942	0.053721
699.431187	0.053779
699.632414	0.053917
699.833622	0.053997
700.034813	0.053984
700.235985	0.054015
700.437139	0.054137
700.638274	0.054180
700.839392	0.054080
701.040491	0.054163
701.241572	0.054186
701.442635	0.054210
701.643679	0.054180
701.844706	0.054068
702.045714	0.053901
702.246704	0.053947
702.447675	0.053824
702.648629	0.053883
702.849564	0.053845
703.050481	0.053834
703.251380	0.053900
703.452260	0.053866
703.653122	0.053860
703.853966	0.053848
704.054792	0.053622
704.255600	0.053726
704.456389	0.053831
704.657160	0.053784
704.857913	0.053730
705.058648	0.053515
705.259365	0.053524
705.460063	0.053493
705.660743	0.053469
705.861405	0.053477
706.062048	0.053435
706.262674	0.053316
706.463281	0.053309
706.663870	0.053350
706.864441	0.053345
707.064993	0.053507
707.265527	0.053505
707.466043	0.053698
707.666541	0.053914
707.867021	0.054096
708.067482	0.054148
708.267925	0.054241
708.468350	0.054301
708.668757	0.054485
708.869145	0.054585
709.069516	0.054620
709.269868	0.054556
709.470201	0.054564
709.670517	0.054631
709.870814	0.054711
710.071093	0.054742
710.271354	0.054641
710.471597	0.054477
710.671821	0.054288
710.872028	0.054381
711.072216	0.054484
711.272385	0.054361
711.472537	0.053977
711.672670	0.053903
711.872785	0.053794
712.072882	0.053837
712.272961	0.053906
712.473021	0.053988
712.673063	0.053845
712.873087	0.053751
713.073093	0.053837
713.273081	0.054054
713.473050	0.053900
713.673001	0.054052
713.872934	0.054188
714.072849	0.054109
714.272745	0.054047
714.472623	0.054062
714.672483	0.054176
714.872325	0.054029
715.072148	0.053883
715.271954	0.053858
715.471741	0.053608
715.671509	0.053274
715.871260	0.053244
716.070992	0.052958
716.270707	0.052922
716.470403	0.052613
716.670080	0.052532
716.869740	0.052582
717.069381	0.052613
717.269004	0.052811
717.468609	0.053006
717.668195	0.052905
717.867764	0.052909
718.067314	0.053057
718.266846	0.053319
718.466360	0.053372
718.665855	0.053448
718.865332	0.053556
719.064791	0.053446
719.264232	0.053378
719.463655	0.053555
719.663059	0.053667
719.862445	0.053499
720.061813	0.053661
720.261163	0.053713
720.460494	0.053575
720.659807	0.053450
720.859102	0.053439
721.058379	0.053491
721.257638	0.053467
721.456878	0.053493
721.656100	0.053442
721.855304	0.053270
722.054490	0.053123
722.253657	0.053017
722.452806	0.053014
722.651937	0.052939
722.851050	0.052912
723.050145	0.052725
723.249221	0.052482
723.448279	0.052465
723.647319	0.052236
723.846340	0.052205
724.045344	0.052310
724.244329	0.052249
724.443296	0.052192
724.642245	0.051993
724.841175	0.052112
725.040088	0.052273
725.238982	0.052435
725.437857	0.052484
725.636715	0.052395
725.835554	0.052470
726.034376	0.052645
726.233179	0.052780
726.431963	0.052841
726.630730	0.052855
726.829478	0.052853
727.028208	0.052935
727.226920	0.052828
727.425614	0.053043
727.624289	0.053121
727.822946	0.053138
728.021585	0.053039
728.220206	0.053157
728.418808	0.053082
728.617392	0.053210
728.815958	0.052913
729.014506	0.053083
729.213036	0.052953
729.411547	0.052718
729.610040	0.052458
729.808515	0.052649
730.006972	0.052625
730.205410	0.052706
730.403831	0.052500
730.602233	0.052625
730.800616	0.052617
730.998982	0.052789
731.197329	0.052986
731.395658	0.053265
731.593969	0.053150
731.792262	0.053071
731.990536	0.053095
732.188793	0.053257
732.387031	0.053288
732.585250	0.053310
732.783452	0.053405
732.981635	0.053309
733.179800	0.053224
733.377947	0.053257
733.576076	0.053284
733.774186	0.053261
733.972278	0.053377
734.170352	0.053168
734.368408	0.053079
734.566446	0.052655
734.764465	0.052632
734.962466	0.052572
735.160449	0.052394
735.358413	0.052492
735.556360	0.052358
735.754288	0.052010
735.952198	0.052152
736.150090	0.052102
736.347963	0.052047
736.545818	0.051780
736.743655	0.051372
736.941474	0.051283
737.139275	0.050987
737.337057	0.050992
737.534821	0.050918
737.732567	0.050739
737.930295	0.050493
738.128005	0.050734
738.325696	0.050846
738.523369	0.051087
738.721024	0.050890
738.918660	0.050982
739.116279	0.050758
739.313879	0.050686
739.511461	0.050605
739.709024	0.050566
739.906570	0.050433
740.104097	0.050244
740.301606	0.050260
740.499097	0.050444
740.696569	0.050279
740.894024	0.050322
741.091460	0.050265
741.288878	0.050154
741.486277	0.050250
741.683659	0.050049
741.881022	0.050154
742.078367	0.050014
742.275694	0.049949
742.473002	0.050004
742.670293	0.050032
742.867565	0.050064
743.064819	0.050252
743.262054	0.050277
743.459272	0.050451
743.656471	0.050701
743.853652	0.050829
744.050815	0.050995
744.247959	0.050989
744.445085	0.050927
744.642194	0.050888
744.839283	0.050854
745.036355	0.050864
745.233408	0.050924
745.430444	0.050841
745.627461	0.050896
745.824459	0.050885
746.021440	0.050894
746.218402	0.051069
746.415346	0.051294
746.612272	0.051496
746.809180	0.051514
747.006069	0.051466
747.202940	0.051335
747.399793	0.051204
747.596628	0.051202
747.793444	0.051226
747.990243	0.051103
748.187023	0.050908
748.383784	0.050723
748.580528	0.050714
748.777253	0.050523
748.973960	0.050521
749.170649	0.050506
749.367320	0.050367
749.563973	0.050420
749.760607	0.050644
749.957223	0.050840
750.153821	0.050778
750.350400	0.050747
750.546962	0.050873
750.743505	0.050875
750.940030	0.050967
751.136536	0.051079
751.333025	0.050934
751.529495	0.050785
751.725947	0.050558
751.922381	0.050610
752.118796	0.050701
752.315194	0.050592
752.511573	0.050561
752.707934	0.050220
752.904276	0.050119
753.100601	0.050104
753.296907	0.049878
753.493195	0.049837
753.689465	0.049807
753.885716	0.049768
754.081949	0.049791
754.278164	0.049770
754.474361	0.049946
754.670540	0.049878
754.866700	0.049848
755.062843	0.049845
755.258967	0.049841
755.455072	0.049989
755.651160	0.049752
755.847229	0.049717
756.043280	0.049640
756.239313	0.049511
756.435328	0.049638
756.631324	0.049502
756.827302	0.049452
757.023262	0.049490
757.219204	0.049250
757.415127	0.049286
757.611033	0.049348
757.806920	0.049345
758.002788	0.049392
758.198639	0.049353
758.394471	0.049643
758.590286	0.049735
758.786081	0.049724
758.981859	0.049586
759.177619	0.049453
759.373360	0.049455
759.569083	0.049361
759.764788	0.049303
759.960474	0.049186
760.156143	0.048913
760.351793	0.048844
760.547425	0.048790
760.743038	0.048842
760.938634	0.048817
761.134211	0.048687
761.329770	0.048777
761.525311	0.048849
761.720833	0.048846
761.916338	0.049125
762.111824	0.049126
762.307292	0.049144
762.502741	0.049114
762.698173	0.049270
762.893586	0.049186
763.088981	0.049011
763.284358	0.048827
763.479716	0.048807
763.675057	0.048637
763.870379	0.048641
764.065683	0.048646
764.260968	0.048795
764.456236	0.048842
764.651485	0.048846
764.846716	0.048877
765.041929	0.048863
765.237123	0.048774
765.432299	0.048748
765.627457	0.048619
765.822597	0.048422
766.017719	0.048336
766.212822	0.048201
766.407907	0.048135
766.602974	0.048198
766.798023	0.048302
766.993054	0.048224
767.188066	0.048092
767.383060	0.048246
767.578036	0.048371
767.772993	0.048433
767.967933	0.048369
768.162854	0.048316
768.357757	0.048230
768.552642	0.048287
768.747508	0.048101
768.942356	0.048273
769.137186	0.048240
769.331998	0.048324
769.526792	0.048357
769.721567	0.048337
769.916324	0.048616
770.111063	0.048686
770.305784	0.048650
770.500486	0.048857
770.695171	0.048640
770.889837	0.048786
771.084484	0.048969
771.279114	0.049035
771.473725	0.049205
771.668318	0.049179
771.862893	0.049252
772.057450	0.049213
772.251988	0.049253
772.446509	0.049307
772.641011	0.049198
772.835494	0.048960
773.029960	0.048748
773.224407	0.048671
773.418836	0.048473
773.613247	0.048422
773.807640	0.048467
774.002014	0.048494
774.196370	0.048706
774.390708	0.048731
774.585028	0.048692
774.779330	0.048760
774.973613	0.048888
775.167878	0.049179
775.362125	0.049152
775.556354	0.049262
775.750564	0.049236
775.944756	0.049071
776.138930	0.049237
776.333086	0.049244
776.527223	0.049247
776.721343	0.049227
776.915444	0.048987
777.109526	0.049047
777.303591	0.048793
777.497637	0.048912
777.691666	0.049041
777.885676	0.049023
778.079667	0.049226
778.273641	0.049355
778.467596	0.049131
778.661533	0.049149
778.855452	0.049108
779.049352	0.049232
779.243235	0.049237
779.437099	0.049165
779.630945	0.048854
779.824773	0.048588
780.018582	0.048484
780.212373	0.048808
780.406146	0.048842
780.599901	0.049014
780.793638	0.049330
780.987356	0.049279
781.181056	0.049306
781.374738	0.049278
781.568402	0.049267
781.762047	0.049247
781.955674	0.049152
782.149283	0.049340
782.342874	0.049231
782.536447	0.049056
782.730001	0.049094
782.923537	0.049088
783.117055	0.049407
783.310555	0.049559
783.504036	0.049667
783.697499	0.049816
783.890944	0.049714
784.084371	0.049913
784.277780	0.049904
784.471170	0.049866
784.664542	0.049886
784.857896	0.049912
785.051231	0.050057
785.244549	0.049984
785.437848	0.049848
785.631129	0.049863
785.824392	0.049884
786.017636	0.049847
786.210863	0.049954
786.404071	0.049991
786.597260	0.049695
786.790432	0.049646
786.983585	0.049621
787.176721	0.049698
787.369838	0.049823
787.562936	0.049926
787.756017	0.050037
787.949079	0.049877
788.142123	0.050015
788.335149	0.050040
788.528156	0.049937
788.721146	0.050137
788.914117	0.050039
789.107070	0.050119
789.300005	0.049993
789.492921	0.050066
789.685819	0.050322
789.878699	0.050291
790.071561	0.050574
790.264405	0.050868
790.457230	0.050812
790.650037	0.050907
790.842826	0.050690
791.035597	0.050682
791.228349	0.050711
791.421084	0.050566
791.613800	0.050548
791.806497	0.050625
791.999177	0.050365
792.191838	0.050526
792.384481	0.050544
792.577106	0.050633
792.769713	0.050569
792.962301	0.050422
793.154871	0.050470
793.347423	0.050517
793.539957	0.050366
793.732473	0.050496
793.924970	0.050315
794.117449	0.050300
794.309910	0.050383
794.502353	0.050375
794.694777	0.050388
794.887183	0.050531
795.079571	0.050487
795.271941	0.050657
795.464293	0.050637
795.656626	0.050761
795.848941	0.050608
796.041238	0.050710
796.233516	0.050963
796.425777	0.051127
796.618019	0.051215
796.810243	0.051461
797.002449	0.051273
797.194636	0.051281
797.386805	0.051255
797.578956	0.051449
797.771089	0.051242
797.963204	0.051077
798.155300	0.051196
798.347378	0.051182
798.539438	0.050979
798.731480	0.051318
798.923503	0.051688
799.115509	0.051552
799.307496	0.051665
799.499465	0.051726
799.691415	0.051782
799.883348	0.051939
800.075262	0.052092
800.267158	0.052434
800.459035	0.052183
800.650895	0.052223
800.842736	0.052492
801.034559	0.052683
801.226364	0.053023
801.418150	0.053273
801.609919	0.053006
801.801669	0.052842
801.993401	0.052719
802.185114	0.053051
802.376810	0.052798
802.568487	0.052675
802.760146	0.052483
802.951787	0.052523
803.143409	0.052348
803.335014	0.052579
803.526600	0.052663
803.718168	0.052619
803.909717	0.052358
804.101249	0.052560
804.292762	0.052751
804.484257	0.052766
804.675734	0.052806
804.867192	0.053067
805.058632	0.052904
805.250054	0.053015
805.441458	0.052877
805.632844	0.053092
805.824211	0.053160
806.015561	0.053000
806.206891	0.053185
806.398204	0.053095
806.589499	0.052689
806.780775	0.052663
806.972033	0.052694
807.163273	0.052777
807.354495	0.052804
807.545698	0.052667
807.736883	0.052703
807.928050	0.052726
808.119199	0.052520
808.310329	0.052799
808.501441	0.052955
808.692535	0.052922
808.883611	0.052892
809.074669	0.052805
809.265708	0.052846
809.456729	0.053039
809.647732	0.053049
809.838717	0.053147
810.029683	0.053164
810.220632	0.053178
810.411562	0.053183
810.602474	0.053461
810.793367	0.053600
810.984242	0.053625
811.175100	0.053699
811.365938	0.053801
811.556759	0.054067
811.747562	0.054049
811.938346	0.054176
812.129112	0.054190
812.319860	0.054248
812.510589	0.054532
812.701300	0.054435
812.891994	0.054588
813.082668	0.054471
813.273325	0.054537
813.463964	0.054546
813.654584	0.054364
813.845186	0.054342
814.035769	0.054242
814.226335	0.054035
814.416882	0.054128
814.607411	0.054081
814.797922	0.054257
814.988415	0.054320
815.178889	0.054333
815.369345	0.054581
815.559783	0.054646
815.750203	0.054680
815.940605	0.054993
816.130988	0.055019
816.321353	0.054922
816.511700	0.054858
816.702028	0.054789
816.892339	0.054905
817.082631	0.054954
817.272905	0.055192
817.463161	0.055470
817.653398	0.055198
817.843617	0.055441
818.033819	0.055488
818.224001	0.055621
818.414166	0.055779
818.604312	0.055685
818.794440	0.055647
818.984550	0.055525
819.174642	0.055511
819.364716	0.055472
819.554771	0.055192
819.744808	0.055334
819.934827	0.055349
820.124827	0.055013
820.314810	0.055324
820.504774	0.055301
820.694720	0.055417
820.884647	0.055239
821.074557	0.055230
821.264448	0.055535
821.454321	0.055575
821.644176	0.055670
821.834012	0.056046
822.023831	0.056072
822.213631	0.056074
822.403413	0.055997
822.593176	0.056133
822.782922	0.056251
822.972649	0.056162
823.162358	0.056279
823.352049	0.056566
823.541721	0.056543
823.731376	0.056735
823.921012	0.057111
824.110629	0.057403
824.300229	0.057603
824.489811	0.057911
824.679374	0.058132
824.868919	0.058211
825.058445	0.057931
825.247954	0.058006
825.437444	0.057798
825.626916	0.057706
825.816370	0.057775
826.005806	0.057915
826.195223	0.057840
826.384622	0.057831
826.574003	0.057855
826.763366	0.057868
826.952711	0.057864
827.142037	0.057871
827.331345	0.057752
827.520635	0.057642
827.709906	0.057477
827.899160	0.057466
828.088395	0.057412
828.277612	0.057401
828.466810	0.057578
828.655991	0.057684
828.845153	0.057665
829.034297	0.057963
829.223423	0.057807
829.412531	0.057756
829.601620	0.057898
829.790691	0.058185
829.979744	0.058044
830.168779	0.057925
830.357795	0.057833
830.546793	0.057952
830.735773	0.058076
830.924735	0.058473
831.113679	0.058770
831.302604	0.058675
831.491511	0.058651
831.680400	0.059048
831.869271	0.059410
832.058123	0.059771
832.246957	0.059886
832.435773	0.059569
832.624571	0.059629
832.813351	0.059605
833.002112	0.059859
833.190855	0.059913
833.379580	0.059806
833.568287	0.059663
833.756975	0.059472
833.945645	0.059652
834.134297	0.059980
834.322931	0.059986
834.511547	0.060184
834.700144	0.060231
834.888723	0.060384
835.077284	0.060362
835.265826	0.060682
835.454351	0.060717
835.642857	0.060706
835.831345	0.060607
836.019815	0.060431
836.208266	0.060411
836.396699	0.060294
836.585114	0.060188
836.773511	0.060354
836.961890	0.060229
837.150250	0.060622
837.338592	0.060597
837.526916	0.061027
837.715222	0.061407
837.903510	0.061703
838.091779	0.061804
838.280030	0.061893
838.468263	0.062075
838.656477	0.061985
838.844674	0.061770
839.032852	0.061744
839.221012	0.061497
839.409153	0.061517
839.597277	0.061148
839.785382	0.061056
839.973469	0.061085
840.161538	0.061046
840.349589	0.061054
840.537621	0.061071
840.725635	0.061188
840.913631	0.061261
841.101609	0.061255
841.289568	0.061165
841.477509	0.061277
841.665432	0.061572
841.853337	0.061365
842.041224	0.061707
842.229092	0.061697
842.416942	0.061588
842.604774	0.061772
842.792588	0.061843
842.980383	0.062207
843.168160	0.062541
843.355919	0.062318
843.543660	0.062802
843.731382	0.062718
843.919087	0.062873
844.106773	0.063342
844.294441	0.063469
844.482090	0.063512
844.669722	0.063662
844.857335	0.063622
845.044930	0.063899
845.232507	0.063898
845.420065	0.064118
845.607605	0.064185
845.795127	0.064205
845.982631	0.064060
846.170117	0.064218
846.357584	0.064457
846.545033	0.064650
846.732464	0.064795
846.919877	0.065048
847.107272	0.065083
847.294648	0.065322
847.482006	0.065262
847.669346	0.065434
847.856667	0.065621
848.043971	0.065202
848.231256	0.065386
848.418523	0.065419
848.605771	0.065151
848.793002	0.065009
848.980214	0.064989
849.167408	0.065130
849.354584	0.065345
849.541742	0.065486
849.728881	0.065888
849.916002	0.065615
850.103105	0.065518
850.290190	0.065702
850.477256	0.065974
850.664304	0.066056
850.851334	0.066180
851.038346	0.066101
851.225340	0.065796
851.412315	0.065829
851.599272	0.066042
851.786211	0.066224
851.973132	0.066189
852.160034	0.066424
852.346918	0.066616
852.533784	0.066679
852.720632	0.066668
852.907462	0.066719
853.094273	0.066920
853.281066	0.067069
853.467841	0.067183
853.654598	0.067579
853.841336	0.067667
854.028056	0.067761
854.214758	0.068025
854.401442	0.068169
854.588107	0.068350
854.774755	0.068282
854.961384	0.068320
855.147995	0.068297
855.334587	0.068143
855.521162	0.068123
855.707718	0.068196
855.894256	0.068065
856.080775	0.068324
856.267277	0.068622
856.453760	0.068745
856.640225	0.068828
856.826672	0.068903
857.013101	0.069357
857.199511	0.069335
857.385903	0.069114
857.572277	0.069334
857.758633	0.069375
857.944970	0.069456
858.131290	0.069696
858.317591	0.069659
858.503873	0.070002
858.690138	0.069685
858.876384	0.069546
859.062612	0.069654
859.248822	0.069606
859.435014	0.069670
859.621188	0.069555
859.807343	0.069393
859.993480	0.069471
860.179599	0.069316
860.365699	0.069356
860.551781	0.069660
860.737846	0.069747
860.923891	0.069830
861.109919	0.069726
861.295929	0.069793
861.481920	0.069770
861.667893	0.069937
861.853848	0.069814
862.039784	0.069903
862.225702	0.070166
862.411603	0.070512
862.597484	0.070460
862.783348	0.070414
862.969193	0.070498
863.155021	0.070562
863.340830	0.070453
863.526620	0.070792
863.712393	0.070703
863.898147	0.070513
864.083883	0.070469
864.269601	0.070488
864.455301	0.070729
864.640982	0.070789
864.826645	0.071034
865.012290	0.071331
865.197917	0.071526
865.383526	0.071491
865.569116	0.071486
865.754688	0.071556
865.940242	0.071828
866.125777	0.072012
866.311295	0.072018
866.496794	0.072121
866.682275	0.071842
866.867737	0.071664
867.053182	0.071701
867.238608	0.071803
867.424016	0.071941
867.609406	0.072078
867.794778	0.072092
867.980131	0.072382
868.165466	0.072290
868.350783	0.072627
868.536082	0.072806
868.721362	0.073131
868.906625	0.073228
869.091869	0.073250
869.277094	0.072992
869.462302	0.072994
869.647491	0.072893
869.832662	0.073044
870.017815	0.073225
870.202950	0.073101
870.388066	0.072835
870.573165	0.072656
870.758245	0.072694
870.943306	0.073112
871.128350	0.073169
871.313375	0.073283
871.498382	0.073531
871.683371	0.073410
871.868342	0.073700
872.053294	0.074154
872.238229	0.074673
872.423144	0.074576
872.608042	0.074563
872.792922	0.074689
872.977783	0.074897
873.162626	0.074742
873.347451	0.074801
873.532258	0.075028
873.717046	0.075207
873.901816	0.075237
874.086568	0.075416
874.271302	0.075290
874.456017	0.075516
874.640715	0.075403
874.825394	0.075748
875.010055	0.075853
875.194697	0.075725
875.379322	0.075901
875.563928	0.075853
875.748516	0.076231
875.933085	0.076271
876.117637	0.076191
876.302170	0.076119
876.486685	0.075808
876.671182	0.075568
876.855661	0.075803
877.040121	0.075631
877.224563	0.075640
877.408987	0.075714
877.593393	0.075686
877.777780	0.075684
877.962150	0.075872
878.146501	0.076180
878.330833	0.076456
878.515148	0.076315
878.699444	0.076404
878.883722	0.076490
879.067982	0.076255
879.252224	0.076516
879.436447	0.076249
879.620653	0.076333
879.804840	0.076301
879.989008	0.076447
880.173159	0.076309
880.357291	0.076123
880.541405	0.076173
880.725501	0.076238
880.909579	0.076357
881.093638	0.076562
881.277680	0.076729
881.461703	0.076759
881.645707	0.076687
881.829694	0.076639
882.013662	0.077018
882.197612	0.077199
882.381544	0.077307
882.565458	0.077151
882.749353	0.077129
882.933230	0.076904
883.117089	0.077125
883.300930	0.077231
883.484753	0.077447
883.668557	0.077375
883.852343	0.076965
884.036111	0.076815
884.219861	0.076958
884.403592	0.077237
884.587305	0.077176
884.771000	0.077012
884.954677	0.077036
885.138335	0.077205
885.321976	0.077439
885.505598	0.077497
885.689201	0.077611
885.872787	0.077482
886.056354	0.077294
886.239904	0.077266
886.423434	0.077147
886.606947	0.077148
886.790442	0.076940
886.973918	0.076558
887.157376	0.076728
887.340816	0.077065
887.524237	0.077105
887.707641	0.077484
887.891026	0.077832
888.074393	0.077780
888.257741	0.077748
888.441072	0.077612
888.624384	0.077597
888.807678	0.077458
888.990954	0.077063
889.174211	0.077075
889.357451	0.077005
889.540672	0.076669
889.723875	0.076605
889.907059	0.076408
890.090226	0.076681
890.273374	0.076814
890.456504	0.077259
890.639616	0.077702
890.822709	0.078018
891.005785	0.078066
891.188842	0.078448
891.371881	0.078699
891.554901	0.078949
891.737904	0.078937
891.920888	0.078834
892.103854	0.078718
892.286802	0.078401
892.469731	0.078148
892.652643	0.077741
892.835536	0.077529
893.018410	0.077434
893.201267	0.077377
893.384106	0.077480
893.566926	0.077521
893.749728	0.077404
893.932511	0.077032
894.115277	0.076805
894.298024	0.077091
894.480753	0.077018
894.663464	0.076747
894.846157	0.076718
895.028831	0.076308
895.211487	0.075886
895.394125	0.076024
895.576745	0.076059
895.759346	0.076096
895.941930	0.076023
896.124495	0.075720
896.307041	0.075868
896.489570	0.075708
896.672080	0.075913
896.854573	0.076309
897.037046	0.075715
897.219502	0.075755
897.401940	0.075751
897.584359	0.075764
897.766760	0.075941
897.949143	0.075738
898.131507	0.075848
898.313854	0.075695
898.496182	0.075589
898.678492	0.075952
898.860783	0.075919
899.043057	0.075970
899.225312	0.076087
899.407549	0.076617
899.589768	0.076415
899.771968	0.076393
899.954151	0.076359
900.136315	0.076278
900.318461	0.076054
900.500588	0.075822
900.682698	0.075684
900.864789	0.074862
901.046862	0.074212
901.228917	0.074418
901.410953	0.074484
901.592971	0.074166
901.774972	0.073925
901.956953	0.073924
902.138917	0.073894
902.320862	0.073689
902.502790	0.074067
902.684699	0.073791
902.866589	0.073532
903.048462	0.073196
903.230316	0.073124
903.412152	0.072972
903.593970	0.072622
903.775770	0.072810
903.957551	0.073135
904.139314	0.072952
904.321059	0.072704
904.502786	0.072857
904.684494	0.072659
904.866185	0.072822
905.047857	0.072800
905.229510	0.072786
905.411146	0.072656
905.592763	0.072044
905.774363	0.071965
905.955943	0.072326
906.137506	0.072155
906.319051	0.072147
906.500577	0.072438
906.682085	0.072592
906.863575	0.072615
907.045046	0.072588
907.226500	0.073179
907.407935	0.072983
907.589352	0.073124
907.770750	0.073344
907.952131	0.073441
908.133493	0.072867
908.314837	0.072581
908.496163	0.072664
908.677470	0.072269
908.858760	0.071657
909.040031	0.071980
909.221284	0.071840
909.402518	0.071629
909.583735	0.071352
909.764933	0.071703
909.946113	0.071754
910.127275	0.071691
910.308418	0.072203
910.489544	0.072221
910.670651	0.071772
910.851740	0.071801
911.032810	0.071452
911.213863	0.071507
911.394897	0.071243
911.575913	0.071650
911.756911	0.071627
911.937890	0.071234
912.118851	0.071415
912.299794	0.071567
912.480719	0.071513
912.661626	0.071529
912.842514	0.071731
913.023384	0.071354
913.204236	0.070843
913.385070	0.070624
913.565886	0.070519
913.746683	0.070373
913.927462	0.070204
914.108223	0.070070
914.288965	0.070269
914.469690	0.069633
914.650396	0.069664
914.831084	0.069551
915.011754	0.069286
915.192405	0.069128
915.373038	0.068686
915.553653	0.068630
915.734250	0.068210
915.914829	0.067836
916.095389	0.067693
916.275931	0.067607
916.456455	0.067353
916.636961	0.067187
916.817448	0.066737
916.997917	0.066507
917.178368	0.066551
917.358801	0.066147
917.539216	0.065844
917.719612	0.065906
917.899990	0.065739
918.080350	0.065738
918.260692	0.065259
918.441015	0.064995
918.621320	0.065056
918.801607	0.064111
918.981876	0.063795
919.162127	0.063585
919.342359	0.063213
919.522573	0.062788
919.702769	0.062717
919.882947	0.062621
920.063106	0.062269
920.243247	0.062101
920.423370	0.062291
920.603475	0.062260
920.783562	0.062193
920.963630	0.061579
921.143680	0.061611
921.323712	0.061171
921.503725	0.061091
921.683721	0.061263
921.863698	0.060801
922.043657	0.060583
922.223598	0.059967
922.403520	0.059466
922.583424	0.060283
922.763311	0.060248
922.943178	0.059598
923.123028	0.059720
923.302859	0.059741
923.482673	0.059807
923.662467	0.060104
923.842244	0.060655
924.022003	0.060510
924.201743	0.060173
924.381465	0.060229
924.561169	0.060471
924.740854	0.060068
924.920522	0.059879
925.100171	0.059811
925.279802	0.059197
925.459414	0.058772
925.639009	0.058754
925.818585	0.058037
925.998143	0.057534
926.177683	0.057048
926.357205	0.057397
926.536708	0.057052
926.716193	0.057162
926.895660	0.057023
927.075109	0.057320
927.254539	0.056956
927.433951	0.057560
927.613345	0.057471
927.792721	0.057775
927.972079	0.057109
928.151418	0.056941
928.330739	0.056067
928.510042	0.056277
928.689327	0.055568
928.868593	0.055809
929.047841	0.055091
929.227071	0.054305
929.406283	0.054083
929.585476	0.054435
929.764652	0.054350
929.943809	0.054473
930.122948	0.054762
930.302068	0.054792
930.481171	0.053986
930.660255	0.053521
930.839321	0.053826
931.018369	0.053530
931.197398	0.053049
931.376409	0.052129
931.555402	0.051936
931.734377	0.050323
931.913334	0.049669
932.092272	0.050154
932.271192	0.050850
932.450094	0.050097
932.628978	0.049784
932.807844	0.049406
932.986691	0.049345
933.165520	0.048744
933.344331	0.048409
933.523123	0.048477
933.701898	0.047935
933.880654	0.046679
934.059392	0.046194
934.238111	0.045984
934.416813	0.045447
934.595496	0.045396
934.774161	0.045224
934.952808	0.045491
935.131437	0.044956
935.310047	0.044971
935.488639	0.044938
935.667213	0.044320
935.845769	0.044150
936.024306	0.043360
936.202825	0.043335
936.381326	0.043491
936.559809	0.043307
936.738274	0.042911
936.916720	0.042090
937.095148	0.041575
937.273558	0.041993
937.451950	0.040960
937.630323	0.040984
937.808678	0.040173
937.987015	0.040002
938.165334	0.039462
938.343635	0.039097
938.521917	0.038296
938.700181	0.038301
938.878427	0.037802
939.056655	0.038072
939.234864	0.038015
939.413055	0.038581
939.591228	0.037731
939.769383	0.036969
939.947519	0.036737
940.125638	0.037952
940.303738	0.037401
940.481820	0.037559
940.659883	0.037017
940.837929	0.037093
941.015956	0.037690
941.193965	0.037769
941.371955	0.037216
941.549928	0.037546
941.727882	0.035684
941.905818	0.035783
942.083736	0.036011
942.261636	0.036595
942.439517	0.035981
942.617380	0.032902
942.795225	0.032403
942.973052	0.032390
943.150860	0.031558
943.328651	0.032002
943.506423	0.031801
943.684176	0.030228
943.861912	0.029245
944.039629	0.029272
944.217328	0.030480
944.395009	0.029801
944.572672	0.030489
944.750317	0.031407
944.927943	0.032363
945.105551	0.031866
945.283141	0.032734
945.460712	0.032717
945.638265	0.031215
945.815801	0.031719
945.993317	0.031928
946.170816	0.031142
946.348297	0.029518
946.525759	0.027667
946.703203	0.027217
946.880629	0.026385
947.058036	0.026657
947.235425	0.027444
947.412797	0.027597
947.590149	0.027139
947.767484	0.026880
947.944800	0.027102
948.122099	0.028114
948.299379	0.027534
948.476640	0.029198
948.653884	0.028044
948.831109	0.027031
949.008316	0.026027
949.185505	0.026498
949.362676	0.026461
949.539828	0.026942
949.716962	0.026563
949.894078	0.027009
950.071176	0.024704
950.248256	0.024138
950.425317	0.026423
950.602360	0.026037
950.779385	0.025038
950.956391	0.025036
951.133380	0.026037
951.310350	0.026424
951.487302	0.026401
951.664235	0.026221
951.841151	0.027718
952.018048	0.027262
952.194927	0.027728
952.371788	0.028596
952.548631	0.028958
952.725455	0.026770
952.902261	0.025133
953.079049	0.025243
953.255819	0.027290
953.432570	0.026142
953.609303	0.025493
953.786018	0.024965
953.962715	0.025605
954.139394	0.026563
954.316054	0.027947
954.492696	0.027500
954.669320	0.026395
954.845926	0.025885
955.022513	0.026755
955.199083	0.026899
955.375634	0.027561
955.552166	0.026941
955.728681	0.025522
955.905177	0.025337
956.081655	0.027101
956.258115	0.029193
956.434557	0.030184
956.610980	0.031505
956.787385	0.030854
956.963772	0.029472
957.140141	0.030517
957.316492	0.032566
957.492824	0.032552
957.669138	0.031861
957.845434	0.031962
958.021712	0.030491
958.197971	0.026691
958.374212	0.027476
958.550435	0.028970
958.726640	0.028291
958.902826	0.025949
959.078995	0.025919
959.255145	0.028388
959.431277	0.030021
959.607390	0.031321
959.783486	0.035261
959.959563	0.034755
960.135622	0.036403
960.311662	0.036467
960.487685	0.039983
960.663689	0.039693
960.839675	0.038233
961.015643	0.036934
961.191593	0.035599
961.367524	0.035872
961.543437	0.036791
961.719332	0.034095
961.895209	0.033359
962.071067	0.031700
962.246907	0.032118
962.422730	0.032783
962.598533	0.031310
962.774319	0.031707
962.950086	0.032630
963.125835	0.033377
963.301566	0.034737
963.477279	0.036127
963.652973	0.034457
963.828650	0.034798
964.004308	0.034786
964.179947	0.035939
964.355569	0.036020
964.531172	0.035227
964.706757	0.034315
964.882324	0.035298
965.057873	0.034677
965.233403	0.037449
965.408916	0.039248
965.584410	0.038962
965.759885	0.038958
965.935343	0.038535
966.110782	0.038131
966.286203	0.036423
966.461606	0.033746
966.636991	0.034059
966.812357	0.033207
966.987705	0.032637
967.163035	0.032453
967.338347	0.031572
967.513641	0.031745
967.688916	0.033818
967.864173	0.034503
968.039412	0.034901
968.214632	0.036812
968.389835	0.037235
968.565019	0.037352
968.740185	0.037722
968.915333	0.039372
969.090462	0.041233
969.265573	0.042112
969.440667	0.043021
969.615741	0.044430
969.790798	0.041757
969.965836	0.039890
970.140856	0.037944
970.315858	0.038459
970.490842	0.039814
970.665808	0.038508
970.840755	0.035757
971.015684	0.036671
971.190595	0.038166
971.365487	0.038621
971.540362	0.042569
971.715218	0.044715
971.890056	0.046047
972.064875	0.045640
972.239677	0.045567
972.414460	0.044700
972.589225	0.044468
972.763972	0.041987
972.938700	0.043735
973.113411	0.041468
973.288103	0.040608
973.462777	0.037569
973.637432	0.036964
973.812070	0.037666
973.986689	0.037979
974.161290	0.037763
974.335873	0.039575
974.510437	0.039199
974.684984	0.039127
974.859512	0.039775
975.034022	0.038570
975.208513	0.037367
975.382987	0.037792
975.557442	0.037563
975.731879	0.037790
975.906298	0.037089
976.080698	0.036244
976.255080	0.038376
976.429445	0.035996
976.603790	0.040521
976.778118	0.041796
976.952427	0.039938
977.126719	0.039839
977.300992	0.041457
977.475246	0.042356
977.649483	0.041286
977.823701	0.040754
977.997901	0.040776
978.172083	0.038960
978.346247	0.039502
978.520392	0.041604
978.694519	0.042313
978.868628	0.039915
979.042719	0.038545
979.216791	0.039455
979.390845	0.037654
979.564882	0.040403
979.738899	0.039819
979.912899	0.039153
980.086880	0.038477
980.260843	0.037254
980.434788	0.037058
980.608715	0.036813
980.782623	0.037890
980.956514	0.038036
981.130386	0.034671
981.304240	0.032782
981.478075	0.032690
981.651892	0.032183
981.825692	0.034069
981.999472	0.033068
982.173235	0.035033
982.346980	0.033943
982.520706	0.032599
982.694414	0.037025
982.868104	0.038451
983.041775	0.039021
983.215428	0.040281
983.389064	0.041273
983.562680	0.041174
983.736279	0.038832
983.909860	0.038852
984.083422	0.041271
984.256966	0.040968
984.430491	0.040862
984.603999	0.039849
984.777488	0.038299
984.950959	0.035603
985.124412	0.037060
985.297847	0.038872
985.471263	0.038350
985.644661	0.035883
985.818041	0.032133
985.991403	0.034016
986.164747	0.033814
986.338072	0.035123
986.511379	0.036945
986.684668	0.037325
986.857938	0.038977
987.031191	0.039985
987.204425	0.040284
987.377641	0.041643
987.550839	0.039874
987.724018	0.039870
987.897179	0.038915
988.070322	0.037130
988.243447	0.036650
988.416554	0.036256
988.589642	0.034235
988.762712	0.033333
988.935764	0.033032
989.108798	0.033343
989.281813	0.032544
989.454811	0.033782
989.627790	0.034685
989.800751	0.034184
989.973693	0.033104
990.146617	0.033564
990.319524	0.034904
990.492412	0.036858
990.665281	0.036440
990.838133	0.035658
991.010966	0.035792
991.183781	0.035736
991.356578	0.036443
991.529356	0.036492
991.702117	0.038552
991.874859	0.038178
992.047583	0.037885
992.220288	0.038567
992.392976	0.041187
992.565645	0.042227
992.738296	0.043298
992.910929	0.043496
993.083543	0.042845
993.256139	0.042085
993.428718	0.042266
993.601277	0.041046
993.773819	0.040239
993.946342	0.038952
994.118848	0.036159
994.291335	0.036120
994.463803	0.038024
994.636254	0.038314
994.808686	0.037523
994.981100	0.036983
995.153496	0.037364
995.325874	0.038674
995.498233	0.038455
995.670574	0.039831
995.842897	0.039227
996.015202	0.038006
996.187488	0.037423
996.359757	0.040276
996.532007	0.041812
996.704239	0.040463
996.876452	0.039351
997.048648	0.038980
997.220825	0.038584
997.392984	0.039303
997.565124	0.039522
997.737247	0.040189
997.909351	0.038221
998.081437	0.038723
998.253505	0.039010
998.425554	0.041139
998.597586	0.040958
998.769599	0.041171
998.941594	0.038418
999.113571	0.037183
999.285529	0.037695
999.457469	0.038007
999.629391	0.035723
999.801295	0.036525
999.973181	0.036482
1000.145048	0.037203
1000.316897	0.035520
1000.488728	0.035941
1000.660541	0.037013
1000.832335	0.036583
1001.004111	0.036003
1001.175869	0.037134
1001.347609	0.037549
1001.519331	0.035423
1001.691034	0.034973
1001.862719	0.035291
1002.034386	0.035673
1002.206035	0.035353
1002.377665	0.033340
1002.549277	0.034042
1002.720871	0.033573
1002.892447	0.033986
1003.064004	0.034253
1003.235544	0.035320
1003.407065	0.036273
1003.578568	0.036864
1003.750052	0.035168
1003.921519	0.036240
1004.092967	0.035037
1004.264397	0.036336
1004.435809	0.034806
1004.607202	0.035002
1004.778577	0.033627
1004.949934	0.032929
1005.121273	0.032844
1005.292594	0.033802
1005.463896	0.034739
1005.635180	0.036342
1005.806446	0.035468
1005.977694	0.035099
1006.148923	0.035273
1006.320135	0.035895
1006.491328	0.037477
1006.662503	0.038935
1006.833659	0.038892
1007.004798	0.038241
1007.175918	0.036115
1007.347020	0.036399
1007.518103	0.036976
1007.689169	0.037566
1007.860216	0.039131
1008.031245	0.036504
1008.202256	0.035265
1008.373248	0.034093
1008.544223	0.035347
1008.715179	0.038202
1008.886117	0.037056
1009.057036	0.037933
1009.227938	0.037666
1009.398821	0.037437
1009.569686	0.039684
1009.740533	0.040343
1009.911361	0.042131
1010.082172	0.041544
1010.252964	0.040244
1010.423738	0.039498
1010.594493	0.039211
1010.765231	0.038424
1010.935950	0.035917
1011.106651	0.036844
1011.277334	0.035467
1011.447998	0.034285
1011.618645	0.033619
1011.789273	0.033134
1011.959882	0.033692
1012.130474	0.033194
1012.301048	0.034874
1012.471603	0.037523
1012.642140	0.035594
1012.812658	0.035122
1012.983159	0.036422
1013.153641	0.036969
1013.324105	0.035439
1013.494551	0.036923
1013.664979	0.036483
1013.835388	0.035842
1014.005779	0.034814
1014.176152	0.036083
1014.346507	0.037847
1014.516843	0.036928
1014.687162	0.036195
1014.857462	0.038252
1015.027744	0.038240
1015.198007	0.039056
1015.368252	0.039000
1015.538480	0.038785
1015.708689	0.037003
1015.878879	0.036620
1016.049052	0.037597
1016.219206	0.038299
1016.389342	0.037681
1016.559460	0.036336
1016.729559	0.037833
1016.899641	0.036289
1017.069704	0.035107
1017.239749	0.035370
1017.409775	0.033235
1017.579784	0.032108
1017.749774	0.030824
1017.919746	0.030491
1018.089700	0.032728
1018.259635	0.032467
1018.429553	0.034448
1018.599452	0.035196
1018.769333	0.036032
1018.939195	0.039316
1019.109040	0.039674
1019.278866	0.040495
1019.448674	0.041311
1019.618464	0.039989
1019.788235	0.037587
1019.957989	0.036296
1020.127724	0.035980
1020.297441	0.037041
1020.467139	0.035222
1020.636820	0.033620
1020.806482	0.034350
1020.976126	0.032341
1021.145752	0.032750
1021.315359	0.033760
1021.484948	0.032798
1021.654519	0.031660
1021.824072	0.028942
1021.993607	0.028722
1022.163123	0.032890
1022.332621	0.031847
1022.502101	0.033028
1022.671563	0.032409
1022.841007	0.032236
1023.010432	0.032800
1023.179839	0.035617
1023.349228	0.036908
1023.518598	0.037480
1023.687951	0.034466
1023.857285	0.033650
1024.026601	0.033719
1024.195899	0.034804
1024.365178	0.033901
1024.534439	0.036136
1024.703682	0.034614
1024.872907	0.034198
1025.042114	0.033299
1025.211302	0.034888
1025.380472	0.034226
1025.549624	0.035482
1025.718758	0.034301
1025.887873	0.033625
1026.056970	0.032568
1026.226049	0.032916
1026.395110	0.032084
1026.564153	0.033561
1026.733177	0.030333
1026.902183	0.034241
1027.071171	0.033831
1027.240141	0.035858
1027.409092	0.036493
1027.578026	0.035676
1027.746940	0.034474
1027.915837	0.033845
1028.084716	0.033041
1028.253576	0.034924
1028.422418	0.031572
1028.591242	0.029868
1028.760048	0.027342
1028.928835	0.028370
1029.097604	0.029654
1029.266355	0.031525
1029.435088	0.032508
1029.603803	0.032581
1029.772499	0.033186
1029.941177	0.034559
1030.109837	0.036429
1030.278478	0.037833
1030.447102	0.039161
1030.615707	0.037396
1030.784294	0.037703
1030.952863	0.038431
1031.121413	0.037138
1031.289945	0.036874
1031.458460	0.035869
1031.626955	0.034524
1031.795433	0.034113
1031.963892	0.033728
1032.132334	0.034960
1032.300756	0.034049
1032.469161	0.035114
1032.637548	0.034681
1032.805916	0.034678
1032.974266	0.034526
1033.142598	0.036805
1033.310911	0.036128
1033.479207	0.036367
1033.647484	0.033336
1033.815743	0.033660
1033.983983	0.033628
1034.152206	0.036518
1034.320410	0.037142
1034.488596	0.037119
1034.656764	0.034188
1034.824914	0.035043
1034.993045	0.033672
1035.161158	0.035401
1035.329253	0.035548
1035.497330	0.032993
1035.665388	0.031780
1035.833428	0.030673
1036.001450	0.030432
1036.169454	0.031026
1036.337440	0.029533
1036.505407	0.029067
1036.673356	0.030422
1036.841287	0.031153
1037.009200	0.034548
1037.177094	0.035631
1037.344970	0.035605
1037.512828	0.036290
1037.680668	0.036628
1037.848489	0.036303
1038.016293	0.035964
1038.184078	0.034408
1038.351845	0.033221
1038.519593	0.031375
1038.687324	0.030423
1038.855036	0.030001
1039.022730	0.030045
1039.190406	0.030355
1039.358063	0.031125
1039.525702	0.032297
1039.693323	0.033457
1039.860926	0.033090
1040.028511	0.033072
1040.196077	0.031510
1040.363625	0.034074
1040.531155	0.034997
1040.698667	0.035001
1040.866161	0.035150
1041.033636	0.034981
1041.201093	0.033419
1041.368532	0.033971
1041.535952	0.033158
1041.703355	0.035962
1041.870739	0.034632
1042.038105	0.032229
1042.205452	0.031677
1042.372782	0.032149
1042.540093	0.032371
1042.707386	0.033244
1042.874661	0.029535
1043.041918	0.029064
1043.209156	0.027233
1043.376376	0.027308
1043.543578	0.028614
1043.710762	0.028229
1043.877927	0.026779
1044.045074	0.027683
1044.212203	0.028082
1044.379314	0.030613
1044.546407	0.032161
1044.713481	0.031538
1044.880537	0.031037
1045.047575	0.030821
1045.214595	0.033179
1045.381596	0.031863
1045.548579	0.031107
1045.715544	0.031279
1045.882491	0.030896
1046.049420	0.030512
1046.216330	0.031650
1046.383222	0.031377
1046.550096	0.030928
1046.716951	0.029822
1046.883789	0.033689
1047.050608	0.033611
1047.217409	0.032229
1047.384192	0.033962
1047.550956	0.033015
1047.717703	0.033959
1047.884431	0.033832
1048.051140	0.033712
1048.217832	0.032985
1048.384505	0.032916
1048.551161	0.033354
1048.717798	0.032683
1048.884416	0.032230
1049.051017	0.033241
1049.217599	0.033223
1049.384163	0.032940
1049.550709	0.033410
1049.717237	0.032496
1049.883746	0.031728
1050.050237	0.032008
1050.216710	0.033399
1050.383165	0.031900
1050.549601	0.031358
1050.716019	0.030670
1050.882420	0.030848
1051.048801	0.030788
1051.215165	0.031781
1051.381510	0.030699
1051.547837	0.027876
1051.714146	0.029132
1051.880437	0.032400
1052.046709	0.031836
1052.212964	0.031705
1052.379200	0.031600
1052.545417	0.031931
1052.711617	0.032193
1052.877798	0.032513
1053.043961	0.033708
1053.210106	0.033133
1053.376233	0.031605
1053.542341	0.032574
1053.708432	0.032676
1053.874504	0.034049
1054.040557	0.033382
1054.206593	0.031934
1054.372610	0.030345
1054.538609	0.030524
1054.704590	0.030487
1054.870553	0.029495
1055.036497	0.029157
1055.202424	0.027655
1055.368331	0.027223
1055.534221	0.027811
1055.700093	0.028432
1055.865946	0.029414
1056.031781	0.028714
1056.197598	0.028542
1056.363397	0.029633
1056.529177	0.028586
1056.694939	0.027907
1056.860683	0.026522
1057.026409	0.026414
1057.192116	0.027073
1057.357806	0.028756
1057.523477	0.029321
1057.689130	0.028679
1057.854764	0.026845
1058.020381	0.029428
1058.185979	0.029967
1058.351559	0.030734
1058.517120	0.031196
1058.682664	0.029691
1058.848189	0.028889
1059.013696	0.028720
1059.179185	0.028180
1059.344656	0.029434
1059.510108	0.028017
1059.675542	0.028123
1059.840958	0.028598
1060.006356	0.027167
1060.171735	0.028122
1060.337096	0.027776
1060.502439	0.029720
1060.667764	0.029842
1060.833071	0.029411
1060.998359	0.030682
1061.163629	0.030798
1061.328881	0.030057
1061.494115	0.030858
1061.659330	0.030368
1061.824527	0.030634
1061.989706	0.028406
1062.154867	0.026719
1062.320010	0.027453
1062.485134	0.026070
1062.650240	0.027314
1062.815328	0.028444
1062.980398	0.028149
1063.145449	0.029693
1063.310482	0.028320
1063.475497	0.028662
1063.640494	0.031902
1063.805473	0.031873
1063.970433	0.033830
1064.135375	0.031750
1064.300299	0.030389
1064.465204	0.033126
1064.630092	0.031068
1064.794961	0.032899
1064.959812	0.032204
1065.124645	0.030635
1065.289459	0.029234
1065.454256	0.026185
1065.619034	0.027742
1065.783793	0.027290
1065.948535	0.024035
1066.113258	0.025693
1066.277964	0.028198
1066.442651	0.028800
1066.607319	0.029911
1066.771970	0.032156
1066.936602	0.034082
1067.101216	0.034949
1067.265812	0.036735
1067.430389	0.040625
1067.594949	0.041614
1067.759490	0.038465
1067.924013	0.038477
1068.088518	0.035838
1068.253004	0.033526
1068.417472	0.032204
1068.581922	0.030257
1068.746354	0.028464
1068.910768	0.023965
1069.075163	0.021441
1069.239540	0.022276
1069.403899	0.024038
1069.568240	0.026230
1069.732562	0.027934
1069.896866	0.028756
1070.061152	0.029442
1070.225420	0.030747
1070.389670	0.031284
1070.553901	0.032224
1070.718114	0.030659
1070.882309	0.027862
1071.046486	0.027554
1071.210644	0.026325
1071.374784	0.025355
1071.538906	0.027347
1071.703010	0.027160
1071.867096	0.028860
1072.031163	0.027499
1072.195212	0.028226
1072.359243	0.028845
1072.523256	0.028455
1072.687250	0.028888
1072.851226	0.029142
1073.015184	0.025102
1073.179124	0.022576
1073.343045	0.020750
1073.506949	0.019994
1073.670834	0.018819
1073.834701	0.019428
1073.998549	0.019909
1074.162380	0.019236
1074.326192	0.021036
1074.489986	0.024182
1074.653761	0.025176
1074.817519	0.025647
1074.981258	0.026205
1075.144979	0.027851
1075.308682	0.026767
1075.472367	0.025585
1075.636033	0.028739
1075.799681	0.025706
1075.963311	0.024446
1076.126923	0.022372
1076.290516	0.022412
1076.454092	0.025448
1076.617649	0.025174
1076.781187	0.027680
1076.944708	0.028438
1077.108210	0.025601
1077.271695	0.024932
1077.435160	0.025079
1077.598608	0.028660
1077.762038	0.026898
1077.925449	0.023663
1078.088842	0.024910
1078.252217	0.023848
1078.415573	0.023160
1078.578912	0.022945
1078.742232	0.026255
1078.905534	0.027444
1079.068817	0.025380
1079.232083	0.025423
1079.395330	0.027388
1079.558559	0.024733
1079.721770	0.023523
1079.884962	0.023876
1080.048136	0.025486
1080.211293	0.022803
1080.374430	0.022007
1080.537550	0.024132
1080.700651	0.027318
1080.863735	0.026106
1081.026800	0.027739
1081.189846	0.028564
1081.352875	0.028241
1081.515885	0.028624
1081.678877	0.029459
1081.841851	0.028555
1082.004807	0.028402
1082.167744	0.027012
1082.330663	0.029864
1082.493564	0.028337
1082.656447	0.027685
1082.819312	0.028205
1082.982158	0.028193
1083.144986	0.029242
1083.307796	0.028756
1083.470587	0.027591
1083.633361	0.028023
1083.796116	0.025589
1083.958853	0.026127
1084.121571	0.025430
1084.284272	0.024832
1084.446954	0.024573
1084.609618	0.025378
1084.772264	0.025950
1084.934892	0.025869
1085.097501	0.025495
1085.260092	0.024984
1085.422665	0.024104
1085.585220	0.026248
1085.747756	0.026236
1085.910274	0.022828
1086.072774	0.022692
1086.235256	0.021597
1086.397720	0.023400
1086.560165	0.025500
1086.722592	0.024180
1086.885001	0.027518
1087.047392	0.023533
1087.209764	0.022649
1087.372119	0.026460
1087.534455	0.024652
1087.696772	0.026847
1087.859072	0.025841
1088.021353	0.024652
1088.183616	0.028120
1088.345861	0.022018
1088.508088	0.024655
1088.670296	0.026250
1088.832486	0.021691
1088.994658	0.019698
1089.156812	0.018067
1089.318948	0.017328
1089.481065	0.015824
1089.643164	0.010507
1089.805245	0.014581
1089.967308	0.015666
1090.129352	0.015831
1090.291378	0.019613
1090.453386	0.020482
1090.615376	0.022000
1090.777347	0.022104
1090.939301	0.023783
1091.101236	0.026781
1091.263153	0.023995
1091.425051	0.025047
1091.586932	0.025267
1091.748794	0.021598
1091.910638	0.022917
1092.072463	0.020347
1092.234271	0.020365
1092.396060	0.017703
1092.557831	0.019511
1092.719584	0.019523
1092.881319	0.019157
1093.043035	0.018804
1093.204733	0.022555
1093.366413	0.025055
1093.528075	0.029746
1093.689718	0.029350
1093.851343	0.032477
1094.012950	0.031256
1094.174539	0.033114
1094.336110	0.032214
1094.497662	0.031945
1094.659196	0.025992
1094.820712	0.024918
1094.982210	0.019587
1095.143689	0.018458
1095.305151	0.015527
1095.466594	0.015081
1095.628018	0.009653
1095.789425	0.008607
1095.950813	0.012404
1096.112183	0.016222
1096.273535	0.012716
1096.434869	0.016253
1096.596184	0.016276
1096.757482	0.019830
1096.918761	0.019258
1097.080021	0.026223
1097.241264	0.024822
1097.402488	0.020297
1097.563694	0.018460
1097.724882	0.021681
1097.886052	0.020035
1098.047203	0.022920
1098.208336	0.022063
1098.369451	0.022470
1098.530548	0.021376
1098.691627	0.021867
1098.852687	0.024014
1099.013729	0.025028
1099.174753	0.021207
1099.335758	0.023423
1099.496746	0.022511
1099.657715	0.023460
1099.818666	0.025581
1099.979599	0.025796
1100.140513	0.025174
1100.301409	0.021306
1100.462287	0.020303
1100.623147	0.023634
1100.783989	0.024108
1100.944812	0.023694
1101.105617	0.022252
1101.266404	0.020965
1101.427173	0.017617
1101.587923	0.019777
1101.748656	0.018181
1101.909370	0.019527
1102.070066	0.020161
1102.230743	0.021132
1102.391403	0.021453
1102.552044	0.020428
1102.712667	0.022367
1102.873271	0.025467
1103.033858	0.024844
1103.194426	0.027859
1103.354976	0.032827
1103.515508	0.029097
1103.676021	0.024020
1103.836517	0.025449
1103.996994	0.025603
1104.157453	0.023196
1104.317893	0.021996
1104.478316	0.023687
1104.638720	0.022274
1104.799106	0.016785
1104.959474	0.019902
1105.119823	0.022086
1105.280155	0.020495
1105.440468	0.020773
1105.600763	0.020896
1105.761039	0.019829
1105.921298	0.020457
1106.081538	0.027076
1106.241760	0.028235
1106.401964	0.028938
1106.562149	0.027436
1106.722316	0.026166
1106.882465	0.028307
1107.042596	0.030131
1107.202709	0.035207
1107.362803	0.034563
1107.522879	0.028487
1107.682937	0.033444
1107.842977	0.032909
1108.002999	0.032376
1108.163002	0.035686
1108.322987	0.027284
1108.482954	0.028173
1108.642902	0.025070
1108.802833	0.021839
1108.962745	0.026144
1109.122639	0.015606
1109.282515	0.014104
1109.442372	0.014276
1109.602211	0.013450
1109.762032	0.018742
1109.921835	0.017137
1110.081620	0.018343
1110.241386	0.023180
1110.401134	0.018994
1110.560864	0.019228
1110.720576	0.018207
1110.880269	0.021398
1111.039945	0.021183
1111.199602	0.022798
1111.359240	0.025880
1111.518861	0.025769
1111.678463	0.021841
1111.838047	0.024723
1111.997613	0.030484
1112.157161	0.031658
1112.316690	0.026703
1112.476202	0.024748
1112.635695	0.025125
1112.795169	0.017736
1112.954626	0.016057
1113.114064	0.016346
1113.273484	0.015717
1113.432886	0.012997
1113.592270	0.010074
1113.751635	0.014986
1113.910983	0.011709
1114.070312	0.012941
1114.229622	0.010150
1114.388915	0.012177
1114.548189	0.013075
1114.707445	0.010171
1114.866683	0.015999
1115.025903	0.016723
1115.185104	0.014311
1115.344287	0.019403
1115.503452	0.018461
1115.662599	0.024641
1115.821727	0.019906
1115.980838	0.016283
1116.139930	0.020285
1116.299004	0.016051
1116.458059	0.018913
1116.617097	0.021089
1116.776116	0.014815
1116.935117	0.010201
1117.094099	0.008467
1117.253064	0.009429
1117.412010	0.013068
1117.570938	0.010632
1117.729848	0.005729
1117.888740	0.003907
1118.047613	-0.001355
1118.206468	0.007215
1118.365305	0.007421
1118.524124	0.006102
1118.682924	0.006629
1118.841707	0.005463
1119.000471	0.008677
1119.159216	0.013686
1119.317944	0.017271
1119.476653	0.019975
1119.635344	0.017529
1119.794017	0.015980
1119.952672	0.019151
1120.111308	0.020566
1120.269927	0.019572
1120.428527	0.020964
1120.587108	0.022863
1120.745672	0.023326
1120.904217	0.026174
1121.062744	0.027585
1121.221253	0.034223
1121.379744	0.033466
1121.538216	0.034371
1121.696671	0.034503
1121.855107	0.027787
1122.013524	0.023394
1122.171924	0.022571
1122.330305	0.016442
1122.488668	0.010232
1122.647013	0.009678
1122.805340	0.009055
1122.963648	0.009449
1123.121938	0.007207
1123.280210	0.012486
1123.438464	0.022973
1123.596700	0.018744
1123.754917	0.019986
1123.913116	0.022285
1124.071297	0.022861
1124.229459	0.018851
1124.387604	0.014272
1124.545730	0.014350
1124.703838	0.011923
1124.861928	0.000176
1125.019999	0.001897
1125.178052	0.001202
1125.336088	0.006038
1125.494104	0.005564
1125.652103	0.012304
1125.810083	0.011249
1125.968045	0.012429
1126.125989	0.014182
1126.283915	0.014455
1126.441823	0.014715
1126.599712	0.020985
1126.757583	0.015728
1126.915436	0.016669
1127.073270	0.010966
1127.231087	0.010182
1127.388885	0.009034
1127.546665	0.014172
1127.704426	0.015781
1127.862170	0.011767
1128.019895	0.016715
1128.177602	0.022815
1128.335291	0.015550
1128.492961	0.019318
1128.650614	0.025281
1128.808248	0.024971
1128.965864	0.014131
1129.123461	0.018081
1129.281041	0.021437
1129.438602	0.014837
1129.596145	0.011074
1129.753670	0.010016
1129.911176	0.016975
1130.068665	0.013500
1130.226135	0.020041
1130.383587	0.020179
1130.541020	0.021879
1130.698436	0.026879
1130.855833	0.023714
1131.013212	0.026563
1131.170573	0.030548
1131.327915	0.028796
1131.485239	0.036812
1131.642545	0.035614
1131.799833	0.040568
1131.957103	0.036659
1132.114354	0.034376
1132.271588	0.034558
1132.428803	0.030956
1132.585999	0.033765
1132.743178	0.032497
1132.900338	0.033029
1133.057480	0.031307
1133.214604	0.027126
1133.371710	0.031122
1133.528797	0.037645
1133.685866	0.043471
1133.842917	0.039961
1133.999950	0.038825
1134.156964	0.038564
1134.313960	0.040452
1134.470938	0.038760
1134.627898	0.044290
1134.784840	0.040921
1134.941763	0.038941
1135.098668	0.031304
1135.255555	0.035190
1135.412424	0.030200
1135.569274	0.020782
1135.726107	0.013801
1135.882921	0.013561
1136.039716	0.012029
1136.196494	0.018376
1136.353253	0.012055
1136.509995	0.017372
1136.666717	0.020614
1136.823422	0.020373
1136.980109	0.016788
1137.136777	0.025987
1137.293427	0.020565
1137.450059	0.019326
1137.606672	0.011874
1137.763267	0.012816
1137.919844	0.014083
1138.076403	0.012403
1138.232944	0.017958
1138.389466	0.026962
1138.545971	0.023210
1138.702457	0.033211
1138.858924	0.039432
1139.015374	0.037485
1139.171805	0.039504
1139.328218	0.040923
1139.484613	0.037255
1139.640990	0.037545
1139.797348	0.034828
1139.953688	0.032793
1140.110010	0.036501
1140.266314	0.028257
1140.422600	0.030546
1140.578867	0.030620
1140.735116	0.027639
1140.891347	0.024785
1141.047559	0.025202
1141.203754	0.023830
1141.359930	0.025152
1141.516088	0.015982
1141.672228	0.018564
1141.828349	0.021247
1141.984452	0.019611
1142.140537	0.020235
1142.296604	0.029526
1142.452653	0.032472
1142.608683	0.032426
1142.764695	0.022977
1142.920689	0.029270
1143.076665	0.028576
1143.232622	0.032732
1143.388562	0.031911
1143.544483	0.024320
1143.700385	0.027723
1143.856270	0.022314
1144.012136	0.027633
1144.167985	0.033333
1144.323814	0.029907
1144.479626	0.029381
1144.635420	0.026669
1144.791195	0.024942
1144.946952	0.022006
1145.102691	0.010664
1145.258411	0.007748
1145.414113	0.005747
1145.569798	0.009811
1145.725463	0.011696
1145.881111	0.007533
1146.036741	0.002004
1146.192352	0.010660
1146.347945	0.007596
1146.503519	0.016699
1146.659076	0.016249
1146.814614	0.017667
1146.970134	0.006489
1147.125636	0.002519
1147.281120	0.003948
1147.436585	0.004117
1147.592032	-0.004544
1147.747461	-0.002024
1147.902872	-0.005687
1148.058265	0.000085
1148.213639	0.001667
1148.368995	0.012386
1148.524333	0.023805
1148.679653	0.023182
1148.834954	0.029069
1148.990237	0.026317
1149.145502	0.034897
1149.300749	0.025273
1149.455977	0.037043
1149.611188	0.028265
1149.766380	0.020576
1149.921553	0.010981
1150.076709	0.016514
1150.231846	0.011530
1150.386966	0.020778
1150.542066	0.017909
1150.697149	0.016161
1150.852214	0.002803
1151.007260	0.013636
1151.162288	0.016523
1151.317298	0.025045
1151.472289	0.025016
1151.627263	0.025928
1151.782218	0.021588
1151.937155	0.027910
1152.092073	0.052412
1152.246974	0.057541
1152.401856	0.038713
1152.556720	0.037501
1152.711566	0.031040
1152.866393	0.045391
1153.021203	0.045170
1153.175994	0.046355
1153.330767	0.042440
1153.485521	0.022261
1153.640258	0.017759
1153.794976	0.034698
1153.949676	0.036506
1154.104358	0.037618
1154.259021	0.022759
1154.413667	0.019799
1154.568294	0.017613
1154.722903	0.020660
1154.877493	0.025716
1155.032066	0.027446
1155.186620	0.020081
1155.341156	0.018920
1155.495674	0.012813
1155.650173	0.007735
1155.804654	-0.006457
1155.959118	-0.001619
1156.113562	-0.008000
1156.267989	-0.001221
1156.422397	0.002112
1156.576788	0.009363
1156.731160	0.003845
1156.885513	0.009485
1157.039849	0.004502
1157.194166	0.012968
1157.348465	0.009287
1157.502746	0.006105
1157.657009	0.002905
1157.811253	-0.002251
1157.965479	-0.006668
1158.119687	0.000120
1158.273877	-0.007572
1158.428048	0.005091
1158.582201	0.007622
1158.736337	0.004107
1158.890453	0.014514
1159.044552	0.016195
1159.198632	0.019520
1159.352694	0.016702
1159.506738	0.017621
1159.660764	0.026243
1159.814771	0.017469
1159.968761	0.024791
1160.122732	0.026419
1160.276685	0.030458
1160.430619	0.018126
1160.584535	-0.001838
1160.738434	-0.003155
1160.892313	-0.012054
1161.046175	-0.019148
1161.200019	-0.018359
1161.353844	-0.023201
1161.507651	-0.020900
1161.661440	-0.032007
1161.815210	-0.016153
1161.968962	0.006053
1162.122697	0.013265
1162.276412	0.014747
1162.430110	0.022698
1162.583789	0.022010
1162.737451	0.020173
1162.891094	0.025575
1163.044718	0.023450
1163.198325	0.016690
1163.351913	0.009397
1163.505483	-0.008905
1163.659035	0.012461
1163.812569	0.010675
1163.966084	0.000895
1164.119581	0.010472
1164.273060	0.002216
1164.426521	0.008290
1164.579964	0.002878
1164.733388	0.004777
1164.886794	0.025255
1165.040182	-0.000053
1165.193551	-0.008047
1165.346903	0.009953
1165.500236	0.023921
1165.653551	0.017845
1165.806848	0.053589
1165.960126	0.057635
1166.113386	0.061578
1166.266628	0.051184
1166.419852	0.054018
1166.573058	0.062478
1166.726245	0.062458
1166.879414	0.056208
1167.032565	0.061606
1167.185698	0.020661
1167.338812	0.005341
1167.491909	-0.014217
1167.644987	0.000047
1167.798046	0.010897
1167.951088	-0.000422
1168.104111	-0.016988
1168.257117	-0.028450
1168.410103	-0.017313
1168.563072	-0.009546
1168.716023	-0.010458
1168.868955	0.015716
1169.021869	0.015656
1169.174765	0.006994
1169.327642	0.017929
1169.480501	0.024092
1169.633343	0.014488
1169.786165	0.007115
1169.938970	0.011356
1170.091757	0.034893
1170.244525	0.018358
1170.397275	0.003573
1170.550007	0.015512
1170.702720	0.014638
1170.855415	0.030395
1171.008092	0.039538
1171.160751	0.036384
1171.313392	0.028197
1171.466014	0.089539
1171.618619	-0.001083
1171.771205	-0.001083
1171.923772	-0.001083
