sample name	sample
index	1496
start time	 05-18-2021  02:14:53 PM


Wavelength (nm)	Absorbance
494.344910	-0.115646
494.563924	-0.115646
494.782919	-0.115646
495.001897	-0.098560
495.220856	-0.245498
495.439797	-0.217360
495.658719	-0.198931
495.877624	-0.190284
496.096510	-0.214222
496.315378	-0.098685
496.534227	-0.100130
496.753059	0.015356
496.971872	0.040020
497.190667	0.018905
497.409444	0.004791
497.628203	0.004201
497.846943	0.005767
498.065665	0.003545
498.284369	0.001508
498.503055	0.000938
498.721723	0.001135
498.940372	0.000972
499.159003	-0.000376
499.377616	0.000104
499.596210	-0.000572
499.814787	-0.000942
500.033345	0.000146
500.251885	-0.000014
500.470406	0.000409
500.688910	-0.000256
500.907395	0.000337
501.125862	0.000838
501.344311	0.000538
501.562742	0.000786
501.781154	-0.000733
501.999548	-0.000959
502.217924	-0.001557
502.436282	-0.001627
502.654621	-0.001426
502.872942	-0.000827
503.091245	-0.001380
503.309530	-0.001488
503.527797	-0.001553
503.746045	-0.001766
503.964275	-0.001834
504.182487	-0.001008
504.400681	-0.001295
504.618856	-0.002032
504.837013	-0.003404
505.055152	-0.003227
505.273273	-0.003370
505.491376	-0.004080
505.709460	-0.003164
505.927526	-0.004126
506.145574	-0.004776
506.363604	-0.004739
506.581615	-0.003637
506.799608	-0.003650
507.017583	-0.002833
507.235540	-0.002841
507.453478	-0.003140
507.671399	-0.003043
507.889301	-0.002808
508.107185	-0.002975
508.325050	-0.003181
508.542898	-0.004034
508.760727	-0.004197
508.978538	-0.004848
509.196330	-0.005278
509.414105	-0.005403
509.631861	-0.005654
509.849599	-0.005762
510.067319	-0.004534
510.285021	-0.004111
510.502704	-0.004110
510.720369	-0.003760
510.938016	-0.004252
511.155645	-0.004062
511.373255	-0.003989
511.590848	-0.004445
511.808422	-0.004164
512.025977	-0.004702
512.243515	-0.005290
512.461034	-0.005461
512.678536	-0.005231
512.896018	-0.004485
513.113483	-0.004936
513.330930	-0.004232
513.548358	-0.003975
513.765768	-0.003831
513.983160	-0.003678
514.200533	-0.002463
514.417889	-0.002003
514.635226	-0.002383
514.852545	-0.002642
515.069845	-0.002199
515.287128	-0.002621
515.504392	-0.002975
515.721638	-0.003382
515.938866	-0.003486
516.156075	-0.004128
516.373267	-0.004327
516.590440	-0.004387
516.807594	-0.004519
517.024731	-0.004034
517.241850	-0.003887
517.458950	-0.003268
517.676032	-0.002602
517.893095	-0.002436
518.110141	-0.002900
518.327168	-0.003329
518.544177	-0.002601
518.761168	-0.002436
518.978141	-0.002613
519.195095	-0.003344
519.412031	-0.003716
519.628949	-0.003924
519.845849	-0.003736
520.062731	-0.003446
520.279594	-0.002360
520.496439	-0.002658
520.713266	-0.002235
520.930074	-0.002316
521.146865	-0.001253
521.363637	-0.001412
521.580391	-0.001838
521.797127	-0.002385
522.013844	-0.002113
522.230543	-0.002903
522.447224	-0.002845
522.663887	-0.003024
522.880532	-0.002865
523.097158	-0.003103
523.313766	-0.002560
523.530356	-0.001887
523.746928	-0.001661
523.963481	-0.002138
524.180017	-0.001804
524.396534	-0.001837
524.613032	-0.001647
524.829513	-0.001310
525.045975	-0.001077
525.262420	-0.001220
525.478845	-0.000646
525.695253	-0.000536
525.911643	-0.000584
526.128014	-0.000710
526.344367	-0.000934
526.560702	-0.001073
526.777018	-0.000839
526.993316	-0.000539
527.209597	-0.000507
527.425858	-0.001353
527.642102	-0.001303
527.858328	-0.001087
528.074535	-0.000616
528.290724	-0.000455
528.506894	-0.000543
528.723047	-0.000795
528.939181	-0.000459
529.155297	0.000194
529.371395	0.000512
529.587475	0.000679
529.803536	0.000628
530.019579	0.000130
530.235604	0.000511
530.451611	0.001311
530.667600	0.000994
530.883570	0.000634
531.099522	0.000281
531.315456	0.000641
531.531372	0.000825
531.747269	0.001758
531.963148	0.002184
532.179009	0.002339
532.394852	0.002042
532.610676	0.002683
532.826482	0.002749
533.042271	0.002854
533.258040	0.002954
533.473792	0.003052
533.689525	0.002914
533.905240	0.003229
534.120937	0.003527
534.336616	0.003921
534.552277	0.004100
534.767919	0.003865
534.983543	0.004265
535.199149	0.004203
535.414736	0.004225
535.630306	0.004552
535.845857	0.004562
536.061390	0.004333
536.276904	0.004299
536.492401	0.004150
536.707879	0.004614
536.923339	0.004856
537.138781	0.004823
537.354204	0.005199
537.569610	0.004867
537.784997	0.005414
538.000366	0.005142
538.215716	0.005288
538.431049	0.005284
538.646363	0.005633
538.861659	0.005330
539.076937	0.005646
539.292196	0.005402
539.507438	0.005735
539.722661	0.005637
539.937866	0.006239
540.153052	0.005929
540.368221	0.006082
540.583371	0.005700
540.798503	0.005996
541.013617	0.005376
541.228712	0.005258
541.443789	0.004631
541.658848	0.004328
541.873889	0.004201
542.088912	0.004186
542.303916	0.004315
542.518902	0.004902
542.733870	0.005206
542.948820	0.006159
543.163752	0.006344
543.378665	0.007155
543.593560	0.007509
543.808437	0.007370
544.023295	0.007551
544.238136	0.007560
544.452958	0.007570
544.667762	0.007061
544.882548	0.006399
545.097315	0.006200
545.312064	0.006145
545.526795	0.005958
545.741508	0.006198
545.956203	0.006058
546.170879	0.006180
546.385537	0.005844
546.600177	0.006062
546.814799	0.006382
547.029402	0.006564
547.243988	0.006269
547.458555	0.006368
547.673103	0.006615
547.887634	0.006740
548.102146	0.006650
548.316640	0.006856
548.531116	0.006693
548.745574	0.006538
548.960013	0.006735
549.174435	0.007104
549.388838	0.007223
549.603222	0.007003
549.817589	0.007232
550.031937	0.007018
550.246267	0.006939
550.460579	0.007343
550.674873	0.007578
550.889148	0.007572
551.103405	0.007345
551.317644	0.007434
551.531865	0.007619
551.746068	0.007197
551.960252	0.007565
552.174418	0.008093
552.388566	0.008227
552.602696	0.007985
552.816807	0.008330
553.030900	0.008310
553.244975	0.008306
553.459032	0.008484
553.673070	0.008755
553.887091	0.008773
554.101093	0.008425
554.315077	0.007903
554.529042	0.008094
554.742990	0.007572
554.956919	0.007485
555.170830	0.007531
555.384722	0.007405
555.598597	0.007377
555.812453	0.007018
556.026291	0.006687
556.240111	0.006910
556.453913	0.006738
556.667696	0.007058
556.881461	0.007059
557.095208	0.006771
557.308937	0.006684
557.522647	0.006612
557.736339	0.006873
557.950013	0.007099
558.163669	0.007240
558.377307	0.007609
558.590926	0.007613
558.804527	0.007744
559.018110	0.007993
559.231675	0.008088
559.445221	0.008311
559.658749	0.008354
559.872259	0.008657
560.085751	0.008782
560.299225	0.009140
560.512680	0.009265
560.726117	0.009404
560.939536	0.009167
561.152937	0.009331
561.366319	0.009566
561.579683	0.009671
561.793029	0.009611
562.006357	0.009468
562.219667	0.009071
562.432958	0.008805
562.646231	0.008595
562.859486	0.009029
563.072723	0.008826
563.285941	0.008808
563.499141	0.008462
563.712323	0.008200
563.925487	0.008528
564.138632	0.008451
564.351760	0.008683
564.564869	0.008837
564.777960	0.008191
564.991032	0.008075
565.204087	0.007842
565.417123	0.008284
565.630141	0.008469
565.843140	0.008367
566.056122	0.008537
566.269085	0.008512
566.482030	0.008607
566.694957	0.008729
566.907866	0.008806
567.120756	0.008918
567.333628	0.008596
567.546482	0.008737
567.759318	0.008532
567.972135	0.008365
568.184935	0.008542
568.397716	0.008490
568.610478	0.008839
568.823223	0.008757
569.035949	0.008623
569.248657	0.008593
569.461347	0.008292
569.674019	0.008477
569.886672	0.008620
570.099308	0.008358
570.311925	0.008116
570.524523	0.008104
570.737104	0.008069
570.949666	0.008322
571.162210	0.008740
571.374736	0.009096
571.587244	0.008730
571.799733	0.008777
572.012205	0.008875
572.224658	0.009174
572.437092	0.009159
572.649509	0.009117
572.861907	0.008915
573.074287	0.008646
573.286649	0.008391
573.498993	0.008382
573.711318	0.008543
573.923625	0.008658
574.135914	0.008636
574.348185	0.008858
574.560438	0.009108
574.772672	0.009323
574.984888	0.009357
575.197086	0.009339
575.409266	0.009671
575.621427	0.009535
575.833570	0.009609
576.045695	0.009991
576.257802	0.010150
576.469890	0.010497
576.681961	0.010597
576.894013	0.010933
577.106046	0.011420
577.318062	0.011341
577.530059	0.011486
577.742039	0.011317
577.954000	0.011288
578.165942	0.011257
578.377867	0.011059
578.589773	0.011355
578.801661	0.011414
579.013531	0.011158
579.225382	0.011367
579.437216	0.011448
579.649031	0.011760
579.860828	0.011634
580.072606	0.011408
580.284367	0.011548
580.496109	0.011442
580.707833	0.011455
580.919539	0.011659
581.131227	0.011743
581.342896	0.011435
581.554547	0.010949
581.766180	0.010998
581.977795	0.010885
582.189391	0.010985
582.400969	0.010886
582.612529	0.010846
582.824071	0.010751
583.035595	0.010814
583.247100	0.011350
583.458587	0.011722
583.670056	0.011621
583.881506	0.011753
584.092939	0.011707
584.304353	0.011705
584.515749	0.011637
584.727127	0.011755
584.938486	0.011802
585.149828	0.011809
585.361151	0.011889
585.572456	0.011838
585.783742	0.012433
585.995011	0.012363
586.206261	0.012538
586.417493	0.012733
586.628706	0.012660
586.839902	0.012426
587.051079	0.012360
587.262238	0.012532
587.473379	0.012934
587.684502	0.012580
587.895606	0.012560
588.106692	0.012420
588.317760	0.012280
588.528810	0.012564
588.739841	0.013109
588.950855	0.012833
589.161850	0.012541
589.372827	0.012210
589.583785	0.011965
589.794726	0.012167
590.005648	0.012260
590.216552	0.012407
590.427437	0.012238
590.638305	0.011953
590.849154	0.011949
591.059985	0.012396
591.270798	0.012678
591.481592	0.012948
591.692369	0.012878
591.903127	0.012836
592.113867	0.013064
592.324588	0.013321
592.535292	0.013299
592.745977	0.013584
592.956644	0.013476
593.167293	0.013650
593.377923	0.013801
593.588536	0.013840
593.799130	0.014361
594.009706	0.014467
594.220263	0.014377
594.430803	0.014678
594.641324	0.014923
594.851827	0.014922
595.062312	0.014798
595.272778	0.015042
595.483227	0.015217
595.693657	0.015028
595.904069	0.014712
596.114462	0.014489
596.324838	0.014394
596.535195	0.014378
596.745534	0.014485
596.955855	0.014634
597.166157	0.014591
597.376441	0.014707
597.586707	0.014754
597.796955	0.015320
598.007185	0.015753
598.217396	0.016015
598.427589	0.016246
598.637764	0.016550
598.847921	0.016562
599.058060	0.016710
599.268180	0.016936
599.478282	0.016872
599.688366	0.016812
599.898431	0.016749
600.108479	0.016550
600.318508	0.016318
600.528519	0.016033
600.738511	0.016144
600.948486	0.015963
601.158442	0.015801
601.368380	0.015913
601.578300	0.015490
601.788202	0.015562
601.998085	0.015688
602.207950	0.015658
602.417797	0.015807
602.627626	0.016047
602.837436	0.016468
603.047228	0.016739
603.257002	0.016959
603.466758	0.017287
603.676496	0.017393
603.886215	0.017460
604.095916	0.017688
604.305599	0.017983
604.515264	0.017888
604.724910	0.017748
604.934538	0.017767
605.144148	0.017577
605.353740	0.017717
605.563314	0.017727
605.772869	0.017791
605.982406	0.018000
606.191925	0.017856
606.401425	0.018131
606.610908	0.018354
606.820372	0.018239
607.029818	0.018589
607.239246	0.018771
607.448655	0.019164
607.658047	0.019354
607.867420	0.019369
608.076775	0.019950
608.286111	0.019884
608.495430	0.019817
608.704730	0.019969
608.914012	0.019835
609.123275	0.019999
609.332521	0.019892
609.541748	0.019776
609.750957	0.019811
609.960148	0.019393
610.169321	0.019574
610.378475	0.019779
610.587611	0.020041
610.796729	0.020162
611.005829	0.020000
611.214910	0.019775
611.423974	0.019736
611.633019	0.019485
611.842045	0.019400
612.051054	0.019397
612.260044	0.019274
612.469017	0.019002
612.677970	0.018976
612.886906	0.019181
613.095824	0.019422
613.304723	0.019525
613.513604	0.019822
613.722467	0.020095
613.931311	0.020057
614.140138	0.020159
614.348946	0.020436
614.557736	0.020742
614.766507	0.020788
614.975261	0.020960
615.183996	0.021259
615.392713	0.021474
615.601412	0.021326
615.810092	0.021219
616.018754	0.021345
616.227399	0.021274
616.436024	0.021091
616.644632	0.021101
616.853222	0.021012
617.061793	0.021088
617.270346	0.021008
617.478880	0.021476
617.687397	0.021821
617.895895	0.021854
618.104375	0.022124
618.312837	0.022382
618.521281	0.022524
618.729706	0.022809
618.938113	0.022850
619.146502	0.023081
619.354873	0.022870
619.563226	0.022784
619.771560	0.022911
619.979876	0.022939
620.188174	0.022971
620.396453	0.023026
620.604715	0.023079
620.812958	0.022948
621.021183	0.023212
621.229390	0.023441
621.437578	0.023766
621.645748	0.023947
621.853900	0.024090
622.062034	0.024207
622.270150	0.024456
622.478247	0.024659
622.686326	0.025107
622.894387	0.024914
623.102430	0.024986
623.310454	0.024859
623.518461	0.024957
623.726449	0.024805
623.934418	0.024955
624.142370	0.024841
624.350303	0.024764
624.558218	0.024687
624.766115	0.024882
624.973994	0.024932
625.181855	0.025044
625.389697	0.025107
625.597521	0.025330
625.805327	0.025224
626.013114	0.025415
626.220883	0.025420
626.428634	0.025582
626.636367	0.025722
626.844082	0.025908
627.051778	0.025855
627.259457	0.025610
627.467117	0.025788
627.674758	0.025889
627.882382	0.025664
628.089987	0.025696
628.297574	0.025491
628.505143	0.025392
628.712694	0.025329
628.920226	0.025589
629.127740	0.025623
629.335236	0.025454
629.542714	0.025668
629.750174	0.025712
629.957615	0.025777
630.165038	0.026012
630.372443	0.026104
630.579829	0.026066
630.787198	0.025913
630.994548	0.025937
631.201880	0.026090
631.409194	0.025899
631.616489	0.026125
631.823766	0.026424
632.031025	0.026500
632.238266	0.026546
632.445489	0.026639
632.652693	0.026719
632.859879	0.026912
633.067047	0.027016
633.274197	0.027316
633.481329	0.027242
633.688442	0.027292
633.895537	0.027193
634.102614	0.027435
634.309672	0.027472
634.516713	0.027712
634.723735	0.027895
634.930739	0.027802
635.137724	0.027720
635.344692	0.027894
635.551641	0.027960
635.758572	0.028080
635.965485	0.027988
636.172379	0.028214
636.379256	0.028206
636.586114	0.028045
636.792954	0.028128
636.999775	0.028149
637.206579	0.028153
637.413364	0.028034
637.620131	0.028159
637.826880	0.028073
638.033610	0.028039
638.240323	0.027991
638.447017	0.028120
638.653692	0.027951
638.860350	0.027898
639.066990	0.027902
639.273611	0.027897
639.480214	0.028007
639.686798	0.028187
639.893365	0.028238
640.099913	0.028299
640.306443	0.028437
640.512955	0.028844
640.719449	0.029176
640.925924	0.029333
641.132381	0.029318
641.338820	0.029356
641.545241	0.029559
641.751644	0.029714
641.958028	0.030006
642.164394	0.030178
642.370742	0.030349
642.577071	0.030635
642.783383	0.030792
642.989676	0.030994
643.195951	0.030987
643.402207	0.031007
643.608446	0.031102
643.814666	0.031091
644.020868	0.031242
644.227052	0.031163
644.433218	0.031039
644.639365	0.031178
644.845494	0.031307
645.051605	0.031393
645.257698	0.031543
645.463772	0.031642
645.669828	0.031767
645.875866	0.031773
646.081886	0.031784
646.287888	0.031778
646.493871	0.031814
646.699836	0.031913
646.905783	0.032031
647.111712	0.032048
647.317622	0.032058
647.523514	0.032241
647.729388	0.032393
647.935244	0.032603
648.141082	0.032622
648.346901	0.032637
648.552702	0.032784
648.758485	0.032998
648.964250	0.033077
649.169996	0.032950
649.375724	0.033059
649.581434	0.033061
649.787126	0.033095
649.992800	0.033192
650.198455	0.033180
650.404092	0.033101
650.609711	0.032975
650.815311	0.032879
651.020894	0.033066
651.226458	0.032666
651.432004	0.032831
651.637532	0.032788
651.843041	0.032676
652.048532	0.032759
652.254006	0.032889
652.459460	0.032954
652.664897	0.033011
652.870315	0.033113
653.075716	0.033498
653.281097	0.033398
653.486461	0.033597
653.691807	0.033849
653.897134	0.033930
654.102443	0.034042
654.307734	0.034308
654.513006	0.034519
654.718261	0.034703
654.923497	0.034823
655.128715	0.035025
655.333915	0.035215
655.539096	0.035285
655.744259	0.035480
655.949404	0.035534
656.154531	0.035607
656.359640	0.035657
656.564730	0.035725
656.769802	0.035747
656.974856	0.035843
657.179892	0.035965
657.384909	0.036250
657.589908	0.036304
657.794889	0.036278
657.999852	0.036401
658.204797	0.036484
658.409723	0.036423
658.614631	0.036351
658.819521	0.036418
659.024393	0.036299
659.229246	0.036268
659.434081	0.036306
659.638898	0.036406
659.843697	0.036163
660.048478	0.036368
660.253240	0.036538
660.457984	0.036764
660.662710	0.036742
660.867417	0.036859
661.072107	0.037062
661.276778	0.037099
661.481431	0.037276
661.686066	0.037723
661.890682	0.037687
662.095281	0.037749
662.299861	0.037875
662.504422	0.038052
662.708966	0.038321
662.913491	0.038310
663.117999	0.038518
663.322488	0.038746
663.526958	0.038619
663.731411	0.038867
663.935845	0.038988
664.140261	0.039037
664.344659	0.038999
664.549038	0.038936
664.753400	0.039076
664.957743	0.039146
665.162068	0.039149
665.366375	0.039186
665.570663	0.039302
665.774933	0.039415
665.979185	0.039510
666.183419	0.039552
666.387635	0.039681
666.591832	0.039765
666.796011	0.039851
667.000172	0.039725
667.204315	0.039843
667.408439	0.039632
667.612545	0.039843
667.816634	0.040030
668.020703	0.040358
668.224755	0.040523
668.428788	0.040715
668.632803	0.040706
668.836800	0.040931
669.040779	0.041139
669.244739	0.041291
669.448681	0.041178
669.652605	0.041218
669.856511	0.041052
670.060399	0.041176
670.264268	0.040982
670.468119	0.041241
670.671952	0.041326
670.875767	0.041421
671.079563	0.041775
671.283341	0.042000
671.487101	0.042251
671.690843	0.042495
671.894567	0.042685
672.098272	0.042775
672.301959	0.042882
672.505628	0.042993
672.709278	0.043116
672.912911	0.042924
673.116525	0.042959
673.320121	0.042716
673.523699	0.042609
673.727258	0.042360
673.930799	0.042638
674.134322	0.042570
674.337827	0.042661
674.541314	0.042589
674.744782	0.042933
674.948232	0.042965
675.151664	0.043146
675.355078	0.043489
675.558474	0.043599
675.761851	0.043705
675.965210	0.043918
676.168551	0.044087
676.371873	0.044288
676.575178	0.044212
676.778464	0.044295
676.981732	0.044492
677.184981	0.044546
677.388213	0.044662
677.591426	0.044591
677.794621	0.044702
677.997798	0.044762
678.200956	0.044798
678.404097	0.044928
678.607219	0.045183
678.810323	0.045237
679.013408	0.045278
679.216476	0.045534
679.419525	0.045796
679.622556	0.045838
679.825569	0.045914
680.028563	0.045899
680.231540	0.046022
680.434498	0.045953
680.637438	0.045821
680.840359	0.045896
681.043263	0.045840
681.246148	0.045812
681.449015	0.045735
681.651864	0.045574
681.854694	0.045788
682.057506	0.045685
682.260301	0.045615
682.463076	0.045806
682.665834	0.045858
682.868573	0.046028
683.071295	0.045998
683.273998	0.046068
683.476682	0.046219
683.679349	0.046252
683.881997	0.046487
684.084627	0.046658
684.287239	0.046710
684.489833	0.046697
684.692408	0.046719
684.894965	0.046755
685.097504	0.046834
685.300025	0.046902
685.502527	0.046919
685.705012	0.046899
685.907478	0.046756
686.109925	0.046777
686.312355	0.046835
686.514766	0.046709
686.717159	0.046798
686.919534	0.046793
687.121891	0.046737
687.324230	0.046800
687.526550	0.046890
687.728852	0.047101
687.931136	0.047253
688.133401	0.047263
688.335649	0.047302
688.537878	0.047180
688.740089	0.047165
688.942281	0.047381
689.144456	0.047375
689.346612	0.047213
689.548750	0.047238
689.750870	0.047281
689.952971	0.047364
690.155055	0.047628
690.357120	0.047796
690.559167	0.047882
690.761195	0.048031
690.963206	0.047980
691.165198	0.048198
691.367172	0.048377
691.569128	0.048313
691.771065	0.048336
691.972984	0.048248
692.174885	0.048280
692.376768	0.048281
692.578633	0.048171
692.780479	0.048308
692.982308	0.048027
693.184118	0.047989
693.385909	0.047993
693.587683	0.048066
693.789438	0.048099
693.991175	0.048199
694.192894	0.048478
694.394595	0.048612
694.596277	0.048674
694.797941	0.049060
694.999587	0.049221
695.201215	0.049373
695.402824	0.049391
695.604416	0.049471
695.805989	0.049667
696.007543	0.049723
696.209080	0.049789
696.410598	0.049767
696.612099	0.049766
696.813580	0.049645
697.015044	0.049710
697.216490	0.049907
697.417917	0.049912
697.619326	0.049699
697.820717	0.049664
698.022089	0.049667
698.223444	0.049807
698.424780	0.049786
698.626098	0.049808
698.827397	0.049930
699.028679	0.049832
699.229942	0.049973
699.431187	0.050247
699.632414	0.050364
699.833622	0.050432
700.034813	0.050540
700.235985	0.050781
700.437139	0.051018
700.638274	0.050995
700.839392	0.051099
701.040491	0.051103
701.241572	0.051015
701.442635	0.051044
701.643679	0.050980
701.844706	0.051161
702.045714	0.051105
702.246704	0.051162
702.447675	0.051140
702.648629	0.051156
702.849564	0.051077
703.050481	0.051331
703.251380	0.051444
703.452260	0.051724
703.653122	0.051547
703.853966	0.051710
704.054792	0.051742
704.255600	0.051669
704.456389	0.051841
704.657160	0.051897
704.857913	0.051616
705.058648	0.051548
705.259365	0.051424
705.460063	0.051360
705.660743	0.051204
705.861405	0.050989
706.062048	0.051146
706.262674	0.051105
706.463281	0.051041
706.663870	0.051041
706.864441	0.050916
707.064993	0.050868
707.265527	0.050819
707.466043	0.050724
707.666541	0.050836
707.867021	0.050851
708.067482	0.050572
708.267925	0.050653
708.468350	0.050766
708.668757	0.050751
708.869145	0.050824
709.069516	0.050901
709.269868	0.050851
709.470201	0.050708
709.670517	0.050555
709.870814	0.050787
710.071093	0.050704
710.271354	0.050711
710.471597	0.050756
710.671821	0.050678
710.872028	0.050540
711.072216	0.050726
711.272385	0.050851
711.472537	0.051023
711.672670	0.050941
711.872785	0.051117
712.072882	0.051123
712.272961	0.051166
712.473021	0.051320
712.673063	0.051522
712.873087	0.051479
713.073093	0.051651
713.273081	0.051757
713.473050	0.051818
713.673001	0.051808
713.872934	0.051860
714.072849	0.051903
714.272745	0.051822
714.472623	0.051953
714.672483	0.052059
714.872325	0.052027
715.072148	0.051958
715.271954	0.052067
715.471741	0.052044
715.671509	0.052124
715.871260	0.052235
716.070992	0.052224
716.270707	0.052000
716.470403	0.052002
716.670080	0.052031
716.869740	0.052106
717.069381	0.052266
717.269004	0.052312
717.468609	0.052303
717.668195	0.052172
717.867764	0.052000
718.067314	0.052010
718.266846	0.051853
718.466360	0.051677
718.665855	0.051479
718.865332	0.051430
719.064791	0.051437
719.264232	0.051242
719.463655	0.051376
719.663059	0.051536
719.862445	0.051481
720.061813	0.051436
720.261163	0.051428
720.460494	0.051402
720.659807	0.051162
720.859102	0.051149
721.058379	0.051254
721.257638	0.051118
721.456878	0.051165
721.656100	0.051371
721.855304	0.051607
722.054490	0.051745
722.253657	0.051780
722.452806	0.051620
722.651937	0.051439
722.851050	0.051426
723.050145	0.051421
723.249221	0.051203
723.448279	0.050987
723.647319	0.050734
723.846340	0.050535
724.045344	0.050336
724.244329	0.050484
724.443296	0.050514
724.642245	0.050346
724.841175	0.050068
725.040088	0.050119
725.238982	0.050049
725.437857	0.049940
725.636715	0.049715
725.835554	0.049807
726.034376	0.049577
726.233179	0.049598
726.431963	0.049496
726.630730	0.049601
726.829478	0.049360
727.028208	0.049383
727.226920	0.049306
727.425614	0.049304
727.624289	0.049301
727.822946	0.049277
728.021585	0.049077
728.220206	0.048884
728.418808	0.048719
728.617392	0.048873
728.815958	0.048848
729.014506	0.048802
729.213036	0.048675
729.411547	0.048500
729.610040	0.048422
729.808515	0.048229
730.006972	0.048241
730.205410	0.048132
730.403831	0.047957
730.602233	0.047998
730.800616	0.047934
730.998982	0.047846
731.197329	0.047779
731.395658	0.047839
731.593969	0.047942
731.792262	0.048066
731.990536	0.048129
732.188793	0.048140
732.387031	0.047808
732.585250	0.047814
732.783452	0.048004
732.981635	0.047782
733.179800	0.047493
733.377947	0.047492
733.576076	0.047221
733.774186	0.046998
733.972278	0.046944
734.170352	0.046905
734.368408	0.046620
734.566446	0.046351
734.764465	0.046485
734.962466	0.046382
735.160449	0.046199
735.358413	0.046265
735.556360	0.046264
735.754288	0.046023
735.952198	0.045960
736.150090	0.046059
736.347963	0.046169
736.545818	0.045987
736.743655	0.046001
736.941474	0.045898
737.139275	0.045719
737.337057	0.045841
737.534821	0.045809
737.732567	0.045689
737.930295	0.045599
738.128005	0.045285
738.325696	0.045256
738.523369	0.045323
738.721024	0.045415
738.918660	0.045414
739.116279	0.045263
739.313879	0.045360
739.511461	0.045442
739.709024	0.045512
739.906570	0.045846
740.104097	0.046122
740.301606	0.046217
740.499097	0.046042
740.696569	0.046108
740.894024	0.046064
741.091460	0.045924
741.288878	0.045868
741.486277	0.045834
741.683659	0.045472
741.881022	0.045120
742.078367	0.044968
742.275694	0.045044
742.473002	0.044891
742.670293	0.044787
742.867565	0.044777
743.064819	0.044740
743.262054	0.044508
743.459272	0.044466
743.656471	0.044395
743.853652	0.044296
744.050815	0.044160
744.247959	0.044090
744.445085	0.044168
744.642194	0.044201
744.839283	0.044036
745.036355	0.044074
745.233408	0.044075
745.430444	0.044135
745.627461	0.044061
745.824459	0.044131
746.021440	0.044143
746.218402	0.044106
746.415346	0.044056
746.612272	0.044147
746.809180	0.044061
747.006069	0.044013
747.202940	0.044100
747.399793	0.044006
747.596628	0.043895
747.793444	0.043867
747.990243	0.043659
748.187023	0.043522
748.383784	0.043488
748.580528	0.043689
748.777253	0.043640
748.973960	0.043394
749.170649	0.043306
749.367320	0.043302
749.563973	0.043291
749.760607	0.043207
749.957223	0.043030
750.153821	0.043094
750.350400	0.042795
750.546962	0.042946
750.743505	0.042898
750.940030	0.042813
751.136536	0.042565
751.333025	0.042443
751.529495	0.042495
751.725947	0.042471
751.922381	0.042211
752.118796	0.042257
752.315194	0.042232
752.511573	0.041979
752.707934	0.041881
752.904276	0.041937
753.100601	0.041824
753.296907	0.041717
753.493195	0.041572
753.689465	0.041605
753.885716	0.041431
754.081949	0.041174
754.278164	0.041236
754.474361	0.041202
754.670540	0.041173
754.866700	0.041159
755.062843	0.040866
755.258967	0.040920
755.455072	0.040808
755.651160	0.040668
755.847229	0.040551
756.043280	0.040515
756.239313	0.040538
756.435328	0.040442
756.631324	0.040264
756.827302	0.040421
757.023262	0.040435
757.219204	0.040495
757.415127	0.040630
757.611033	0.040671
757.806920	0.040698
758.002788	0.040531
758.198639	0.040514
758.394471	0.040379
758.590286	0.040475
758.786081	0.040480
758.981859	0.040198
759.177619	0.040022
759.373360	0.039955
759.569083	0.039793
759.764788	0.039897
759.960474	0.039602
760.156143	0.039831
760.351793	0.039586
760.547425	0.039283
760.743038	0.039348
760.938634	0.039182
761.134211	0.039189
761.329770	0.039213
761.525311	0.039148
761.720833	0.039250
761.916338	0.039174
762.111824	0.039215
762.307292	0.039281
762.502741	0.039355
762.698173	0.039521
762.893586	0.039321
763.088981	0.039513
763.284358	0.039487
763.479716	0.039407
763.675057	0.039508
763.870379	0.039492
764.065683	0.039648
764.260968	0.039303
764.456236	0.039251
764.651485	0.039410
764.846716	0.039160
765.041929	0.039306
765.237123	0.039331
765.432299	0.039256
765.627457	0.039221
765.822597	0.039012
766.017719	0.038991
766.212822	0.038988
766.407907	0.038607
766.602974	0.038453
766.798023	0.038225
766.993054	0.038130
767.188066	0.037910
767.383060	0.037842
767.578036	0.037941
767.772993	0.037853
767.967933	0.037721
768.162854	0.038026
768.357757	0.038183
768.552642	0.038154
768.747508	0.038311
768.942356	0.038272
769.137186	0.038436
769.331998	0.038459
769.526792	0.038668
769.721567	0.038716
769.916324	0.038457
770.111063	0.038289
770.305784	0.038305
770.500486	0.038098
770.695171	0.038105
770.889837	0.037872
771.084484	0.037601
771.279114	0.037433
771.473725	0.037383
771.668318	0.037382
771.862893	0.037349
772.057450	0.037230
772.251988	0.037337
772.446509	0.037536
772.641011	0.037503
772.835494	0.037552
773.029960	0.037709
773.224407	0.037779
773.418836	0.037859
773.613247	0.037941
773.807640	0.038119
774.002014	0.038057
774.196370	0.037746
774.390708	0.037783
774.585028	0.037846
774.779330	0.037832
774.973613	0.037856
775.167878	0.037929
775.362125	0.037954
775.556354	0.037738
775.750564	0.037766
775.944756	0.037865
776.138930	0.037856
776.333086	0.037787
776.527223	0.037898
776.721343	0.037685
776.915444	0.037567
777.109526	0.037555
777.303591	0.037773
777.497637	0.037787
777.691666	0.037674
777.885676	0.037549
778.079667	0.037507
778.273641	0.037219
778.467596	0.037196
778.661533	0.037389
778.855452	0.037349
779.049352	0.037235
779.243235	0.037265
779.437099	0.037437
779.630945	0.037498
779.824773	0.037651
780.018582	0.037874
780.212373	0.038101
780.406146	0.038171
780.599901	0.038263
780.793638	0.038315
780.987356	0.038525
781.181056	0.038505
781.374738	0.038469
781.568402	0.038424
781.762047	0.038343
781.955674	0.038366
782.149283	0.038241
782.342874	0.038341
782.536447	0.038410
782.730001	0.038107
782.923537	0.038297
783.117055	0.038607
783.310555	0.038584
783.504036	0.038564
783.697499	0.038498
783.890944	0.038385
784.084371	0.038244
784.277780	0.038193
784.471170	0.038263
784.664542	0.038208
784.857896	0.038284
785.051231	0.038273
785.244549	0.038433
785.437848	0.038498
785.631129	0.038521
785.824392	0.038570
786.017636	0.038649
786.210863	0.038741
786.404071	0.038717
786.597260	0.038558
786.790432	0.038844
786.983585	0.038737
787.176721	0.038730
787.369838	0.038916
787.562936	0.039015
787.756017	0.039096
787.949079	0.039184
788.142123	0.039265
788.335149	0.039339
788.528156	0.039353
788.721146	0.039617
788.914117	0.039671
789.107070	0.039643
789.300005	0.039663
789.492921	0.039573
789.685819	0.039589
789.878699	0.039651
790.071561	0.039569
790.264405	0.039463
790.457230	0.039563
790.650037	0.039639
790.842826	0.039698
791.035597	0.039756
791.228349	0.040013
791.421084	0.040065
791.613800	0.039963
791.806497	0.040122
791.999177	0.040345
792.191838	0.040333
792.384481	0.040686
792.577106	0.040875
792.769713	0.040902
792.962301	0.040997
793.154871	0.041237
793.347423	0.041445
793.539957	0.041671
793.732473	0.041625
793.924970	0.041639
794.117449	0.041537
794.309910	0.041663
794.502353	0.041723
794.694777	0.041645
794.887183	0.041568
795.079571	0.041690
795.271941	0.041616
795.464293	0.041761
795.656626	0.041935
795.848941	0.041964
796.041238	0.041811
796.233516	0.041875
796.425777	0.041899
796.618019	0.041904
796.810243	0.041931
797.002449	0.041903
797.194636	0.041918
797.386805	0.041613
797.578956	0.041486
797.771089	0.041730
797.963204	0.041691
798.155300	0.041782
798.347378	0.041930
798.539438	0.042017
798.731480	0.042197
798.923503	0.042318
799.115509	0.042672
799.307496	0.042885
799.499465	0.042902
799.691415	0.043168
799.883348	0.043262
800.075262	0.043165
800.267158	0.043176
800.459035	0.043354
800.650895	0.043476
800.842736	0.043564
801.034559	0.043703
801.226364	0.043664
801.418150	0.043649
801.609919	0.043809
801.801669	0.044066
801.993401	0.044156
802.185114	0.044116
802.376810	0.044289
802.568487	0.044293
802.760146	0.044280
802.951787	0.044575
803.143409	0.044847
803.335014	0.044901
803.526600	0.044955
803.718168	0.045046
803.909717	0.045010
804.101249	0.044839
804.292762	0.045016
804.484257	0.045190
804.675734	0.045201
804.867192	0.045319
805.058632	0.045503
805.250054	0.045595
805.441458	0.045884
805.632844	0.046183
805.824211	0.046705
806.015561	0.046824
806.206891	0.046900
806.398204	0.046994
806.589499	0.046806
806.780775	0.046834
806.972033	0.047075
807.163273	0.046931
807.354495	0.047094
807.545698	0.046748
807.736883	0.046821
807.928050	0.046994
808.119199	0.047214
808.310329	0.047410
808.501441	0.047497
808.692535	0.047409
808.883611	0.047658
809.074669	0.047743
809.265708	0.047898
809.456729	0.047841
809.647732	0.047971
809.838717	0.048007
810.029683	0.048146
810.220632	0.048103
810.411562	0.048250
810.602474	0.048294
810.793367	0.048381
810.984242	0.048812
811.175100	0.049229
811.365938	0.049294
811.556759	0.049437
811.747562	0.049588
811.938346	0.049868
812.129112	0.049992
812.319860	0.049984
812.510589	0.050140
812.701300	0.050029
812.891994	0.050049
813.082668	0.050184
813.273325	0.050454
813.463964	0.050655
813.654584	0.050933
813.845186	0.050941
814.035769	0.051231
814.226335	0.051324
814.416882	0.051429
814.607411	0.051551
814.797922	0.051689
814.988415	0.051763
815.178889	0.051819
815.369345	0.051789
815.559783	0.052044
815.750203	0.052241
815.940605	0.052382
816.130988	0.052606
816.321353	0.052823
816.511700	0.052811
816.702028	0.053112
816.892339	0.053446
817.082631	0.053508
817.272905	0.053838
817.463161	0.053841
817.653398	0.053871
817.843617	0.053934
818.033819	0.053931
818.224001	0.054187
818.414166	0.054074
818.604312	0.053911
818.794440	0.054124
818.984550	0.054044
819.174642	0.054064
819.364716	0.054213
819.554771	0.054114
819.744808	0.054169
819.934827	0.054307
820.124827	0.054280
820.314810	0.054474
820.504774	0.054488
820.694720	0.054574
820.884647	0.054768
821.074557	0.054975
821.264448	0.055258
821.454321	0.055466
821.644176	0.055475
821.834012	0.055588
822.023831	0.055532
822.213631	0.055444
822.403413	0.055474
822.593176	0.055490
822.782922	0.055342
822.972649	0.055275
823.162358	0.055353
823.352049	0.055385
823.541721	0.055473
823.731376	0.055616
823.921012	0.055969
824.110629	0.056364
824.300229	0.056531
824.489811	0.056688
824.679374	0.057028
824.868919	0.056990
825.058445	0.057186
825.247954	0.057290
825.437444	0.057340
825.626916	0.057467
825.816370	0.057544
826.005806	0.057675
826.195223	0.057978
826.384622	0.058248
826.574003	0.058431
826.763366	0.058668
826.952711	0.059079
827.142037	0.059463
827.331345	0.059916
827.520635	0.059901
827.709906	0.060192
827.899160	0.060389
828.088395	0.060392
828.277612	0.060758
828.466810	0.060669
828.655991	0.060884
828.845153	0.061058
829.034297	0.060984
829.223423	0.061212
829.412531	0.061407
829.601620	0.061524
829.790691	0.061699
829.979744	0.061643
830.168779	0.061996
830.357795	0.061964
830.546793	0.062114
830.735773	0.062259
830.924735	0.062335
831.113679	0.062284
831.302604	0.062365
831.491511	0.062478
831.680400	0.062874
831.869271	0.063078
832.058123	0.063225
832.246957	0.063435
832.435773	0.063649
832.624571	0.064158
832.813351	0.064591
833.002112	0.064818
833.190855	0.064913
833.379580	0.065114
833.568287	0.065334
833.756975	0.065806
833.945645	0.066253
834.134297	0.066416
834.322931	0.066475
834.511547	0.066708
834.700144	0.067004
834.888723	0.067596
835.077284	0.067749
835.265826	0.067792
835.454351	0.067887
835.642857	0.067820
835.831345	0.068090
836.019815	0.068187
836.208266	0.068432
836.396699	0.068524
836.585114	0.068601
836.773511	0.068961
836.961890	0.069152
837.150250	0.069036
837.338592	0.069208
837.526916	0.069339
837.715222	0.069427
837.903510	0.069401
838.091779	0.069768
838.280030	0.069980
838.468263	0.069862
838.656477	0.070484
838.844674	0.071033
839.032852	0.071363
839.221012	0.071759
839.409153	0.072250
839.597277	0.072810
839.785382	0.073031
839.973469	0.073215
840.161538	0.073576
840.349589	0.073741
840.537621	0.073843
840.725635	0.074136
840.913631	0.074117
841.101609	0.074314
841.289568	0.074364
841.477509	0.074586
841.665432	0.074725
841.853337	0.075100
842.041224	0.075150
842.229092	0.075311
842.416942	0.075652
842.604774	0.075876
842.792588	0.076194
842.980383	0.076631
843.168160	0.076841
843.355919	0.077308
843.543660	0.077692
843.731382	0.078059
843.919087	0.078492
844.106773	0.078587
844.294441	0.078905
844.482090	0.079260
844.669722	0.079288
844.857335	0.079538
845.044930	0.079655
845.232507	0.079544
845.420065	0.080003
845.607605	0.080057
845.795127	0.080344
845.982631	0.080581
846.170117	0.080422
846.357584	0.080662
846.545033	0.080916
846.732464	0.080817
846.919877	0.081196
847.107272	0.081139
847.294648	0.081386
847.482006	0.081421
847.669346	0.081646
847.856667	0.082119
848.043971	0.082255
848.231256	0.082386
848.418523	0.082892
848.605771	0.083020
848.793002	0.083172
848.980214	0.083652
849.167408	0.084184
849.354584	0.084134
849.541742	0.084442
849.728881	0.084636
849.916002	0.085032
850.103105	0.085235
850.290190	0.085494
850.477256	0.085588
850.664304	0.085531
850.851334	0.085510
851.038346	0.085975
851.225340	0.086113
851.412315	0.086303
851.599272	0.086489
851.786211	0.086481
851.973132	0.086610
852.160034	0.087035
852.346918	0.087397
852.533784	0.087641
852.720632	0.087763
852.907462	0.087608
853.094273	0.087949
853.281066	0.087843
853.467841	0.088362
853.654598	0.088643
853.841336	0.088459
854.028056	0.088671
854.214758	0.088876
854.401442	0.088951
854.588107	0.089374
854.774755	0.089061
854.961384	0.089065
855.147995	0.089268
855.334587	0.089260
855.521162	0.089610
855.707718	0.089596
855.894256	0.089497
856.080775	0.089668
856.267277	0.089693
856.453760	0.090087
856.640225	0.090552
856.826672	0.090369
857.013101	0.090574
857.199511	0.090867
857.385903	0.091027
857.572277	0.091299
857.758633	0.091425
857.944970	0.091502
858.131290	0.091757
858.317591	0.091764
858.503873	0.091965
858.690138	0.092230
858.876384	0.092102
859.062612	0.092251
859.248822	0.092634
859.435014	0.093231
859.621188	0.093804
859.807343	0.093824
859.993480	0.094189
860.179599	0.094372
860.365699	0.094511
860.551781	0.094807
860.737846	0.094638
860.923891	0.094735
861.109919	0.094745
861.295929	0.094553
861.481920	0.094677
861.667893	0.094793
861.853848	0.095137
862.039784	0.095169
862.225702	0.095284
862.411603	0.095756
862.597484	0.095561
862.783348	0.095664
862.969193	0.096049
863.155021	0.096564
863.340830	0.096677
863.526620	0.096650
863.712393	0.097101
863.898147	0.097316
864.083883	0.097392
864.269601	0.097954
864.455301	0.098260
864.640982	0.098260
864.826645	0.098284
865.012290	0.098283
865.197917	0.098473
865.383526	0.098442
865.569116	0.098822
865.754688	0.098946
865.940242	0.098940
866.125777	0.099132
866.311295	0.099263
866.496794	0.099525
866.682275	0.099727
866.867737	0.099991
867.053182	0.100067
867.238608	0.099926
867.424016	0.100005
867.609406	0.100205
867.794778	0.099977
867.980131	0.100050
868.165466	0.099706
868.350783	0.100063
868.536082	0.099813
868.721362	0.099807
868.906625	0.099894
869.091869	0.100193
869.277094	0.100029
869.462302	0.100412
869.647491	0.100537
869.832662	0.101045
870.017815	0.101055
870.202950	0.101188
870.388066	0.101649
870.573165	0.101870
870.758245	0.102003
870.943306	0.102159
871.128350	0.102045
871.313375	0.102276
871.498382	0.102314
871.683371	0.102368
871.868342	0.102838
872.053294	0.102736
872.238229	0.102856
872.423144	0.102719
872.608042	0.102962
872.792922	0.103000
872.977783	0.102886
873.162626	0.102901
873.347451	0.102896
873.532258	0.103044
873.717046	0.102874
873.901816	0.102931
874.086568	0.103340
874.271302	0.103352
874.456017	0.103616
874.640715	0.103901
874.825394	0.104121
875.010055	0.104479
875.194697	0.104306
875.379322	0.104779
875.563928	0.105153
875.748516	0.104792
875.933085	0.104906
876.117637	0.104787
876.302170	0.104793
876.486685	0.104924
876.671182	0.104839
876.855661	0.105033
877.040121	0.105024
877.224563	0.104830
877.408987	0.105497
877.593393	0.105579
877.777780	0.105952
877.962150	0.106147
878.146501	0.106114
878.330833	0.105914
878.515148	0.106219
878.699444	0.106361
878.883722	0.106779
879.067982	0.106500
879.252224	0.106945
879.436447	0.107125
879.620653	0.107142
879.804840	0.107305
879.989008	0.107439
880.173159	0.107425
880.357291	0.107628
880.541405	0.107320
880.725501	0.107523
880.909579	0.107140
881.093638	0.106862
881.277680	0.106737
881.461703	0.106565
881.645707	0.106687
881.829694	0.106526
882.013662	0.106158
882.197612	0.106311
882.381544	0.106247
882.565458	0.106274
882.749353	0.106134
882.933230	0.106232
883.117089	0.106345
883.300930	0.106486
883.484753	0.106472
883.668557	0.106491
883.852343	0.106227
884.036111	0.106374
884.219861	0.106421
884.403592	0.106705
884.587305	0.106905
884.771000	0.106906
884.954677	0.107167
885.138335	0.106951
885.321976	0.106946
885.505598	0.107389
885.689201	0.107406
885.872787	0.107571
886.056354	0.107763
886.239904	0.107499
886.423434	0.107575
886.606947	0.107443
886.790442	0.107825
886.973918	0.108247
887.157376	0.107944
887.340816	0.108015
887.524237	0.107981
887.707641	0.107933
887.891026	0.108188
888.074393	0.108165
888.257741	0.107985
888.441072	0.107898
888.624384	0.107645
888.807678	0.107706
888.990954	0.107943
889.174211	0.107847
889.357451	0.107667
889.540672	0.107371
889.723875	0.107525
889.907059	0.107544
890.090226	0.107488
890.273374	0.107302
890.456504	0.107238
890.639616	0.106791
890.822709	0.106708
891.005785	0.106822
891.188842	0.107270
891.371881	0.107069
891.554901	0.107232
891.737904	0.107151
891.920888	0.107454
892.103854	0.107623
892.286802	0.107799
892.469731	0.108187
892.652643	0.108147
892.835536	0.107944
893.018410	0.107755
893.201267	0.107834
893.384106	0.107933
893.566926	0.107572
893.749728	0.107720
893.932511	0.107663
894.115277	0.107547
894.298024	0.107681
894.480753	0.107498
894.663464	0.108037
894.846157	0.107706
895.028831	0.107510
895.211487	0.107957
895.394125	0.107508
895.576745	0.107661
895.759346	0.107276
895.941930	0.107229
896.124495	0.107154
896.307041	0.106730
896.489570	0.106733
896.672080	0.107164
896.854573	0.106828
897.037046	0.106888
897.219502	0.106515
897.401940	0.106530
897.584359	0.106218
897.766760	0.106003
897.949143	0.105673
898.131507	0.105290
898.313854	0.104700
898.496182	0.104586
898.678492	0.104385
898.860783	0.104241
899.043057	0.103856
899.225312	0.103728
899.407549	0.103370
899.589768	0.103513
899.771968	0.103707
899.954151	0.103538
900.136315	0.103630
900.318461	0.103617
900.500588	0.103294
900.682698	0.103134
900.864789	0.102931
901.046862	0.102910
901.228917	0.102934
901.410953	0.102547
901.592971	0.102367
901.774972	0.101856
901.956953	0.101250
902.138917	0.101199
902.320862	0.101070
902.502790	0.100533
902.684699	0.100591
902.866589	0.100058
903.048462	0.100064
903.230316	0.099751
903.412152	0.099490
903.593970	0.099236
903.775770	0.099053
903.957551	0.098798
904.139314	0.098610
904.321059	0.098502
904.502786	0.098417
904.684494	0.098131
904.866185	0.097916
905.047857	0.097747
905.229510	0.097902
905.411146	0.097583
905.592763	0.097616
905.774363	0.097815
905.955943	0.097553
906.137506	0.096711
906.319051	0.096766
906.500577	0.096887
906.682085	0.096979
906.863575	0.096920
907.045046	0.097170
907.226500	0.097033
907.407935	0.096559
907.589352	0.096357
907.770750	0.096482
907.952131	0.095979
908.133493	0.095994
908.314837	0.095552
908.496163	0.095239
908.677470	0.094539
908.858760	0.094150
909.040031	0.094147
909.221284	0.093833
909.402518	0.093803
909.583735	0.094067
909.764933	0.093457
909.946113	0.093221
910.127275	0.092848
910.308418	0.092581
910.489544	0.092214
910.670651	0.092069
910.851740	0.091993
911.032810	0.091895
911.213863	0.091068
911.394897	0.091395
911.575913	0.091600
911.756911	0.091692
911.937890	0.091423
912.118851	0.091591
912.299794	0.091418
912.480719	0.090891
912.661626	0.090912
912.842514	0.090696
913.023384	0.089861
913.204236	0.089343
913.385070	0.088678
913.565886	0.088330
913.746683	0.087519
913.927462	0.087209
914.108223	0.087269
914.288965	0.086962
914.469690	0.086778
914.650396	0.086400
914.831084	0.085511
915.011754	0.085162
915.192405	0.085048
915.373038	0.085024
915.553653	0.084346
915.734250	0.083659
915.914829	0.082751
916.095389	0.082022
916.275931	0.081888
916.456455	0.081954
916.636961	0.081701
916.817448	0.081367
916.997917	0.081178
917.178368	0.080691
917.358801	0.080526
917.539216	0.080045
917.719612	0.079579
917.899990	0.079119
918.080350	0.078350
918.260692	0.077868
918.441015	0.077279
918.621320	0.076618
918.801607	0.076190
918.981876	0.075518
919.162127	0.074945
919.342359	0.075132
919.522573	0.074670
919.702769	0.074295
919.882947	0.074116
920.063106	0.073568
920.243247	0.073175
920.423370	0.072589
920.603475	0.072170
920.783562	0.072026
920.963630	0.071032
921.143680	0.070810
921.323712	0.070530
921.503725	0.069452
921.683721	0.069189
921.863698	0.068497
922.043657	0.068102
922.223598	0.067641
922.403520	0.067303
922.583424	0.067104
922.763311	0.066147
922.943178	0.066533
923.123028	0.066469
923.302859	0.066100
923.482673	0.065454
923.662467	0.065020
923.842244	0.064886
924.022003	0.064328
924.201743	0.064342
924.381465	0.064170
924.561169	0.063057
924.740854	0.062919
924.920522	0.062416
925.100171	0.062242
925.279802	0.062325
925.459414	0.062118
925.639009	0.061369
925.818585	0.060649
925.998143	0.060010
926.177683	0.059767
926.357205	0.059035
926.536708	0.058730
926.716193	0.058555
926.895660	0.057866
927.075109	0.056689
927.254539	0.056720
927.433951	0.056427
927.613345	0.056746
927.792721	0.056188
927.972079	0.055752
928.151418	0.055037
928.330739	0.054357
928.510042	0.053992
928.689327	0.053898
928.868593	0.053896
929.047841	0.053390
929.227071	0.052383
929.406283	0.051576
929.585476	0.051216
929.764652	0.051301
929.943809	0.050401
930.122948	0.049980
930.302068	0.049292
930.481171	0.048655
930.660255	0.047490
930.839321	0.046519
931.018369	0.046369
931.197398	0.046199
931.376409	0.045381
931.555402	0.045525
931.734377	0.044770
931.913334	0.044420
932.092272	0.043453
932.271192	0.043594
932.450094	0.043758
932.628978	0.042741
932.807844	0.041328
932.986691	0.040574
933.165520	0.040261
933.344331	0.039442
933.523123	0.038826
933.701898	0.038325
933.880654	0.037336
934.059392	0.037297
934.238111	0.037309
934.416813	0.037261
934.595496	0.037437
934.774161	0.036134
934.952808	0.035963
935.131437	0.035597
935.310047	0.034693
935.488639	0.034935
935.667213	0.033528
935.845769	0.033220
936.024306	0.032554
936.202825	0.031391
936.381326	0.031612
936.559809	0.030746
936.738274	0.030252
936.916720	0.030298
937.095148	0.030110
937.273558	0.029950
937.451950	0.029125
937.630323	0.028891
937.808678	0.028345
937.987015	0.027377
938.165334	0.027859
938.343635	0.027291
938.521917	0.026909
938.700181	0.026014
938.878427	0.025068
939.056655	0.024215
939.234864	0.023291
939.413055	0.022514
939.591228	0.022981
939.769383	0.021618
939.947519	0.021114
940.125638	0.020172
940.303738	0.018912
940.481820	0.018831
940.659883	0.018287
940.837929	0.018266
941.015956	0.018958
941.193965	0.017751
941.371955	0.018100
941.549928	0.017450
941.727882	0.016649
941.905818	0.015689
942.083736	0.014984
942.261636	0.015233
942.439517	0.014188
942.617380	0.013475
942.795225	0.012436
942.973052	0.010986
943.150860	0.010572
943.328651	0.010841
943.506423	0.011017
943.684176	0.010729
943.861912	0.009676
944.039629	0.009610
944.217328	0.007921
944.395009	0.008153
944.572672	0.008083
944.750317	0.007918
944.927943	0.007598
945.105551	0.007665
945.283141	0.007370
945.460712	0.007655
945.638265	0.008027
945.815801	0.007745
945.993317	0.007689
946.170816	0.007058
946.348297	0.006546
946.525759	0.005833
946.703203	0.005486
946.880629	0.005175
947.058036	0.004534
947.235425	0.002849
947.412797	0.002871
947.590149	0.001274
947.767484	0.000678
947.944800	0.000304
948.122099	0.000229
948.299379	-0.000511
948.476640	-0.000812
948.653884	-0.001199
948.831109	-0.000728
949.008316	-0.001526
949.185505	-0.000725
949.362676	0.000629
949.539828	-0.000326
949.716962	-0.000710
949.894078	-0.001033
950.071176	-0.001026
950.248256	-0.001890
950.425317	-0.001599
950.602360	-0.000038
950.779385	0.000892
950.956391	-0.000378
951.133380	-0.001336
951.310350	0.000007
951.487302	0.000642
951.664235	-0.000493
951.841151	0.000212
952.018048	0.000056
952.194927	-0.000679
952.371788	-0.001860
952.548631	-0.001276
952.725455	-0.000286
952.902261	-0.002091
953.079049	-0.003550
953.255819	-0.003757
953.432570	-0.004807
953.609303	-0.004500
953.786018	-0.003255
953.962715	-0.003275
954.139394	-0.003671
954.316054	-0.003916
954.492696	-0.003787
954.669320	-0.002377
954.845926	-0.001971
955.022513	-0.000963
955.199083	-0.002824
955.375634	-0.005413
955.552166	-0.005292
955.728681	-0.003155
955.905177	-0.002136
956.081655	-0.001923
956.258115	-0.000903
956.434557	0.000491
956.610980	-0.000498
956.787385	-0.000028
956.963772	0.000893
957.140141	0.000714
957.316492	-0.001048
957.492824	-0.000877
957.669138	-0.000618
957.845434	-0.001287
958.021712	-0.002109
958.197971	0.000107
958.374212	0.000054
958.550435	0.001325
958.726640	0.002322
958.902826	0.002086
959.078995	0.002973
959.255145	0.003815
959.431277	0.001615
959.607390	0.000976
959.783486	-0.000350
959.959563	0.000620
960.135622	-0.000167
960.311662	0.001753
960.487685	0.003661
960.663689	0.003002
960.839675	0.002654
961.015643	0.003656
961.191593	0.003901
961.367524	0.003190
961.543437	0.003842
961.719332	0.004057
961.895209	0.001846
962.071067	-0.000770
962.246907	-0.000041
962.422730	0.000911
962.598533	0.000413
962.774319	-0.000877
962.950086	0.001002
963.125835	0.000073
963.301566	-0.000402
963.477279	-0.000370
963.652973	0.001474
963.828650	0.002180
964.004308	0.001323
964.179947	0.003322
964.355569	0.005706
964.531172	0.005601
964.706757	0.007962
964.882324	0.009469
965.057873	0.008501
965.233403	0.007187
965.408916	0.006969
965.584410	0.005424
965.759885	0.004767
965.935343	0.005342
966.110782	0.003703
966.286203	0.001592
966.461606	0.001148
966.636991	0.002504
966.812357	0.001652
966.987705	0.001351
967.163035	0.003783
967.338347	0.004623
967.513641	0.005078
967.688916	0.006643
967.864173	0.006631
968.039412	0.006165
968.214632	0.006405
968.389835	0.008828
968.565019	0.009894
968.740185	0.007647
968.915333	0.008564
969.090462	0.007118
969.265573	0.008073
969.440667	0.009061
969.615741	0.009872
969.790798	0.009695
969.965836	0.008513
970.140856	0.009626
970.315858	0.010958
970.490842	0.008979
970.665808	0.008199
970.840755	0.006886
971.015684	0.007233
971.190595	0.006799
971.365487	0.007966
971.540362	0.009787
971.715218	0.009375
971.890056	0.008753
972.064875	0.010126
972.239677	0.011681
972.414460	0.013339
972.589225	0.013926
972.763972	0.013264
972.938700	0.011577
973.113411	0.010439
973.288103	0.007346
973.462777	0.007472
973.637432	0.007325
973.812070	0.005492
973.986689	0.002428
974.161290	0.001450
974.335873	0.001472
974.510437	0.002164
974.684984	0.000998
974.859512	0.001196
975.034022	0.001734
975.208513	0.000490
975.382987	0.002439
975.557442	0.004726
975.731879	0.004365
975.906298	0.006159
976.080698	0.004556
976.255080	0.005846
976.429445	0.005885
976.603790	0.004298
976.778118	0.005194
976.952427	0.004218
977.126719	0.004166
977.300992	0.002955
977.475246	0.002484
977.649483	0.004727
977.823701	0.004585
977.997901	0.006106
978.172083	0.007518
978.346247	0.008182
978.520392	0.007820
978.694519	0.006649
978.868628	0.008893
979.042719	0.008941
979.216791	0.007204
979.390845	0.008073
979.564882	0.006983
979.738899	0.008145
979.912899	0.009162
980.086880	0.009794
980.260843	0.008953
980.434788	0.009096
980.608715	0.007918
980.782623	0.008890
980.956514	0.006299
981.130386	0.004716
981.304240	0.004234
981.478075	0.002847
981.651892	0.003401
981.825692	0.006563
981.999472	0.005558
982.173235	0.006382
982.346980	0.006280
982.520706	0.008893
982.694414	0.010819
982.868104	0.010720
983.041775	0.009089
983.215428	0.007564
983.389064	0.005128
983.562680	0.003934
983.736279	0.003648
983.909860	0.003027
984.083422	0.000779
984.256966	0.000775
984.430491	-0.000157
984.603999	0.001295
984.777488	0.002998
984.950959	0.002977
985.124412	0.004130
985.297847	0.002783
985.471263	0.002940
985.644661	0.004867
985.818041	0.005456
985.991403	0.006624
986.164747	0.008152
986.338072	0.007325
986.511379	0.007702
986.684668	0.008491
986.857938	0.011344
987.031191	0.011480
987.204425	0.009184
987.377641	0.008335
987.550839	0.006849
987.724018	0.005963
987.897179	0.005812
988.070322	0.004574
988.243447	0.003663
988.416554	0.002222
988.589642	0.002496
988.762712	0.003879
988.935764	0.003688
989.108798	0.004602
989.281813	0.003116
989.454811	0.003050
989.627790	0.004563
989.800751	0.003609
989.973693	0.003995
990.146617	0.003433
990.319524	0.003878
990.492412	0.003553
990.665281	0.002561
990.838133	0.003474
991.010966	0.003195
991.183781	0.002375
991.356578	0.002626
991.529356	0.001811
991.702117	0.002699
991.874859	0.001634
992.047583	0.003316
992.220288	0.003168
992.392976	0.003174
992.565645	0.002503
992.738296	0.002159
992.910929	0.002540
993.083543	0.003913
993.256139	0.002957
993.428718	0.003474
993.601277	0.002292
993.773819	0.003674
993.946342	0.003986
994.118848	0.004191
994.291335	0.004730
994.463803	0.006191
994.636254	0.004589
994.808686	0.004211
994.981100	0.003570
995.153496	0.003549
995.325874	0.003711
995.498233	0.001953
995.670574	0.001298
995.842897	0.000762
996.015202	0.000041
996.187488	-0.000281
996.359757	-0.000699
996.532007	-0.000313
996.704239	-0.002038
996.876452	-0.003170
997.048648	-0.003397
997.220825	-0.002349
997.392984	-0.001633
997.565124	-0.001749
997.737247	-0.002265
997.909351	-0.000373
998.081437	0.000774
998.253505	0.002579
998.425554	0.002207
998.597586	0.003415
998.769599	0.003615
998.941594	0.003761
999.113571	0.003589
999.285529	0.003899
999.457469	0.001360
999.629391	0.000247
999.801295	0.000693
999.973181	0.001126
1000.145048	0.000011
1000.316897	-0.002058
1000.488728	-0.003319
1000.660541	-0.003421
1000.832335	-0.003483
1001.004111	-0.002593
1001.175869	-0.002726
1001.347609	-0.004034
1001.519331	-0.005022
1001.691034	-0.003349
1001.862719	-0.001483
1002.034386	-0.001050
1002.206035	-0.001044
1002.377665	-0.001309
1002.549277	-0.001113
1002.720871	-0.001154
1002.892447	-0.001111
1003.064004	0.000365
1003.235544	-0.000822
1003.407065	-0.000442
1003.578568	-0.000145
1003.750052	-0.001090
1003.921519	-0.000993
1004.092967	-0.001845
1004.264397	-0.002313
1004.435809	-0.002424
1004.607202	-0.003326
1004.778577	-0.004532
1004.949934	-0.004941
1005.121273	-0.004397
1005.292594	-0.004071
1005.463896	-0.004229
1005.635180	-0.004322
1005.806446	-0.003799
1005.977694	-0.003486
1006.148923	-0.005008
1006.320135	-0.003873
1006.491328	-0.004027
1006.662503	-0.005417
1006.833659	-0.006373
1007.004798	-0.005859
1007.175918	-0.006357
1007.347020	-0.004975
1007.518103	-0.002562
1007.689169	-0.001903
1007.860216	-0.001215
1008.031245	-0.000827
1008.202256	-0.000804
1008.373248	0.000199
1008.544223	0.000140
1008.715179	0.001028
1008.886117	0.000215
1009.057036	-0.003124
1009.227938	-0.002098
1009.398821	-0.003174
1009.569686	-0.004465
1009.740533	-0.004197
1009.911361	-0.005188
1010.082172	-0.005365
1010.252964	-0.006392
1010.423738	-0.006026
1010.594493	-0.005317
1010.765231	-0.005888
1010.935950	-0.005087
1011.106651	-0.005273
1011.277334	-0.005032
1011.447998	-0.004216
1011.618645	-0.004433
1011.789273	-0.002133
1011.959882	-0.003039
1012.130474	-0.004040
1012.301048	-0.004557
1012.471603	-0.005612
1012.642140	-0.005938
1012.812658	-0.006234
1012.983159	-0.005241
1013.153641	-0.004861
1013.324105	-0.006930
1013.494551	-0.008084
1013.664979	-0.006574
1013.835388	-0.005247
1014.005779	-0.004381
1014.176152	-0.004675
1014.346507	-0.005934
1014.516843	-0.008459
1014.687162	-0.008580
1014.857462	-0.008159
1015.027744	-0.007620
1015.198007	-0.008310
1015.368252	-0.008739
1015.538480	-0.009174
1015.708689	-0.007608
1015.878879	-0.006451
1016.049052	-0.005972
1016.219206	-0.004930
1016.389342	-0.004576
1016.559460	-0.003432
1016.729559	-0.003076
1016.899641	-0.004053
1017.069704	-0.003513
1017.239749	-0.004453
1017.409775	-0.005098
1017.579784	-0.004643
1017.749774	-0.006721
1017.919746	-0.006604
1018.089700	-0.007292
1018.259635	-0.008397
1018.429553	-0.008322
1018.599452	-0.009091
1018.769333	-0.010867
1018.939195	-0.008465
1019.109040	-0.009409
1019.278866	-0.008579
1019.448674	-0.009059
1019.618464	-0.009139
1019.788235	-0.009653
1019.957989	-0.009454
1020.127724	-0.010415
1020.297441	-0.008144
1020.467139	-0.009922
1020.636820	-0.008051
1020.806482	-0.008496
1020.976126	-0.008540
1021.145752	-0.007345
1021.315359	-0.006330
1021.484948	-0.005294
1021.654519	-0.004112
1021.824072	-0.005294
1021.993607	-0.004819
1022.163123	-0.005874
1022.332621	-0.005995
1022.502101	-0.006529
1022.671563	-0.005634
1022.841007	-0.005012
1023.010432	-0.005872
1023.179839	-0.006451
1023.349228	-0.004106
1023.518598	-0.004596
1023.687951	-0.004959
1023.857285	-0.003494
1024.026601	-0.001629
1024.195899	-0.003999
1024.365178	-0.003749
1024.534439	-0.003416
1024.703682	-0.004571
1024.872907	-0.006541
1025.042114	-0.006212
1025.211302	-0.007436
1025.380472	-0.007256
1025.549624	-0.007339
1025.718758	-0.009252
1025.887873	-0.010190
1026.056970	-0.011564
1026.226049	-0.010520
1026.395110	-0.010043
1026.564153	-0.011822
1026.733177	-0.008917
1026.902183	-0.010397
1027.071171	-0.010792
1027.240141	-0.008563
1027.409092	-0.009392
1027.578026	-0.009647
1027.746940	-0.007854
1027.915837	-0.007947
1028.084716	-0.007423
1028.253576	-0.009767
1028.422418	-0.009347
1028.591242	-0.009474
1028.760048	-0.010091
1028.928835	-0.009945
1029.097604	-0.007185
1029.266355	-0.009434
1029.435088	-0.009159
1029.603803	-0.010741
1029.772499	-0.009574
1029.941177	-0.009567
1030.109837	-0.009506
1030.278478	-0.009713
1030.447102	-0.010409
1030.615707	-0.011444
1030.784294	-0.011816
1030.952863	-0.012651
1031.121413	-0.009121
1031.289945	-0.009332
1031.458460	-0.009830
1031.626955	-0.011215
1031.795433	-0.011060
1031.963892	-0.009997
1032.132334	-0.010863
1032.300756	-0.009081
1032.469161	-0.007859
1032.637548	-0.009759
1032.805916	-0.010733
1032.974266	-0.011071
1033.142598	-0.008609
1033.310911	-0.009405
1033.479207	-0.009627
1033.647484	-0.008060
1033.815743	-0.008488
1033.983983	-0.009180
1034.152206	-0.008327
1034.320410	-0.008218
1034.488596	-0.007808
1034.656764	-0.009663
1034.824914	-0.009438
1034.993045	-0.008566
1035.161158	-0.010655
1035.329253	-0.010735
1035.497330	-0.011750
1035.665388	-0.013313
1035.833428	-0.011830
1036.001450	-0.011676
1036.169454	-0.013904
1036.337440	-0.013469
1036.505407	-0.014215
1036.673356	-0.014794
1036.841287	-0.014846
1037.009200	-0.013235
1037.177094	-0.013571
1037.344970	-0.013816
1037.512828	-0.014188
1037.680668	-0.013567
1037.848489	-0.013324
1038.016293	-0.015448
1038.184078	-0.014142
1038.351845	-0.013923
1038.519593	-0.014258
1038.687324	-0.013264
1038.855036	-0.013761
1039.022730	-0.014698
1039.190406	-0.014226
1039.358063	-0.014759
1039.525702	-0.013078
1039.693323	-0.013850
1039.860926	-0.013902
1040.028511	-0.014261
1040.196077	-0.012941
1040.363625	-0.012154
1040.531155	-0.012053
1040.698667	-0.012253
1040.866161	-0.013124
1041.033636	-0.011905
1041.201093	-0.009581
1041.368532	-0.009910
1041.535952	-0.010630
1041.703355	-0.011219
1041.870739	-0.011065
1042.038105	-0.010737
1042.205452	-0.008739
1042.372782	-0.008684
1042.540093	-0.010041
1042.707386	-0.011997
1042.874661	-0.011757
1043.041918	-0.010674
1043.209156	-0.011561
1043.376376	-0.012459
1043.543578	-0.013024
1043.710762	-0.012737
1043.877927	-0.010551
1044.045074	-0.009061
1044.212203	-0.008467
1044.379314	-0.010936
1044.546407	-0.012856
1044.713481	-0.011960
1044.880537	-0.012435
1045.047575	-0.010559
1045.214595	-0.012243
1045.381596	-0.014965
1045.548579	-0.016359
1045.715544	-0.017486
1045.882491	-0.014383
1046.049420	-0.011868
1046.216330	-0.010906
1046.383222	-0.009971
1046.550096	-0.010553
1046.716951	-0.010091
1046.883789	-0.007798
1047.050608	-0.007616
1047.217409	-0.007628
1047.384192	-0.007707
1047.550956	-0.009878
1047.717703	-0.012864
1047.884431	-0.014127
1048.051140	-0.013783
1048.217832	-0.013955
1048.384505	-0.014773
1048.551161	-0.012886
1048.717798	-0.013203
1048.884416	-0.014370
1049.051017	-0.014829
1049.217599	-0.015289
1049.384163	-0.014348
1049.550709	-0.014882
1049.717237	-0.015467
1049.883746	-0.015597
1050.050237	-0.017066
1050.216710	-0.017247
1050.383165	-0.017110
1050.549601	-0.016762
1050.716019	-0.014334
1050.882420	-0.013304
1051.048801	-0.014201
1051.215165	-0.013180
1051.381510	-0.013225
1051.547837	-0.014042
1051.714146	-0.013916
1051.880437	-0.013665
1052.046709	-0.011431
1052.212964	-0.012014
1052.379200	-0.014020
1052.545417	-0.012880
1052.711617	-0.013903
1052.877798	-0.013466
1053.043961	-0.012837
1053.210106	-0.013485
1053.376233	-0.014029
1053.542341	-0.016083
1053.708432	-0.015637
1053.874504	-0.015174
1054.040557	-0.016478
1054.206593	-0.015510
1054.372610	-0.017852
1054.538609	-0.017776
1054.704590	-0.017111
1054.870553	-0.017455
1055.036497	-0.018832
1055.202424	-0.018886
1055.368331	-0.017789
1055.534221	-0.016689
1055.700093	-0.016612
1055.865946	-0.014979
1056.031781	-0.015650
1056.197598	-0.016147
1056.363397	-0.016462
1056.529177	-0.015555
1056.694939	-0.016345
1056.860683	-0.017872
1057.026409	-0.019088
1057.192116	-0.019338
1057.357806	-0.018331
1057.523477	-0.018379
1057.689130	-0.016311
1057.854764	-0.015482
1058.020381	-0.014510
1058.185979	-0.014695
1058.351559	-0.014229
1058.517120	-0.014066
1058.682664	-0.014722
1058.848189	-0.016341
1059.013696	-0.016790
1059.179185	-0.016404
1059.344656	-0.017405
1059.510108	-0.017852
1059.675542	-0.016823
1059.840958	-0.016767
1060.006356	-0.017080
1060.171735	-0.016338
1060.337096	-0.017300
1060.502439	-0.018502
1060.667764	-0.019251
1060.833071	-0.018683
1060.998359	-0.018657
1061.163629	-0.019364
1061.328881	-0.019660
1061.494115	-0.017594
1061.659330	-0.017690
1061.824527	-0.017588
1061.989706	-0.015623
1062.154867	-0.015921
1062.320010	-0.015553
1062.485134	-0.014817
1062.650240	-0.015866
1062.815328	-0.017795
1062.980398	-0.018565
1063.145449	-0.018737
1063.310482	-0.018366
1063.475497	-0.016953
1063.640494	-0.018323
1063.805473	-0.017737
1063.970433	-0.016975
1064.135375	-0.016701
1064.300299	-0.013011
1064.465204	-0.012830
1064.630092	-0.013213
1064.794961	-0.010732
1064.959812	-0.010661
1065.124645	-0.009596
1065.289459	-0.010562
1065.454256	-0.012038
1065.619034	-0.011888
1065.783793	-0.014207
1065.948535	-0.014546
1066.113258	-0.013459
1066.277964	-0.014899
1066.442651	-0.016931
1066.607319	-0.016931
1066.771970	-0.014807
1066.936602	-0.013157
1067.101216	-0.012892
1067.265812	-0.013272
1067.430389	-0.014263
1067.594949	-0.014322
1067.759490	-0.012980
1067.924013	-0.011888
1068.088518	-0.013116
1068.253004	-0.015235
1068.417472	-0.014659
1068.581922	-0.014879
1068.746354	-0.012707
1068.910768	-0.011809
1069.075163	-0.011753
1069.239540	-0.011918
1069.403899	-0.012104
1069.568240	-0.010325
1069.732562	-0.011159
1069.896866	-0.011826
1070.061152	-0.012011
1070.225420	-0.012248
1070.389670	-0.012693
1070.553901	-0.014261
1070.718114	-0.016907
1070.882309	-0.017287
1071.046486	-0.017410
1071.210644	-0.017526
1071.374784	-0.017046
1071.538906	-0.016256
1071.703010	-0.017691
1071.867096	-0.017878
1072.031163	-0.019953
1072.195212	-0.018365
1072.359243	-0.017998
1072.523256	-0.016310
1072.687250	-0.015736
1072.851226	-0.019054
1073.015184	-0.018342
1073.179124	-0.019966
1073.343045	-0.018555
1073.506949	-0.016312
1073.670834	-0.014939
1073.834701	-0.014112
1073.998549	-0.016059
1074.162380	-0.016405
1074.326192	-0.015753
1074.489986	-0.016405
1074.653761	-0.014932
1074.817519	-0.015037
1074.981258	-0.014030
1075.144979	-0.013753
1075.308682	-0.015420
1075.472367	-0.015969
1075.636033	-0.014091
1075.799681	-0.012557
1075.963311	-0.010461
1076.126923	-0.009498
1076.290516	-0.010530
1076.454092	-0.010869
1076.617649	-0.014021
1076.781187	-0.012321
1076.944708	-0.013684
1077.108210	-0.013410
1077.271695	-0.015084
1077.435160	-0.018441
1077.598608	-0.019245
1077.762038	-0.020423
1077.925449	-0.019754
1078.088842	-0.018728
1078.252217	-0.019084
1078.415573	-0.016675
1078.578912	-0.019183
1078.742232	-0.015238
1078.905534	-0.013208
1079.068817	-0.014149
1079.232083	-0.012999
1079.395330	-0.013164
1079.558559	-0.012876
1079.721770	-0.013591
1079.884962	-0.012915
1080.048136	-0.010598
1080.211293	-0.013430
1080.374430	-0.015525
1080.537550	-0.014902
1080.700651	-0.015491
1080.863735	-0.017080
1081.026800	-0.017156
1081.189846	-0.016189
1081.352875	-0.017065
1081.515885	-0.020756
1081.678877	-0.021177
1081.841851	-0.020749
1082.004807	-0.019444
1082.167744	-0.019792
1082.330663	-0.019311
1082.493564	-0.020651
1082.656447	-0.024723
1082.819312	-0.024018
1082.982158	-0.021255
1083.144986	-0.020982
1083.307796	-0.021306
1083.470587	-0.024217
1083.633361	-0.022028
1083.796116	-0.022915
1083.958853	-0.020902
1084.121571	-0.017722
1084.284272	-0.018987
1084.446954	-0.017845
1084.609618	-0.017336
1084.772264	-0.015898
1084.934892	-0.013764
1085.097501	-0.014132
1085.260092	-0.014426
1085.422665	-0.015179
1085.585220	-0.012575
1085.747756	-0.011880
1085.910274	-0.014239
1086.072774	-0.013685
1086.235256	-0.013653
1086.397720	-0.013835
1086.560165	-0.015613
1086.722592	-0.012978
1086.885001	-0.010835
1087.047392	-0.012340
1087.209764	-0.014183
1087.372119	-0.014566
1087.534455	-0.015520
1087.696772	-0.018031
1087.859072	-0.016693
1088.021353	-0.014440
1088.183616	-0.014618
1088.345861	-0.016872
1088.508088	-0.018421
1088.670296	-0.016482
1088.832486	-0.014229
1088.994658	-0.016813
1089.156812	-0.014992
1089.318948	-0.014457
1089.481065	-0.016496
1089.643164	-0.015693
1089.805245	-0.014840
1089.967308	-0.016199
1090.129352	-0.015746
1090.291378	-0.016848
1090.453386	-0.014240
1090.615376	-0.014943
1090.777347	-0.017105
1090.939301	-0.016571
1091.101236	-0.018856
1091.263153	-0.019255
1091.425051	-0.017573
1091.586932	-0.018256
1091.748794	-0.018274
1091.910638	-0.018404
1092.072463	-0.015765
1092.234271	-0.016339
1092.396060	-0.015333
1092.557831	-0.015762
1092.719584	-0.015882
1092.881319	-0.015439
1093.043035	-0.017340
1093.204733	-0.017516
1093.366413	-0.018995
1093.528075	-0.020817
1093.689718	-0.019627
1093.851343	-0.022098
1094.012950	-0.021452
1094.174539	-0.022488
1094.336110	-0.024685
1094.497662	-0.024478
1094.659196	-0.025268
1094.820712	-0.025581
1094.982210	-0.026536
1095.143689	-0.028165
1095.305151	-0.026345
1095.466594	-0.029092
1095.628018	-0.030258
1095.789425	-0.030284
1095.950813	-0.031694
1096.112183	-0.032802
1096.273535	-0.033206
1096.434869	-0.032042
1096.596184	-0.027932
1096.757482	-0.028786
1096.918761	-0.026878
1097.080021	-0.024709
1097.241264	-0.022178
1097.402488	-0.017753
1097.563694	-0.017693
1097.724882	-0.014112
1097.886052	-0.017371
1098.047203	-0.021586
1098.208336	-0.019406
1098.369451	-0.018845
1098.530548	-0.019433
1098.691627	-0.022515
1098.852687	-0.023840
1099.013729	-0.021717
1099.174753	-0.022468
1099.335758	-0.017791
1099.496746	-0.016653
1099.657715	-0.021270
1099.818666	-0.019548
1099.979599	-0.021703
1100.140513	-0.017409
1100.301409	-0.015375
1100.462287	-0.015185
1100.623147	-0.015758
1100.783989	-0.014680
1100.944812	-0.014325
1101.105617	-0.013034
1101.266404	-0.013922
1101.427173	-0.011724
1101.587923	-0.013489
1101.748656	-0.017443
1101.909370	-0.017740
1102.070066	-0.016363
1102.230743	-0.016970
1102.391403	-0.014455
1102.552044	-0.013176
1102.712667	-0.010632
1102.873271	-0.007775
1103.033858	-0.014470
1103.194426	-0.013847
1103.354976	-0.015465
1103.515508	-0.019985
1103.676021	-0.022151
1103.836517	-0.024510
1103.996994	-0.023937
1104.157453	-0.028638
1104.317893	-0.030472
1104.478316	-0.024528
1104.638720	-0.026219
1104.799106	-0.024824
1104.959474	-0.025276
1105.119823	-0.025330
1105.280155	-0.022938
1105.440468	-0.021179
1105.600763	-0.023086
1105.761039	-0.022718
1105.921298	-0.022047
1106.081538	-0.018201
1106.241760	-0.018803
1106.401964	-0.017706
1106.562149	-0.019984
1106.722316	-0.022677
1106.882465	-0.025739
1107.042596	-0.024678
1107.202709	-0.026288
1107.362803	-0.027414
1107.522879	-0.031842
1107.682937	-0.030789
1107.842977	-0.027830
1108.002999	-0.024167
1108.163002	-0.026654
1108.322987	-0.023755
1108.482954	-0.018536
1108.642902	-0.016172
1108.802833	-0.018463
1108.962745	-0.014842
1109.122639	-0.018373
1109.282515	-0.020541
1109.442372	-0.020303
1109.602211	-0.018211
1109.762032	-0.018144
1109.921835	-0.022968
1110.081620	-0.025906
1110.241386	-0.022256
1110.401134	-0.023620
1110.560864	-0.022814
1110.720576	-0.022258
1110.880269	-0.022748
1111.039945	-0.023392
1111.199602	-0.024180
1111.359240	-0.020354
1111.518861	-0.020682
1111.678463	-0.023413
1111.838047	-0.023925
1111.997613	-0.017279
1112.157161	-0.019274
1112.316690	-0.018005
1112.476202	-0.018783
1112.635695	-0.018976
1112.795169	-0.019776
1112.954626	-0.018275
1113.114064	-0.014736
1113.273484	-0.016989
1113.432886	-0.025839
1113.592270	-0.025009
1113.751635	-0.028148
1113.910983	-0.027378
1114.070312	-0.029591
1114.229622	-0.031874
1114.388915	-0.031363
1114.548189	-0.031816
1114.707445	-0.028383
1114.866683	-0.026531
1115.025903	-0.025755
1115.185104	-0.027527
1115.344287	-0.024814
1115.503452	-0.027037
1115.662599	-0.027284
1115.821727	-0.026390
1115.980838	-0.027945
1116.139930	-0.024852
1116.299004	-0.023693
1116.458059	-0.019771
1116.617097	-0.020651
1116.776116	-0.019836
1116.935117	-0.016779
1117.094099	-0.017092
1117.253064	-0.023002
1117.412010	-0.024465
1117.570938	-0.028993
1117.729848	-0.026962
1117.888740	-0.029460
1118.047613	-0.023889
1118.206468	-0.027290
1118.365305	-0.025781
1118.524124	-0.021475
1118.682924	-0.013869
1118.841707	-0.010259
1119.000471	-0.010623
1119.159216	-0.012581
1119.317944	-0.008571
1119.476653	-0.015007
1119.635344	-0.018545
1119.794017	-0.018586
1119.952672	-0.016823
1120.111308	-0.020859
1120.269927	-0.026138
1120.428527	-0.021533
1120.587108	-0.020645
1120.745672	-0.022026
1120.904217	-0.014591
1121.062744	-0.013003
1121.221253	-0.013189
1121.379744	-0.015489
1121.538216	-0.013156
1121.696671	-0.006549
1121.855107	-0.003924
1122.013524	-0.003823
1122.171924	-0.008697
1122.330305	-0.013567
1122.488668	-0.008846
1122.647013	-0.011622
1122.805340	-0.014789
1122.963648	-0.011839
1123.121938	-0.009689
1123.280210	-0.014060
1123.438464	-0.012631
1123.596700	-0.013272
1123.754917	-0.009840
1123.913116	-0.014432
1124.071297	-0.012351
1124.229459	-0.011732
1124.387604	-0.015404
1124.545730	-0.016534
1124.703838	-0.013451
1124.861928	-0.012571
1125.019999	-0.003728
1125.178052	-0.003550
1125.336088	-0.005447
1125.494104	-0.003732
1125.652103	-0.001304
1125.810083	-0.004282
1125.968045	-0.005211
1126.125989	-0.012013
1126.283915	-0.017748
1126.441823	-0.023547
1126.599712	-0.025564
1126.757583	-0.016472
1126.915436	-0.018888
1127.073270	-0.018132
1127.231087	-0.016024
1127.388885	-0.023223
1127.546665	-0.025611
1127.704426	-0.022599
1127.862170	-0.021696
1128.019895	-0.021270
1128.177602	-0.026102
1128.335291	-0.017475
1128.492961	-0.016528
1128.650614	-0.018640
1128.808248	-0.009534
1128.965864	-0.006193
1129.123461	-0.004230
1129.281041	-0.012621
1129.438602	-0.017057
1129.596145	-0.021520
1129.753670	-0.025625
1129.911176	-0.025432
1130.068665	-0.022509
1130.226135	-0.030754
1130.383587	-0.025884
1130.541020	-0.031624
1130.698436	-0.022633
1130.855833	-0.017578
1131.013212	-0.007996
1131.170573	-0.010406
1131.327915	-0.009777
1131.485239	-0.014497
1131.642545	-0.010799
1131.799833	-0.013882
1131.957103	-0.010018
1132.114354	-0.012911
1132.271588	-0.007560
1132.428803	-0.013383
1132.585999	-0.015054
1132.743178	-0.016735
1132.900338	-0.008812
1133.057480	-0.012165
1133.214604	-0.007873
1133.371710	-0.010846
1133.528797	-0.014044
1133.685866	-0.020998
1133.842917	-0.014412
1133.999950	-0.011421
1134.156964	-0.014560
1134.313960	-0.019589
1134.470938	-0.018749
1134.627898	-0.027557
1134.784840	-0.027149
1134.941763	-0.023898
1135.098668	-0.028046
1135.255555	-0.029914
1135.412424	-0.038833
1135.569274	-0.042724
1135.726107	-0.044579
1135.882921	-0.035355
1136.039716	-0.027915
1136.196494	-0.020325
1136.353253	-0.022332
1136.509995	-0.016292
1136.666717	-0.020192
1136.823422	-0.025157
1136.980109	-0.024026
1137.136777	-0.027208
1137.293427	-0.030924
1137.450059	-0.031775
1137.606672	-0.028384
1137.763267	-0.022572
1137.919844	-0.027091
1138.076403	-0.028728
1138.232944	-0.016731
1138.389466	-0.010304
1138.545971	-0.010402
1138.702457	-0.008807
1138.858924	-0.010832
1139.015374	-0.013503
1139.171805	-0.013734
1139.328218	-0.014658
1139.484613	-0.020293
1139.640990	-0.021220
1139.797348	-0.032248
1139.953688	-0.032474
1140.110010	-0.035558
1140.266314	-0.033934
1140.422600	-0.036239
1140.578867	-0.037506
1140.735116	-0.034328
1140.891347	-0.024272
1141.047559	-0.022715
1141.203754	-0.012665
1141.359930	-0.004902
1141.516088	-0.014548
1141.672228	-0.019626
1141.828349	-0.013812
1141.984452	-0.012033
1142.140537	-0.012133
1142.296604	-0.008210
1142.452653	-0.009213
1142.608683	-0.011367
1142.764695	-0.006339
1142.920689	-0.002157
1143.076665	0.003375
1143.232622	-0.018422
1143.388562	-0.016323
1143.544483	-0.006887
1143.700385	-0.014144
1143.856270	-0.026209
1144.012136	-0.029629
1144.167985	-0.041550
1144.323814	-0.039765
1144.479626	-0.038690
1144.635420	-0.026447
1144.791195	-0.033466
1144.946952	-0.042280
1145.102691	-0.040749
1145.258411	-0.024210
1145.414113	-0.023054
1145.569798	-0.023416
1145.725463	-0.022646
1145.881111	-0.020803
1146.036741	-0.021495
1146.192352	-0.019058
1146.347945	-0.018739
1146.503519	-0.010230
1146.659076	-0.014289
1146.814614	-0.016129
1146.970134	-0.007807
1147.125636	-0.011467
1147.281120	-0.020224
1147.436585	-0.019678
1147.592032	-0.018186
1147.747461	-0.016171
1147.902872	-0.024401
1148.058265	-0.024659
1148.213639	-0.017139
1148.368995	-0.010339
1148.524333	-0.007940
1148.679653	-0.001040
1148.834954	-0.000977
1148.990237	-0.001029
1149.145502	-0.004282
1149.300749	0.006182
1149.455977	0.009620
1149.611188	0.011299
1149.766380	0.007523
1149.921553	0.003625
1150.076709	-0.005271
1150.231846	-0.005003
1150.386966	-0.015526
1150.542066	-0.009448
1150.697149	-0.019717
1150.852214	-0.017403
1151.007260	-0.028983
1151.162288	-0.034848
1151.317298	-0.027536
1151.472289	-0.015250
1151.627263	-0.017755
1151.782218	-0.003432
1151.937155	-0.004115
1152.092073	0.007364
1152.246974	-0.002821
1152.401856	0.002998
1152.556720	0.003621
1152.711566	0.001991
1152.866393	-0.004272
1153.021203	-0.003815
1153.175994	-0.011919
1153.330767	-0.011329
1153.485521	-0.029710
1153.640258	-0.022066
1153.794976	-0.026301
1153.949676	-0.029639
1154.104358	-0.020881
1154.259021	-0.026146
1154.413667	-0.019271
1154.568294	-0.011442
1154.722903	-0.016116
1154.877493	-0.007886
1155.032066	-0.008902
1155.186620	-0.008258
1155.341156	-0.007643
1155.495674	-0.016997
1155.650173	-0.014270
1155.804654	-0.022786
1155.959118	-0.032955
1156.113562	-0.033249
1156.267989	-0.032872
1156.422397	-0.031934
1156.576788	-0.020121
1156.731160	-0.020367
1156.885513	-0.017357
1157.039849	-0.014711
1157.194166	-0.015913
1157.348465	-0.000882
1157.502746	0.001910
1157.657009	0.001081
1157.811253	0.007741
1157.965479	0.000422
1158.119687	-0.000353
1158.273877	0.002754
1158.428048	0.006406
1158.582201	0.015715
1158.736337	0.000657
1158.890453	0.003105
1159.044552	-0.003547
1159.198632	-0.019319
1159.352694	-0.023925
1159.506738	-0.018455
1159.660764	-0.016180
1159.814771	-0.022641
1159.968761	-0.023733
1160.122732	-0.017009
1160.276685	-0.017887
1160.430619	-0.012376
1160.584535	-0.015580
1160.738434	-0.010489
1160.892313	-0.013195
1161.046175	-0.021063
1161.200019	-0.017005
1161.353844	-0.022940
1161.507651	-0.031376
1161.661440	-0.036085
1161.815210	-0.037442
1161.968962	-0.043580
1162.122697	-0.041499
1162.276412	-0.034597
1162.430110	-0.034013
1162.583789	-0.037628
1162.737451	-0.038758
1162.891094	-0.038402
1163.044718	-0.048405
1163.198325	-0.047163
1163.351913	-0.026556
1163.505483	-0.038541
1163.659035	-0.035369
1163.812569	-0.034199
1163.966084	-0.025264
1164.119581	-0.020632
1164.273060	-0.008886
1164.426521	0.017013
1164.579964	0.014668
1164.733388	0.001827
1164.886794	0.009219
1165.040182	0.018622
1165.193551	0.015285
1165.346903	0.008988
1165.500236	0.002501
1165.653551	0.010805
1165.806848	-0.013166
1165.960126	-0.008745
1166.113386	-0.001469
1166.266628	-0.011441
1166.419852	-0.023407
1166.573058	-0.016793
1166.726245	-0.009112
1166.879414	0.010730
1167.032565	-0.001274
1167.185698	-0.006147
1167.338812	-0.007111
1167.491909	-0.001191
1167.644987	0.015260
1167.798046	-0.005670
1167.951088	0.000568
1168.104111	0.003646
1168.257117	0.011108
1168.410103	0.015483
1168.563072	0.035844
1168.716023	0.040321
1168.868955	0.036709
1169.021869	0.034207
1169.174765	0.061161
1169.327642	0.039308
1169.480501	0.033896
1169.633343	0.022730
1169.786165	0.024357
1169.938970	0.010686
1170.091757	0.017630
1170.244525	0.017046
1170.397275	0.020876
1170.550007	0.009123
1170.702720	0.014863
1170.855415	-0.006159
1171.008092	-0.027425
1171.160751	-0.047845
1171.313392	-0.048895
1171.466014	-0.107066
1171.618619	-0.120850
1171.771205	-0.120850
1171.923772	-0.120850
