sample name	sample
index	733
start time	 03-25-2021  03:24:54 PM
880	0.008353
Peak Time (s)	90.536
Peak Height 	0.008353
calc peak height	90,93
Baseline Time (s)	9.037
Baseline Value 	-0.003262
subtract baseline	10,4
Abs	-0.005137
Peak Time (s)	90.037
Peak Height 	-0.005137
calc peak height	90,93
Baseline Time (s)	9.537
Baseline Value 	0.002133
subtract baseline	10,3
PK_550	0.000707
Peak Time (s)	92.035
Peak Height 	7.0712E-4
calc peak height	90,93
Baseline Time (s)	11.034
Baseline Value 	7.3214E-4
subtract baseline	10,2
PK_880	-0.001825
Peak Time (s)	92.538
Peak Height 	-0.001825
calc peak height	90,93
Baseline Time (s)	10.034
Baseline Value 	0.001438
subtract baseline	10,1


Time (s)	A880-A510	A880-A775	A880-A975	A880	I510	I775	I975	I880	
0.036500	-0.005329	-0.000490	-0.007161	0.008140	7065.221826	43483.445550	3928.012202	23220.379586
0.537000	-0.001446	-0.000068	0.000906	0.004724	7135.874381	43843.493931	3956.399016	23380.915660
1.034500	-0.000840	-0.000021	-0.000015	0.004327	7145.671780	43885.322497	3955.086604	23399.661182
1.536500	-0.000889	-0.000352	-0.001034	0.002178	7166.272536	44057.139887	3957.917753	23501.412037
2.035000	-0.004236	-0.000150	-0.006435	0.007683	7080.127961	43558.010441	3930.902101	23241.788303
2.535000	-0.000511	-0.000205	-0.002974	0.001574	7175.941177	44128.335174	3954.571121	23530.090818
3.036000	0.000022	-0.000461	-0.000232	-0.001708	7213.695608	44416.409002	3969.741736	23686.645173
3.536500	0.001607	0.000278	-0.000748	0.000524	7207.267519	44274.021322	3962.796032	23580.047668
4.036500	0.000151	0.000092	-0.000594	0.001049	7187.639912	44206.323668	3961.859947	23555.029642
4.534000	-0.001024	-0.000631	0.001194	-0.000277	7189.139508	44263.706752	3969.727535	23618.221041
5.037000	0.001211	-0.000331	0.000633	0.000303	7205.530515	44237.104815	3966.837635	23590.562235
5.535000	-0.000394	-0.000918	0.000647	-0.000268	7195.289379	44235.644667	3968.319483	23617.826321
6.035000	-0.001306	-0.000896	-0.005909	-0.000697	7190.502786	44278.490190	3952.913624	23638.302896
6.535000	0.000701	0.000241	-0.002002	0.000544	7198.081549	44268.622016	3959.590053	23579.086953
7.035500	0.002222	0.000155	-0.004798	0.000709	7211.537644	44244.680493	3952.175291	23571.224569
7.535500	-0.000354	0.000081	-0.002762	0.000397	7189.102007	44267.360208	3958.052089	23586.093968
8.036500	-0.000542	-0.000641	0.002999	-0.000114	7192.291076	44247.280261	3973.900927	23610.455937
8.536500	-0.000950	-0.000593	-0.002660	-0.000634	7193.404940	44301.339170	3960.897577	23635.281449
9.037000	0.000802	-0.000379	0.000337	0.000000	7204.474904	44261.368735	3966.857105	23605.025542
9.537500	0.001940	0.000302	0.000000	0.000475	7211.060507	44280.963962	3964.806204	23582.394949
10.034500	0.000000	-0.000235	-0.001245	-0.000049	7197.015512	44279.770802	3962.986795	23607.363407
10.535000	0.000486	0.000020	0.001772	-0.000008	7201.424475	44300.139106	3970.513722	23605.419056
11.034500	-0.000779	0.000000	0.004647	0.000045	7188.380397	44293.192987	3977.697820	23602.889244
11.535500	-0.000823	0.000924	-0.002580	0.000736	7181.122394	44315.379706	3957.658462	23569.956248
12.038500	0.000889	-0.000738	0.000700	-0.000720	7212.483520	44295.700158	3969.599361	23639.387242
12.535500	0.001415	-0.000168	-0.000025	-0.000206	7212.615588	44301.169997	3966.464751	23614.876766
13.036500	0.000870	0.000467	-0.000889	0.000034	7204.820516	44338.728421	3963.675156	23603.418272
13.537000	-0.000008	-0.000192	-0.004306	0.000134	7195.124255	44266.439365	3954.843477	23598.645439
14.036500	-0.002650	-0.000958	-0.000872	0.001955	7151.176228	44020.853213	3958.884254	23511.974309
14.537500	-0.002212	-0.000793	0.001021	0.003552	7139.838717	43885.698031	3959.628440	23436.313108
15.062000	0.000634	-0.000084	0.000100	0.000534	7197.525457	44238.657818	3964.909814	23579.583796
15.535000	-0.001517	0.000151	-0.003622	0.000128	7180.281166	44299.714500	3956.571825	23598.942726
16.038000	-0.000204	-0.000697	-0.002187	-0.000214	7196.634375	44251.447735	3961.029968	23615.241555
16.536000	-0.001839	0.000665	0.002061	0.004053	7138.581865	43976.001627	3960.982027	23412.595855
17.036000	0.002017	0.000545	0.001347	-0.002520	7241.688164	44590.444659	3975.821468	23725.587435
17.536000	0.000217	-0.000405	-0.005351	-0.000414	7202.786073	44298.280261	3953.598680	23624.777956
18.036500	-0.001440	0.000425	0.004633	0.001887	7163.721775	44158.449959	3972.965979	23515.227856
18.536500	-0.000595	0.000086	-0.000347	0.001934	7171.565762	44121.849019	3960.255796	23512.994941
19.037000	-0.000519	-0.000099	-0.003840	0.001098	7180.554543	44183.582153	3953.597252	23552.727568
19.534500	-0.000931	-0.000040	-0.004608	0.001387	7173.637557	44161.726491	3950.958226	23538.966343
20.035000	0.000346	0.000269	0.000251	0.001359	7186.518390	44193.763147	3963.209937	23540.315522
20.535500	-0.001546	-0.000530	-0.000211	0.001846	7163.078279	44071.763051	3960.819375	23517.154701
21.035000	-0.001118	0.000963	0.006521	0.001482	7170.861049	44248.091625	3978.813393	23534.455755
21.536000	-0.000467	-0.000171	-0.004350	0.001084	7181.202535	44178.080984	3952.359668	23553.396082
22.036000	-0.000891	0.000583	0.001826	0.001624	7171.705785	44198.394924	3966.516978	23527.722869
22.536000	-0.002607	-0.000943	-0.002287	0.002419	7147.054673	43978.438193	3954.176443	23489.975439
23.036500	0.000355	-0.000567	-0.004499	0.001011	7190.041855	44147.441012	3952.169731	23556.880141
23.536500	0.000124	-0.000016	-0.003925	0.001265	7185.252249	44175.617942	3952.967348	23544.777412
24.037000	-0.001649	0.000522	0.002301	0.001449	7165.960126	44209.244551	3968.160049	23536.011075
24.537500	-0.000051	0.000514	0.000926	0.001364	7182.550644	44216.624724	3964.898539	23540.084652
25.035000	0.001419	-0.000170	0.004647	0.001463	7196.094094	44142.181654	3974.081999	23535.377847
25.534500	-0.000714	-0.000708	-0.001940	0.000743	7182.131364	44159.518278	3959.246466	23569.624882
26.038000	-0.000810	-0.000104	0.002775	0.000949	7179.156185	44197.292182	3970.629881	23559.818147
26.536000	-0.001871	-0.000108	-0.000055	0.002742	7151.100386	44026.910862	3958.959014	23474.655227
27.036000	-0.000245	-0.000073	-0.004628	0.001419	7180.087831	44155.634125	3950.829518	23537.467999
27.536500	0.002192	-0.000075	0.003284	-0.001778	7236.007180	44459.948793	3978.870801	23689.983314
28.036500	0.000179	-0.000411	-0.000190	0.000238	7195.946264	44235.674825	3964.925960	23593.687882
28.536500	0.000372	0.000087	0.003143	0.000538	7194.888824	44254.557346	3972.609395	23579.390709
29.037000	-0.000759	0.000038	-0.003535	0.000189	7187.162182	44283.077198	3956.636136	23596.033269
29.537500	-0.001032	-0.000254	0.000871	0.000917	7177.278367	44186.081176	3965.890138	23561.350905
30.038000	-0.000616	-0.000444	0.002102	0.000128	7189.167671	44243.017095	3971.005244	23598.904614
30.535000	-0.000356	0.000240	0.003928	0.000327	7189.769120	44289.084034	3975.141524	23589.413001
31.035500	-0.002335	-0.000067	-0.005250	0.002503	7148.900870	44053.387608	3946.586858	23485.990542
31.541500	-0.001874	-0.000080	0.000183	0.001373	7164.497093	44159.213588	3963.001599	23539.616870
32.036000	-0.000181	-0.000828	-0.001193	-0.000127	7195.994832	44230.757547	3963.315870	23611.100927
32.536000	-0.001549	0.000009	-0.002466	0.004809	7134.035250	43842.707048	3947.773420	23376.893546
33.037000	-0.000734	0.000171	0.000627	0.000415	7185.161090	44274.198515	3966.539889	23585.217810
33.537000	0.001147	0.000759	0.005084	0.000481	7203.126201	44323.914021	3977.698577	23582.098265
34.034500	-0.000903	-0.000259	0.001732	0.001766	7170.186278	44105.026633	3965.920796	23520.980567
34.538000	-0.001029	0.000394	-0.001099	0.001927	7167.355964	44151.711337	3958.385072	23513.306427
35.035000	-0.000809	-0.000111	-0.003012	0.001927	7169.531320	44103.777332	3953.594996	23513.321015
35.535500	-0.001783	-0.000716	-0.003953	0.001716	7162.019209	44066.399652	3951.772282	23523.323578
36.036000	-0.001358	0.000105	0.003099	0.002134	7162.094804	44104.579761	3968.447123	23503.486157
36.536000	-0.001855	-0.000751	-0.005694	0.002864	7150.063648	43954.543692	3944.589234	23468.869790
37.036500	-0.000728	-0.000369	-0.000251	0.002106	7168.564742	44062.422152	3960.064517	23504.828892
37.536500	-0.000778	0.000328	-0.001861	0.002015	7168.963024	44137.057924	3956.253112	23509.114268
38.036500	-0.001574	-0.000556	0.002117	0.001455	7166.651004	44106.334198	3967.681455	23535.758429
38.537000	-0.000663	-0.000106	-0.001430	0.001688	7173.313784	44126.962258	3958.155544	23524.676424
39.037500	-0.001162	0.000600	0.002028	0.002024	7165.105113	44162.036106	3966.015162	23508.724756
39.535000	0.000837	-0.000610	-0.000753	0.001440	7190.571168	44102.648222	3960.477440	23536.476421
40.035500	-0.000655	-0.000393	0.002237	0.001444	7175.795817	44122.887839	3968.011890	23536.268715
40.535500	-0.001261	0.000466	-0.000484	0.003792	7146.790981	43981.848392	3955.252648	23424.934174
41.035500	-0.000765	-0.000113	-0.003791	0.001304	7176.094343	44162.696865	3953.205139	23542.906879
41.536000	-0.000652	0.000146	-0.001246	0.001617	7174.127393	44157.577511	3958.795001	23528.046957
42.036000	-0.000005	0.000212	-0.001891	0.002035	7176.375823	44124.204725	3956.129294	23508.192299
42.537000	-0.000486	0.000190	-0.005912	0.003556	7156.705528	43978.103327	3942.339085	23436.126574
43.037000	-0.000922	-0.000954	-0.000816	0.001352	7174.072203	44078.360865	3960.540098	23540.631369
43.537500	-0.001049	0.001244	0.000786	0.002860	7157.999288	44143.788526	3960.776392	23469.049611
44.037500	0.003362	0.000200	0.001461	-0.002943	7259.415126	44597.931016	3977.190306	23745.886175
44.535000	-0.003726	-0.000785	-0.001185	0.003365	7126.893407	43904.028119	3954.567660	23445.163245
45.035000	-0.001560	0.000759	0.000567	0.001085	7170.424229	44266.431399	3964.697189	23553.357428
45.536000	-0.001487	-0.000249	-0.001585	0.003896	7143.566882	43904.534592	3952.242235	23420.035933
46.036000	0.001870	0.000705	0.001037	0.001134	7203.814708	44256.613324	3965.759485	23550.983255
46.536500	-0.002719	0.000168	0.002439	0.004249	7128.092698	43910.549704	3961.440792	23403.355748
47.036500	0.000901	0.000419	0.004999	0.000535	7200.152109	44286.401666	3977.342373	23579.507512
47.537000	-0.002742	-0.000335	0.001109	0.003816	7132.083715	43903.857335	3959.183808	23423.790569
48.037000	0.000583	-0.000615	-0.002196	0.000674	7195.629012	44174.814378	3958.775997	23572.898378
48.537500	-0.002835	-0.000153	-0.000002	0.003827	7131.077216	43920.048607	3956.371974	23423.305671
49.035000	-0.000264	-0.000304	0.003309	0.000477	7189.194796	44223.101413	3973.185592	23582.273609
49.535000	-0.000360	0.000266	0.005842	0.004074	7152.860858	43936.297924	3970.484045	23411.633544
50.035500	0.002990	0.000726	0.000987	-0.001117	7237.388986	44473.401392	3971.334027	23658.374464
50.536000	-0.003136	-0.000681	0.000851	0.005644	7110.476806	43699.287378	3953.959687	23337.563849
51.036000	-0.033339	-0.005876	0.007162	0.161283	5643.497572	31080.490285	3638.141255	17179.105837
51.536500	-0.072439	-0.015207	-0.010701	0.084954	5889.346568	35776.552507	3749.046405	19924.606401
52.037000	-0.057697	-0.016665	-0.003064	-0.053787	7157.992371	47989.252461	4101.971770	26336.191180
52.537000	-0.048561	-0.045590	-0.001398	-0.206237	9078.710320	62814.659412	4627.408370	36195.886563
53.037000	-0.034858	-0.026273	0.006585	-0.151488	8521.180011	58122.643796	4447.846838	32251.072092
53.534500	-0.024183	-0.022193	0.002005	-0.152375	8672.933526	58757.461906	4434.474218	32311.085436
54.035000	-0.019922	-0.030754	-0.000335	-0.181242	9130.798983	61430.085250	4533.107742	34333.166970
54.535500	-0.004260	-0.026997	-0.010307	-0.180952	9355.392266	61898.880714	4494.233472	34312.129510
55.035500	0.006130	-0.037426	-0.007460	-0.202993	9856.170347	63496.834467	4590.118714	35948.003146
55.536000	0.009668	-0.024371	-0.004717	-0.180092	9552.708180	62139.197034	4512.035832	34249.989698
56.036000	0.014342	-0.019444	-0.005009	-0.170009	9470.312372	61440.302700	4473.241504	33530.308724
56.536500	0.011162	-0.013633	-0.000421	-0.151877	9155.516747	59803.609284	4423.966244	32277.368093
57.036500	0.008320	-0.008993	-0.004142	-0.131703	8832.447231	57805.156957	4340.695994	30943.494088
57.536500	0.004885	-0.006492	-0.005701	-0.118860	8614.088060	56513.860980	4292.677030	30126.079050
58.037000	0.001637	-0.006883	-0.004472	-0.115628	8529.413880	56068.703650	4286.123972	29924.148874
58.534500	0.001225	-0.004894	-0.008234	-0.097649	8295.869713	54147.607366	4216.905820	28827.823400
59.035000	-0.000743	-0.002477	-0.008734	-0.073413	7979.721975	51637.942651	4142.251922	27420.016415
59.535500	-0.006487	-0.003374	-0.012640	-0.064294	7808.712406	50527.407311	4104.619213	26910.339550
60.035500	-0.011000	-0.004436	-0.008141	-0.059520	7704.782863	49891.924559	4103.834454	26647.720062
60.536000	-0.005688	-0.002907	-0.004134	-0.047485	7630.921378	48769.450254	4081.209932	25998.381007
61.036000	-0.007117	-0.002345	-0.006093	-0.038223	7515.805910	47860.284128	4050.277477	25510.796199
61.536000	-0.004421	-0.002072	-0.003962	-0.027897	7435.356895	46832.141585	4028.189026	24979.310732
62.037000	0.002287	0.001597	-0.013313	-0.018098	7403.167140	46216.740192	3978.163126	24486.485096
62.537000	0.001616	0.002572	-0.007942	-0.018138	7396.630649	46318.100454	3992.075053	24488.488347
63.037500	0.000308	0.001958	-0.006078	-0.016301	7364.164503	46073.868157	3992.147024	24397.337968
63.534500	-0.004536	0.000663	-0.010190	-0.011342	7264.448563	45457.020128	3968.922188	24153.151736
64.035500	0.000107	0.001988	-0.007352	-0.013468	7333.053977	45796.289479	3981.570987	24257.482240
64.536000	-0.001917	0.001438	-0.011191	-0.007507	7252.235287	45158.336818	3956.734788	23966.201354
65.035500	-0.000749	0.000997	-0.003850	-0.010562	7294.792171	45413.311843	3983.097763	24114.961339
65.536500	0.000476	0.001542	-0.009641	-0.009288	7294.296950	45342.087204	3965.113350	24052.804350
66.036500	-0.002600	0.000783	-0.002419	-0.008787	7258.226803	45219.231085	3982.215402	24028.423286
66.537000	-0.000841	0.000973	-0.008933	-0.008121	7269.221963	45172.892379	3963.955706	23996.026598
67.037000	-0.000625	0.002147	-0.001954	-0.006951	7259.622889	45173.222484	3978.706409	23939.226881
67.537500	-0.004032	0.001007	-0.010639	-0.001186	7168.447545	44506.849124	3942.375974	23661.668055
68.035000	0.001127	0.002380	-0.002003	-0.005221	7259.840483	45027.834928	3974.166897	23855.541309
68.535500	-0.002816	0.001645	-0.010337	-0.001195	7180.503899	44568.879513	3943.143673	23662.080670
69.035500	0.001474	0.002006	-0.000922	-0.004909	7260.202351	44961.530589	3976.128234	23840.523379
69.535500	-0.002313	0.001431	-0.014266	-0.000072	7174.397607	44440.863646	3930.714574	23608.441527
70.036000	0.000862	0.002257	-0.010827	-0.005087	7255.828567	45002.965383	3951.593242	23849.071448
70.536000	-0.002588	0.001235	-0.007247	-0.000950	7180.339221	44506.085257	3950.205089	23650.367307
71.036500	0.002065	0.001970	-0.005141	-0.004690	7263.934319	44936.785574	3964.867365	23829.958220
71.534500	-0.001601	0.002174	-0.006911	-0.000710	7187.723610	44573.131802	3950.446942	23638.935796
72.037000	0.002579	0.000927	-0.006568	-0.005684	7279.120798	44931.988030	3963.773206	23877.898315
72.535000	0.000877	0.001005	-0.003752	-0.005427	7259.392695	44914.646737	3970.245273	23865.480373
73.035000	0.000404	0.000929	-0.007265	-0.005749	7257.884996	44938.481198	3962.180020	23881.050075
73.535500	-0.003679	0.001623	-0.009718	0.000618	7154.192021	44393.333831	3940.193818	23575.565958
74.035500	-0.000201	0.000778	-0.007702	-0.005172	7246.025831	44868.112693	3959.630247	23853.181364
74.536000	-0.001164	0.001569	-0.006518	0.000920	7175.940732	44359.275767	3947.368914	23561.183327
75.036000	-0.001158	0.000322	-0.007907	-0.004941	7234.147001	44801.780228	3958.535039	23842.031139
75.536500	-0.003119	0.000907	-0.009143	0.001635	7149.720210	44228.233200	3939.104101	23527.206748
76.036500	-0.001851	0.001317	-0.002227	-0.003371	7211.613141	44746.525870	3968.901308	23766.454884
76.537500	-0.002531	0.001228	-0.007648	0.002185	7150.093886	44206.469018	3941.437341	23501.088643
77.035000	-0.000942	0.001374	-0.005574	-0.002234	7209.338227	44642.581660	3957.598506	23711.862877
77.535000	-0.003054	0.000942	-0.008113	0.002891	7138.073057	44112.287970	3938.547666	23467.610588
78.035500	-0.000951	0.000771	-0.005537	-0.001977	7206.701792	44560.090845	3957.045083	23699.534029
78.535000	-0.003308	0.001401	-0.006474	0.003802	7126.709113	44069.378928	3940.344095	23424.492261
79.036000	-0.000934	0.000757	-0.001541	-0.001292	7200.078391	44493.127211	3965.376686	23666.751410
79.536000	-0.003338	0.001280	-0.009545	0.002882	7135.385830	44145.073478	3935.044388	23467.995708
80.036500	0.001581	0.002860	-0.010158	0.001181	7200.499697	44457.753379	3937.722334	23548.790078
80.536500	-0.003694	0.002197	-0.005492	0.004611	7115.080290	44068.090790	3940.768586	23386.239509
81.036500	-0.000228	0.001402	-0.006667	0.000672	7187.628301	44367.038836	3947.614296	23572.987807
81.537000	-0.006071	0.000843	-0.010517	0.005951	7079.132084	43813.662925	3925.167678	23323.103070
82.037000	-0.000269	0.001244	-0.004895	0.001449	7179.558617	44277.976740	3950.090583	23536.030597
82.535000	-0.002577	0.000532	-0.008967	0.006572	7106.898201	43726.136197	3927.431805	23293.922092
83.035500	-0.001032	0.001381	-0.004602	0.002371	7162.973286	44203.243098	3948.525352	23492.244243
83.535500	0.000690	0.001631	-0.004848	0.002540	7178.253097	44210.932026	3947.494161	23484.229892
84.035500	-0.003511	0.000818	-0.007867	0.002318	7139.206635	44154.784583	3940.566858	23494.750562
84.536000	-0.004988	0.001135	-0.007544	0.008182	7068.092507	43631.590529	3926.976948	23218.428231
85.036500	-0.003570	0.000574	-0.003580	0.003254	7129.492044	44042.936642	3948.870505	23450.400973
85.537000	-0.005939	0.000134	-0.014297	0.007432	7066.157425	43608.048947	3912.444585	23253.535539
86.037000	-0.003437	0.000499	-0.004161	0.003199	7131.325097	44041.020411	3947.563051	23453.003915
86.534500	-0.001736	0.001055	-0.005208	0.003622	7143.802115	44053.622516	3943.916864	23432.976684
87.034500	-0.004818	0.000346	-0.008946	0.003136	7118.495995	44032.590358	3935.893010	23455.988152
87.535000	-0.006748	0.000829	-0.010883	0.008322	7049.883713	43589.782379	3918.529721	23211.855010
88.035500	-0.002588	0.000921	-0.006138	0.003561	7136.084960	44046.721276	3941.766727	23435.875586
88.535500	-0.003311	0.000603	-0.010067	0.003772	7126.968458	43996.671014	3931.584834	23425.898441
89.036000	-0.002234	0.000668	-0.010858	0.003427	7140.846255	44035.470188	3930.492104	23442.195941
89.536000	-0.005996	0.000141	-0.009712	0.008068	7059.515940	43549.147725	3921.981840	23223.746934
90.036500	-0.003025	0.000344	-0.005137	0.003720	7130.264051	43977.115869	3943.849696	23428.350433
90.536000	-0.006029	-0.000232	-0.010667	0.008353	7056.466500	43487.702838	3918.977211	23210.412765
91.037500	-0.003240	0.000304	-0.009909	0.003502	7130.297698	43993.984655	3932.633307	23438.665621
91.539500	-0.004900	0.000053	-0.015866	0.007667	7073.889699	43578.529021	3908.118368	23242.560201
92.035000	-0.004462	0.000707	-0.008765	0.003948	7114.070431	43989.923658	3934.344752	23417.587552
92.538000	-0.001825	-0.000026	-0.006895	0.003535	7143.787441	43959.599856	3939.961140	23437.086479
93.035500	-0.003405	-0.000306	-0.006078	0.002981	7133.767308	43985.567309	3943.349998	23463.340671
93.560500	-0.004142	-0.000352	-0.008335	0.005851	7098.725352	43710.774051	3930.737641	23327.838028
94.036000	-0.003625	0.000258	-0.005767	0.003429	7127.253890	43996.454472	3943.010250	23442.101883
94.541000	-0.002844	0.000135	-0.002976	0.003728	7131.947101	43956.593041	3949.193504	23427.970935
95.036500	-0.003023	0.000042	-0.010358	0.003685	7130.621966	43951.840321	3931.083999	23429.990760
95.540500	-0.002727	-0.000064	-0.011690	0.006218	7108.876318	43703.399626	3921.671992	23310.564439
96.038000	-0.005347	-0.000573	-0.009620	0.003030	7114.391635	43955.721929	3934.499676	23461.018266
