sample name	sample
index	1298
start time	 04-29-2021  03:36:28 PM
880	0.085798
Peak Time (s)	101.535
Peak Height 	0.0858
calc peak height	100,103
Baseline Time (s)	11.536
Baseline Value 	-0.003199
subtract baseline	10,4
Abs	0.037520
Peak Time (s)	102.034
Peak Height 	0.03752
calc peak height	100,103
Baseline Time (s)	10.037
Baseline Value 	4.474E-4
subtract baseline	10,3
PK_550	0.026593
Peak Time (s)	100.537
Peak Height 	0.02659
calc peak height	100,103
Baseline Time (s)	9.537
Baseline Value 	2.1083E-4
subtract baseline	10,2
PK_880	0.029419
Peak Time (s)	101.04
Peak Height 	0.02942
calc peak height	100,103
Baseline Time (s)	8.539
Baseline Value 	4.4905E-4
subtract baseline	10,1


Time (s)	A880-A510	A880-A775	A880-A975	A880	I510	I775	I975	I880	
0.036500	-0.005051	-0.000247	-0.004984	0.007929	6255.084235	40681.143235	3854.240286	20763.500033
0.534000	-0.002137	-0.000077	-0.006240	0.004369	6304.006705	41005.825328	3858.940350	20909.732794
1.034500	-0.000005	-0.000014	-0.000224	0.003713	6325.298191	41068.779326	3872.699678	20936.827140
1.535000	-0.001864	-0.001031	-0.000694	0.001013	6331.750836	41216.391941	3877.345279	21048.710590
2.034500	-0.002969	0.000970	0.003193	0.008294	6267.981620	40755.069541	3870.281832	20748.544214
2.535000	0.000376	0.000607	0.001715	0.001957	6341.708862	41277.438351	3880.408882	21009.485690
3.035500	-0.001642	-0.000311	0.000352	-0.001357	6351.705576	41488.996780	3884.507515	21147.500817
3.536000	-0.000469	-0.000908	0.000082	0.001880	6335.799118	41151.031699	3877.152260	21012.681069
4.038500	-0.000874	-0.000060	0.002269	0.004036	6316.174772	41036.479582	3877.218447	20923.473626
4.537000	0.000862	0.000304	-0.003114	0.001139	6351.768275	41322.858483	3872.041062	21043.459175
5.037000	-0.001246	0.000651	0.000601	0.001804	6330.419822	41294.797002	3878.397436	21015.835442
5.534500	0.000144	-0.000356	0.001317	0.001097	6346.551582	41268.448156	3881.378912	21045.222475
6.035000	0.000505	0.000203	-0.004571	0.001332	6347.524632	41296.946676	3868.621477	21035.435828
6.535000	-0.000187	0.000684	-0.001718	0.000769	6346.530930	41389.082256	3875.717527	21058.862019
7.035500	0.000867	-0.000235	-0.003604	-0.000017	6360.749941	41377.297961	3873.426736	21091.568024
7.536000	-0.001063	-0.000231	-0.000386	0.001202	6336.444095	41270.101683	3877.592606	21040.828501
8.036000	0.003424	0.000152	-0.001922	0.000404	6377.325587	41374.243813	3876.051491	21074.028042
8.539000	0.000000	-0.000223	0.002159	-0.000006	6353.958206	41377.390631	3885.468611	21091.126409
9.036500	0.001462	0.000248	-0.002434	0.000431	6361.889004	41380.416929	3874.928637	21072.925672
9.536500	0.000595	0.000000	-0.003138	0.000117	6357.603809	41386.211306	3874.116526	21085.998777
10.037500	0.001106	0.000653	0.000000	0.000249	6360.536645	41432.226297	3880.393854	21080.477869
10.541000	-0.000712	-0.000463	0.003135	-0.000215	6350.073466	41374.587907	3887.968567	21099.825129
11.035000	-0.001951	-0.000067	0.001933	-0.000126	6339.832379	41401.783531	3885.244935	21096.118953
11.535500	-0.001410	0.000074	-0.003114	0.000000	6343.032564	41403.025032	3874.409694	21090.861039
12.039000	-0.001296	-0.000155	0.003753	-0.000209	6345.515883	41401.242542	3889.262578	21099.563937
12.536500	-0.001191	0.000057	0.001228	-0.000045	6345.069032	41405.554176	3883.589762	21092.750101
13.036000	0.000780	-0.000075	0.003852	-0.000631	6364.831919	41445.676626	3890.364620	21117.160323
13.537000	-0.000670	0.000008	-0.007330	0.003736	6320.033226	41068.722526	3858.006986	20935.877164
14.037000	-0.000617	0.000136	0.002330	0.002260	6331.743375	41209.359578	3881.063883	20996.932173
14.537500	-0.002653	-0.000807	-0.002739	0.001782	6319.809406	41168.577504	3871.486210	21016.780606
15.051500	-0.000142	-0.000222	0.002461	-0.000332	6355.374252	41406.231781	3886.791765	21104.690339
15.571500	-0.000913	0.000365	0.003141	0.002544	6327.297751	41204.544748	3882.169162	20985.151576
16.043500	0.001284	0.000259	0.001661	0.000248	6361.928382	41397.528331	3883.884738	21080.539986
16.535500	0.000003	0.000350	0.005589	-0.000174	6355.277263	41442.838837	3893.081194	21098.129002
17.036000	0.001814	0.000606	0.004262	-0.001117	6376.637921	41549.055476	3892.265399	21137.480236
17.536000	-0.000675	0.001112	-0.001387	0.000244	6346.816165	41473.292370	3877.503352	21080.704585
18.036500	-0.001919	-0.000435	0.001029	0.000893	6332.244871	41279.404368	3881.200853	21053.684873
18.536500	-0.001883	-0.000046	0.000643	0.001574	6327.303334	41253.773044	3878.967607	21025.416301
19.037000	-0.000015	-0.000281	0.000307	0.001204	6344.500539	41265.599509	3879.037254	21040.757272
19.584000	0.001799	0.001087	-0.002796	0.001932	6352.887426	41321.949321	3871.056228	21010.555838
20.034000	-0.001889	0.000508	0.001137	0.001763	6325.802503	41285.885818	3879.606238	21017.561890
20.537000	-0.000903	0.000455	0.001710	0.001366	6336.421516	41316.143609	3881.639098	21034.038791
21.035500	-0.001225	-0.000754	-0.006684	0.000310	6342.067864	41302.693409	3866.369383	21077.961232
21.535000	-0.000530	-0.001104	0.004300	0.000736	6344.137436	41234.308848	3888.420635	21060.215590
22.035500	0.000288	-0.000367	0.002436	0.001495	6344.588091	41232.411202	3882.890884	21028.664258
22.536000	-0.001006	0.000387	-0.000176	0.001343	6335.805343	41312.205861	3877.736788	21034.983383
23.036000	-0.002118	-0.000783	-0.001579	0.000478	6333.902129	41285.313572	3876.612505	21070.944898
23.536500	-0.000793	0.000513	0.001484	0.001233	6338.285203	41333.032390	3881.442483	21039.563914
24.037000	-0.001254	0.000282	-0.000616	0.001358	6333.786859	41301.579973	3876.785917	21034.367155
24.534000	-0.001249	-0.000775	0.001711	0.000731	6338.644896	41263.720064	3882.973234	21060.429612
25.034500	-0.002465	-0.001393	0.000572	0.000355	6332.186125	41242.467537	3881.372457	21076.073705
25.535000	-0.000177	0.000275	0.002113	0.001727	6339.223123	41268.492504	3881.726630	21019.047272
26.035000	-0.000936	-0.001305	0.005279	0.000409	6343.528872	41245.414897	3891.186802	21073.835886
26.535500	-0.001693	-0.000182	0.000889	0.001007	6333.113570	41291.696473	3880.670789	21048.966665
27.036000	-0.001200	0.000036	0.000258	0.001870	6330.268780	41234.860897	3877.541825	21013.116934
27.538500	0.002328	0.000583	0.003451	-0.000967	6379.470853	41533.679193	3890.227650	21131.185055
28.037500	0.000480	0.000367	0.001259	0.000320	6355.144552	41400.713272	3882.887802	21077.542781
28.537000	0.001610	-0.000162	0.000766	-0.000304	6368.731777	41409.041609	3883.161140	21103.519841
29.037000	-0.001336	-0.000055	-0.002187	-0.000157	6344.811120	41405.537422	3876.669914	21097.406344
29.534500	-0.000229	0.000574	0.001417	0.000128	6351.153634	41435.912072	3883.622899	21085.537884
30.035000	0.000861	-0.000597	0.005238	0.000432	6357.220646	41305.722545	3891.048850	21072.855558
30.535500	-0.000074	-0.000048	0.002837	0.000027	6353.130565	41389.885307	3886.828051	21089.738673
31.038000	0.000445	0.001084	0.003743	0.003163	6332.970731	41213.308184	3882.132944	20959.535936
31.536000	0.000546	0.000353	0.003913	0.002476	6339.026280	41209.457028	3883.933126	20987.975399
32.036500	0.002191	0.001058	0.001508	0.001428	6359.814491	41363.901686	3881.084694	21031.477908
32.537000	0.003183	0.000739	0.002368	0.000849	6371.995354	41386.803254	3884.107501	21055.509442
33.037500	0.000109	0.000186	0.000053	0.000259	6352.746958	41390.065924	3880.484760	21080.070248
33.537000	-0.000092	-0.000784	0.000492	-0.002321	6371.177546	41532.473691	3886.832872	21187.810390
34.122500	-0.001654	-0.000090	-0.000165	0.002417	6322.592535	41175.702427	3875.519104	20990.429103
34.534500	-0.002989	-0.000049	0.002067	0.001492	6319.461126	41260.643449	3882.122582	21028.806959
35.038000	-0.001325	0.000389	0.005070	0.002013	6328.207015	41253.366840	3887.349250	21007.174749
35.535000	-0.000988	0.000616	-0.005312	0.002237	6329.079864	41253.684365	3865.224512	20997.910668
36.038000	-0.001064	-0.001081	0.003727	0.000946	6338.412182	41217.896657	3886.766443	21051.495064
36.537000	-0.001155	0.000263	0.002672	0.001977	6329.784972	41245.419273	3882.373592	21008.652157
37.171000	-0.001971	-0.000375	-0.004197	0.000988	6331.113665	41276.290180	3870.107749	21049.727105
37.537000	-0.000892	-0.000217	-0.002066	0.001422	6336.066318	41251.991104	3873.630943	21031.687423
38.094500	-0.001341	0.000503	-0.003971	0.002096	6327.449287	41256.047450	3868.282779	21003.720676
38.537500	-0.001600	-0.000201	0.000261	0.001172	6332.552340	41275.453730	3879.007956	21042.095591
39.117500	-0.001083	-0.000063	-0.002591	0.001622	6333.068312	41248.001555	3872.126270	21023.406405
39.538000	-0.001407	0.000177	-0.003641	0.001671	6330.210231	41264.789701	3869.846891	21021.375512
40.110000	-0.002111	0.000106	0.000798	0.001182	6328.554603	41301.546117	3880.111807	21041.671031
40.535500	-0.000807	-0.000625	0.002674	0.001190	6338.511543	41236.618301	3884.035152	21041.364448
41.036000	0.000440	0.000613	-0.004101	0.001675	6344.379043	41302.843080	3868.885640	21021.222821
41.539000	-0.000084	0.000277	0.002004	0.001873	6338.818814	41255.758617	3881.189733	21012.979227
42.036500	-0.001936	-0.000485	-0.001826	0.000888	6332.153614	41275.410993	3875.243288	21053.887675
42.536500	-0.001916	0.000213	0.003466	0.001218	6329.769261	41307.835450	3885.640887	21040.164080
43.037500	-0.000201	0.000012	-0.001415	0.001016	6344.515707	41308.004458	3875.833531	21048.589938
43.537500	0.000789	0.000624	0.003893	0.002414	6341.366808	41238.705828	3884.022534	20990.537512
44.040500	0.001852	0.000165	0.000058	-0.003003	6391.645293	41677.368873	3887.358494	21216.430935
44.538000	-0.000934	0.000266	-0.000663	-0.000746	6352.453175	41486.017431	3881.090099	21121.968740
45.085000	0.001564	0.000758	0.002924	0.000193	6364.523166	41446.464205	3886.661491	21082.816458
45.536000	-0.000827	0.000943	-0.000700	0.001805	6333.628456	41320.470789	3875.678762	21015.820854
46.036000	0.002198	0.000283	0.000507	-0.000016	6371.062029	41422.892704	3882.012207	21091.510665
46.536000	0.003782	0.000848	0.001982	0.000375	6380.345481	41438.399450	3884.294133	21075.263062
47.037000	0.000624	0.000683	-0.000574	0.000075	6358.148537	41450.204216	3879.554700	21087.718154
47.546000	-0.001990	0.000121	-0.003425	0.004181	6306.547239	41039.592636	3865.104825	20917.467278
48.037000	0.001806	0.000862	0.004386	0.002784	6346.360619	41227.133131	3884.280758	20975.229781
48.579500	-0.000801	0.000286	-0.000000	0.000371	6344.860924	41388.956150	3880.137197	21075.397821
49.043500	-0.000664	0.001045	0.000309	-0.000049	6349.163412	41493.307480	3881.668104	21092.907184
49.538000	-0.003661	-0.000400	-0.003152	0.005506	6283.799686	40878.385130	3862.939952	20862.875088
50.038500	-0.000376	0.000155	0.004162	-0.000069	6351.540502	41416.329479	3889.832233	21093.744237
50.536500	0.001845	0.000639	0.004426	-0.002098	6384.518124	41639.010272	3894.698497	21178.473844
51.036000	0.002196	-0.000449	0.000650	0.004281	6337.830744	40981.027121	3873.333575	20913.347823
51.536500	-0.011020	-0.027766	0.018519	0.361993	4419.395020	18673.076755	3383.199215	10858.002023
52.037000	-0.023207	-0.023848	-0.022031	0.189941	5052.108886	26484.160452	3529.225844	14680.276920
52.606500	-0.045909	-0.034352	-0.033995	-0.131785	7087.751932	51043.956200	4110.887297	27506.176748
53.040000	-0.051628	-0.049964	-0.030075	-0.221635	7962.057960	59993.277956	4385.771627	33139.900861
53.538000	-0.038079	-0.039518	-0.023985	-0.196541	7831.828051	58104.332935	4325.166093	31447.476991
54.035500	-0.026614	-0.024328	-0.005081	-0.132858	7284.151962	52286.427156	4192.424552	27566.785062
54.535500	-0.017709	-0.028233	0.002591	-0.194064	8035.157419	59232.462676	4402.476075	31285.653265
55.038000	-0.012560	-0.019011	0.002983	-0.141239	7511.411621	53864.573350	4239.592484	28045.586509
55.536000	-0.017161	-0.014264	-0.006539	-0.113559	7188.065171	51250.247983	4135.389463	26498.805462
56.080000	-0.010880	-0.011788	-0.005217	-0.132992	7443.673473	53744.873827	4192.422899	27574.403615
56.539000	-0.001398	-0.005921	0.000997	-0.112869	7336.057863	52107.405411	4153.899051	26461.489000
57.037000	-0.002268	-0.003131	-0.001160	-0.090880	7113.605399	49985.395629	4089.887892	25302.933736
57.539500	-0.001460	-0.000933	-0.002749	-0.077363	6994.902482	48777.638314	4051.615210	24619.308153
58.037500	0.004529	0.000994	0.002775	-0.077350	7050.279623	48979.587427	4065.420963	24618.630679
58.537500	0.001064	-0.000607	0.002114	-0.071948	6968.374541	48244.729749	4050.240656	24351.342314
59.035000	0.004024	-0.000402	0.003371	-0.061962	6904.654338	47237.990778	4028.748903	23865.886190
59.535000	-0.000153	-0.000590	0.000106	-0.040632	6681.787238	45101.322438	3970.471204	22865.601115
60.035500	0.004130	-0.001399	0.015061	-0.033169	6654.903654	44307.748420	3987.876339	22527.053337
60.539000	0.004789	0.000833	0.005380	-0.021107	6560.132561	43384.153442	3938.184180	21992.070905
61.036000	0.006267	0.001300	0.014466	0.014081	6294.059845	40284.065040	3881.723102	20513.550712
61.536500	0.000773	-0.001275	0.012751	0.036522	6088.695986	38199.258291	3832.412537	19631.325693
62.036500	0.001078	-0.001015	0.014540	0.025100	6173.297733	39157.890532	3859.040121	20074.665027
62.537000	0.001952	-0.003835	0.021925	0.042536	6054.465613	37511.845888	3838.707595	19402.523776
63.034500	0.000070	-0.004679	0.025301	0.045546	6020.229755	37207.318230	3839.439456	19289.202832
63.534500	-0.005557	-0.004034	0.018995	0.067938	5831.376274	35538.442459	3783.861788	18470.381340
64.035000	-0.005078	-0.006387	0.020296	0.081003	5750.429369	34404.858754	3762.119626	18011.776571
64.535500	-0.009882	-0.006115	0.027457	0.099825	5604.667124	33093.331949	3741.141704	17374.866052
65.036500	-0.005654	-0.005471	0.024796	0.108326	5579.142421	32554.434090	3721.580183	17096.121927
65.535000	-0.006601	-0.004036	0.024652	0.117684	5518.604962	32020.812855	3705.320676	16795.516470
66.070500	-0.000303	-0.001350	0.028774	0.119885	5542.500322	32053.215908	3708.579553	16725.759464
66.542000	-0.002631	0.001373	0.024836	0.122805	5511.933141	32040.072356	3697.013414	16633.763156
67.037000	0.002458	0.002238	0.032663	0.121485	5549.316119	32186.375482	3712.482310	16675.274846
67.537000	0.002949	0.003271	0.029334	0.121597	5551.542019	32248.194750	3706.623844	16671.731649
68.035000	0.001789	0.005340	0.016948	0.117595	5568.313224	32659.459234	3692.545959	16798.356111
68.535000	0.002075	0.005885	0.021440	0.112392	5601.007736	33054.081673	3708.850928	16964.725656
69.035000	0.003974	0.006265	0.018259	0.106744	5646.648991	33473.689527	3713.058799	17147.596412
69.535500	-0.002339	0.007423	0.022313	0.108225	5599.527953	33450.988187	3717.470740	17099.385678
70.039000	0.004220	0.008917	0.026575	0.095668	5716.616843	34451.081864	3746.975451	17513.153346
70.536000	0.002664	0.009440	0.029504	0.089195	5747.576427	34961.210809	3763.973894	17731.167420
71.036500	0.007814	0.011225	0.026068	0.084153	5812.877996	35466.969179	3766.914815	17903.250029
71.536500	0.008182	0.011499	0.018496	0.084167	5815.173019	35486.430593	3753.120922	17902.767353
72.037500	0.010541	0.012465	0.017446	0.074972	5891.137971	36254.543026	3767.940824	18221.755116
72.534500	0.012733	0.013865	0.019450	0.071626	5928.278452	36619.516155	3777.827966	18339.532443
73.034500	0.012058	0.013747	0.022235	0.069064	5941.038333	36809.053943	3787.831421	18430.308800
73.535500	0.014739	0.015389	0.019487	0.067191	5972.061949	37083.514386	3786.187145	18497.022912
74.036500	0.013713	0.015277	0.018821	0.064521	5983.345407	37284.654259	3789.960523	18592.634578
74.538500	0.015556	0.016665	0.027182	0.063723	6001.562056	37457.454878	3807.430571	18621.319828
75.037000	0.013755	0.016800	0.023146	0.062751	5995.831368	37545.328007	3801.546423	18656.333796
75.536000	0.014495	0.015722	0.020411	0.067821	5966.088023	37060.218827	3786.739741	18474.564295
76.036500	0.015550	0.016916	0.021051	0.061408	6017.577510	37661.450264	3800.108385	18704.844766
76.536500	0.016791	0.017486	0.025503	0.061986	6022.185342	37660.739425	3807.541549	18683.934548
77.037500	0.017055	0.017489	0.021767	0.062150	6022.886547	37647.935317	3800.057071	18678.020577
77.537500	0.015044	0.017906	0.025164	0.069625	5957.521882	37090.067485	3792.303231	18410.404841
78.040000	0.018653	0.018789	0.022080	0.064428	6018.150994	37570.085234	3796.311406	18595.981648
78.535000	0.019042	0.018632	0.024037	0.065060	6016.457717	37507.435815	3798.835185	18573.285844
79.036500	0.015493	0.018674	0.019583	0.065737	5987.229999	37457.001615	3789.103949	18549.019170
79.536000	0.013376	0.018049	0.019459	0.071414	5934.054992	36961.178400	3778.240442	18347.034072
80.036500	0.019924	0.019194	0.028113	0.067532	6005.431479	37356.193494	3801.902628	18484.876412
80.536000	0.017109	0.018631	0.027444	0.067153	5988.604295	37341.594079	3801.346640	18498.392180
81.037000	0.018203	0.019344	0.022221	0.067767	5991.907645	37349.411017	3790.251522	18476.475948
81.537000	0.015466	0.019091	0.022705	0.074370	5928.203994	36812.013168	3778.779973	18242.896112
82.034500	0.018590	0.020074	0.020850	0.069748	5980.939413	37250.721496	3783.946394	18406.032892
82.537500	0.019258	0.020666	0.022604	0.070131	5982.896680	37267.223134	3786.519233	18392.440359
83.035500	0.020172	0.020044	0.022376	0.069913	5990.690221	37235.367900	3786.499919	18400.170811
83.535500	0.016897	0.020705	0.018550	0.076545	5923.190814	36768.448732	3767.080101	18166.726428
84.038500	0.019737	0.021048	0.021863	0.070457	5983.951402	37271.597885	3784.514913	18380.872584
84.535500	0.020032	0.020979	0.028857	0.070576	5985.166652	37256.789032	3797.509243	18376.683855
85.036000	0.023276	0.022836	0.019948	0.071607	6000.422747	37321.903581	3778.789820	18340.186698
85.536500	0.016568	0.020875	0.024756	0.076883	5918.696720	36755.350756	3777.919027	18154.913677
86.036500	0.024062	0.022130	0.024284	0.070823	6011.297695	37328.050549	3788.378010	18367.919443
86.537500	0.022225	0.023430	0.024655	0.071867	5991.372551	37348.336839	3787.111352	18331.014214
87.035000	0.022090	0.022721	0.025626	0.071973	5989.716923	37283.975794	3788.740222	18327.280696
87.534500	0.019526	0.023232	0.020379	0.078660	5926.643527	36800.363750	3766.554703	18092.991438
88.035500	0.024408	0.023422	0.027727	0.072576	6001.552619	37291.716083	3791.567842	18306.009119
88.535500	0.023826	0.023859	0.024515	0.073134	5993.676319	37282.153716	3784.468935	18286.322282
89.036000	0.025378	0.024971	0.031970	0.074378	5995.802810	37271.783830	3796.196831	18242.601926
89.535500	0.021529	0.023671	0.025130	0.074380	5969.328377	37169.262890	3783.287175	18242.523144
90.036000	0.023810	0.024073	0.026997	0.073976	5987.765043	37232.679746	3787.549752	18256.723816
90.536000	0.028020	0.025804	0.022897	0.075300	6007.697796	37264.752511	3777.405196	18210.258266
91.034000	0.027701	0.025702	0.031708	0.075530	6003.899817	37238.589518	3793.513841	18202.220513
91.534500	0.026680	0.024354	0.026475	0.077225	5985.150743	36999.799008	3780.483448	18142.965289
92.038000	0.026845	0.024697	0.028220	0.075742	5996.512266	37142.909247	3786.528993	18194.793610
92.535000	0.031215	0.025699	0.028240	0.077255	6016.307268	37102.795622	3783.727228	18141.921461
93.038000	0.028744	0.024067	0.026655	0.076872	6001.826589	37004.895273	3781.479041	18155.277411
93.538500	0.025496	0.023910	0.031085	0.077177	5977.352014	36968.795935	3789.220848	18144.642857
94.038500	0.026865	0.025542	0.031599	0.079335	5971.940948	36927.735759	3786.125984	18069.551561
94.536500	0.027576	0.024935	0.035115	0.079000	5979.114808	36906.530968	3793.391761	18081.180733
95.039500	0.027389	0.024935	0.028383	0.079214	5976.362313	36889.823957	3780.333258	18073.751449
95.537000	0.027269	0.025447	0.026854	0.079814	5971.422357	36882.991895	3776.369874	18052.924795
96.039500	0.029582	0.025188	0.029299	0.080599	5981.912364	36801.768893	3779.459848	18025.754347
96.537500	0.028665	0.024111	0.035834	0.080526	5976.111713	36723.748026	3791.863712	18028.256305
97.035000	0.023795	0.024965	0.030169	0.080973	5939.870169	36755.341564	3780.382180	18012.794317
97.535000	0.023463	0.025137	0.035141	0.086189	5902.520245	36365.977328	3779.927770	17833.504815
98.038500	0.029258	0.025681	0.033751	0.082097	5969.416572	36723.731419	3784.981337	17973.995031
98.536000	0.029983	0.025038	0.032115	0.081498	5978.485987	36720.256125	3783.037128	17994.649052
99.039000	0.027201	0.026289	0.030315	0.081922	5956.566125	36784.480884	3778.886733	17980.019970
99.536500	0.026173	0.025932	0.028625	0.087399	5912.570319	36334.138281	3765.650480	17792.220626
100.039500	0.028295	0.026257	0.031060	0.082011	5963.421301	36775.068353	3780.109221	17976.952200
100.537000	0.025866	0.026593	0.036207	0.082234	5945.365031	36783.912631	3789.344890	17969.282512
101.040000	0.029419	0.026269	0.027383	0.081764	5972.796851	36795.175895	3773.738129	17985.472475
101.535000	0.026904	0.025299	0.032510	0.085798	5928.263333	36408.484580	3775.762193	17846.868105
102.034000	0.028409	0.026390	0.037520	0.081398	5968.390556	36833.079512	3793.406634	17998.130376
102.535500	0.028417	0.026469	0.035275	0.081173	5969.984868	36856.768019	3789.587725	18005.899360
103.038000	0.028167	0.026995	0.026238	0.081479	5966.184320	36873.929134	3772.150193	17995.337538
103.535500	0.029810	0.026951	0.042434	0.083553	5963.230782	36709.239194	3798.651790	17923.840489
104.036000	0.031663	0.027312	0.035471	0.080987	5993.571573	36936.984959	3790.307639	18012.338747
104.536500	0.028987	0.026836	0.033614	0.080509	5978.443496	36937.084459	3787.707379	18028.856653
105.036000	0.032012	0.027806	0.035418	0.081144	5994.887518	36963.236154	3789.911464	18006.890213
105.537000	0.025346	0.026835	0.038217	0.083992	5929.944703	36666.293805	3789.818372	17908.784112
106.077500	0.030027	0.027752	0.033526	0.079840	5990.194753	37061.068479	3788.801159	18052.034621
106.535000	0.028974	0.027300	0.037187	0.079637	5984.339950	37041.558872	3796.116511	18059.068040
107.037500	0.027153	0.027534	0.030674	0.080035	5969.125160	37028.721824	3783.080558	18045.283894
107.538500	0.029168	0.028392	0.037637	0.083538	5958.958878	36822.346305	3789.581184	17924.386450
108.041000	0.031284	0.027464	0.036015	0.079281	6002.735211	37082.377055	3794.567651	18071.443089
108.536000	0.028552	0.028209	0.037938	0.079760	5980.596716	37103.181813	3797.312473	18054.816683
109.036000	0.032292	0.027872	0.038160	0.079050	6011.318743	37132.447862	3799.089588	18079.458104
