sample name	sample
index	742
start time	 03-25-2021  03:51:06 PM
880	0.029892
Peak Time (s)	91.035
Peak Height 	0.02989
calc peak height	90,93
Baseline Time (s)	11.036
Baseline Value 	-0.005042
subtract baseline	10,4
Abs	0.041942
Peak Time (s)	90.535
Peak Height 	0.04194
calc peak height	90,93
Baseline Time (s)	8.537
Baseline Value 	0.005479
subtract baseline	10,3
PK_550	0.021373
Peak Time (s)	92.536
Peak Height 	0.02137
calc peak height	90,93
Baseline Time (s)	11.036
Baseline Value 	1.5576E-4
subtract baseline	10,2
PK_880	0.031961
Peak Time (s)	92.536
Peak Height 	0.03196
calc peak height	90,93
Baseline Time (s)	11.036
Baseline Value 	0.001051
subtract baseline	10,1


Time (s)	A880-A510	A880-A775	A880-A975	A880	I510	I775	I975	I880	
0.038000	-0.002137	0.000116	-0.006528	0.007783	7112.578642	43569.180083	3950.143257	23237.824907
0.535000	-0.001896	-0.000595	-0.003570	0.006361	7128.753684	43635.769428	3961.104572	23304.546572
1.035500	-0.002896	-0.000394	-0.002001	0.004598	7136.197216	43820.330026	3969.521899	23387.601139
1.538500	0.000392	-0.000571	-0.006848	0.002435	7189.739969	44007.692834	3962.735250	23489.911398
2.036000	-0.002933	0.000020	-0.006804	0.005747	7124.630302	43751.128131	3954.533474	23333.434892
2.536500	-0.000066	0.000383	-0.007002	0.002834	7181.270916	44060.211742	3961.343568	23470.987645
3.036500	-0.000306	-0.000372	-0.003106	-0.000859	7215.484490	44339.491958	3980.608841	23646.781332
3.537000	-0.001022	-0.000397	-0.007978	0.000663	7193.281567	44192.200751	3964.355857	23574.150484
4.035000	-0.001807	-0.000099	-0.005287	0.000636	7185.793617	44223.111227	3971.235530	23575.451653
4.535000	-0.000941	0.000474	-0.005895	0.001160	7189.162533	44227.717901	3968.362982	23550.485121
5.035000	-0.001043	-0.000033	-0.005292	0.000563	7194.062221	44236.339246	3971.408477	23578.918261
5.535000	-0.000497	0.000035	-0.002078	0.000363	7201.455257	44261.798596	3980.113187	23588.450666
6.036000	0.000145	-0.000007	0.001464	0.000206	7209.375876	44272.692296	3989.620387	23595.921340
6.536000	-0.000441	0.000737	-0.002562	0.000411	7201.530802	44324.157241	3978.751785	23586.172689
7.036000	0.001158	0.000268	-0.004974	0.000717	7214.364302	44250.352408	3971.825463	23571.589570
7.536500	0.001118	-0.000120	-0.004308	-0.000026	7221.358612	44284.080788	3975.408612	23606.993806
8.037000	-0.001600	-0.000606	-0.002117	-0.000717	7201.215725	44303.583839	3982.779273	23639.960972
8.537000	-0.000527	0.000377	0.000000	0.000273	7202.041290	44302.952890	3985.674956	23592.736402
9.034500	0.000944	0.000400	0.000086	0.000330	7216.086236	44299.745170	3985.750611	23590.016030
9.535000	-0.001232	-0.000053	-0.005362	-0.000229	7200.025080	44309.734066	3973.242398	23616.658893
10.035000	-0.000360	-0.000426	0.000232	-0.000683	7213.198707	44317.521067	3988.735926	23638.364441
10.535500	0.000291	-0.000692	0.000062	-0.000888	7221.714945	44311.693309	3988.826316	23648.165371
11.036000	0.000000	0.000000	-0.005877	0.000000	7209.982217	44293.024437	3971.352584	23605.746360
11.536000	0.001491	0.000542	-0.002694	0.000157	7223.254612	44329.727057	3979.063216	23598.273433
12.036500	-0.001604	-0.000112	-0.002779	-0.000229	7196.348498	44304.162090	3979.832947	23616.672489
12.537000	-0.002526	-0.000065	-0.002377	-0.000349	7188.412463	44320.125486	3981.170302	23622.404294
13.037000	0.000044	0.000120	-0.002262	0.000453	7205.921830	44261.353940	3979.410780	23584.168293
13.537500	0.001374	0.000442	-0.005912	0.000690	7216.786601	44269.401904	3969.512139	23572.869653
14.035000	0.000755	0.000443	-0.003192	0.003190	7185.866445	44032.167912	3970.070451	23454.137050
14.535500	-0.002743	0.000141	-0.006274	0.002361	7159.593649	44082.115653	3964.371867	23493.446536
15.035000	-0.004035	-0.000211	-0.007827	0.005133	7119.885954	43787.095210	3953.512353	23362.350013
15.535500	-0.000080	0.000601	-0.003001	0.000955	7199.713115	44259.303895	3976.240554	23560.244510
16.036000	0.000572	-0.000652	-0.001591	0.000325	7212.436532	44199.998702	3981.454760	23590.234413
16.536500	-0.000522	0.000121	-0.002628	0.000717	7197.688159	44236.221325	3977.799261	23571.552208
17.036500	-0.001253	-0.000271	-0.006974	0.002916	7168.776605	43990.612084	3961.207132	23467.116029
17.540000	-0.002559	-0.000234	-0.006105	0.001068	7174.103924	44169.137793	3968.063497	23554.849852
18.037500	-0.003018	-0.000354	-0.002907	0.002749	7153.085617	43998.481922	3971.911945	23475.025011
18.537500	-0.000856	-0.000387	-0.004301	0.000901	7192.565688	44170.469712	3973.066954	23562.804705
19.037500	-0.002372	-0.000108	-0.002919	0.002207	7164.742356	44073.107037	3973.259370	23500.739344
19.535500	-0.002575	0.000143	-0.007382	0.001642	7168.304557	44150.521235	3963.389201	23527.580679
20.035500	-0.000572	0.000135	-0.005107	0.001578	7188.684506	44155.820638	3969.302509	23530.608504
20.536000	-0.001623	0.000253	-0.006429	0.001853	7175.594231	44140.955479	3965.260906	23517.552247
21.036500	-0.000311	-0.000324	-0.003621	0.002419	7182.958313	44032.542805	3970.938747	23490.686487
21.536500	-0.000368	0.000820	-0.003002	0.002130	7185.250322	44168.429298	3973.246150	23504.415314
22.036500	0.000033	0.000357	-0.003278	0.001736	7193.101226	44161.895700	3973.544430	23523.094572
22.536000	-0.001505	-0.000235	-0.001015	0.001323	7181.980619	44144.833865	3980.375473	23542.718963
23.037000	-0.003820	0.000517	-0.005447	0.002713	7145.578102	44084.413533	3965.569772	23476.731632
23.537000	-0.001465	0.000050	-0.005594	0.001608	7179.573736	44144.912582	3967.994229	23529.211199
24.035000	-0.001430	0.000683	-0.006811	0.001831	7177.713063	44183.884023	3964.353379	23518.599985
24.535500	-0.002273	0.000164	0.001918	0.001409	7173.571152	44174.689462	3987.688881	23538.664366
25.036000	-0.002106	-0.000534	0.000426	0.001234	7176.942587	44124.971155	3984.299197	23546.981662
25.536000	-0.000644	0.000395	-0.001440	0.001755	7186.222730	44163.660886	3978.183334	23522.206292
26.036000	-0.000063	0.000462	-0.004525	0.001642	7193.081166	44180.785600	3970.615990	23527.587897
26.537000	-0.003054	-0.000091	-0.000470	0.001151	7168.424027	44174.962712	3982.213439	23550.936841
27.036500	-0.002605	0.000688	-0.002374	0.004022	7144.660834	43976.635378	3970.034078	23414.776995
27.539500	-0.001151	0.000649	-0.001268	0.000130	7197.285233	44342.525086	3982.786107	23599.565575
28.037500	-0.000507	0.000027	0.002738	0.000338	7201.595181	44263.433777	3992.571291	23589.617131
28.535000	0.000292	0.001168	-0.004145	0.001036	7202.595703	44305.554965	3973.121126	23556.383152
29.035000	-0.002311	-0.000320	-0.000453	0.002803	7159.482480	43996.571935	3978.026689	23472.454979
29.538000	0.000092	0.000717	-0.005427	0.000376	7207.159314	44325.474219	3971.539663	23587.810336
30.036000	-0.003085	0.000325	-0.005309	0.004525	7135.060871	43894.907679	3961.348234	23391.034660
30.536000	-0.002423	0.000225	-0.004765	0.002627	7160.110906	44064.860567	3967.511348	23480.798144
31.036500	-0.001901	0.000742	-0.003941	0.003540	7156.281405	44027.338049	3967.285125	23437.569331
31.536000	-0.001564	-0.000642	-0.006180	-0.000231	7196.768272	44253.939159	3971.170841	23616.782402
32.037000	-0.004096	-0.000150	-0.007793	0.005908	7111.768590	43720.052804	3951.661907	23325.866664
32.537000	-0.000467	-0.000269	-0.005054	0.000281	7202.553409	44240.634657	3972.728790	23592.331516
33.037500	0.000235	0.000309	-0.003290	0.000499	7207.355713	44274.932626	3976.667455	23581.951385
33.535000	0.001256	0.001037	-0.000191	-0.001593	7238.373549	44544.301493	3989.990569	23681.862412
34.035500	-0.003152	0.000274	-0.000907	0.004533	7134.324438	43889.352403	3972.460634	23390.640397
34.535500	-0.001397	-0.000018	-0.002931	0.001693	7179.401399	44130.310054	3974.538353	23525.136087
35.036000	-0.000541	0.000408	-0.003556	0.002227	7182.578857	44120.072957	3971.588119	23499.772069
35.536000	-0.003279	-0.000248	-0.003024	0.001511	7162.669869	44125.866968	3974.765403	23533.816302
36.036500	-0.001302	0.000597	-0.000766	0.002507	7172.314843	44111.465253	3977.982725	23486.496254
36.539500	-0.000074	-0.000341	-0.005107	0.001483	7194.541532	44119.629783	3969.541368	23535.121924
37.037000	-0.000449	0.000380	-0.001085	0.002202	7183.735558	44119.821130	3977.949141	23500.975897
37.537000	-0.001625	0.000139	-0.004346	0.001901	7175.101431	44125.461588	3970.412075	23515.252343
38.035000	-0.001031	0.000505	-0.006247	0.002181	7178.199687	44133.687715	3964.891929	23501.955805
38.538000	-0.000602	0.000754	-0.003187	0.002090	7183.329519	44165.999361	3972.876794	23506.310035
39.035500	-0.002666	0.000143	-0.001723	0.002356	7160.398118	44082.786153	3975.928314	23493.687871
39.536000	-0.000495	0.000489	-0.003713	0.001990	7185.375968	44150.362151	3971.794513	23511.050621
40.035500	-0.001088	0.000805	-0.003090	0.002165	7177.796711	44163.690952	3972.932016	23502.734141
40.536000	-0.000872	0.000695	0.001155	0.002478	7176.837446	44123.535341	3982.975510	23487.883307
41.037000	-0.001728	0.000439	-0.002940	0.002573	7167.475780	44090.172553	3972.274760	23483.356018
41.536500	-0.001513	-0.000066	-0.005231	0.001782	7177.385732	44117.360596	3968.470947	23520.921818
42.037500	0.001282	0.000127	0.001038	0.002062	7202.246681	44109.190243	3983.743743	23507.635721
42.535500	-0.001581	0.000672	-0.006324	0.002266	7171.942946	44141.518057	3964.483962	23497.957666
43.037500	-0.001664	-0.000225	-0.003719	0.002819	7165.683142	44004.084862	3969.675015	23471.717221
43.536000	0.000491	0.001503	-0.004808	0.002227	7192.774340	44224.197380	3968.415501	23499.809730
44.035500	0.001221	-0.000187	-0.002171	-0.003395	7256.070322	44599.751702	3989.532183	23768.320307
44.540000	-0.000384	0.000483	-0.002656	0.000847	7197.769683	44258.408978	3977.395942	23565.385798
45.036000	-0.003425	-0.000347	-0.001295	0.004444	7132.531899	43839.196543	3971.702092	23394.871416
45.536500	-0.000822	0.000061	-0.005993	0.000054	7201.294778	44293.708853	3970.920122	23603.170140
46.037000	-0.001978	0.000570	0.001574	0.003033	7160.494711	44059.098526	3982.628033	23461.561340
46.539500	-0.000322	-0.000165	-0.003076	0.000375	7203.069184	44241.667965	3977.531483	23587.889928
47.035000	-0.002049	-0.000050	-0.006752	0.004089	7149.446240	43900.644726	3958.816639	23411.602924
47.535000	-0.001175	-0.000122	-0.003818	0.002601	7172.648301	44034.507742	3969.977290	23482.062852
48.035000	-0.001558	0.000549	-0.001541	0.001868	7176.085301	44167.496478	3977.636298	23516.813108
48.535500	-0.002169	-0.000784	-0.000170	-0.000229	7190.761242	44240.192637	3986.527554	23616.670984
49.036000	-0.004525	-0.000699	-0.003486	0.005624	7110.353087	43695.191352	3963.174029	23339.231251
49.535500	-0.001052	-0.000674	-0.003959	-0.002839	7227.766839	44499.787720	3983.498585	23741.626455
50.036500	-0.000932	-0.000252	-0.004237	0.002243	7178.565161	44056.107733	3969.821074	23499.045501
50.536500	-0.005715	-0.003386	-0.000664	-0.003693	7189.942050	44322.232057	3994.200248	23782.634772
51.037000	-0.061128	-0.010672	-0.006994	0.410489	4352.761349	18612.027708	3295.984945	10940.434764
51.536500	-0.065049	-0.014838	-0.000142	0.121445	5704.146891	33151.692201	3713.408772	18552.372831
52.037500	-0.054246	-0.012235	-0.005411	0.002915	6678.047265	42874.903519	3965.149860	23467.170959
52.535000	-0.046197	-0.025589	-0.009387	-0.164967	8566.656291	59946.287939	4467.956601	33177.715487
53.038000	-0.038793	-0.102055	0.001930	-0.282042	10448.659902	65535.000000	5018.126169	42548.854036
53.535500	-0.028937	-0.033013	0.003313	-0.181794	9029.618477	61194.217931	4580.481688	34374.229973
54.036000	-0.015911	-0.022689	-0.000960	-0.162753	8945.250877	60036.417969	4491.003223	33023.685736
54.536000	-0.015264	-0.016230	-0.000998	-0.135584	8586.930556	57377.005230	4392.478267	31196.341592
55.036000	-0.001132	-0.012972	0.001218	-0.145939	8916.971900	59110.710617	4437.231210	31879.312287
55.537000	0.013247	-0.009047	0.008150	-0.143997	9091.875498	59367.828047	4455.362869	31749.997233
56.037000	0.026337	-0.002026	0.011366	-0.131571	9101.351545	58669.721896	4422.064123	30935.966896
56.535000	0.036013	0.002354	0.010361	-0.124206	9134.464052	58287.963843	4392.410427	30464.380352
57.035000	0.032431	0.003994	0.011615	-0.113439	8931.724177	57136.579009	4359.392127	29789.132884
57.538000	0.033230	0.007653	0.014853	-0.097003	8718.299428	55564.979962	4314.768115	28790.165820
58.035000	0.031265	0.009597	0.018259	-0.081056	8483.071569	53894.909713	4273.602005	27856.395483
58.535500	0.030492	0.012811	0.023062	-0.064281	8261.850363	52328.019257	4235.397678	26910.447722
59.036000	0.025845	0.012802	0.018630	-0.048993	8021.146318	50618.304540	4174.719192	26079.610645
59.536000	0.032014	0.014669	0.025187	-0.038518	7970.587242	49682.283991	4162.988972	25526.959605
60.036500	0.032105	0.016007	0.022605	-0.026301	7830.876494	48525.605814	4119.619361	24899.030498
60.537000	0.029403	0.015643	0.025692	-0.030578	7848.803609	48938.252810	4141.015164	25116.851906
61.036500	0.028817	0.015012	0.025802	-0.022803	7754.374621	48056.297084	4118.754214	24722.499656
61.534500	0.026577	0.017509	0.029454	-0.010389	7593.203361	47037.505988	4093.783592	24107.283678
62.037500	0.028137	0.017097	0.026119	-0.020489	7721.003609	48032.576424	4113.018138	24606.488662
62.534500	0.032324	0.018251	0.028170	-0.019547	7757.180280	48054.582857	4116.201050	24559.432242
63.035500	0.033041	0.019529	0.030822	-0.019056	7759.712117	48136.362594	4122.422864	24534.928862
63.542500	0.034810	0.019137	0.029540	-0.018564	7774.032020	48044.396187	4117.310529	24510.414958
64.036000	0.037108	0.019616	0.027731	-0.014568	7755.009717	47680.607575	4100.732309	24312.437050
64.536500	0.039257	0.021329	0.026096	-0.010558	7734.226941	47444.446222	4084.816974	24115.511180
65.036500	0.038898	0.020369	0.031604	-0.007559	7696.965656	47040.495792	4091.866512	23969.449579
65.537000	0.038538	0.021142	0.030879	-0.003665	7650.180397	46724.687383	4078.923651	23781.313301
66.036500	0.038527	0.022359	0.029692	0.000526	7604.403664	46425.736151	4064.026510	23580.662398
66.537000	0.037963	0.022492	0.029989	0.002292	7579.218298	46262.510205	4059.992188	23496.725448
67.035000	0.034633	0.021815	0.026807	0.008575	7476.700998	45573.473498	4034.302857	23200.728157
67.535500	0.037110	0.022265	0.031460	0.006532	7524.620081	45819.004663	4052.418301	23296.503855
68.035500	0.034793	0.022118	0.028172	0.009640	7467.170898	45498.717352	4035.110235	23150.984244
68.536000	0.035004	0.023096	0.026714	0.011863	7446.047352	45376.847519	4025.261790	23047.528150
69.036500	0.033430	0.022707	0.024348	0.019183	7353.825438	44630.100333	3999.750518	22710.650052
69.536000	0.036878	0.023140	0.025716	0.016807	7413.998510	44900.568682	4009.545325	22819.360965
70.037000	0.035734	0.022900	0.029713	0.018940	7380.045219	44671.974309	4014.454796	22721.760935
70.536500	0.036416	0.023081	0.032512	0.021262	7363.140365	44466.603919	4015.712881	22615.974919
71.037500	0.032348	0.022009	0.030235	0.026268	7270.789545	43889.347477	3996.634240	22389.910161
71.535000	0.035403	0.022464	0.030818	0.023844	7326.329190	44161.845053	4004.472892	22499.084368
72.035500	0.032357	0.022542	0.028849	0.025892	7274.669936	43975.181291	3994.013616	22406.808400
72.535500	0.032794	0.023265	0.028959	0.026469	7273.257151	43988.893151	3992.803230	22380.877394
73.035500	0.032029	0.022564	0.026356	0.032053	7209.744760	43399.016330	3971.810590	22131.915955
73.536000	0.035465	0.023667	0.034438	0.028307	7281.656143	43853.413485	4002.269788	22298.564343
74.036500	0.033500	0.022971	0.032890	0.028888	7256.037367	43733.296973	3996.726283	22272.657105
74.535500	0.033611	0.022554	0.024312	0.028462	7261.419083	43734.079644	3975.744918	22291.646313
75.037000	0.029975	0.022373	0.030541	0.033842	7171.752822	43214.972790	3977.914886	22052.819935
75.537000	0.034214	0.022792	0.030504	0.029204	7260.022060	43686.790340	3989.727904	22258.533107
76.037500	0.032375	0.022041	0.034669	0.029034	7243.293049	43632.253650	4000.974727	22266.124287
76.535000	0.034541	0.022191	0.032424	0.029711	7258.228187	43582.952075	3993.383024	22235.960812
77.035000	0.033079	0.022523	0.032392	0.029921	7241.459304	43594.300082	3992.754550	22226.588559
77.535500	0.033465	0.021411	0.036244	0.029641	7248.131767	43516.526702	4003.504067	22239.070848
78.036000	0.032146	0.022112	0.038557	0.030871	7222.663440	43467.059653	4006.337315	22184.338905
78.536000	0.034285	0.021920	0.037780	0.030527	7247.469101	43481.368295	4005.204460	22199.648981
79.036500	0.030423	0.021644	0.030822	0.035130	7163.487480	43028.213483	3975.342873	21996.050089
79.536000	0.035081	0.022801	0.034739	0.031507	7245.625573	43472.086191	3994.727230	22156.118824
80.037000	0.031742	0.021568	0.035674	0.031107	7216.296666	43394.350275	3998.195495	22173.875692
80.540000	0.033547	0.022478	0.038667	0.031839	7226.983813	43410.953519	4004.092726	22141.398748
81.034500	0.032695	0.021870	0.035437	0.031269	7224.174844	43407.386508	3997.156713	22166.674329
81.541000	0.033520	0.021633	0.039880	0.031264	7232.449772	43385.835480	4008.775750	22166.904444
82.035500	0.031827	0.022816	0.035428	0.032240	7205.883242	43405.074693	3994.611295	22123.598749
82.536000	0.031995	0.021555	0.034479	0.031469	7215.211113	43359.466235	3994.152773	22157.805626
83.036000	0.032436	0.021921	0.038462	0.030865	7225.611840	43449.805208	4006.102451	22184.603044
83.536500	0.030743	0.021694	0.044090	0.031467	7202.801637	43372.631668	4019.347121	22157.894696
84.037000	0.031640	0.022061	0.037858	0.031586	7210.522152	43395.612833	4002.637784	22152.598128
84.539500	0.030654	0.021583	0.038060	0.030533	7211.181014	43449.223679	4005.919950	22199.344026
85.037000	0.031008	0.021555	0.042534	0.030732	7212.718852	43428.044065	4017.169631	22190.501977
85.539500	0.031130	0.021762	0.035256	0.030997	7211.305573	43422.705312	3997.392627	22178.733379
86.035000	0.026819	0.021500	0.038085	0.030503	7173.550005	43444.378820	4006.064580	22200.710979
86.535500	0.030481	0.021079	0.035719	0.029539	7219.351690	43495.039194	4002.399322	22243.623220
87.035500	0.028281	0.021008	0.038156	0.031940	7173.796307	43264.766354	4002.490675	22136.896944
87.535500	0.028607	0.022194	0.038593	0.029774	7198.412190	43577.299404	4009.309634	22233.144694
88.036000	0.031347	0.020702	0.036982	0.027944	7243.916683	43608.913285	4009.883352	22314.809808
88.539000	0.031139	0.020210	0.037622	0.027353	7247.750828	43618.226023	4013.122760	22341.265450
89.035500	0.031057	0.021976	0.035361	0.028199	7238.465597	43704.598243	4004.965774	22303.432385
89.539500	0.030464	0.021098	0.041028	0.027801	7236.516779	43659.468647	4020.947743	22321.229046
90.037500	0.030792	0.020813	0.035784	0.026687	7250.948247	43737.347295	4010.041047	22371.134250
90.535000	0.030910	0.020526	0.041942	0.025855	7260.479236	43788.544574	4028.560395	22408.467469
91.035000	0.029805	0.021051	0.038578	0.029892	7209.122362	43459.448875	4008.961313	22227.891623
91.535000	0.030275	0.020629	0.039397	0.025923	7253.426476	43791.874005	4021.602899	22405.423972
92.036000	0.031942	0.021254	0.039903	0.024912	7280.375822	43946.042959	4025.637153	22450.908736
92.536000	0.031961	0.021373	0.037655	0.024629	7283.423928	43984.089582	4020.412722	22463.655043
93.036500	0.032287	0.020678	0.033464	0.026511	7267.740005	43741.224690	4004.419633	22379.030958
93.536500	0.034545	0.021535	0.038512	0.024459	7311.321175	44015.369622	4023.140640	22471.293927
94.037000	0.033697	0.021045	0.039359	0.024090	7306.463336	44004.067082	4026.377947	22487.966236
94.537000	0.034293	0.021006	0.038427	0.023649	7316.998552	44042.018343	4025.068772	22507.864001
95.037000	0.034223	0.020685	0.037956	0.023381	7319.021334	44037.090775	4024.530893	22519.999939
95.535000	0.033940	0.021853	0.034894	0.024911	7300.596330	44002.776161	4012.368727	22450.934666
96.035000	0.034032	0.021778	0.042113	0.023806	7312.741965	44100.248608	4034.506014	22500.763348
