sample name	sample
index	277
start time	 02-25-2021  11:56:56 AM
880	0.012675
Peak Time (s)	91.536
Peak Height 	0.01268
calc peak height	90,93
Baseline Time (s)	8.535
Baseline Value 	-0.002919
subtract baseline	10,4
Abs	0.031855
Peak Time (s)	92.537
Peak Height 	0.03186
calc peak height	90,93
Baseline Time (s)	11.537
Baseline Value 	0.001913
subtract baseline	10,3
PK_550	0.013771
Peak Time (s)	91.035
Peak Height 	0.01377
calc peak height	90,93
Baseline Time (s)	10.537
Baseline Value 	1.3836E-4
subtract baseline	10,2
PK_880	0.027028
Peak Time (s)	90.535
Peak Height 	0.02703
calc peak height	90,93
Baseline Time (s)	9.036
Baseline Value 	0.001158
subtract baseline	10,1


Time (s)	A880-A510	A880-A775	A880-A975	A880	I510	I775	I975	I880	
0.035500	-0.005888	-0.000213	-0.007198	0.007708	6779.365571	45271.583805	3967.912480	23950.941091
0.536000	-0.002772	-0.000144	-0.000989	0.004451	6836.176298	45596.953098	3991.330713	24109.271318
1.036500	-0.002058	-0.000203	-0.000051	0.003470	6851.425871	45687.602455	3996.141600	24157.181427
1.536500	0.000515	-0.000044	0.004387	0.002082	6887.301052	45840.092412	4010.876983	24225.198267
2.036500	-0.001353	0.000124	-0.006400	0.004708	6846.626680	45598.067431	3977.247783	24096.747915
2.537000	-0.000278	0.000062	-0.004258	0.001174	6888.348412	45940.305748	3991.350095	24269.772343
3.037500	0.000291	0.000548	0.002353	-0.000773	6911.308322	46181.888507	4012.966028	24365.705661
3.538000	-0.000850	-0.000553	-0.002544	0.000347	6890.665421	45961.328439	3997.725318	24310.487315
4.035000	0.000746	-0.000236	-0.002292	0.000581	6903.089424	45969.587214	3997.770849	24298.941559
4.535500	0.000145	-0.000083	-0.002258	0.000472	6898.597158	45995.510154	3998.130737	24304.321660
5.036000	0.000691	0.000546	-0.001512	0.000741	6901.124746	46031.271824	3999.332774	24291.083926
5.536000	-0.002125	0.000250	-0.003644	0.000356	6878.988771	46040.004407	3994.937221	24310.024978
6.036500	-0.000670	0.000391	-0.000408	0.000868	6887.562916	46003.320409	4001.796082	24284.834617
6.536500	-0.001003	0.000822	0.004552	0.000906	6884.189752	46042.291063	4014.295654	24282.963481
7.037000	-0.002915	-0.000341	-0.000870	-0.000471	6879.327664	46063.495982	4004.010685	24350.796980
7.537000	-0.000528	0.000241	-0.004033	0.000330	6893.755031	46041.779920	3994.030073	24311.333725
8.038000	0.000806	0.000192	-0.001479	-0.000001	6908.948278	46069.654577	4001.285849	24327.609267
8.535000	-0.002162	-0.000071	-0.003050	0.000000	6881.890036	46043.571620	3997.324031	24327.574133
9.035500	0.000000	0.000309	0.001501	0.000161	6900.110045	46065.287517	4008.422092	24319.636640
9.535500	0.001669	0.000446	-0.003415	0.000168	6915.311148	46078.223535	3995.987657	24319.318174
10.036000	-0.000503	-0.000515	0.000690	-0.000627	6902.714611	46061.706168	4008.362963	24358.526829
10.536500	0.000388	0.000000	0.000375	-0.000139	6906.396529	46064.361546	4006.325369	24334.425089
11.036500	-0.000277	-0.000033	-0.000832	-0.000244	6901.279197	46071.482990	4003.534191	24339.605634
11.536500	0.000722	0.000195	0.000000	0.000106	6907.200997	46059.403161	4004.752771	24322.328103
12.037000	0.001027	0.000520	-0.003756	0.000025	6910.736073	46099.646077	3995.487270	24326.324227
12.537000	0.001188	0.000263	-0.000833	0.000068	6911.818365	46069.890218	4002.741170	24324.209107
13.035000	0.000102	0.000236	-0.002056	-0.001889	6919.799708	46262.053408	4004.600102	24420.919737
13.535500	-0.000284	0.000376	-0.004289	0.000656	6893.009605	46022.843145	3992.570173	24295.270486
14.035500	-0.001372	0.000776	-0.002194	0.002046	6870.493976	45924.737588	3994.337734	24226.961926
14.536000	-0.001507	0.000255	0.001558	0.002859	6861.915433	45792.924672	4001.731238	24187.089149
15.036000	-0.001525	0.000639	0.003387	0.000935	6879.180180	46021.220581	4011.248731	24281.528125
15.552500	-0.000630	0.000139	-0.001637	0.000825	6888.321484	45982.605869	3998.805052	24286.964233
16.036500	-0.002994	0.000369	-0.002674	0.002197	6854.466368	45869.608658	3992.756650	24219.555654
16.536500	-0.000825	0.000030	-0.000872	0.000168	6892.525353	46036.937460	4002.393451	24319.316371
17.037000	-0.001737	0.000185	0.002556	0.000483	6881.362057	46020.976627	4010.283503	24303.770613
17.537000	0.000848	0.000174	0.001653	-0.002451	6931.818067	46311.904230	4015.464796	24448.751596
18.038000	-0.000133	0.000445	-0.000224	0.001925	6882.838727	45903.990143	3999.593563	24232.888951
18.535500	-0.000083	-0.000363	0.000583	0.001457	6887.543746	45870.358297	4002.812693	24255.883156
19.035500	-0.002298	-0.000136	-0.000142	0.001364	6868.289519	45901.940481	4001.216425	24260.445725
19.535500	-0.001677	0.000184	0.000157	0.001388	6873.693915	45931.194573	4001.907644	24259.238980
20.035500	-0.002231	0.000052	-0.003309	0.001344	6869.068098	45922.516631	3993.300312	24261.404753
20.536500	0.000222	0.000267	-0.000985	0.001547	6889.501111	45923.724714	3998.628112	24251.444821
21.036500	-0.001323	0.000516	0.000405	0.001900	6872.262058	45913.467292	4001.242797	24234.123910
21.537000	-0.002235	-0.000222	-0.002356	0.001664	6866.134619	45863.752994	3994.887559	24245.677882
22.040000	-0.000377	0.000495	-0.001095	0.001927	6880.603192	45908.701150	3997.394814	24232.784964
22.534500	-0.000205	-0.000025	-0.000778	0.001870	6882.684030	45862.915171	3998.336975	24235.593077
23.035000	-0.001133	0.000088	0.001242	0.001697	6875.830632	45891.232251	4003.871839	24244.086016
23.535500	-0.000215	0.000431	-0.001146	0.002161	6879.943096	45879.195799	3996.679323	24221.289381
24.036000	-0.001158	-0.000035	-0.005108	0.001643	6876.092349	45884.333483	3988.056585	24246.733319
24.536000	-0.001256	-0.000090	0.003314	0.001545	6876.092744	45888.581725	4009.512120	24251.550282
25.036000	-0.001120	-0.000026	-0.002709	0.001502	6877.708648	45899.177382	3994.409120	24253.639320
25.536500	-0.000764	-0.000025	0.000227	0.001664	6879.470652	45883.298966	4001.387874	24245.693914
26.037000	-0.003114	-0.000110	-0.002322	0.001680	6858.051791	45873.311352	3994.934071	24244.933748
26.537000	-0.000702	0.000951	0.001171	0.002501	6872.442646	45897.066216	4001.658733	24204.647661
27.037500	-0.002327	0.000099	0.001388	0.001725	6864.751034	45889.435735	4004.166883	24242.682121
27.534500	-0.001749	-0.000119	-0.000228	-0.001176	6896.359251	46155.641340	4007.427412	24385.644485
28.035000	0.000130	0.000262	0.001847	0.000459	6898.583867	46031.069199	4008.543277	24304.971882
28.535500	-0.002104	0.000327	0.001611	0.000465	6878.197495	46036.955166	4007.930278	24304.677513
29.035500	-0.000784	0.000770	-0.001847	0.001153	6883.935002	46012.555803	3997.451688	24270.807266
29.536000	-0.001199	0.000268	0.004333	0.000853	6882.890557	45992.500044	4013.869510	24285.556098
30.039000	-0.001760	-0.000206	0.001863	0.000420	6881.722195	45988.474001	4008.682657	24306.873522
30.536500	-0.001007	0.000744	0.000687	0.001611	6877.750003	45964.572066	4002.683917	24248.300401
31.055000	-0.000738	0.000638	-0.001800	0.001009	6885.660691	46013.823030	3997.931711	24277.894652
31.537500	-0.002636	0.001099	-0.002844	0.004482	6837.116343	45716.028081	3986.622299	24107.731579
32.059000	-0.001751	-0.000017	0.002537	0.000988	6876.645576	45950.890510	4008.952156	24278.917758
32.540500	-0.003315	0.000094	0.001164	-0.000039	6871.783586	46063.819477	4008.073548	24329.511839
33.035500	-0.001655	0.000911	-0.002799	0.000866	6878.631202	46054.972123	3995.778183	24284.913429
33.535500	-0.004121	0.001243	0.000410	0.003688	6830.918893	45808.639921	3996.752568	24146.545185
34.036000	-0.003245	-0.000514	0.000375	-0.000264	6874.454607	46025.763625	4006.642274	24340.611861
34.536500	-0.002077	-0.000152	0.000478	0.001040	6873.216728	45932.363106	4003.597830	24276.344839
35.036500	-0.003364	0.001075	-0.000498	0.002862	6845.137657	45873.557099	3996.547466	24186.956736
35.536500	-0.002059	0.000013	-0.004780	0.002618	6859.105871	45792.817847	3986.446563	24198.911440
36.037000	-0.001416	0.000415	-0.003491	0.002502	6865.975524	45843.964589	3989.948877	24204.601942
36.537500	-0.001759	0.000427	0.000294	0.002360	6864.152698	45859.177870	3999.802503	24211.541272
37.035000	-0.002728	0.000408	0.001946	0.002049	6858.203031	45887.983552	4004.759157	24226.778493
37.535500	0.000124	0.000032	0.000162	0.002198	6882.689118	45836.089386	3999.878244	24219.489748
38.035000	-0.000727	-0.000182	0.000988	0.002000	6876.758424	45834.489783	4002.462427	24229.185814
38.535500	-0.000799	0.000055	-0.000033	0.002434	6872.164822	45815.113900	3998.791298	24207.899741
39.036000	-0.002116	-0.000633	0.000249	0.001691	6866.974266	45820.500609	4001.377581	24244.376232
39.536000	-0.004429	0.000693	0.000776	0.002613	6837.804257	45860.464983	4000.381179	24199.168477
40.036500	-0.002594	0.000245	0.001253	0.002465	6855.661608	45830.833526	4001.957461	24206.417789
40.536500	-0.001186	0.000471	-0.000322	0.002561	6867.515585	45843.662701	3997.745080	24201.714351
41.040000	-0.002659	0.000941	-0.000815	0.002396	6855.689129	45906.400121	3996.919593	24209.760528
41.535000	-0.003395	0.000818	-0.004275	0.002390	6849.104909	45894.858772	3988.271688	24210.061665
42.035000	-0.002308	-0.000326	0.001961	0.001846	6863.832086	45835.517452	4005.314387	24236.769325
42.535500	-0.000978	-0.000465	0.007047	0.002071	6873.843721	45799.628724	4017.697061	24225.742724
43.035000	-0.001932	-0.000537	0.001477	0.001592	6869.539306	45839.785854	4004.731047	24249.239401
43.536000	-0.002188	-0.000037	0.002020	0.002241	6861.346890	45825.068646	4004.462684	24217.364401
44.036000	-0.001467	-0.000037	-0.004580	0.002279	6867.531099	45821.313566	3987.788360	24215.532852
44.536000	0.001876	0.000792	-0.000002	-0.002202	6938.989012	46348.735976	4010.609653	24436.413368
45.037000	-0.001031	0.000344	-0.004702	0.000412	6888.430578	46043.854044	3992.147626	24307.289384
45.538500	-0.003178	0.000053	-0.004335	0.005880	6819.735240	45476.105019	3979.455776	24039.663842
46.037000	0.000497	0.000512	0.002382	0.001760	6890.057500	45926.884716	4006.598465	24240.967197
46.537500	0.000323	0.000231	0.002996	0.000660	6898.503628	46007.959951	4010.952929	24295.038508
47.035500	-0.000337	-0.000277	-0.004802	0.000517	6893.794310	45971.906500	3991.635069	24302.110581
47.535500	-0.002638	0.000538	0.000365	0.006397	6819.941373	45473.026481	3989.853754	24014.546908
48.041000	-0.001735	0.000363	0.001183	0.002353	6864.425334	45853.496103	4002.063171	24211.864215
48.536000	-0.003203	-0.000446	0.000922	0.002318	6851.488768	45777.087327	4001.490589	24213.586966
49.036500	0.002767	0.000035	0.001600	0.001379	6914.278709	45917.426921	4005.582836	24259.717592
49.536500	-0.003855	-0.000391	-0.005142	0.005204	6819.722295	45498.780798	3979.128956	24072.533666
50.037000	-0.003515	0.000731	0.002046	0.002722	6845.038396	45853.427328	4003.310222	24193.784527
50.543000	0.000755	0.000528	0.004347	0.000717	6901.926201	46031.748415	4014.254031	24292.244075
51.037500	0.002349	-0.000118	-0.000485	-0.002318	6944.426215	46269.504792	4009.675083	24442.173326
51.535500	-0.002699	-0.000234	-0.002854	0.006817	6815.646049	45356.456436	3980.800654	23994.150650
52.035500	0.005818	-0.002198	0.001280	0.052457	6497.817041	40953.729909	3882.758871	21891.603622
52.535500	-0.018390	-0.009996	0.004355	0.207970	5290.880912	29041.991644	3593.371183	16180.722493
53.036000	-0.022066	-0.026043	-0.019502	-0.128922	8007.721893	57571.638348	4320.168419	31727.261393
53.536000	-0.042384	-0.164331	-0.015179	-0.326313	10560.652459	65535.000000	5156.673794	48304.465301
54.036500	-0.032665	-0.164381	-0.003024	-0.326363	10734.102115	65535.000000	5220.844679	48309.650116
54.536000	-0.040845	-0.155436	-0.002777	-0.317419	10432.623203	65535.000000	5174.931234	47384.387567
55.039500	-0.032327	-0.131917	0.000210	-0.293899	10178.086916	65535.000000	5070.117538	45040.270364
55.537500	-0.031711	-0.110082	-0.009935	-0.272064	9832.784437	65535.000000	4916.424756	42974.853242
56.034500	-0.017183	-0.118082	-0.004475	-0.280064	10199.958012	65535.000000	4979.734694	43719.556450
56.534500	-0.011671	-0.099597	-0.005460	-0.261579	9986.184241	65535.000000	4888.782283	42019.337857
57.035500	-0.010102	-0.074448	-0.001414	-0.233753	9572.575071	65150.268879	4783.084039	39592.522774
57.535500	-0.009593	-0.048704	-0.004786	-0.196873	9039.440927	63575.579539	4616.851939	36606.678449
58.035500	-0.004357	-0.031676	-0.001480	-0.165975	8689.271765	61670.092157	4511.488194	34293.181453
58.536000	-0.005091	-0.017668	0.000536	-0.118284	8082.261164	57287.731316	4351.128519	31030.148590
59.036500	-0.006106	-0.011447	-0.007433	-0.094979	7802.018647	55191.713012	4250.664174	29561.345643
59.536500	-0.009643	-0.010396	-0.000560	-0.063179	7421.786369	51620.681980	4175.611157	27680.136541
60.037500	0.000015	-0.006292	-0.000978	-0.046099	7345.782583	50187.984353	4125.439353	26725.173434
60.537000	-0.004544	-0.007830	-0.004185	-0.045133	7290.042734	49916.392020	4113.770139	26672.283724
61.037500	-0.001510	-0.004566	0.001802	-0.029690	7167.412685	48617.653650	4087.740234	25842.458284
61.535000	0.001746	-0.003850	0.000870	-0.021716	7121.690696	47860.696064	4063.737026	25425.372783
62.035500	-0.000690	-0.003389	0.001378	-0.017444	7057.537725	47468.263123	4053.738684	25205.046201
62.536000	0.000051	-0.003273	0.000785	-0.012143	7014.493823	46939.962368	4038.256120	24934.674899
63.036000	0.003886	0.000762	0.002177	-0.018871	7114.898023	48043.767490	4059.640046	25278.368996
63.550500	0.004073	0.001677	0.002788	-0.024108	7167.411993	48687.141942	4075.289790	25549.650987
64.037000	0.002769	0.003228	0.000973	-0.022316	7137.363601	48661.815143	4065.614670	25456.497149
64.539500	0.006553	0.004126	0.006144	-0.022529	7176.199682	48778.867546	4080.090004	25467.534933
65.044500	0.006805	0.004029	0.003867	-0.021620	7169.787947	48672.762200	4071.500626	25420.374380
65.536000	0.005425	0.004211	-0.003097	-0.016638	7108.230550	48170.165114	4039.855159	25163.706486
66.038000	0.009395	0.004427	0.005113	-0.021446	7193.411413	48696.453086	4074.384363	25411.371666
66.535500	0.008888	0.004096	0.002701	-0.021497	7188.948347	48666.895459	4068.045047	25414.013646
67.036000	0.009223	0.004390	0.003004	-0.020393	7181.413015	48581.693107	4065.901296	25356.884189
67.536000	0.008759	0.005550	0.001646	-0.018658	7159.984421	48521.331809	4057.663992	25267.435199
68.036000	0.009595	0.005864	0.006094	-0.017208	7154.002786	48402.247525	4065.645999	25192.907857
68.536000	0.011888	0.005863	0.008347	-0.017056	7174.848460	48386.285429	4071.275297	25185.119680
69.039500	0.012575	0.006661	0.010209	-0.015668	7168.019964	48324.640790	4072.549926	25114.093002
69.537000	0.014062	0.006526	0.008409	-0.015830	7184.122574	48327.431027	4068.155422	25122.367582
70.037000	0.012865	0.006314	0.011372	-0.014766	7162.068321	48194.298643	4073.251731	25068.054449
70.535000	0.015447	0.007347	0.011065	-0.014958	7189.143807	48322.155830	4072.942864	25077.836009
71.035000	0.015335	0.007197	0.009062	-0.014085	7179.502439	48215.322653	4065.233523	25033.316894
71.535500	0.011657	0.007004	0.007008	-0.008404	7089.045198	47607.258018	4044.755454	24745.923021
72.035500	0.018078	0.008488	0.011796	-0.012548	7191.304587	48189.684480	4068.434612	24955.202944
72.536000	0.014226	0.008961	0.015603	-0.012144	7149.816754	48196.972441	4077.585917	24934.721198
73.036000	0.019944	0.008954	0.013492	-0.011562	7199.932044	48135.579245	4070.337870	24905.216162
73.537000	0.015269	0.009307	0.013380	-0.007870	7118.577865	47789.539375	4060.177993	24719.099740
74.037000	0.017539	0.008981	0.015192	-0.011246	7173.307953	48105.566432	4074.057611	24889.247981
74.537500	0.020859	0.010348	0.015458	-0.010357	7197.086117	48155.223966	4072.380576	24844.282341
75.037500	0.020455	0.011238	0.019618	-0.009982	7189.452807	48208.896337	4082.600185	24825.388343
75.535000	0.020239	0.010956	0.014821	-0.004250	7131.604651	47586.415376	4054.397231	24538.131038
76.035000	0.022626	0.011692	0.017353	-0.008469	7195.903081	48098.613025	4072.400183	24749.189421
76.535000	0.023718	0.012233	0.016296	-0.008599	7207.908791	48168.461195	4069.912174	24755.739234
77.036000	0.024821	0.012702	0.019386	-0.007767	7210.573438	48130.728069	4075.982661	24713.922588
77.536000	0.021770	0.012230	0.012939	-0.003443	7138.595700	47634.494402	4047.302834	24497.991479
78.036500	0.027387	0.013290	0.016813	-0.007161	7229.906373	48128.766373	4067.443237	24683.520818
78.537000	0.026597	0.014330	0.017197	-0.006332	7213.933114	48150.834201	4066.256520	24642.036386
79.037000	0.025858	0.013307	0.021941	-0.006828	7211.534878	48095.977038	4080.348985	24666.837204
79.537500	0.023194	0.013180	0.016411	-0.001918	7137.627640	47575.370649	4052.434087	24422.347004
80.037500	0.028077	0.013982	0.018211	-0.005418	7219.508858	48019.550427	4066.520011	24596.340273
80.535500	0.028834	0.013623	0.022493	-0.005181	7224.628266	47957.784755	4077.388165	24584.499667
81.035500	0.028078	0.014028	0.025035	-0.004143	7206.954862	47892.247816	4081.455091	24532.796060
81.536000	0.024919	0.014783	0.020130	0.001415	7122.098020	47397.927889	4053.454984	24257.946204
82.035500	0.026061	0.013593	0.021214	-0.003783	7183.647759	47810.093039	4070.185132	24514.894810
82.536500	0.029383	0.015072	0.024227	-0.002124	7199.937083	47791.398184	4073.821472	24432.516633
83.039500	0.026505	0.013677	0.024104	-0.002438	7174.853153	47679.961977	4074.338901	24448.117948
83.536000	0.028144	0.013636	0.021500	-0.001632	7182.980102	47592.772221	4065.192192	24408.177974
84.036500	0.026245	0.014304	0.023001	-0.000300	7151.506128	47524.635751	4065.644192	24342.374016
84.537000	0.029560	0.013866	0.023101	-0.000538	7186.139180	47504.164358	4066.548259	24354.130096
85.037500	0.027783	0.013737	0.026315	0.000316	7160.465165	47403.396044	4072.876454	24312.018629
85.535000	0.026551	0.014444	0.025756	0.001040	7141.485748	47401.593412	4069.432977	24276.376336
86.036000	0.027517	0.014165	0.024870	0.001510	7146.282420	47324.991861	4065.802644	24253.257178
86.535500	0.029932	0.014148	0.026317	0.002468	7160.436953	47225.506631	4067.110701	24206.272047
87.036000	0.025991	0.013760	0.025389	0.003117	7116.026067	47119.851361	4062.898251	24174.436938
87.539000	0.028512	0.013465	0.027220	0.003731	7134.419796	47027.533096	4066.146610	24144.440353
88.036500	0.028091	0.014315	0.027447	0.005471	7113.581287	46937.333229	4062.109654	24059.565968
88.537000	0.027917	0.013127	0.022165	0.004987	7116.570202	46866.051863	4049.399334	24083.134501
89.037500	0.027966	0.013429	0.025771	0.005858	7108.669741	46808.613774	4056.628652	24040.746262
89.534500	0.027922	0.013006	0.026958	0.006671	7100.435773	46683.881396	4057.618685	24001.209670
90.035000	0.026524	0.013061	0.028335	0.008113	7073.296205	46544.476561	4057.448578	23931.346783
90.535000	0.027028	0.013040	0.029061	0.008136	7077.883878	46540.023496	4059.313897	23930.228444
91.035500	0.026683	0.013771	0.028263	0.009526	7061.367868	46473.912554	4053.511926	23863.058220
91.536000	0.024309	0.013336	0.025077	0.012675	7009.235281	46116.189244	4036.883666	23711.727272
92.036500	0.025305	0.012281	0.025474	0.010006	7043.756917	46276.945556	4044.903768	23839.954497
92.536500	0.026510	0.012321	0.031855	0.010998	7045.772436	46182.115413	4059.133049	23792.207604
93.036500	0.024787	0.011691	0.028622	0.010851	7030.884928	46134.066673	4050.961414	23799.284282
93.537000	0.023579	0.012621	0.027121	0.015799	6973.258962	45736.338102	4034.074155	23562.725502
94.034500	0.024478	0.012257	0.030771	0.013333	7004.659564	45943.944464	4050.082203	23680.267422
94.534500	0.025668	0.012212	0.030966	0.014224	7007.463889	45851.395594	4048.251898	23637.725743
95.081500	0.027443	0.012248	0.028363	0.015549	7011.684804	45724.264114	4037.957840	23574.615982
95.535000	0.025782	0.011775	0.027979	0.017021	6982.383171	45533.004811	4033.125384	23504.686495
96.035500	0.025112	0.012338	0.026529	0.016460	6981.371730	45643.424904	4030.821217	23531.320064
96.535500	0.025127	0.011184	0.028162	0.016793	6978.406334	45497.432730	4034.194687	23515.508210
97.036500	0.024195	0.012079	0.035578	0.018355	6955.262130	45432.165781	4049.518711	23441.571953
97.537000	0.024063	0.010710	0.029391	0.019763	6941.036004	45161.401568	4029.679738	23375.147162
98.037000	0.022798	0.010993	0.029057	0.019985	6927.350505	45167.268126	4028.239514	23364.666467
98.557500	0.025215	0.010936	0.027251	0.021139	6938.969990	45049.712198	4020.608821	23310.393493
