sample name	sample
index	1117
start time	 04-22-2021  01:22:07 PM
880	0.447707
Peak Time (s)	101.537
Peak Height 	0.4477
calc peak height	100,103
Baseline Time (s)	11.035
Baseline Value 	-0.00482
subtract baseline	10,4
Abs	0.320539
Peak Time (s)	101.037
Peak Height 	0.3205
calc peak height	100,103
Baseline Time (s)	9.037
Baseline Value 	0.004536
subtract baseline	10,3
PK_550	0.180577
Peak Time (s)	102.535
Peak Height 	0.1806
calc peak height	100,103
Baseline Time (s)	10.037
Baseline Value 	6.2046E-4
subtract baseline	10,2
PK_880	0.310967
Peak Time (s)	101.037
Peak Height 	0.311
calc peak height	100,103
Baseline Time (s)	9.537
Baseline Value 	0.003103
subtract baseline	10,1


Time (s)	A880-A510	A880-A775	A880-A975	A880	I510	I775	I975	I880	
0.036500	-0.001746	-0.000141	-0.007556	0.002366	6265.292614	43143.799879	3896.978392	22635.407338
0.534500	-0.002360	-0.000168	-0.006537	0.004155	6246.850909	42976.187884	3895.215409	22554.369825
1.037500	-0.003608	-0.000164	-0.003344	0.005842	6224.474711	42821.487645	3898.664738	22478.276273
1.537500	-0.000426	0.000222	-0.004410	0.001916	6278.930928	43219.082329	3905.243876	22655.846131
2.037500	-0.001932	-0.000298	-0.005700	0.000959	6274.694203	43259.657199	3904.477002	22699.385674
2.538000	-0.001686	0.000029	-0.005983	0.001115	6275.386761	43275.458344	3903.463989	22692.249766
3.036000	-0.000355	-0.000463	-0.009234	0.002523	6274.795193	43099.583069	3892.786443	22628.307587
3.535500	-0.000431	-0.000402	-0.001350	-0.001161	6302.737205	43447.000452	3919.510803	22796.111227
4.035500	0.000033	-0.000005	-0.000250	-0.000566	6301.725567	43428.587417	3920.693992	22768.917377
4.536500	-0.001465	-0.000990	-0.002213	-0.001307	6295.845813	43405.892832	3917.836626	22802.827509
5.036500	-0.001390	-0.001038	0.000552	-0.000606	6290.990098	43336.222514	3922.671854	22770.763728
5.537000	-0.000905	0.000862	-0.002113	0.000555	6285.746923	43404.886953	3913.724239	22717.751911
6.035000	-0.002329	-0.000240	-0.000965	-0.000200	6280.579145	43372.720145	3918.163826	22752.217963
6.535000	-0.001907	-0.000995	0.000667	-0.001074	6290.606244	43383.745059	3924.040624	22792.147380
7.035000	-0.001143	0.000118	-0.005562	-0.000240	6290.065666	43409.712257	3907.566530	22754.046534
7.535500	-0.000515	-0.000509	-0.003648	-0.001102	6301.634211	43431.628289	3914.008852	22793.448848
8.036000	0.000491	-0.000614	0.000479	-0.001078	6309.272312	43419.593596	3923.607784	22792.330423
8.538500	-0.000684	-0.000485	0.009899	-0.000962	6299.229303	43420.803016	3945.716443	22787.037376
9.036500	0.001190	0.000852	0.000000	-0.000249	6308.260971	43478.922190	3920.536881	22754.421007
9.537000	0.000000	-0.000113	0.000964	-0.000184	6298.500479	43382.996537	3922.647513	22751.487880
10.037000	-0.000143	0.000000	-0.001895	0.000849	6289.373701	43297.514087	3913.549262	22704.388743
10.537000	0.001705	0.000077	-0.001780	0.000406	6307.172256	43345.741869	3914.847249	22724.542224
11.035000	0.000013	-0.000561	-0.000635	0.000000	6297.170453	43324.225504	3918.467735	22743.077725
11.535000	-0.000324	0.000290	0.002660	0.000340	6291.921250	43371.765958	3925.403971	22727.581963
12.038000	-0.001401	0.000013	0.004874	0.000130	6285.203183	43365.562922	3931.128032	22737.152321
12.535000	0.000302	-0.000636	-0.000752	-0.000252	6301.376002	43340.692242	3918.783366	22754.583024
13.036000	-0.001490	-0.000307	-0.001166	-0.000311	6287.923069	43376.749538	3917.953611	22757.253071
13.536000	0.000328	0.000396	-0.001058	0.002576	6279.652440	43174.021690	3911.478307	22625.863774
14.036500	-0.000796	-0.000285	0.002605	0.002204	6273.853617	43145.450678	3920.894893	22642.754771
14.536500	-0.002014	-0.000119	-0.001387	0.001953	6266.398919	43184.009451	3912.160953	22654.140770
15.039500	-0.002949	-0.000568	-0.001917	-0.000033	6274.501312	43326.655166	3915.551619	22744.604648
15.537500	0.000211	0.000530	0.000336	0.002157	6281.991386	43225.392171	3915.699554	22644.915549
16.037000	-0.000944	0.000217	0.004598	0.000147	6288.609204	43382.878855	3930.432974	22736.377689
16.535500	0.001263	-0.000296	0.003122	-0.000239	6308.750164	43371.050523	3927.857433	22753.987067
17.035500	-0.001481	0.000064	0.002552	-0.002824	6307.519992	43645.986604	3932.626542	22872.371333
17.535000	-0.002708	-0.000300	-0.002055	0.000766	6270.207569	43277.359798	3913.369171	22708.177550
18.036000	-0.000858	-0.000004	-0.001698	0.000829	6283.995443	43299.015673	3914.054072	22705.292184
18.536000	-0.003454	-0.000597	-0.003078	0.000331	6267.805726	43290.145706	3912.001675	22727.973223
19.036500	0.000655	-0.000147	0.000947	0.000576	6297.682325	43309.207561	3920.823215	22716.818661
19.537000	-0.000222	0.000579	-0.001056	0.001728	6281.964706	43269.653841	3913.454517	22664.392610
20.037000	0.000648	0.000201	0.001334	0.000639	6297.135028	43335.673083	3921.583789	22713.927733
20.535000	-0.002959	-0.000392	-0.004189	0.000497	6270.341565	43293.810899	3909.038823	22720.433300
21.034500	-0.002726	-0.000516	-0.000565	-0.000264	6278.005755	43352.952266	3919.248293	22755.117077
21.538000	-0.001172	-0.000145	-0.002068	0.000480	6284.269511	43318.378648	3914.004858	22721.208840
22.038500	-0.001679	-0.000378	0.003819	0.000022	6283.887040	43339.218379	3928.886524	22742.064700
22.535500	-0.000563	-0.000380	0.007347	0.000171	6291.372421	43325.111869	3936.902115	22735.269064
23.036000	-0.001401	-0.000514	-0.002907	0.000213	6284.564875	43308.882419	3912.674561	22733.380782
23.536500	-0.001753	-0.000544	-0.001189	0.000720	6277.920575	43258.938396	3915.492645	22710.245203
24.037000	-0.001891	-0.000376	0.002101	0.000338	6279.801900	43309.991459	3924.093591	22727.665221
24.537000	-0.000727	0.000139	-0.001988	0.000132	6290.411426	43377.109471	3915.000899	22737.073027
25.037500	-0.000186	0.000175	0.003033	0.000651	6290.570670	43332.132860	3925.548980	22713.373829
25.535000	-0.003147	-0.000551	-0.001362	0.000202	6271.166439	43306.390903	3916.299109	22733.866619
26.038000	0.000203	-0.000301	-0.005195	0.000083	6297.996563	43340.630425	3907.666748	22739.279623
26.535500	-0.000835	-0.000049	0.000746	0.000951	6283.233119	43283.466868	3919.475790	22699.747094
27.035500	0.000616	-0.000339	0.001232	-0.002649	6322.523363	43591.880234	3929.086444	22864.334329
27.537500	0.000748	0.000230	0.002263	0.001148	6293.966068	43291.052908	3922.569604	22690.763123
28.036500	-0.000099	0.000243	0.006655	-0.000267	6298.372857	43423.817577	3936.297000	22755.248949
28.536500	-0.002492	-0.000284	-0.000639	-0.000321	6280.252752	43379.873102	3919.209752	22757.743384
29.036500	0.000040	0.000208	-0.001358	-0.000343	6300.047013	43427.659596	3917.579745	22758.734329
29.534000	-0.000876	-0.001017	-0.001714	-0.000878	6297.091153	43363.543914	3917.998384	22783.204080
30.037500	0.000702	0.000010	-0.002251	-0.000305	6304.900653	43405.697988	3915.407970	22757.016725
30.537500	-0.002402	-0.000861	-0.002038	0.002026	6262.861669	43108.751116	3910.481217	22650.862943
31.035500	-0.001338	-0.000518	-0.000627	0.001054	6278.544455	43230.373847	3916.024430	22695.019920
31.535500	-0.001343	-0.000006	-0.000829	-0.000184	6288.073962	43392.924074	3918.443171	22751.453886
32.036000	0.000009	-0.000678	0.003189	-0.001007	6304.966020	43407.001471	3929.831009	22789.090982
32.538000	-0.001779	-0.000816	0.002545	0.000969	6275.804757	43210.680511	3923.654656	22698.930555
33.036000	-0.000518	-0.000048	0.002640	-0.000113	6293.924269	43382.378570	3926.422252	22748.220762
33.536000	-0.000484	-0.000073	-0.000027	0.000426	6290.012453	43329.956948	3918.894189	22723.639295
34.037000	-0.001346	-0.000462	-0.001929	0.001003	6278.876776	43240.289885	3913.108382	22697.350176
34.537000	-0.001449	-0.000161	0.000170	0.001686	6272.814656	43204.987776	3916.411584	22666.316025
35.034500	-0.003360	0.000057	-0.000492	0.001438	6260.012185	43248.087542	3915.444325	22677.556161
35.537500	0.001388	-0.000256	0.004765	0.001130	6299.068726	43247.664144	3928.503345	22691.567839
36.038500	-0.001601	-0.000174	0.003798	0.001432	6273.599855	43227.311715	3925.511644	22677.851432
36.535500	-0.001422	0.000001	0.000723	0.002417	6267.393017	43152.320350	3915.995424	22633.115644
37.038500	-0.001128	-0.000679	0.001475	0.001135	6279.544433	43207.976261	3920.751089	22691.365695
37.536000	-0.003176	-0.000324	-0.005982	0.001974	6257.319424	43163.206543	3901.488675	22653.217594
38.036500	-0.001867	-0.000226	-0.003585	0.000896	6275.681581	43272.139460	3909.512460	22702.230998
38.536500	-0.000532	0.000290	0.003517	0.001345	6282.525195	43278.342331	3925.054153	22681.779061
39.037000	0.000959	-0.000611	-0.003136	0.001173	6295.401137	43210.733978	3909.909617	22689.604625
39.534500	-0.001815	-0.000530	-0.001432	0.001301	6272.960559	43206.495330	3913.574273	22683.820363
40.034500	-0.003865	-0.000294	0.001710	0.000810	6260.961469	43273.823054	3922.066359	22706.158420
40.535500	-0.002106	-0.000205	0.000278	0.000733	6275.096684	43289.228945	3918.890057	22709.658120
41.035500	0.001160	0.000468	0.000205	0.001520	6294.277984	43278.692468	3916.880487	22673.858379
41.535500	-0.002886	-0.000458	-0.001644	0.001173	6265.700975	43224.985014	3913.378105	22689.637413
42.036000	0.000732	0.000097	-0.003364	0.001267	6292.920190	43267.755353	3909.165792	22685.365005
42.536500	-0.000798	0.000281	0.001229	0.001458	6279.596806	43267.092451	3919.419518	22676.666499
43.036500	-0.001844	-0.000188	-0.003831	0.001509	6271.133039	43218.871481	3907.524528	22674.362775
43.537000	-0.000419	-0.000065	-0.004265	0.002253	6276.382292	43161.321568	3904.801120	22640.522039
44.037000	-0.001563	-0.000018	0.000159	-0.000338	6287.570144	43406.140411	3921.119774	22758.493866
44.540500	-0.000548	-0.000293	0.001249	-0.000947	6300.168114	43437.297239	3925.110959	22786.330361
45.038000	-0.000272	0.000330	0.002081	-0.000308	6297.351140	43435.808086	3925.565660	22757.134795
45.535500	-0.001470	-0.000361	0.001546	0.001921	6270.837577	43164.685149	3919.077136	22655.621851
46.036000	-0.000969	-0.000556	0.004440	-0.001173	6298.653053	43433.792227	3933.188090	22796.677527
46.536000	-0.001944	0.000483	0.002883	0.004040	6250.921820	43046.797155	3917.248483	22559.583609
47.036000	-0.002246	0.000275	-0.001055	0.000871	6272.950282	43321.013389	3915.454172	22703.371899
47.536500	-0.001957	-0.000095	0.000740	0.002373	6263.611195	43147.451724	3916.137041	22635.090828
48.037000	-0.001627	-0.000178	-0.001355	-0.001343	6294.865006	43484.955284	3919.926963	22804.474213
48.537000	-0.002423	-0.000154	-0.004722	0.003921	6248.165668	42999.080352	3899.911945	22564.980917
49.037000	-0.001540	-0.000069	0.005412	-0.000721	6290.722008	43437.146377	3934.422437	22776.023445
49.535500	-0.001061	0.000306	0.003246	0.000069	6288.307812	43398.441338	3927.424661	22739.936856
50.035500	0.000159	-0.000316	0.003177	-0.001142	6307.194391	43453.380716	3930.122903	22795.278955
50.538500	-0.005972	-0.007061	0.000231	0.035909	5987.040912	39570.268561	3839.728423	21170.453688
51.034500	0.022940	-0.023416	0.026034	0.529643	3974.765989	14280.840764	3221.727583	8779.157416
51.536000	0.013967	-0.019496	-0.005695	0.104759	5660.861332	33323.433199	3691.517023	18495.678636
52.038500	0.009526	-0.042783	-0.019197	-0.201824	8411.109542	61244.561457	4451.715341	34466.228863
52.536500	0.006244	-0.107742	-0.013905	-0.297637	9713.922079	65535.000000	4857.760711	42251.876539
53.033500	0.008511	-0.184650	-0.002982	-0.374546	11071.666193	65535.000000	5295.971698	49870.750179
53.537000	0.001577	-0.127456	-0.004493	-0.317352	9953.285327	65535.000000	4993.377795	44078.194276
54.034500	0.003404	-0.072599	0.000356	-0.260975	9123.653681	65316.524932	4759.478435	39068.350600
54.538000	0.004343	-0.035430	0.001223	-0.205662	8394.142185	62765.542336	4540.697929	34746.170080
55.035500	0.013044	-0.028946	0.010724	-0.194788	8366.832602	62164.079232	4535.527756	33959.312803
55.535000	0.017419	-0.021202	0.012590	-0.180961	8249.677059	61340.931619	4491.170988	32986.859831
56.035500	0.033465	-0.002154	0.031841	-0.125855	7791.660709	56690.618372	4365.297242	29404.636190
56.539000	0.039979	0.008558	0.042651	-0.060300	7173.010613	50318.075973	4192.077436	25694.814349
57.036500	0.061510	0.018985	0.061979	-0.005546	6860.134951	45724.225533	4091.077020	22997.786162
57.536500	0.084353	0.033043	0.087191	0.039595	6663.165884	42771.388933	4037.777302	21016.231904
58.037000	0.106681	0.047494	0.108399	0.095130	6387.966389	39179.156810	3951.514506	18844.740469
58.534500	0.123058	0.057638	0.130894	0.144476	6134.785771	36054.268040	3888.633793	17134.971543
59.040000	0.147966	0.071726	0.151515	0.181156	6048.941748	34377.361773	3852.844541	15984.174136
59.535000	0.161669	0.082329	0.161245	0.222375	5857.126921	32239.748675	3786.390078	14801.785092
60.035000	0.162229	0.090454	0.170208	0.220470	5873.821148	32923.527085	3808.783040	14853.996067
60.539500	0.172828	0.097409	0.181596	0.226361	5905.968807	32996.950581	3820.324460	14693.286732
61.035500	0.176120	0.101972	0.184076	0.229145	5909.454030	33120.203401	3819.682076	14618.095842
61.539000	0.185356	0.104634	0.193613	0.234147	5938.700128	32958.266562	3829.306932	14484.204952
62.037500	0.189740	0.107518	0.200422	0.239664	5930.849075	32777.052388	3832.068123	14338.312342
62.537000	0.196194	0.110802	0.204992	0.246397	5928.917897	32541.313866	3827.451460	14162.753678
63.037500	0.201870	0.115240	0.206906	0.256885	5895.812900	32132.245620	3809.374712	13894.640801
63.537500	0.202851	0.117852	0.215597	0.268133	5826.395606	31558.123764	3804.050889	13614.184067
64.035000	0.207833	0.122248	0.223310	0.275152	5812.819645	31385.994470	3805.493214	13442.839093
64.535000	0.214212	0.124234	0.220819	0.282677	5805.201751	31025.910255	3784.909590	13262.167746
65.035500	0.218847	0.126990	0.227173	0.289309	5791.991265	30776.712432	3784.346321	13105.542520
65.536000	0.219378	0.129830	0.227718	0.299762	5727.226024	30293.563356	3764.458874	12863.441294
66.036000	0.227147	0.132608	0.231511	0.303871	5750.943613	30209.972508	3763.832345	12769.864492
66.536500	0.229167	0.137378	0.238836	0.317589	5675.833180	29654.530585	3751.248683	12463.779363
67.036500	0.233689	0.139344	0.246844	0.315889	5715.526597	29880.691084	3770.431088	12501.188866
67.534000	0.236079	0.141317	0.246796	0.324468	5676.043462	29474.569795	3753.365546	12313.904200
68.037500	0.242192	0.145880	0.255852	0.327593	5695.035676	29562.441276	3765.061666	12246.588747
68.540000	0.241562	0.146711	0.253923	0.336965	5631.957338	29044.626222	3742.911005	12047.598295
69.035500	0.250040	0.151268	0.261656	0.338877	5673.201538	29203.863681	3754.247460	12007.530629
69.535500	0.252863	0.151318	0.260369	0.342067	5670.886159	29014.972884	3745.515328	11941.082191
70.035500	0.257980	0.153633	0.265544	0.347373	5669.683952	28836.193535	3745.260099	11831.593246
70.536000	0.257633	0.154526	0.265273	0.355875	5614.321189	28386.994745	3728.409970	11658.940824
71.036500	0.259052	0.158119	0.272572	0.355427	5625.905347	28624.545988	3743.271340	11667.954422
71.536500	0.259570	0.158685	0.275364	0.360550	5597.415050	28356.837626	3738.772178	11565.440574
72.037000	0.266386	0.161823	0.277500	0.361676	5632.669808	28474.718313	3740.719244	11543.078245
72.537000	0.268220	0.164186	0.272260	0.370989	5586.435405	28069.919769	3713.103882	11360.260883
73.034500	0.271730	0.164605	0.282229	0.366941	5633.159051	28329.376076	3739.686470	11439.243286
73.537500	0.267531	0.165475	0.284248	0.372994	5569.966530	28028.498029	3731.946608	11321.399932
74.035000	0.272456	0.167337	0.283226	0.373690	5595.852656	28095.869314	3728.674511	11307.958463
74.535500	0.269740	0.168870	0.281013	0.382263	5527.313992	27691.924853	3708.413285	11144.122397
75.035500	0.273017	0.169248	0.283847	0.379116	5566.104024	27893.407594	3719.587001	11203.898591
75.536000	0.275298	0.170716	0.288521	0.385356	5542.131488	27621.097282	3716.645477	11085.805265
76.036000	0.275424	0.170795	0.283795	0.385217	5543.726739	27633.476966	3708.094038	11088.415754
76.536500	0.274600	0.171365	0.292030	0.393478	5489.503977	27200.571073	3708.046252	10934.608778
77.037000	0.281460	0.173428	0.292895	0.392530	5536.035819	27369.114203	3711.414230	10952.107043
77.537000	0.280813	0.173143	0.298101	0.398526	5496.396011	27018.882488	3709.945534	10842.066752
78.037500	0.285127	0.174939	0.299661	0.398953	5519.516400	27094.775489	3712.054203	10834.284831
78.535500	0.283062	0.173644	0.301058	0.399777	5502.315045	26977.400543	3713.121836	10819.296107
79.035000	0.284532	0.174202	0.298796	0.402788	5493.185499	26842.160362	3703.341678	10764.756709
79.535500	0.284413	0.173754	0.300565	0.407078	5467.238996	26583.155615	3698.707352	10687.700968
80.035500	0.287452	0.174060	0.304162	0.406542	5488.255968	26628.984331	3706.318662	10697.287937
80.536000	0.286431	0.174607	0.304557	0.408852	5468.669421	26533.153473	3702.784192	10656.061504
81.036500	0.287996	0.174608	0.305047	0.410116	5470.435476	26464.787626	3701.358858	10633.602735
81.536500	0.287795	0.175046	0.302593	0.415923	5435.453304	26176.145947	3686.311527	10531.221874
82.036500	0.292989	0.174371	0.306516	0.413694	5478.742173	26259.325774	3697.490959	10570.363569
82.538000	0.292287	0.174766	0.296259	0.415613	5463.374218	26177.737419	3675.516859	10536.652451
83.035000	0.293235	0.175918	0.308151	0.417620	5457.192084	26132.136212	3693.308701	10501.570409
83.535000	0.296547	0.174910	0.307391	0.418437	5471.782350	26035.046276	3690.444571	10487.334299
84.038000	0.295543	0.175019	0.299322	0.419412	5460.201009	25989.069297	3674.209628	10470.373157
84.536000	0.295169	0.177149	0.306846	0.422886	5437.836323	25917.974133	3681.437156	10410.268453
85.036000	0.297085	0.176439	0.305696	0.423253	5446.813592	25861.083405	3678.720582	10403.935459
85.536000	0.296030	0.175304	0.310150	0.422812	5443.244967	25824.534888	3687.516353	10411.529434
86.036500	0.299760	0.177404	0.310046	0.424911	5452.724967	25824.606464	3683.546944	10375.446037
86.536500	0.299291	0.176732	0.308156	0.429547	5423.188150	25547.049447	3671.900796	10296.349506
87.036500	0.300266	0.176743	0.310334	0.426176	5448.308395	25723.504676	3681.790348	10353.769574
87.540000	0.300748	0.178179	0.316074	0.428714	5436.396857	25665.845961	3687.557305	10310.498441
88.035000	0.300933	0.178095	0.314060	0.429001	5435.802918	25646.503512	3683.410508	10305.618910
88.534000	0.298888	0.177501	0.310981	0.433082	5400.632945	25403.744035	3670.645035	10236.603182
89.035500	0.303533	0.178386	0.312248	0.430693	5441.058841	25573.453134	3677.136261	10276.921119
89.535000	0.303696	0.178388	0.315252	0.431444	5437.652968	25534.532286	3681.163663	10264.220447
90.039000	0.302963	0.177470	0.317711	0.431071	5435.572279	25506.246737	3686.258113	10270.532866
90.536500	0.303592	0.179543	0.316615	0.437477	5402.392379	25282.530585	3672.838155	10162.988034
91.039500	0.304126	0.178968	0.322682	0.432487	5434.107764	25510.450155	3692.696597	10246.617897
91.537000	0.302697	0.177902	0.317913	0.432731	5424.460813	25442.614273	3683.630724	10242.506927
92.037500	0.302526	0.177767	0.317705	0.432504	5424.787254	25447.395850	3683.666563	10246.338566
92.534500	0.306999	0.180056	0.319199	0.437641	5420.962447	25300.467323	3677.141218	10160.249042
93.035000	0.306176	0.178282	0.317570	0.433519	5439.998634	25421.504734	3681.599895	10229.242063
93.538500	0.302663	0.178120	0.311886	0.438554	5390.976705	25154.489284	3662.610886	10145.061878
94.036000	0.306405	0.179506	0.313389	0.435802	5428.130774	25366.849904	3670.093109	10190.957302
94.536000	0.302981	0.179951	0.321082	0.438220	5394.680264	25265.313933	3679.470551	10150.609586
95.036500	0.311196	0.181275	0.318412	0.438036	5442.911559	25342.848084	3675.037283	10153.675913
95.536500	0.304347	0.178233	0.318386	0.435539	5417.804061	25314.846552	3679.444937	10195.357739
96.036500	0.308290	0.179901	0.320256	0.438044	5426.074789	25271.808950	3678.308863	10153.550991
96.537000	0.307718	0.180804	0.315540	0.440663	5407.759669	25183.866754	3665.319490	10110.084242
97.037000	0.307207	0.179066	0.316628	0.437628	5422.238421	25250.297730	3672.594649	10160.473657
97.535000	0.306540	0.180410	0.320078	0.439133	5409.775336	25242.018301	3676.049470	10135.444106
98.035500	0.310387	0.180925	0.317218	0.440060	5426.538932	25220.913431	3669.334567	10120.064573
98.535500	0.309226	0.180087	0.319419	0.439131	5425.201692	25225.586609	3674.879433	10135.468531
99.035500	0.307877	0.180456	0.321263	0.441073	5406.328257	25145.158437	3674.706710	10103.309212
99.536000	0.308630	0.179302	0.324011	0.445409	5385.937833	24866.623300	3671.888179	10032.003173
100.036500	0.308285	0.180154	0.318203	0.441721	5404.956036	25096.690255	3668.142669	10092.605262
100.537000	0.309270	0.180328	0.317335	0.442639	5405.337914	25058.813701	3665.002206	10077.478466
101.037000	0.310967	0.179043	0.320539	0.441644	5420.762393	25044.087045	3672.406141	10093.872620
101.537000	0.306256	0.179431	0.314942	0.447707	5359.596656	24757.564295	3652.017567	9994.497504
102.034500	0.309054	0.178894	0.313548	0.443092	5401.520962	24963.082544	3657.595259	10070.014231
102.535500	0.310148	0.180577	0.319346	0.445105	5396.286631	24946.370535	3664.203917	10036.985459
103.034500	0.311412	0.181763	0.324149	0.446297	5396.696474	24946.060352	3670.560894	10017.493902
103.535000	0.312619	0.181926	0.325008	0.451597	5373.507951	24687.710449	3662.749354	9931.475369
104.035500	0.311288	0.179142	0.317212	0.445671	5399.551196	24845.358340	3659.483712	10027.711992
