sample name	sample
index	464
start time	 03-11-2021  12:00:25 PM


Wavelength (nm)	Absorbance
494.344910	-0.176091
494.563924	-0.176091
494.782919	-0.176091
495.001897	0.917590
495.220856	0.015564
495.439797	0.138655
495.658719	0.219247
495.877624	0.114306
496.096510	0.122300
496.315378	0.258540
496.534227	0.315223
496.753059	0.324679
496.971872	0.220661
497.190667	0.069475
497.409444	0.048476
497.628203	0.048655
497.846943	0.050141
498.065665	0.048980
498.284369	0.048321
498.503055	0.047766
498.721723	0.047504
498.940372	0.047546
499.159003	0.046968
499.377616	0.047090
499.596210	0.047108
499.814787	0.046215
500.033345	0.045589
500.251885	0.044324
500.470406	0.044348
500.688910	0.044842
500.907395	0.045077
501.125862	0.044923
501.344311	0.045603
501.562742	0.044092
501.781154	0.044392
501.999548	0.044386
502.217924	0.045196
502.436282	0.044950
502.654621	0.044626
502.872942	0.044519
503.091245	0.044391
503.309530	0.044372
503.527797	0.045737
503.746045	0.046460
503.964275	0.046790
504.182487	0.046606
504.400681	0.046554
504.618856	0.046368
504.837013	0.047028
505.055152	0.046605
505.273273	0.046221
505.491376	0.046374
505.709460	0.045449
505.927526	0.046079
506.145574	0.046208
506.363604	0.045289
506.581615	0.045570
506.799608	0.044199
507.017583	0.044452
507.235540	0.044423
507.453478	0.043502
507.671399	0.042830
507.889301	0.042315
508.107185	0.042589
508.325050	0.043541
508.542898	0.042984
508.760727	0.043545
508.978538	0.043945
509.196330	0.044171
509.414105	0.043757
509.631861	0.044745
509.849599	0.045638
510.067319	0.044815
510.285021	0.043971
510.502704	0.044114
510.720369	0.044791
510.938016	0.043785
511.155645	0.043874
511.373255	0.044192
511.590848	0.043749
511.808422	0.042463
512.025977	0.042456
512.243515	0.043204
512.461034	0.043263
512.678536	0.043221
512.896018	0.044126
513.113483	0.043669
513.330930	0.043265
513.548358	0.043759
513.765768	0.044273
513.983160	0.044914
514.200533	0.045394
514.417889	0.044757
514.635226	0.044132
514.852545	0.044483
515.069845	0.044364
515.287128	0.044526
515.504392	0.044670
515.721638	0.044348
515.938866	0.044452
516.156075	0.043914
516.373267	0.044785
516.590440	0.044562
516.807594	0.043753
517.024731	0.044081
517.241850	0.043633
517.458950	0.043259
517.676032	0.042615
517.893095	0.042217
518.110141	0.041791
518.327168	0.041348
518.544177	0.041915
518.761168	0.042346
518.978141	0.042470
519.195095	0.043418
519.412031	0.043414
519.628949	0.044451
519.845849	0.044463
520.062731	0.044813
520.279594	0.045404
520.496439	0.044926
520.713266	0.044483
520.930074	0.044345
521.146865	0.043997
521.363637	0.043714
521.580391	0.043419
521.797127	0.043666
522.013844	0.043421
522.230543	0.042511
522.447224	0.042873
522.663887	0.042909
522.880532	0.042377
523.097158	0.042365
523.313766	0.042677
523.530356	0.042645
523.746928	0.042613
523.963481	0.042490
524.180017	0.042528
524.396534	0.042243
524.613032	0.042029
524.829513	0.042255
525.045975	0.042479
525.262420	0.042521
525.478845	0.042582
525.695253	0.042663
525.911643	0.042610
526.128014	0.043123
526.344367	0.042927
526.560702	0.043319
526.777018	0.043629
526.993316	0.043765
527.209597	0.043588
527.425858	0.043689
527.642102	0.043889
527.858328	0.044738
528.074535	0.044924
528.290724	0.045070
528.506894	0.044980
528.723047	0.045128
528.939181	0.044927
529.155297	0.044687
529.371395	0.044645
529.587475	0.044076
529.803536	0.043922
530.019579	0.043761
530.235604	0.043898
530.451611	0.044106
530.667600	0.043734
530.883570	0.043792
531.099522	0.043875
531.315456	0.043240
531.531372	0.043585
531.747269	0.043789
531.963148	0.043593
532.179009	0.043325
532.394852	0.043093
532.610676	0.043467
532.826482	0.043322
533.042271	0.043312
533.258040	0.043658
533.473792	0.043965
533.689525	0.043447
533.905240	0.043588
534.120937	0.044559
534.336616	0.045047
534.552277	0.045107
534.767919	0.045635
534.983543	0.046248
535.199149	0.046616
535.414736	0.046358
535.630306	0.046398
535.845857	0.046563
536.061390	0.045719
536.276904	0.045663
536.492401	0.045436
536.707879	0.045438
536.923339	0.045058
537.138781	0.044822
537.354204	0.044757
537.569610	0.044920
537.784997	0.045292
538.000366	0.045744
538.215716	0.045927
538.431049	0.046716
538.646363	0.046257
538.861659	0.046248
539.076937	0.046600
539.292196	0.046393
539.507438	0.047041
539.722661	0.046469
539.937866	0.046516
540.153052	0.046552
540.368221	0.045728
540.583371	0.046509
540.798503	0.046801
541.013617	0.046585
541.228712	0.046994
541.443789	0.046545
541.658848	0.046737
541.873889	0.046448
542.088912	0.045722
542.303916	0.045786
542.518902	0.045214
542.733870	0.045102
542.948820	0.045473
543.163752	0.045169
543.378665	0.045266
543.593560	0.045199
543.808437	0.045855
544.023295	0.046379
544.238136	0.046729
544.452958	0.046970
544.667762	0.047091
544.882548	0.046709
545.097315	0.047130
545.312064	0.047192
545.526795	0.047208
545.741508	0.047252
545.956203	0.047380
546.170879	0.047178
546.385537	0.047188
546.600177	0.047127
546.814799	0.047211
547.029402	0.047159
547.243988	0.047014
547.458555	0.047522
547.673103	0.047387
547.887634	0.047013
548.102146	0.047356
548.316640	0.047125
548.531116	0.047019
548.745574	0.047031
548.960013	0.047097
549.174435	0.047113
549.388838	0.046409
549.603222	0.046235
549.817589	0.046523
550.031937	0.046169
550.246267	0.046569
550.460579	0.046455
550.674873	0.046294
550.889148	0.046487
551.103405	0.046388
551.317644	0.046799
551.531865	0.046504
551.746068	0.046666
551.960252	0.046911
552.174418	0.046437
552.388566	0.046786
552.602696	0.047286
552.816807	0.046979
553.030900	0.047352
553.244975	0.047349
553.459032	0.047435
553.673070	0.047132
553.887091	0.047162
554.101093	0.047543
554.315077	0.047711
554.529042	0.047568
554.742990	0.047631
554.956919	0.047452
555.170830	0.047174
555.384722	0.047586
555.598597	0.048167
555.812453	0.048053
556.026291	0.048168
556.240111	0.048079
556.453913	0.048157
556.667696	0.048029
556.881461	0.047695
557.095208	0.048078
557.308937	0.047772
557.522647	0.047162
557.736339	0.047053
557.950013	0.047153
558.163669	0.047012
558.377307	0.047100
558.590926	0.046954
558.804527	0.047167
559.018110	0.047124
559.231675	0.046892
559.445221	0.047140
559.658749	0.047113
559.872259	0.046639
560.085751	0.046567
560.299225	0.046448
560.512680	0.046788
560.726117	0.046956
560.939536	0.046764
561.152937	0.046765
561.366319	0.046834
561.579683	0.046864
561.793029	0.047072
562.006357	0.047356
562.219667	0.047330
562.432958	0.047407
562.646231	0.047342
562.859486	0.047404
563.072723	0.047506
563.285941	0.047443
563.499141	0.047697
563.712323	0.047555
563.925487	0.047394
564.138632	0.046984
564.351760	0.047013
564.564869	0.046723
564.777960	0.046783
564.991032	0.047040
565.204087	0.047223
565.417123	0.047063
565.630141	0.047362
565.843140	0.047304
566.056122	0.047376
566.269085	0.046950
566.482030	0.047186
566.694957	0.047294
566.907866	0.047057
567.120756	0.046975
567.333628	0.046932
567.546482	0.046793
567.759318	0.047042
567.972135	0.047394
568.184935	0.047618
568.397716	0.047694
568.610478	0.047358
568.823223	0.047605
569.035949	0.047513
569.248657	0.047387
569.461347	0.047062
569.674019	0.046912
569.886672	0.046659
570.099308	0.046687
570.311925	0.046486
570.524523	0.046768
570.737104	0.046678
570.949666	0.046702
571.162210	0.046923
571.374736	0.047224
571.587244	0.047225
571.799733	0.047349
572.012205	0.047363
572.224658	0.047205
572.437092	0.046957
572.649509	0.047008
572.861907	0.046665
573.074287	0.046552
573.286649	0.046524
573.498993	0.046454
573.711318	0.046351
573.923625	0.046468
574.135914	0.046705
574.348185	0.046867
574.560438	0.047103
574.772672	0.047068
574.984888	0.047175
575.197086	0.046818
575.409266	0.046850
575.621427	0.047088
575.833570	0.046871
576.045695	0.046884
576.257802	0.047016
576.469890	0.046618
576.681961	0.046779
576.894013	0.046605
577.106046	0.046892
577.318062	0.046812
577.530059	0.046722
577.742039	0.046634
577.954000	0.046718
578.165942	0.046504
578.377867	0.046634
578.589773	0.046709
578.801661	0.047013
579.013531	0.047028
579.225382	0.046875
579.437216	0.046920
579.649031	0.047100
579.860828	0.046993
580.072606	0.046837
580.284367	0.046843
580.496109	0.046759
580.707833	0.046565
580.919539	0.046559
581.131227	0.046819
581.342896	0.046963
581.554547	0.047005
581.766180	0.047078
581.977795	0.047644
582.189391	0.047595
582.400969	0.047354
582.612529	0.047429
582.824071	0.047548
583.035595	0.047530
583.247100	0.047393
583.458587	0.047267
583.670056	0.047506
583.881506	0.047328
584.092939	0.047323
584.304353	0.047719
584.515749	0.047713
584.727127	0.047826
584.938486	0.048050
585.149828	0.047948
585.361151	0.048212
585.572456	0.048098
585.783742	0.048080
585.995011	0.048215
586.206261	0.047990
586.417493	0.048003
586.628706	0.047872
586.839902	0.047489
587.051079	0.047403
587.262238	0.047123
587.473379	0.046913
587.684502	0.047043
587.895606	0.046572
588.106692	0.047008
588.317760	0.047101
588.528810	0.047285
588.739841	0.047381
588.950855	0.047591
589.161850	0.047802
589.372827	0.047857
589.583785	0.047463
589.794726	0.047944
590.005648	0.047706
590.216552	0.047924
590.427437	0.047884
590.638305	0.048195
590.849154	0.048111
591.059985	0.047989
591.270798	0.047940
591.481592	0.048225
591.692369	0.047897
591.903127	0.048016
592.113867	0.047601
592.324588	0.047695
592.535292	0.047311
592.745977	0.047405
592.956644	0.047534
593.167293	0.047557
593.377923	0.047247
593.588536	0.047768
593.799130	0.047526
594.009706	0.047709
594.220263	0.047324
594.430803	0.047308
594.641324	0.047404
594.851827	0.047236
595.062312	0.047315
595.272778	0.047605
595.483227	0.047366
595.693657	0.047445
595.904069	0.047579
596.114462	0.047731
596.324838	0.048067
596.535195	0.047984
596.745534	0.048013
596.955855	0.048303
597.166157	0.048588
597.376441	0.048574
597.586707	0.048894
597.796955	0.048723
598.007185	0.048716
598.217396	0.048426
598.427589	0.048297
598.637764	0.048490
598.847921	0.048379
599.058060	0.047870
599.268180	0.048026
599.478282	0.047946
599.688366	0.047882
599.898431	0.047905
600.108479	0.048054
600.318508	0.047927
600.528519	0.047861
600.738511	0.047806
600.948486	0.048003
601.158442	0.048100
601.368380	0.048057
601.578300	0.047876
601.788202	0.048175
601.998085	0.048423
602.207950	0.048792
602.417797	0.048673
602.627626	0.048595
602.837436	0.048803
603.047228	0.048694
603.257002	0.048822
603.466758	0.049200
603.676496	0.049048
603.886215	0.048711
604.095916	0.048688
604.305599	0.049011
604.515264	0.049055
604.724910	0.049043
604.934538	0.049106
605.144148	0.049062
605.353740	0.049095
605.563314	0.049437
605.772869	0.049680
605.982406	0.049632
606.191925	0.049231
606.401425	0.049040
606.610908	0.048884
606.820372	0.048702
607.029818	0.048840
607.239246	0.048466
607.448655	0.047959
607.658047	0.047635
607.867420	0.047534
608.076775	0.047976
608.286111	0.048319
608.495430	0.048263
608.704730	0.048271
608.914012	0.047990
609.123275	0.048132
609.332521	0.048337
609.541748	0.048653
609.750957	0.048896
609.960148	0.048753
610.169321	0.048518
610.378475	0.048625
610.587611	0.048832
610.796729	0.048945
611.005829	0.049163
611.214910	0.049355
611.423974	0.049298
611.633019	0.049159
611.842045	0.049235
612.051054	0.049464
612.260044	0.049713
612.469017	0.049636
612.677970	0.049536
612.886906	0.049476
613.095824	0.049253
613.304723	0.049327
613.513604	0.049390
613.722467	0.049441
613.931311	0.049244
614.140138	0.048957
614.348946	0.048845
614.557736	0.048908
614.766507	0.048802
614.975261	0.048856
615.183996	0.048830
615.392713	0.048711
615.601412	0.048528
615.810092	0.048748
616.018754	0.048863
616.227399	0.048908
616.436024	0.048957
616.644632	0.049211
616.853222	0.049472
617.061793	0.049490
617.270346	0.049768
617.478880	0.049908
617.687397	0.049851
617.895895	0.049845
618.104375	0.050058
618.312837	0.050288
618.521281	0.050248
618.729706	0.049942
618.938113	0.049900
619.146502	0.049719
619.354873	0.049617
619.563226	0.049487
619.771560	0.049633
619.979876	0.049480
620.188174	0.049333
620.396453	0.049371
620.604715	0.049559
620.812958	0.049790
621.021183	0.049837
621.229390	0.049821
621.437578	0.050034
621.645748	0.050120
621.853900	0.050318
622.062034	0.050428
622.270150	0.050186
622.478247	0.050015
622.686326	0.049945
622.894387	0.050013
623.102430	0.050053
623.310454	0.049966
623.518461	0.049640
623.726449	0.049737
623.934418	0.049631
624.142370	0.049940
624.350303	0.050069
624.558218	0.050094
624.766115	0.050239
624.973994	0.050195
625.181855	0.050482
625.389697	0.050729
625.597521	0.050741
625.805327	0.050732
626.013114	0.050722
626.220883	0.050855
626.428634	0.050790
626.636367	0.050589
626.844082	0.050684
627.051778	0.050331
627.259457	0.050077
627.467117	0.049960
627.674758	0.050119
627.882382	0.050080
628.089987	0.049921
628.297574	0.049927
628.505143	0.050100
628.712694	0.050292
628.920226	0.050666
629.127740	0.050594
629.335236	0.050487
629.542714	0.050440
629.750174	0.050264
629.957615	0.050386
630.165038	0.050316
630.372443	0.050195
630.579829	0.050014
630.787198	0.049690
630.994548	0.049869
631.201880	0.050097
631.409194	0.050123
631.616489	0.050464
631.823766	0.050376
632.031025	0.050566
632.238266	0.050758
632.445489	0.050857
632.652693	0.051050
632.859879	0.051215
633.067047	0.051118
633.274197	0.051044
633.481329	0.051036
633.688442	0.051003
633.895537	0.050965
634.102614	0.050853
634.309672	0.050821
634.516713	0.050878
634.723735	0.050697
634.930739	0.050691
635.137724	0.050696
635.344692	0.050462
635.551641	0.050542
635.758572	0.050545
635.965485	0.050671
636.172379	0.050840
636.379256	0.050873
636.586114	0.050955
636.792954	0.050963
636.999775	0.051131
637.206579	0.051395
637.413364	0.051482
637.620131	0.051477
637.826880	0.051376
638.033610	0.051266
638.240323	0.050973
638.447017	0.051191
638.653692	0.051157
638.860350	0.051057
639.066990	0.050791
639.273611	0.050882
639.480214	0.050887
639.686798	0.050947
639.893365	0.050938
640.099913	0.051222
640.306443	0.051216
640.512955	0.051262
640.719449	0.051405
640.925924	0.051608
641.132381	0.051625
641.338820	0.051637
641.545241	0.051829
641.751644	0.051907
641.958028	0.051824
642.164394	0.051764
642.370742	0.051803
642.577071	0.051760
642.783383	0.051699
642.989676	0.051820
643.195951	0.051927
643.402207	0.051856
643.608446	0.051999
643.814666	0.051946
644.020868	0.051966
644.227052	0.052065
644.433218	0.051978
644.639365	0.051917
644.845494	0.051721
645.051605	0.051750
645.257698	0.051596
645.463772	0.051535
645.669828	0.051715
645.875866	0.051451
646.081886	0.051523
646.287888	0.051674
646.493871	0.051872
646.699836	0.051794
646.905783	0.051645
647.111712	0.051531
647.317622	0.051385
647.523514	0.051356
647.729388	0.051664
647.935244	0.051500
648.141082	0.051526
648.346901	0.051554
648.552702	0.051526
648.758485	0.051591
648.964250	0.051713
649.169996	0.051744
649.375724	0.051825
649.581434	0.051847
649.787126	0.051960
649.992800	0.051921
650.198455	0.051984
650.404092	0.052001
650.609711	0.052146
650.815311	0.052096
651.020894	0.052242
651.226458	0.052169
651.432004	0.052036
651.637532	0.051775
651.843041	0.051761
652.048532	0.051763
652.254006	0.051794
652.459460	0.051625
652.664897	0.051685
652.870315	0.051786
653.075716	0.051790
653.281097	0.051857
653.486461	0.052050
653.691807	0.052161
653.897134	0.052037
654.102443	0.052107
654.307734	0.052251
654.513006	0.052231
654.718261	0.052020
654.923497	0.052202
655.128715	0.052162
655.333915	0.052220
655.539096	0.052047
655.744259	0.052178
655.949404	0.052333
656.154531	0.052317
656.359640	0.052532
656.564730	0.052645
656.769802	0.052626
656.974856	0.052891
657.179892	0.052899
657.384909	0.053028
657.589908	0.053171
657.794889	0.053152
657.999852	0.053198
658.204797	0.053056
658.409723	0.052958
658.614631	0.052954
658.819521	0.052809
659.024393	0.052769
659.229246	0.052753
659.434081	0.052487
659.638898	0.052482
659.843697	0.052628
660.048478	0.052825
660.253240	0.052973
660.457984	0.052751
660.662710	0.052894
660.867417	0.052978
661.072107	0.053070
661.276778	0.053202
661.481431	0.053274
661.686066	0.053071
661.890682	0.052920
662.095281	0.052949
662.299861	0.053067
662.504422	0.053066
662.708966	0.052985
662.913491	0.052862
663.117999	0.052917
663.322488	0.052850
663.526958	0.052857
663.731411	0.052854
663.935845	0.052822
664.140261	0.052915
664.344659	0.052812
664.549038	0.052957
664.753400	0.053023
664.957743	0.052907
665.162068	0.052863
665.366375	0.053111
665.570663	0.053250
665.774933	0.053276
665.979185	0.053231
666.183419	0.053340
666.387635	0.053346
666.591832	0.053241
666.796011	0.053289
667.000172	0.053468
667.204315	0.053250
667.408439	0.053271
667.612545	0.053205
667.816634	0.053250
668.020703	0.053203
668.224755	0.053295
668.428788	0.053398
668.632803	0.053515
668.836800	0.053325
669.040779	0.053585
669.244739	0.053593
669.448681	0.053699
669.652605	0.053789
669.856511	0.053833
670.060399	0.053801
670.264268	0.053926
670.468119	0.053852
670.671952	0.053932
670.875767	0.053745
671.079563	0.053758
671.283341	0.053834
671.487101	0.053865
671.690843	0.053864
671.894567	0.053738
672.098272	0.053743
672.301959	0.053728
672.505628	0.053698
672.709278	0.053803
672.912911	0.053887
673.116525	0.053706
673.320121	0.053606
673.523699	0.053599
673.727258	0.053770
673.930799	0.053904
674.134322	0.054089
674.337827	0.054274
674.541314	0.054497
674.744782	0.054410
674.948232	0.054474
675.151664	0.054647
675.355078	0.054739
675.558474	0.054786
675.761851	0.054718
675.965210	0.054628
676.168551	0.054509
676.371873	0.054378
676.575178	0.054653
676.778464	0.054651
676.981732	0.054696
677.184981	0.054616
677.388213	0.054564
677.591426	0.054501
677.794621	0.054651
677.997798	0.054906
678.200956	0.054628
678.404097	0.054431
678.607219	0.054457
678.810323	0.054330
679.013408	0.054374
679.216476	0.054488
679.419525	0.054447
679.622556	0.054296
679.825569	0.054139
680.028563	0.054390
680.231540	0.054365
680.434498	0.054522
680.637438	0.054628
680.840359	0.054643
681.043263	0.054417
681.246148	0.054564
681.449015	0.054612
681.651864	0.054667
681.854694	0.054626
682.057506	0.054462
682.260301	0.054303
682.463076	0.054318
682.665834	0.054382
682.868573	0.054656
683.071295	0.054514
683.273998	0.054784
683.476682	0.054815
683.679349	0.054792
683.881997	0.055046
684.084627	0.055137
684.287239	0.055083
684.489833	0.055116
684.692408	0.054962
684.894965	0.055171
685.097504	0.054930
685.300025	0.054931
685.502527	0.055008
685.705012	0.055047
685.907478	0.055020
686.109925	0.054990
686.312355	0.054832
686.514766	0.054909
686.717159	0.054722
686.919534	0.054770
687.121891	0.054789
687.324230	0.054821
687.526550	0.054995
687.728852	0.055114
687.931136	0.055213
688.133401	0.055296
688.335649	0.055278
688.537878	0.055221
688.740089	0.054994
688.942281	0.055006
689.144456	0.054799
689.346612	0.054663
689.548750	0.054723
689.750870	0.054649
689.952971	0.054626
690.155055	0.054770
690.357120	0.055071
690.559167	0.055310
690.761195	0.055484
690.963206	0.055723
691.165198	0.055717
691.367172	0.055737
691.569128	0.055697
691.771065	0.055887
691.972984	0.055752
692.174885	0.055700
692.376768	0.055746
692.578633	0.055572
692.780479	0.055514
692.982308	0.055547
693.184118	0.055464
693.385909	0.055560
693.587683	0.055423
693.789438	0.055532
693.991175	0.055443
694.192894	0.055560
694.394595	0.055523
694.596277	0.055624
694.797941	0.055631
694.999587	0.055647
695.201215	0.055686
695.402824	0.055559
695.604416	0.055434
695.805989	0.055515
696.007543	0.055319
696.209080	0.055450
696.410598	0.055431
696.612099	0.055279
696.813580	0.055273
697.015044	0.055200
697.216490	0.055470
697.417917	0.055552
697.619326	0.055534
697.820717	0.055588
698.022089	0.055539
698.223444	0.055558
698.424780	0.055598
698.626098	0.055777
698.827397	0.055894
699.028679	0.055952
699.229942	0.056028
699.431187	0.055973
699.632414	0.056157
699.833622	0.056093
700.034813	0.056082
700.235985	0.056207
700.437139	0.056197
700.638274	0.056312
700.839392	0.056538
701.040491	0.056502
701.241572	0.056586
701.442635	0.056547
701.643679	0.056733
701.844706	0.056833
702.045714	0.056978
702.246704	0.056980
702.447675	0.057093
702.648629	0.056939
702.849564	0.057154
703.050481	0.057196
703.251380	0.057252
703.452260	0.057276
703.653122	0.057099
703.853966	0.056915
704.054792	0.056912
704.255600	0.056743
704.456389	0.056556
704.657160	0.056415
704.857913	0.056540
705.058648	0.056483
705.259365	0.056312
705.460063	0.056345
705.660743	0.056324
705.861405	0.056138
706.062048	0.056103
706.262674	0.056142
706.463281	0.056041
706.663870	0.055992
706.864441	0.055798
707.064993	0.055644
707.265527	0.055689
707.466043	0.055846
707.666541	0.055965
707.867021	0.056008
708.067482	0.056106
708.267925	0.056206
708.468350	0.056035
708.668757	0.056099
708.869145	0.056540
709.069516	0.056562
709.269868	0.056353
709.470201	0.056356
709.670517	0.056287
709.870814	0.056336
710.071093	0.056329
710.271354	0.056645
710.471597	0.056770
710.671821	0.056474
710.872028	0.056519
711.072216	0.056647
711.272385	0.056679
711.472537	0.056918
711.672670	0.056811
711.872785	0.056921
712.072882	0.056832
712.272961	0.056671
712.473021	0.056785
712.673063	0.056813
712.873087	0.056822
713.073093	0.056846
713.273081	0.056536
713.473050	0.056693
713.673001	0.056485
713.872934	0.056467
714.072849	0.056608
714.272745	0.056538
714.472623	0.056483
714.672483	0.056520
714.872325	0.056549
715.072148	0.056705
715.271954	0.056610
715.471741	0.056678
715.671509	0.056417
715.871260	0.056438
716.070992	0.056496
716.270707	0.056490
716.470403	0.056403
716.670080	0.056258
716.869740	0.056053
717.069381	0.055895
717.269004	0.055979
717.468609	0.056010
717.668195	0.055920
717.867764	0.055802
718.067314	0.055772
718.266846	0.055856
718.466360	0.055825
718.665855	0.055954
718.865332	0.056116
719.064791	0.055963
719.264232	0.056078
719.463655	0.056118
719.663059	0.056154
719.862445	0.056241
720.061813	0.056118
720.261163	0.056223
720.460494	0.056206
720.659807	0.056116
720.859102	0.056155
721.058379	0.056302
721.257638	0.056343
721.456878	0.056385
721.656100	0.056319
721.855304	0.056345
722.054490	0.056313
722.253657	0.056320
722.452806	0.056287
722.651937	0.056318
722.851050	0.056075
723.050145	0.055841
723.249221	0.055861
723.448279	0.055753
723.647319	0.055781
723.846340	0.055798
724.045344	0.055758
724.244329	0.055651
724.443296	0.055504
724.642245	0.055362
724.841175	0.055270
725.040088	0.055179
725.238982	0.055168
725.437857	0.055123
725.636715	0.054971
725.835554	0.055000
726.034376	0.055047
726.233179	0.055058
726.431963	0.055288
726.630730	0.055520
726.829478	0.055469
727.028208	0.055645
727.226920	0.055755
727.425614	0.055852
727.624289	0.055765
727.822946	0.055900
728.021585	0.055960
728.220206	0.055838
728.418808	0.055904
728.617392	0.056084
728.815958	0.056046
729.014506	0.055953
729.213036	0.055958
729.411547	0.056032
729.610040	0.055824
729.808515	0.055779
730.006972	0.055744
730.205410	0.055741
730.403831	0.055675
730.602233	0.055738
730.800616	0.055866
730.998982	0.055832
731.197329	0.055965
731.395658	0.056043
731.593969	0.056099
731.792262	0.056222
731.990536	0.056005
732.188793	0.056076
732.387031	0.055949
732.585250	0.055794
732.783452	0.055858
732.981635	0.055786
733.179800	0.055887
733.377947	0.055764
733.576076	0.055790
733.774186	0.055905
733.972278	0.055826
734.170352	0.055880
734.368408	0.055921
734.566446	0.055806
734.764465	0.055479
734.962466	0.055259
735.160449	0.055208
735.358413	0.055030
735.556360	0.054970
735.754288	0.054780
735.952198	0.054697
736.150090	0.054573
736.347963	0.054577
736.545818	0.054669
736.743655	0.054607
736.941474	0.054464
737.139275	0.054642
737.337057	0.054626
737.534821	0.054652
737.732567	0.054609
737.930295	0.054615
738.128005	0.054570
738.325696	0.054638
738.523369	0.054890
738.721024	0.055071
738.918660	0.054798
739.116279	0.054801
739.313879	0.054840
739.511461	0.054812
739.709024	0.054757
739.906570	0.054476
740.104097	0.054377
740.301606	0.054245
740.499097	0.054160
740.696569	0.054333
740.894024	0.054336
741.091460	0.054207
741.288878	0.054037
741.486277	0.053974
741.683659	0.054145
741.881022	0.054226
742.078367	0.054247
742.275694	0.054317
742.473002	0.054305
742.670293	0.054314
742.867565	0.054424
743.064819	0.054527
743.262054	0.054642
743.459272	0.054603
743.656471	0.054463
743.853652	0.054357
744.050815	0.054346
744.247959	0.054268
744.445085	0.054140
744.642194	0.053993
744.839283	0.054253
745.036355	0.054136
745.233408	0.054338
745.430444	0.054440
745.627461	0.054627
745.824459	0.054740
746.021440	0.054724
746.218402	0.054768
746.415346	0.054995
746.612272	0.054852
746.809180	0.054998
747.006069	0.054922
747.202940	0.054776
747.399793	0.054608
747.596628	0.054599
747.793444	0.054638
747.990243	0.054721
748.187023	0.054644
748.383784	0.054573
748.580528	0.054360
748.777253	0.054350
748.973960	0.054511
749.170649	0.054484
749.367320	0.054418
749.563973	0.054353
749.760607	0.054176
749.957223	0.054159
750.153821	0.054177
750.350400	0.054288
750.546962	0.054316
750.743505	0.054173
750.940030	0.054088
751.136536	0.053941
751.333025	0.053952
751.529495	0.053989
751.725947	0.053960
751.922381	0.053834
752.118796	0.054011
752.315194	0.053975
752.511573	0.054189
752.707934	0.054339
752.904276	0.054481
753.100601	0.054477
753.296907	0.054731
753.493195	0.054671
753.689465	0.054868
753.885716	0.054614
754.081949	0.054734
754.278164	0.054759
754.474361	0.054955
754.670540	0.055102
754.866700	0.055097
755.062843	0.054757
755.258967	0.054898
755.455072	0.054899
755.651160	0.054986
755.847229	0.054775
756.043280	0.054750
756.239313	0.054479
756.435328	0.054375
756.631324	0.054473
756.827302	0.054695
757.023262	0.054387
757.219204	0.054230
757.415127	0.054380
757.611033	0.054627
757.806920	0.054357
758.002788	0.054402
758.198639	0.054369
758.394471	0.054384
758.590286	0.054269
758.786081	0.054513
758.981859	0.054513
759.177619	0.054246
759.373360	0.054087
759.569083	0.054071
759.764788	0.053980
759.960474	0.053819
760.156143	0.053715
760.351793	0.053736
760.547425	0.053714
760.743038	0.053784
760.938634	0.053934
761.134211	0.054116
761.329770	0.054228
761.525311	0.054409
761.720833	0.054670
761.916338	0.054695
762.111824	0.054686
762.307292	0.054849
762.502741	0.054959
762.698173	0.055044
762.893586	0.054966
763.088981	0.055086
763.284358	0.055179
763.479716	0.055206
763.675057	0.055135
763.870379	0.055283
764.065683	0.055237
764.260968	0.055234
764.456236	0.055000
764.651485	0.054985
764.846716	0.055105
765.041929	0.055124
765.237123	0.054896
765.432299	0.054937
765.627457	0.054706
765.822597	0.054535
766.017719	0.054376
766.212822	0.054551
766.407907	0.054457
766.602974	0.054201
766.798023	0.053860
766.993054	0.053843
767.188066	0.053817
767.383060	0.053857
767.578036	0.053819
767.772993	0.053773
767.967933	0.053863
768.162854	0.054070
768.357757	0.054265
768.552642	0.054374
768.747508	0.054387
768.942356	0.054359
769.137186	0.054406
769.331998	0.054463
769.526792	0.054746
769.721567	0.054887
769.916324	0.054761
770.111063	0.054656
770.305784	0.054722
770.500486	0.054706
770.695171	0.054827
770.889837	0.054885
771.084484	0.054900
771.279114	0.054599
771.473725	0.054306
771.668318	0.054265
771.862893	0.054222
772.057450	0.054333
772.251988	0.054486
772.446509	0.054527
772.641011	0.054520
772.835494	0.054654
773.029960	0.054810
773.224407	0.054829
773.418836	0.054707
773.613247	0.054865
773.807640	0.054722
774.002014	0.054582
774.196370	0.054445
774.390708	0.054461
774.585028	0.054181
774.779330	0.054107
774.973613	0.053833
775.167878	0.053771
775.362125	0.053565
775.556354	0.053412
775.750564	0.053369
775.944756	0.053369
776.138930	0.053258
776.333086	0.053547
776.527223	0.053332
776.721343	0.053587
776.915444	0.053526
777.109526	0.053455
777.303591	0.053440
777.497637	0.053455
777.691666	0.053245
777.885676	0.053268
778.079667	0.053011
778.273641	0.053209
778.467596	0.053241
778.661533	0.053449
778.855452	0.053517
779.049352	0.053622
779.243235	0.053453
779.437099	0.053554
779.630945	0.053596
779.824773	0.053811
780.018582	0.053719
780.212373	0.053757
780.406146	0.053597
780.599901	0.053702
780.793638	0.053629
780.987356	0.053915
781.181056	0.054023
781.374738	0.054019
781.568402	0.053956
781.762047	0.054000
781.955674	0.053935
782.149283	0.054065
782.342874	0.054003
782.536447	0.054229
782.730001	0.053996
782.923537	0.054141
783.117055	0.054114
783.310555	0.053980
783.504036	0.053980
783.697499	0.053863
783.890944	0.053800
784.084371	0.053946
784.277780	0.053902
784.471170	0.054138
784.664542	0.054037
784.857896	0.053923
785.051231	0.054057
785.244549	0.054145
785.437848	0.054215
785.631129	0.054283
785.824392	0.053976
786.017636	0.053963
786.210863	0.053819
786.404071	0.053754
786.597260	0.053832
786.790432	0.053631
786.983585	0.053340
787.176721	0.053231
787.369838	0.053025
787.562936	0.053162
787.756017	0.053079
787.949079	0.053274
788.142123	0.053270
788.335149	0.053230
788.528156	0.053453
788.721146	0.053481
788.914117	0.053557
789.107070	0.053652
789.300005	0.053582
789.492921	0.053363
789.685819	0.053156
789.878699	0.053125
790.071561	0.053225
790.264405	0.053137
790.457230	0.053228
790.650037	0.053282
790.842826	0.053126
791.035597	0.053259
791.228349	0.053512
791.421084	0.053749
791.613800	0.053998
791.806497	0.053793
791.999177	0.053836
792.191838	0.054066
792.384481	0.054119
792.577106	0.054488
792.769713	0.054299
792.962301	0.054269
793.154871	0.054223
793.347423	0.054068
793.539957	0.054329
793.732473	0.054270
793.924970	0.054050
794.117449	0.053864
794.309910	0.053792
794.502353	0.053894
794.694777	0.053996
794.887183	0.053898
795.079571	0.053716
795.271941	0.053590
795.464293	0.053506
795.656626	0.053579
795.848941	0.053431
796.041238	0.053285
796.233516	0.053158
796.425777	0.053055
796.618019	0.053148
796.810243	0.053395
797.002449	0.053479
797.194636	0.053474
797.386805	0.053509
797.578956	0.053591
797.771089	0.053645
797.963204	0.053777
798.155300	0.053787
798.347378	0.053567
798.539438	0.053446
798.731480	0.053381
798.923503	0.053573
799.115509	0.053530
799.307496	0.053809
799.499465	0.054007
799.691415	0.054168
799.883348	0.054127
800.075262	0.054186
800.267158	0.054229
800.459035	0.054251
800.650895	0.053991
800.842736	0.054122
801.034559	0.054120
801.226364	0.054178
801.418150	0.054379
801.609919	0.054577
801.801669	0.054704
801.993401	0.054615
802.185114	0.054678
802.376810	0.054921
802.568487	0.054872
802.760146	0.054731
802.951787	0.054599
803.143409	0.054552
803.335014	0.054464
803.526600	0.054292
803.718168	0.054365
803.909717	0.054298
804.101249	0.054182
804.292762	0.054198
804.484257	0.054348
804.675734	0.054361
804.867192	0.054086
805.058632	0.054153
805.250054	0.054354
805.441458	0.054578
805.632844	0.054813
805.824211	0.055217
806.015561	0.055193
806.206891	0.055357
806.398204	0.055391
806.589499	0.055645
806.780775	0.055595
806.972033	0.055698
807.163273	0.055762
807.354495	0.055915
807.545698	0.055743
807.736883	0.055894
807.928050	0.055752
808.119199	0.055750
808.310329	0.055696
808.501441	0.055838
808.692535	0.055901
808.883611	0.055933
809.074669	0.055699
809.265708	0.055801
809.456729	0.055619
809.647732	0.055737
809.838717	0.055886
810.029683	0.056177
810.220632	0.056228
810.411562	0.056190
810.602474	0.056139
810.793367	0.056270
810.984242	0.056214
811.175100	0.056510
811.365938	0.056580
811.556759	0.056544
811.747562	0.056153
811.938346	0.056229
812.129112	0.056237
812.319860	0.056193
812.510589	0.056331
812.701300	0.056287
812.891994	0.056268
813.082668	0.056104
813.273325	0.056142
813.463964	0.056323
813.654584	0.056196
813.845186	0.056151
814.035769	0.056109
814.226335	0.056007
814.416882	0.056122
814.607411	0.056066
814.797922	0.056426
814.988415	0.056352
815.178889	0.056397
815.369345	0.056585
815.559783	0.056643
815.750203	0.056797
815.940605	0.056743
816.130988	0.056714
816.321353	0.056846
816.511700	0.056601
816.702028	0.056649
816.892339	0.056606
817.082631	0.056411
817.272905	0.056604
817.463161	0.056620
817.653398	0.056656
817.843617	0.056585
818.033819	0.056486
818.224001	0.056421
818.414166	0.056444
818.604312	0.056540
818.794440	0.056704
818.984550	0.056577
819.174642	0.056505
819.364716	0.056358
819.554771	0.056365
819.744808	0.056291
819.934827	0.056386
820.124827	0.056324
820.314810	0.056144
820.504774	0.056213
820.694720	0.056074
820.884647	0.056143
821.074557	0.056305
821.264448	0.056477
821.454321	0.056638
821.644176	0.056598
821.834012	0.056509
822.023831	0.056549
822.213631	0.056322
822.403413	0.056354
822.593176	0.056199
822.782922	0.056199
822.972649	0.056057
823.162358	0.056000
823.352049	0.056076
823.541721	0.056407
823.731376	0.056439
823.921012	0.056380
824.110629	0.056550
824.300229	0.056552
824.489811	0.056723
824.679374	0.056649
824.868919	0.056805
825.058445	0.056919
825.247954	0.056778
825.437444	0.056778
825.626916	0.056931
825.816370	0.056894
826.005806	0.056938
826.195223	0.056864
826.384622	0.056928
826.574003	0.057015
826.763366	0.056831
826.952711	0.057033
827.142037	0.057205
827.331345	0.057474
827.520635	0.057308
827.709906	0.057330
827.899160	0.057442
828.088395	0.057521
828.277612	0.057344
828.466810	0.057602
828.655991	0.057734
828.845153	0.057810
829.034297	0.057615
829.223423	0.057791
829.412531	0.057821
829.601620	0.057708
829.790691	0.057779
829.979744	0.057911
830.168779	0.057669
830.357795	0.057556
830.546793	0.057571
830.735773	0.057548
830.924735	0.057610
831.113679	0.058006
831.302604	0.057940
831.491511	0.058064
831.680400	0.057942
831.869271	0.058248
832.058123	0.058245
832.246957	0.057865
832.435773	0.058047
832.624571	0.058067
832.813351	0.057836
833.002112	0.058027
833.190855	0.058057
833.379580	0.058239
833.568287	0.058067
833.756975	0.057977
833.945645	0.058421
834.134297	0.058323
834.322931	0.058291
834.511547	0.058410
834.700144	0.058244
834.888723	0.058061
835.077284	0.058073
835.265826	0.058279
835.454351	0.058319
835.642857	0.058167
835.831345	0.058289
836.019815	0.058444
836.208266	0.058277
836.396699	0.058515
836.585114	0.058779
836.773511	0.058770
836.961890	0.058759
837.150250	0.058912
837.338592	0.059092
837.526916	0.059180
837.715222	0.059399
837.903510	0.059579
838.091779	0.059708
838.280030	0.059797
838.468263	0.059985
838.656477	0.060116
838.844674	0.060331
839.032852	0.060388
839.221012	0.060349
839.409153	0.060218
839.597277	0.060538
839.785382	0.060467
839.973469	0.060647
840.161538	0.060787
840.349589	0.060809
840.537621	0.060733
840.725635	0.060808
840.913631	0.060925
841.101609	0.061001
841.289568	0.060627
841.477509	0.061064
841.665432	0.060868
841.853337	0.060525
842.041224	0.060751
842.229092	0.060908
842.416942	0.061012
842.604774	0.061187
842.792588	0.061333
842.980383	0.061445
843.168160	0.061301
843.355919	0.061525
843.543660	0.061791
843.731382	0.061692
843.919087	0.061543
844.106773	0.061641
844.294441	0.061619
844.482090	0.061760
844.669722	0.061944
844.857335	0.061851
845.044930	0.061660
845.232507	0.061539
845.420065	0.061585
845.607605	0.061763
845.795127	0.061739
845.982631	0.061633
846.170117	0.061745
846.357584	0.061874
846.545033	0.062205
846.732464	0.062431
846.919877	0.062857
847.107272	0.062947
847.294648	0.063102
847.482006	0.063093
847.669346	0.063330
847.856667	0.063045
848.043971	0.063205
848.231256	0.063022
848.418523	0.063284
848.605771	0.063264
848.793002	0.063270
848.980214	0.063429
849.167408	0.063597
849.354584	0.063660
849.541742	0.063867
849.728881	0.063674
849.916002	0.063711
850.103105	0.063771
850.290190	0.063978
850.477256	0.064228
850.664304	0.064076
850.851334	0.064195
851.038346	0.064190
851.225340	0.064301
851.412315	0.064231
851.599272	0.064153
851.786211	0.064283
851.973132	0.064034
852.160034	0.063916
852.346918	0.064040
852.533784	0.064426
852.720632	0.064591
852.907462	0.064805
853.094273	0.065325
853.281066	0.065854
853.467841	0.065662
853.654598	0.065706
853.841336	0.065979
854.028056	0.066015
854.214758	0.065757
854.401442	0.065894
854.588107	0.065725
854.774755	0.066002
854.961384	0.065993
855.147995	0.066196
855.334587	0.066373
855.521162	0.066469
855.707718	0.066623
855.894256	0.066788
856.080775	0.066798
856.267277	0.066959
856.453760	0.066669
856.640225	0.066668
856.826672	0.066663
857.013101	0.066604
857.199511	0.066240
857.385903	0.065966
857.572277	0.066010
857.758633	0.065988
857.944970	0.066016
858.131290	0.065971
858.317591	0.066090
858.503873	0.066206
858.690138	0.066399
858.876384	0.066784
859.062612	0.066925
859.248822	0.066788
859.435014	0.067045
859.621188	0.067241
859.807343	0.067225
859.993480	0.067285
860.179599	0.067473
860.365699	0.067844
860.551781	0.067699
860.737846	0.067805
860.923891	0.068100
861.109919	0.068102
861.295929	0.068256
861.481920	0.068736
861.667893	0.068626
861.853848	0.068623
862.039784	0.068441
862.225702	0.068589
862.411603	0.068751
862.597484	0.068624
862.783348	0.068683
862.969193	0.068652
863.155021	0.068493
863.340830	0.068795
863.526620	0.068661
863.712393	0.068659
863.898147	0.068720
864.083883	0.068891
864.269601	0.069202
864.455301	0.069073
864.640982	0.069073
864.826645	0.069157
865.012290	0.068922
865.197917	0.068960
865.383526	0.069288
865.569116	0.069233
865.754688	0.069230
865.940242	0.068926
866.125777	0.068896
866.311295	0.068941
866.496794	0.068789
866.682275	0.068793
866.867737	0.068850
867.053182	0.068454
867.238608	0.068637
867.424016	0.068619
867.609406	0.068716
867.794778	0.068893
867.980131	0.069028
868.165466	0.069177
868.350783	0.069357
868.536082	0.069255
868.721362	0.069584
868.906625	0.069521
869.091869	0.069362
869.277094	0.069467
869.462302	0.069452
869.647491	0.069451
869.832662	0.069376
870.017815	0.069490
870.202950	0.069813
870.388066	0.069795
870.573165	0.069963
870.758245	0.070114
870.943306	0.070068
871.128350	0.069813
871.313375	0.070031
871.498382	0.070055
871.683371	0.069875
871.868342	0.069779
872.053294	0.069670
872.238229	0.069618
872.423144	0.069894
872.608042	0.069982
872.792922	0.070489
872.977783	0.070034
873.162626	0.070120
873.347451	0.070292
873.532258	0.070193
873.717046	0.070068
873.901816	0.069793
874.086568	0.069567
874.271302	0.069548
874.456017	0.069308
874.640715	0.069422
874.825394	0.069615
875.010055	0.069424
875.194697	0.069588
875.379322	0.069531
875.563928	0.069484
875.748516	0.069458
875.933085	0.069249
876.117637	0.069327
876.302170	0.069366
876.486685	0.069246
876.671182	0.069286
876.855661	0.069059
877.040121	0.069301
877.224563	0.069631
877.408987	0.069615
877.593393	0.069695
877.777780	0.069650
877.962150	0.069710
878.146501	0.069842
878.330833	0.069752
878.515148	0.069911
878.699444	0.070074
878.883722	0.070177
879.067982	0.070228
879.252224	0.070377
879.436447	0.070442
879.620653	0.070389
879.804840	0.070787
879.989008	0.070807
880.173159	0.071079
880.357291	0.070764
880.541405	0.070892
880.725501	0.071114
880.909579	0.071165
881.093638	0.070963
881.277680	0.070856
881.461703	0.070372
881.645707	0.070266
881.829694	0.070337
882.013662	0.070486
882.197612	0.070352
882.381544	0.070178
882.565458	0.070345
882.749353	0.071071
882.933230	0.071085
883.117089	0.070988
883.300930	0.071388
883.484753	0.070970
883.668557	0.071122
883.852343	0.070855
884.036111	0.070963
884.219861	0.070717
884.403592	0.070284
884.587305	0.070674
884.771000	0.070988
884.954677	0.070967
885.138335	0.071044
885.321976	0.071052
885.505598	0.071546
885.689201	0.071799
885.872787	0.072041
886.056354	0.072303
886.239904	0.071974
886.423434	0.071816
886.606947	0.071658
886.790442	0.071487
886.973918	0.071667
887.157376	0.071556
887.340816	0.071229
887.524237	0.071332
887.707641	0.071022
887.891026	0.071046
888.074393	0.070940
888.257741	0.071047
888.441072	0.071309
888.624384	0.071131
888.807678	0.071077
888.990954	0.071128
889.174211	0.070967
889.357451	0.071069
889.540672	0.071223
889.723875	0.071322
889.907059	0.071160
890.090226	0.071429
890.273374	0.071460
890.456504	0.071459
890.639616	0.071280
890.822709	0.071414
891.005785	0.071266
891.188842	0.071045
891.371881	0.071102
891.554901	0.071183
891.737904	0.070934
891.920888	0.070939
892.103854	0.071043
892.286802	0.071363
892.469731	0.071090
892.652643	0.071298
892.835536	0.071571
893.018410	0.071384
893.201267	0.071152
893.384106	0.070965
893.566926	0.070734
893.749728	0.070344
893.932511	0.070045
894.115277	0.070197
894.298024	0.069898
894.480753	0.069541
894.663464	0.069415
894.846157	0.069253
895.028831	0.069310
895.211487	0.069200
895.394125	0.069404
895.576745	0.069354
895.759346	0.069041
895.941930	0.069250
896.124495	0.069344
896.307041	0.069572
896.489570	0.070023
896.672080	0.070208
896.854573	0.070700
897.037046	0.070688
897.219502	0.070753
897.401940	0.070828
897.584359	0.070559
897.766760	0.070595
897.949143	0.070283
898.131507	0.070287
898.313854	0.069898
898.496182	0.069579
898.678492	0.069215
898.860783	0.069490
899.043057	0.069050
899.225312	0.068775
899.407549	0.068529
899.589768	0.068572
899.771968	0.068242
899.954151	0.068296
900.136315	0.068036
900.318461	0.068160
900.500588	0.067735
900.682698	0.068041
900.864789	0.068098
901.046862	0.068036
901.228917	0.068245
901.410953	0.068113
901.592971	0.068011
901.774972	0.067939
901.956953	0.067588
902.138917	0.067591
902.320862	0.067718
902.502790	0.067757
902.684699	0.067976
902.866589	0.067652
903.048462	0.067771
903.230316	0.068055
903.412152	0.068141
903.593970	0.068332
903.775770	0.068149
903.957551	0.067863
904.139314	0.067891
904.321059	0.067558
904.502786	0.067867
904.684494	0.067794
904.866185	0.067591
905.047857	0.067537
905.229510	0.067474
905.411146	0.067261
905.592763	0.066945
905.774363	0.066793
905.955943	0.066915
906.137506	0.066450
906.319051	0.066453
906.500577	0.066223
906.682085	0.066115
906.863575	0.066225
907.045046	0.066512
907.226500	0.066710
907.407935	0.066566
907.589352	0.066569
907.770750	0.066552
907.952131	0.066371
908.133493	0.065972
908.314837	0.066049
908.496163	0.065772
908.677470	0.065651
908.858760	0.065487
909.040031	0.065488
909.221284	0.065457
909.402518	0.065559
909.583735	0.065137
909.764933	0.065274
909.946113	0.065205
910.127275	0.064954
910.308418	0.064532
910.489544	0.064247
910.670651	0.063958
910.851740	0.064134
911.032810	0.063901
911.213863	0.064174
911.394897	0.063974
911.575913	0.063771
911.756911	0.063912
911.937890	0.064426
912.118851	0.064253
912.299794	0.064495
912.480719	0.064255
912.661626	0.064118
912.842514	0.064188
913.023384	0.064167
913.204236	0.063686
913.385070	0.063927
913.565886	0.063789
913.746683	0.064051
913.927462	0.063648
914.108223	0.063153
914.288965	0.063114
914.469690	0.062728
914.650396	0.062715
914.831084	0.063053
915.011754	0.062551
915.192405	0.061879
915.373038	0.061912
915.553653	0.062247
915.734250	0.062185
915.914829	0.062072
916.095389	0.062352
916.275931	0.062094
916.456455	0.061689
916.636961	0.061459
916.817448	0.061401
916.997917	0.061127
917.178368	0.060580
917.358801	0.060488
917.539216	0.060426
917.719612	0.059767
917.899990	0.060043
918.080350	0.059730
918.260692	0.059681
918.441015	0.059698
918.621320	0.059398
918.801607	0.059100
918.981876	0.058963
919.162127	0.058597
919.342359	0.058637
919.522573	0.058478
919.702769	0.058554
919.882947	0.058331
920.063106	0.058065
920.243247	0.057995
920.423370	0.057832
920.603475	0.057514
920.783562	0.057210
920.963630	0.057637
921.143680	0.057456
921.323712	0.057260
921.503725	0.056963
921.683721	0.056764
921.863698	0.057005
922.043657	0.057262
922.223598	0.057123
922.403520	0.056964
922.583424	0.055872
922.763311	0.055424
922.943178	0.055279
923.123028	0.055414
923.302859	0.055275
923.482673	0.054249
923.662467	0.053789
923.842244	0.053421
924.022003	0.053607
924.201743	0.053604
924.381465	0.053185
924.561169	0.052506
924.740854	0.051866
924.920522	0.051567
925.100171	0.051743
925.279802	0.052110
925.459414	0.051900
925.639009	0.051361
925.818585	0.050636
925.998143	0.050651
926.177683	0.051008
926.357205	0.051666
926.536708	0.051591
926.716193	0.051163
926.895660	0.050414
927.075109	0.050395
927.254539	0.050102
927.433951	0.050468
927.613345	0.050329
927.792721	0.050046
927.972079	0.049080
928.151418	0.048704
928.330739	0.048633
928.510042	0.048381
928.689327	0.048165
928.868593	0.047980
929.047841	0.047547
929.227071	0.047650
929.406283	0.047254
929.585476	0.047054
929.764652	0.046958
929.943809	0.046687
930.122948	0.046461
930.302068	0.045816
930.481171	0.045708
930.660255	0.045767
930.839321	0.044865
931.018369	0.044254
931.197398	0.044034
931.376409	0.043756
931.555402	0.043770
931.734377	0.043311
931.913334	0.043164
932.092272	0.042889
932.271192	0.042288
932.450094	0.041990
932.628978	0.042264
932.807844	0.042042
932.986691	0.042044
933.165520	0.041677
933.344331	0.041972
933.523123	0.041888
933.701898	0.041237
933.880654	0.041660
934.059392	0.041425
934.238111	0.041124
934.416813	0.041153
934.595496	0.040764
934.774161	0.040421
934.952808	0.039975
935.131437	0.040485
935.310047	0.040874
935.488639	0.040210
935.667213	0.040271
935.845769	0.039890
936.024306	0.039776
936.202825	0.038933
936.381326	0.038796
936.559809	0.038701
936.738274	0.037490
936.916720	0.037321
937.095148	0.037308
937.273558	0.036854
937.451950	0.036944
937.630323	0.037302
937.808678	0.037994
937.987015	0.037864
938.165334	0.037257
938.343635	0.037418
938.521917	0.036977
938.700181	0.037352
938.878427	0.037538
939.056655	0.037669
939.234864	0.036423
939.413055	0.035659
939.591228	0.035207
939.769383	0.035496
939.947519	0.034999
940.125638	0.034327
940.303738	0.033103
940.481820	0.032564
940.659883	0.031592
940.837929	0.030739
941.015956	0.030485
941.193965	0.029886
941.371955	0.029909
941.549928	0.029609
941.727882	0.030245
941.905818	0.030244
942.083736	0.030282
942.261636	0.030748
942.439517	0.031267
942.617380	0.031432
942.795225	0.032116
942.973052	0.031249
943.150860	0.030972
943.328651	0.030355
943.506423	0.029406
943.684176	0.029011
943.861912	0.028342
944.039629	0.028082
944.217328	0.027632
944.395009	0.026975
944.572672	0.027186
944.750317	0.027329
944.927943	0.026872
945.105551	0.027945
945.283141	0.027097
945.460712	0.027102
945.638265	0.025964
945.815801	0.025674
945.993317	0.024703
946.170816	0.023724
946.348297	0.023373
946.525759	0.023919
946.703203	0.023421
946.880629	0.023947
947.058036	0.024151
947.235425	0.025380
947.412797	0.024759
947.590149	0.026657
947.767484	0.026036
947.944800	0.026969
948.122099	0.026086
948.299379	0.026090
948.476640	0.024613
948.653884	0.024291
948.831109	0.023407
949.008316	0.023875
949.185505	0.022804
949.362676	0.024524
949.539828	0.023874
949.716962	0.024427
949.894078	0.024177
950.071176	0.026208
950.248256	0.024639
950.425317	0.024542
950.602360	0.024896
950.779385	0.025420
950.956391	0.024454
951.133380	0.024702
951.310350	0.024731
951.487302	0.023566
951.664235	0.023172
951.841151	0.024486
952.018048	0.024713
952.194927	0.024963
952.371788	0.023535
952.548631	0.023130
952.725455	0.023569
952.902261	0.023466
953.079049	0.022959
953.255819	0.022399
953.432570	0.022617
953.609303	0.022837
953.786018	0.021492
953.962715	0.022210
954.139394	0.021572
954.316054	0.021665
954.492696	0.021100
954.669320	0.022514
954.845926	0.023692
955.022513	0.022264
955.199083	0.022311
955.375634	0.023917
955.552166	0.024766
955.728681	0.026970
955.905177	0.024852
956.081655	0.026387
956.258115	0.026462
956.434557	0.026597
956.610980	0.026979
956.787385	0.027265
956.963772	0.027046
957.140141	0.027719
957.316492	0.026979
957.492824	0.028275
957.669138	0.026539
957.845434	0.027026
958.021712	0.027362
958.197971	0.028296
958.374212	0.027376
958.550435	0.027613
958.726640	0.026128
958.902826	0.026080
959.078995	0.024361
959.255145	0.025670
959.431277	0.026564
959.607390	0.025735
959.783486	0.025476
959.959563	0.026093
960.135622	0.026381
960.311662	0.026462
960.487685	0.026728
960.663689	0.029854
960.839675	0.029835
961.015643	0.028884
961.191593	0.027985
961.367524	0.029693
961.543437	0.029806
961.719332	0.030814
961.895209	0.031961
962.071067	0.032059
962.246907	0.031432
962.422730	0.031860
962.598533	0.032635
962.774319	0.033801
962.950086	0.033790
963.125835	0.036300
963.301566	0.035182
963.477279	0.036446
963.652973	0.038588
963.828650	0.038838
964.004308	0.037872
964.179947	0.036530
964.355569	0.035592
964.531172	0.035046
964.706757	0.032561
964.882324	0.032452
965.057873	0.030755
965.233403	0.029465
965.408916	0.029912
965.584410	0.030856
965.759885	0.033216
965.935343	0.034367
966.110782	0.032983
966.286203	0.035409
966.461606	0.035840
966.636991	0.035788
966.812357	0.035747
966.987705	0.036274
967.163035	0.035034
967.338347	0.035951
967.513641	0.037464
967.688916	0.039064
967.864173	0.037948
968.039412	0.038492
968.214632	0.037013
968.389835	0.039379
968.565019	0.039031
968.740185	0.041014
968.915333	0.040618
969.090462	0.039258
969.265573	0.039437
969.440667	0.040556
969.615741	0.038345
969.790798	0.041216
969.965836	0.040949
970.140856	0.041649
970.315858	0.041638
970.490842	0.039941
970.665808	0.041920
970.840755	0.040618
971.015684	0.041805
971.190595	0.043994
971.365487	0.042633
971.540362	0.041293
971.715218	0.041253
971.890056	0.040170
972.064875	0.041385
972.239677	0.040923
972.414460	0.041673
972.589225	0.040230
972.763972	0.040843
972.938700	0.044242
973.113411	0.045018
973.288103	0.043967
973.462777	0.044061
973.637432	0.043501
973.812070	0.042821
973.986689	0.042919
974.161290	0.042334
974.335873	0.041523
974.510437	0.038957
974.684984	0.037660
974.859512	0.037190
975.034022	0.039385
975.208513	0.040220
975.382987	0.038798
975.557442	0.038818
975.731879	0.039859
975.906298	0.039766
976.080698	0.040419
976.255080	0.041235
976.429445	0.041727
976.603790	0.040030
976.778118	0.040190
976.952427	0.041404
977.126719	0.041160
977.300992	0.040497
977.475246	0.040513
977.649483	0.039918
977.823701	0.039123
977.997901	0.039898
978.172083	0.040015
978.346247	0.038964
978.520392	0.039504
978.694519	0.040953
978.868628	0.041088
979.042719	0.041560
979.216791	0.041329
979.390845	0.042012
979.564882	0.041061
979.738899	0.040239
979.912899	0.042536
980.086880	0.041226
980.260843	0.039853
980.434788	0.041453
980.608715	0.041625
980.782623	0.042046
980.956514	0.040521
981.130386	0.040618
981.304240	0.039965
981.478075	0.037918
981.651892	0.039129
981.825692	0.041344
981.999472	0.039916
982.173235	0.039947
982.346980	0.039404
982.520706	0.040576
982.694414	0.040440
982.868104	0.041384
983.041775	0.041294
983.215428	0.040587
983.389064	0.039806
983.562680	0.039481
983.736279	0.038510
983.909860	0.040243
984.083422	0.040493
984.256966	0.042210
984.430491	0.042806
984.603999	0.043760
984.777488	0.044623
984.950959	0.043231
985.124412	0.043910
985.297847	0.045286
985.471263	0.043685
985.644661	0.043431
985.818041	0.041779
985.991403	0.040623
986.164747	0.039018
986.338072	0.038969
986.511379	0.041045
986.684668	0.039250
986.857938	0.038189
987.031191	0.040107
987.204425	0.039199
987.377641	0.039880
987.550839	0.040597
987.724018	0.042533
987.897179	0.042796
988.070322	0.043435
988.243447	0.045812
988.416554	0.044624
988.589642	0.041586
988.762712	0.042230
988.935764	0.041403
989.108798	0.041531
989.281813	0.041009
989.454811	0.040100
989.627790	0.039628
989.800751	0.038107
989.973693	0.039432
990.146617	0.041214
990.319524	0.041419
990.492412	0.042191
990.665281	0.044241
990.838133	0.044937
991.010966	0.045607
991.183781	0.044463
991.356578	0.045350
991.529356	0.044780
991.702117	0.043899
991.874859	0.045270
992.047583	0.046109
992.220288	0.044878
992.392976	0.044681
992.565645	0.043691
992.738296	0.043601
992.910929	0.043020
993.083543	0.042822
993.256139	0.042642
993.428718	0.041241
993.601277	0.040820
993.773819	0.040244
993.946342	0.038876
994.118848	0.039147
994.291335	0.039065
994.463803	0.037617
994.636254	0.038735
994.808686	0.040556
994.981100	0.041327
995.153496	0.040445
995.325874	0.039312
995.498233	0.038787
995.670574	0.038440
995.842897	0.038878
996.015202	0.040620
996.187488	0.038988
996.359757	0.038353
996.532007	0.036441
996.704239	0.037908
996.876452	0.038517
997.048648	0.038260
997.220825	0.039137
997.392984	0.040228
997.565124	0.039310
997.737247	0.041209
997.909351	0.041243
998.081437	0.041720
998.253505	0.040793
998.425554	0.041101
998.597586	0.042046
998.769599	0.042501
998.941594	0.042073
999.113571	0.041972
999.285529	0.040780
999.457469	0.041077
999.629391	0.042424
999.801295	0.040691
999.973181	0.041262
1000.145048	0.040920
1000.316897	0.040389
1000.488728	0.039124
1000.660541	0.040022
1000.832335	0.040435
1001.004111	0.040522
1001.175869	0.040799
1001.347609	0.042426
1001.519331	0.042566
1001.691034	0.042656
1001.862719	0.042684
1002.034386	0.044092
1002.206035	0.044142
1002.377665	0.045111
1002.549277	0.043628
1002.720871	0.043041
1002.892447	0.043434
1003.064004	0.043240
1003.235544	0.042505
1003.407065	0.041393
1003.578568	0.040596
1003.750052	0.040729
1003.921519	0.041981
1004.092967	0.043063
1004.264397	0.042291
1004.435809	0.042218
1004.607202	0.040862
1004.778577	0.041626
1004.949934	0.042510
1005.121273	0.042823
1005.292594	0.040696
1005.463896	0.037667
1005.635180	0.037272
1005.806446	0.037258
1005.977694	0.037423
1006.148923	0.038023
1006.320135	0.037817
1006.491328	0.037158
1006.662503	0.036266
1006.833659	0.038284
1007.004798	0.039818
1007.175918	0.039523
1007.347020	0.039767
1007.518103	0.038996
1007.689169	0.038787
1007.860216	0.040009
1008.031245	0.040164
1008.202256	0.039781
1008.373248	0.039027
1008.544223	0.038092
1008.715179	0.038941
1008.886117	0.038964
1009.057036	0.039148
1009.227938	0.039232
1009.398821	0.038395
1009.569686	0.038293
1009.740533	0.038411
1009.911361	0.038103
1010.082172	0.040312
1010.252964	0.038308
1010.423738	0.038853
1010.594493	0.038166
1010.765231	0.037516
1010.935950	0.038006
1011.106651	0.038982
1011.277334	0.040616
1011.447998	0.041538
1011.618645	0.038267
1011.789273	0.040092
1011.959882	0.040140
1012.130474	0.040718
1012.301048	0.040944
1012.471603	0.041063
1012.642140	0.040791
1012.812658	0.039504
1012.983159	0.039551
1013.153641	0.040345
1013.324105	0.039870
1013.494551	0.038848
1013.664979	0.039777
1013.835388	0.040014
1014.005779	0.038816
1014.176152	0.037073
1014.346507	0.037544
1014.516843	0.037378
1014.687162	0.037586
1014.857462	0.036634
1015.027744	0.036555
1015.198007	0.036029
1015.368252	0.034980
1015.538480	0.034236
1015.708689	0.034408
1015.878879	0.032990
1016.049052	0.031968
1016.219206	0.033364
1016.389342	0.034061
1016.559460	0.035109
1016.729559	0.034655
1016.899641	0.036031
1017.069704	0.035036
1017.239749	0.037021
1017.409775	0.037349
1017.579784	0.037891
1017.749774	0.035393
1017.919746	0.035860
1018.089700	0.035149
1018.259635	0.035020
1018.429553	0.035360
1018.599452	0.036889
1018.769333	0.035698
1018.939195	0.038004
1019.109040	0.037961
1019.278866	0.039467
1019.448674	0.039827
1019.618464	0.040451
1019.788235	0.038773
1019.957989	0.039811
1020.127724	0.042299
1020.297441	0.043426
1020.467139	0.041010
1020.636820	0.041904
1020.806482	0.040901
1020.976126	0.040127
1021.145752	0.039303
1021.315359	0.041750
1021.484948	0.039419
1021.654519	0.038644
1021.824072	0.037246
1021.993607	0.036775
1022.163123	0.035222
1022.332621	0.037148
1022.502101	0.035624
1022.671563	0.035988
1022.841007	0.034304
1023.010432	0.035646
1023.179839	0.035928
1023.349228	0.036117
1023.518598	0.037304
1023.687951	0.037912
1023.857285	0.036390
1024.026601	0.038158
1024.195899	0.039138
1024.365178	0.037734
1024.534439	0.036762
1024.703682	0.035330
1024.872907	0.036997
1025.042114	0.036306
1025.211302	0.036507
1025.380472	0.037920
1025.549624	0.038137
1025.718758	0.036006
1025.887873	0.039187
1026.056970	0.040696
1026.226049	0.040733
1026.395110	0.040000
1026.564153	0.041333
1026.733177	0.039782
1026.902183	0.038848
1027.071171	0.038214
1027.240141	0.040136
1027.409092	0.038465
1027.578026	0.036893
1027.746940	0.036557
1027.915837	0.035903
1028.084716	0.034921
1028.253576	0.038110
1028.422418	0.036838
1028.591242	0.037014
1028.760048	0.035483
1028.928835	0.036949
1029.097604	0.038138
1029.266355	0.037988
1029.435088	0.037666
1029.603803	0.036780
1029.772499	0.035520
1029.941177	0.036404
1030.109837	0.035858
1030.278478	0.036341
1030.447102	0.035551
1030.615707	0.035020
1030.784294	0.034801
1030.952863	0.035339
1031.121413	0.035174
1031.289945	0.036153
1031.458460	0.035011
1031.626955	0.034835
1031.795433	0.035483
1031.963892	0.035896
1032.132334	0.035299
1032.300756	0.037941
1032.469161	0.037926
1032.637548	0.040264
1032.805916	0.037749
1032.974266	0.038624
1033.142598	0.038349
1033.310911	0.038282
1033.479207	0.038124
1033.647484	0.037272
1033.815743	0.035138
1033.983983	0.034231
1034.152206	0.031707
1034.320410	0.030739
1034.488596	0.030529
1034.656764	0.031003
1034.824914	0.030213
1034.993045	0.030209
1035.161158	0.030546
1035.329253	0.030143
1035.497330	0.029514
1035.665388	0.030417
1035.833428	0.032309
1036.001450	0.032907
1036.169454	0.032177
1036.337440	0.033599
1036.505407	0.033098
1036.673356	0.032900
1036.841287	0.033422
1037.009200	0.034732
1037.177094	0.034945
1037.344970	0.033761
1037.512828	0.033200
1037.680668	0.034886
1037.848489	0.033710
1038.016293	0.033488
1038.184078	0.034141
1038.351845	0.032940
1038.519593	0.032955
1038.687324	0.033752
1038.855036	0.034640
1039.022730	0.036239
1039.190406	0.035543
1039.358063	0.036167
1039.525702	0.037022
1039.693323	0.038108
1039.860926	0.038155
1040.028511	0.038995
1040.196077	0.038423
1040.363625	0.039063
1040.531155	0.037606
1040.698667	0.037696
1040.866161	0.038184
1041.033636	0.038040
1041.201093	0.036935
1041.368532	0.038107
1041.535952	0.037190
1041.703355	0.038246
1041.870739	0.037695
1042.038105	0.038575
1042.205452	0.038084
1042.372782	0.036915
1042.540093	0.036420
1042.707386	0.036556
1042.874661	0.035826
1043.041918	0.036834
1043.209156	0.035876
1043.376376	0.037210
1043.543578	0.036346
1043.710762	0.036363
1043.877927	0.036408
1044.045074	0.037212
1044.212203	0.037313
1044.379314	0.038100
1044.546407	0.037062
1044.713481	0.035698
1044.880537	0.033486
1045.047575	0.032813
1045.214595	0.034450
1045.381596	0.033682
1045.548579	0.031916
1045.715544	0.032192
1045.882491	0.032352
1046.049420	0.031191
1046.216330	0.032999
1046.383222	0.034314
1046.550096	0.035224
1046.716951	0.033956
1046.883789	0.033630
1047.050608	0.034584
1047.217409	0.035456
1047.384192	0.035580
1047.550956	0.035395
1047.717703	0.035282
1047.884431	0.035042
1048.051140	0.033294
1048.217832	0.031703
1048.384505	0.031687
1048.551161	0.032336
1048.717798	0.031739
1048.884416	0.031255
1049.051017	0.032702
1049.217599	0.032959
1049.384163	0.034667
1049.550709	0.036235
1049.717237	0.038068
1049.883746	0.038158
1050.050237	0.038095
1050.216710	0.038076
1050.383165	0.038177
1050.549601	0.038212
1050.716019	0.036499
1050.882420	0.035389
1051.048801	0.035316
1051.215165	0.033953
1051.381510	0.034666
1051.547837	0.033417
1051.714146	0.032500
1051.880437	0.031644
1052.046709	0.029612
1052.212964	0.030110
1052.379200	0.028907
1052.545417	0.027765
1052.711617	0.029554
1052.877798	0.028612
1053.043961	0.029906
1053.210106	0.030258
1053.376233	0.031076
1053.542341	0.034520
1053.708432	0.036451
1053.874504	0.037553
1054.040557	0.038781
1054.206593	0.037768
1054.372610	0.038613
1054.538609	0.036824
1054.704590	0.036771
1054.870553	0.036981
1055.036497	0.034639
1055.202424	0.033012
1055.368331	0.031786
1055.534221	0.030760
1055.700093	0.030697
1055.865946	0.032154
1056.031781	0.033046
1056.197598	0.032877
1056.363397	0.033049
1056.529177	0.033575
1056.694939	0.034921
1056.860683	0.033878
1057.026409	0.034364
1057.192116	0.034132
1057.357806	0.034463
1057.523477	0.035695
1057.689130	0.034258
1057.854764	0.033631
1058.020381	0.032555
1058.185979	0.029553
1058.351559	0.031123
1058.517120	0.031205
1058.682664	0.032139
1058.848189	0.030669
1059.013696	0.027519
1059.179185	0.030016
1059.344656	0.029772
1059.510108	0.031603
1059.675542	0.033162
1059.840958	0.032731
1060.006356	0.033300
1060.171735	0.032633
1060.337096	0.032508
1060.502439	0.033910
1060.667764	0.033956
1060.833071	0.035253
1060.998359	0.034124
1061.163629	0.033137
1061.328881	0.033635
1061.494115	0.033681
1061.659330	0.032717
1061.824527	0.033853
1061.989706	0.034386
1062.154867	0.034040
1062.320010	0.033938
1062.485134	0.033902
1062.650240	0.035227
1062.815328	0.032019
1062.980398	0.032134
1063.145449	0.031831
1063.310482	0.030008
1063.475497	0.030523
1063.640494	0.029947
1063.805473	0.029319
1063.970433	0.029127
1064.135375	0.029604
1064.300299	0.033543
1064.465204	0.032406
1064.630092	0.033779
1064.794961	0.035643
1064.959812	0.035405
1065.124645	0.035577
1065.289459	0.035767
1065.454256	0.036927
1065.619034	0.036096
1065.783793	0.034899
1065.948535	0.034678
1066.113258	0.032907
1066.277964	0.029701
1066.442651	0.029881
1066.607319	0.029749
1066.771970	0.029684
1066.936602	0.030368
1067.101216	0.030660
1067.265812	0.030727
1067.430389	0.031430
1067.594949	0.033102
1067.759490	0.034820
1067.924013	0.034862
1068.088518	0.036062
1068.253004	0.036205
1068.417472	0.034763
1068.581922	0.034052
1068.746354	0.033715
1068.910768	0.033370
1069.075163	0.034622
1069.239540	0.034888
1069.403899	0.034213
1069.568240	0.033177
1069.732562	0.033541
1069.896866	0.033551
1070.061152	0.034051
1070.225420	0.033898
1070.389670	0.034785
1070.553901	0.032073
1070.718114	0.031191
1070.882309	0.030700
1071.046486	0.031511
1071.210644	0.029117
1071.374784	0.028770
1071.538906	0.029429
1071.703010	0.030518
1071.867096	0.029171
1072.031163	0.032571
1072.195212	0.034813
1072.359243	0.037021
1072.523256	0.036305
1072.687250	0.036556
1072.851226	0.039726
1073.015184	0.038892
1073.179124	0.038141
1073.343045	0.039467
1073.506949	0.037198
1073.670834	0.035962
1073.834701	0.035441
1073.998549	0.035460
1074.162380	0.036594
1074.326192	0.034558
1074.489986	0.033944
1074.653761	0.034936
1074.817519	0.032381
1074.981258	0.033397
1075.144979	0.033164
1075.308682	0.032094
1075.472367	0.031658
1075.636033	0.033700
1075.799681	0.030738
1075.963311	0.031246
1076.126923	0.029070
1076.290516	0.031710
1076.454092	0.030175
1076.617649	0.032038
1076.781187	0.031911
1076.944708	0.031838
1077.108210	0.029699
1077.271695	0.033401
1077.435160	0.032585
1077.598608	0.034903
1077.762038	0.034067
1077.925449	0.033891
1078.088842	0.031672
1078.252217	0.032437
1078.415573	0.033276
1078.578912	0.030017
1078.742232	0.027949
1078.905534	0.027714
1079.068817	0.027982
1079.232083	0.030138
1079.395330	0.031439
1079.558559	0.031577
1079.721770	0.031836
1079.884962	0.032077
1080.048136	0.035156
1080.211293	0.033549
1080.374430	0.033799
1080.537550	0.030907
1080.700651	0.028723
1080.863735	0.028022
1081.026800	0.025446
1081.189846	0.026015
1081.352875	0.024169
1081.515885	0.026327
1081.678877	0.029216
1081.841851	0.028562
1082.004807	0.031398
1082.167744	0.033053
1082.330663	0.033664
1082.493564	0.037016
1082.656447	0.036446
1082.819312	0.035218
1082.982158	0.032937
1083.144986	0.035360
1083.307796	0.035705
1083.470587	0.034516
1083.633361	0.033276
1083.796116	0.033632
1083.958853	0.033370
1084.121571	0.033277
1084.284272	0.038241
1084.446954	0.040644
1084.609618	0.037672
1084.772264	0.038113
1084.934892	0.038665
1085.097501	0.039163
1085.260092	0.038185
1085.422665	0.036901
1085.585220	0.036780
1085.747756	0.034112
1085.910274	0.031681
1086.072774	0.032756
1086.235256	0.035102
1086.397720	0.034035
1086.560165	0.034723
1086.722592	0.033764
1086.885001	0.036893
1087.047392	0.036264
1087.209764	0.035973
1087.372119	0.037061
1087.534455	0.035336
1087.696772	0.032731
1087.859072	0.034368
1088.021353	0.032736
1088.183616	0.032962
1088.345861	0.031521
1088.508088	0.030867
1088.670296	0.030980
1088.832486	0.028595
1088.994658	0.028180
1089.156812	0.030091
1089.318948	0.030288
1089.481065	0.032345
1089.643164	0.032743
1089.805245	0.031943
1089.967308	0.030462
1090.129352	0.027507
1090.291378	0.030216
1090.453386	0.032540
1090.615376	0.033134
1090.777347	0.032423
1090.939301	0.030240
1091.101236	0.031614
1091.263153	0.031422
1091.425051	0.031894
1091.586932	0.035491
1091.748794	0.034354
1091.910638	0.034110
1092.072463	0.033561
1092.234271	0.032181
1092.396060	0.032952
1092.557831	0.032536
1092.719584	0.032499
1092.881319	0.036096
1093.043035	0.034674
1093.204733	0.035992
1093.366413	0.037848
1093.528075	0.033810
1093.689718	0.033395
1093.851343	0.033924
1094.012950	0.034734
1094.174539	0.036578
1094.336110	0.034548
1094.497662	0.036385
1094.659196	0.034282
1094.820712	0.032026
1094.982210	0.035035
1095.143689	0.037189
1095.305151	0.034778
1095.466594	0.035614
1095.628018	0.033275
1095.789425	0.031889
1095.950813	0.030198
1096.112183	0.031945
1096.273535	0.030041
1096.434869	0.031491
1096.596184	0.029763
1096.757482	0.030036
1096.918761	0.027563
1097.080021	0.026424
1097.241264	0.026019
1097.402488	0.023841
1097.563694	0.022922
1097.724882	0.024414
1097.886052	0.023924
1098.047203	0.022287
1098.208336	0.026355
1098.369451	0.027163
1098.530548	0.029322
1098.691627	0.032757
1098.852687	0.035283
1099.013729	0.035189
1099.174753	0.035105
1099.335758	0.034180
1099.496746	0.038347
1099.657715	0.035466
1099.818666	0.035605
1099.979599	0.036096
1100.140513	0.035019
1100.301409	0.037216
1100.462287	0.039242
1100.623147	0.036627
1100.783989	0.035634
1100.944812	0.033605
1101.105617	0.035826
1101.266404	0.034084
1101.427173	0.034218
1101.587923	0.032871
1101.748656	0.031431
1101.909370	0.031814
1102.070066	0.030572
1102.230743	0.031986
1102.391403	0.030299
1102.552044	0.025411
1102.712667	0.028309
1102.873271	0.029184
1103.033858	0.030513
1103.194426	0.035235
1103.354976	0.032329
1103.515508	0.035494
1103.676021	0.036084
1103.836517	0.039345
1103.996994	0.042935
1104.157453	0.042636
1104.317893	0.040072
1104.478316	0.038437
1104.638720	0.031003
1104.799106	0.030696
1104.959474	0.033302
1105.119823	0.030143
1105.280155	0.030205
1105.440468	0.029372
1105.600763	0.030209
1105.761039	0.027134
1105.921298	0.031344
1106.081538	0.033892
1106.241760	0.035305
1106.401964	0.032927
1106.562149	0.034998
1106.722316	0.031891
1106.882465	0.033791
1107.042596	0.029932
1107.202709	0.032786
1107.362803	0.028530
1107.522879	0.025273
1107.682937	0.024805
1107.842977	0.025245
1108.002999	0.024974
1108.163002	0.028195
1108.322987	0.026208
1108.482954	0.029240
1108.642902	0.028206
1108.802833	0.028773
1108.962745	0.034052
1109.122639	0.035094
1109.282515	0.034536
1109.442372	0.034947
1109.602211	0.036152
1109.762032	0.036294
1109.921835	0.036713
1110.081620	0.036942
1110.241386	0.037376
1110.401134	0.033011
1110.560864	0.031978
1110.720576	0.034863
1110.880269	0.035271
1111.039945	0.032512
1111.199602	0.033756
1111.359240	0.029843
1111.518861	0.034498
1111.678463	0.034278
1111.838047	0.036357
1111.997613	0.035979
1112.157161	0.032341
1112.316690	0.031021
1112.476202	0.032118
1112.635695	0.030625
1112.795169	0.028981
1112.954626	0.026542
1113.114064	0.030262
1113.273484	0.027121
1113.432886	0.029859
1113.592270	0.031501
1113.751635	0.033529
1113.910983	0.030877
1114.070312	0.035200
1114.229622	0.038923
1114.388915	0.040602
1114.548189	0.035454
1114.707445	0.045030
1114.866683	0.043744
1115.025903	0.039560
1115.185104	0.040788
1115.344287	0.043122
1115.503452	0.041991
1115.662599	0.042939
1115.821727	0.039914
1115.980838	0.042647
1116.139930	0.038165
1116.299004	0.037232
1116.458059	0.036185
1116.617097	0.035007
1116.776116	0.037157
1116.935117	0.032841
1117.094099	0.032149
1117.253064	0.029237
1117.412010	0.030488
1117.570938	0.028046
1117.729848	0.030145
1117.888740	0.031853
1118.047613	0.029264
1118.206468	0.030238
1118.365305	0.031747
1118.524124	0.030810
1118.682924	0.038361
1118.841707	0.034268
1119.000471	0.033920
1119.159216	0.032162
1119.317944	0.032618
1119.476653	0.040135
1119.635344	0.035879
1119.794017	0.035542
1119.952672	0.034905
1120.111308	0.032016
1120.269927	0.037039
1120.428527	0.036030
1120.587108	0.037778
1120.745672	0.039859
1120.904217	0.033984
1121.062744	0.031354
1121.221253	0.035815
1121.379744	0.038520
1121.538216	0.041905
1121.696671	0.040555
1121.855107	0.040898
1122.013524	0.039731
1122.171924	0.039743
1122.330305	0.038841
1122.488668	0.039908
1122.647013	0.036089
1122.805340	0.036347
1122.963648	0.030267
1123.121938	0.027890
1123.280210	0.030178
1123.438464	0.026360
1123.596700	0.026175
1123.754917	0.025024
1123.913116	0.028388
1124.071297	0.030475
1124.229459	0.028228
1124.387604	0.025650
1124.545730	0.025589
1124.703838	0.025134
1124.861928	0.029025
1125.019999	0.028848
1125.178052	0.032898
1125.336088	0.032589
1125.494104	0.031511
1125.652103	0.035411
1125.810083	0.043201
1125.968045	0.042729
1126.125989	0.039892
1126.283915	0.039991
1126.441823	0.038976
1126.599712	0.037267
1126.757583	0.042835
1126.915436	0.041170
1127.073270	0.039017
1127.231087	0.035197
1127.388885	0.033858
1127.546665	0.036762
1127.704426	0.038144
1127.862170	0.040889
1128.019895	0.044026
1128.177602	0.039171
1128.335291	0.037679
1128.492961	0.040452
1128.650614	0.043661
1128.808248	0.045482
1128.965864	0.043432
1129.123461	0.043287
1129.281041	0.040391
1129.438602	0.034600
1129.596145	0.031974
1129.753670	0.031881
1129.911176	0.028391
1130.068665	0.022265
1130.226135	0.021828
1130.383587	0.022947
1130.541020	0.021356
1130.698436	0.026141
1130.855833	0.032627
1131.013212	0.032981
1131.170573	0.038241
1131.327915	0.035285
1131.485239	0.038093
1131.642545	0.037959
1131.799833	0.039955
1131.957103	0.038922
1132.114354	0.034690
1132.271588	0.030165
1132.428803	0.035447
1132.585999	0.033019
1132.743178	0.034058
1132.900338	0.033558
1133.057480	0.033086
1133.214604	0.033402
1133.371710	0.036954
1133.528797	0.036221
1133.685866	0.034014
1133.842917	0.028744
1133.999950	0.027939
1134.156964	0.029510
1134.313960	0.033799
1134.470938	0.033997
1134.627898	0.029085
1134.784840	0.026095
1134.941763	0.029639
1135.098668	0.034231
1135.255555	0.034092
1135.412424	0.032752
1135.569274	0.035855
1135.726107	0.031316
1135.882921	0.032475
1136.039716	0.036060
1136.196494	0.036945
1136.353253	0.034872
1136.509995	0.040613
1136.666717	0.038856
1136.823422	0.042231
1136.980109	0.037831
1137.136777	0.043411
1137.293427	0.046909
1137.450059	0.049173
1137.606672	0.045312
1137.763267	0.042971
1137.919844	0.029311
1138.076403	0.032813
1138.232944	0.030084
1138.389466	0.031513
1138.545971	0.028420
1138.702457	0.030629
1138.858924	0.027369
1139.015374	0.025407
1139.171805	0.029072
1139.328218	0.034419
1139.484613	0.034387
1139.640990	0.033384
1139.797348	0.034461
1139.953688	0.034766
1140.110010	0.031517
1140.266314	0.033078
1140.422600	0.037488
1140.578867	0.035827
1140.735116	0.031103
1140.891347	0.030556
1141.047559	0.036455
1141.203754	0.038116
1141.359930	0.036847
1141.516088	0.038231
1141.672228	0.036536
1141.828349	0.035838
1141.984452	0.038602
1142.140537	0.043784
1142.296604	0.042184
1142.452653	0.039553
1142.608683	0.038040
1142.764695	0.037983
1142.920689	0.035320
1143.076665	0.039379
1143.232622	0.037590
1143.388562	0.036283
1143.544483	0.039347
1143.700385	0.042345
1143.856270	0.043463
1144.012136	0.038803
1144.167985	0.039828
1144.323814	0.042127
1144.479626	0.039934
1144.635420	0.045120
1144.791195	0.046120
1144.946952	0.041818
1145.102691	0.039214
1145.258411	0.036661
1145.414113	0.039143
1145.569798	0.033736
1145.725463	0.032601
1145.881111	0.027746
1146.036741	0.021296
1146.192352	0.016448
1146.347945	0.020667
1146.503519	0.020646
1146.659076	0.022655
1146.814614	0.033097
1146.970134	0.038180
1147.125636	0.040304
1147.281120	0.044661
1147.436585	0.045359
1147.592032	0.052677
1147.747461	0.051133
1147.902872	0.051509
1148.058265	0.053982
1148.213639	0.048115
1148.368995	0.042955
1148.524333	0.037504
1148.679653	0.036484
1148.834954	0.035693
1148.990237	0.030702
1149.145502	0.028823
1149.300749	0.030278
1149.455977	0.028907
1149.611188	0.030299
1149.766380	0.038279
1149.921553	0.033098
1150.076709	0.035746
1150.231846	0.034818
1150.386966	0.032376
1150.542066	0.036764
1150.697149	0.034929
1150.852214	0.029691
1151.007260	0.022333
1151.162288	0.016042
1151.317298	0.021355
1151.472289	0.026046
1151.627263	0.027520
1151.782218	0.034554
1151.937155	0.029727
1152.092073	0.021313
1152.246974	0.019526
1152.401856	0.022195
1152.556720	0.025260
1152.711566	0.019851
1152.866393	0.010696
1153.021203	0.021159
1153.175994	0.022277
1153.330767	0.028008
1153.485521	0.035961
1153.640258	0.038218
1153.794976	0.041399
1153.949676	0.051545
1154.104358	0.053902
1154.259021	0.058578
1154.413667	0.050155
1154.568294	0.043416
1154.722903	0.040879
1154.877493	0.044616
1155.032066	0.046413
1155.186620	0.041652
1155.341156	0.034922
1155.495674	0.035368
1155.650173	0.038261
1155.804654	0.037577
1155.959118	0.041611
1156.113562	0.036905
1156.267989	0.039910
1156.422397	0.040524
1156.576788	0.032831
1156.731160	0.031413
1156.885513	0.036948
1157.039849	0.034938
1157.194166	0.034109
1157.348465	0.037535
1157.502746	0.042559
1157.657009	0.039540
1157.811253	0.039855
1157.965479	0.045523
1158.119687	0.046210
1158.273877	0.042938
1158.428048	0.042587
1158.582201	0.043588
1158.736337	0.036521
1158.890453	0.031889
1159.044552	0.026866
1159.198632	0.025131
1159.352694	0.027692
1159.506738	0.035656
1159.660764	0.040830
1159.814771	0.037701
1159.968761	0.035242
1160.122732	0.040194
1160.276685	0.035231
1160.430619	0.044644
1160.584535	0.045693
1160.738434	0.047246
1160.892313	0.038663
1161.046175	0.032985
1161.200019	0.033040
1161.353844	0.037644
1161.507651	0.031944
1161.661440	0.040356
1161.815210	0.035253
1161.968962	0.031301
1162.122697	0.031348
1162.276412	0.029834
1162.430110	0.035383
1162.583789	0.027541
1162.737451	0.025601
1162.891094	0.028438
1163.044718	0.028814
1163.198325	0.028914
1163.351913	0.033655
1163.505483	0.027958
1163.659035	0.024162
1163.812569	0.020269
1163.966084	0.022804
1164.119581	0.025280
1164.273060	0.034641
1164.426521	0.034455
1164.579964	0.029532
1164.733388	0.033887
1164.886794	0.037589
1165.040182	0.042863
1165.193551	0.048226
1165.346903	0.050696
1165.500236	0.043288
1165.653551	0.035654
1165.806848	0.029760
1165.960126	0.031924
1166.113386	0.028540
1166.266628	0.022236
1166.419852	0.020858
1166.573058	0.013944
1166.726245	0.022731
1166.879414	0.036241
1167.032565	0.030140
1167.185698	0.030702
1167.338812	0.030521
1167.491909	0.020552
1167.644987	0.017887
1167.798046	0.019229
1167.951088	0.031349
1168.104111	0.029794
1168.257117	0.020519
1168.410103	0.023811
1168.563072	0.028318
1168.716023	0.037184
1168.868955	0.043523
1169.021869	0.049180
1169.174765	0.041951
1169.327642	0.035530
1169.480501	0.030955
1169.633343	0.032925
1169.786165	0.022522
1169.938970	0.026345
1170.091757	0.011755
1170.244525	0.007577
1170.397275	0.013593
1170.550007	0.012575
1170.702720	0.007971
1170.855415	0.004919
1171.008092	0.000578
1171.160751	0.006759
1171.313392	-0.002756
1171.466014	-0.001790
1171.618619	-0.000712
1171.771205	-0.000712
1171.923772	-0.000712
