sample name	sample
index	1202
start time	 04-26-2021  12:49:21 PM


Wavelength (nm)	Absorbance
494.344910	-0.195759
494.563924	-0.195759
494.782919	-0.195759
495.001897	-1.185381
495.220856	-1.109478
495.439797	NaN
495.658719	NaN
495.877624	NaN
496.096510	NaN
496.315378	-0.454210
496.534227	-0.725588
496.753059	-0.544340
496.971872	-0.372864
497.190667	-0.015860
497.409444	0.004564
497.628203	0.007117
497.846943	0.008542
498.065665	0.011352
498.284369	0.012691
498.503055	0.013882
498.721723	0.015732
498.940372	0.017167
499.159003	0.017442
499.377616	0.017617
499.596210	0.018149
499.814787	0.018660
500.033345	0.018367
500.251885	0.018180
500.470406	0.017158
500.688910	0.016934
500.907395	0.015922
501.125862	0.015098
501.344311	0.015941
501.562742	0.015845
501.781154	0.014667
501.999548	0.014614
502.217924	0.015153
502.436282	0.016229
502.654621	0.015466
502.872942	0.015489
503.091245	0.017045
503.309530	0.015582
503.527797	0.015885
503.746045	0.016090
503.964275	0.016030
504.182487	0.015303
504.400681	0.014904
504.618856	0.014728
504.837013	0.014276
505.055152	0.012930
505.273273	0.012974
505.491376	0.012184
505.709460	0.012067
505.927526	0.011535
506.145574	0.011459
506.363604	0.011381
506.581615	0.011710
506.799608	0.011887
507.017583	0.012207
507.235540	0.012364
507.453478	0.012533
507.671399	0.012893
507.889301	0.013372
508.107185	0.012614
508.325050	0.012316
508.542898	0.012667
508.760727	0.012801
508.978538	0.012940
509.196330	0.013124
509.414105	0.012378
509.631861	0.011927
509.849599	0.012005
510.067319	0.013449
510.285021	0.012793
510.502704	0.012587
510.720369	0.012787
510.938016	0.011988
511.155645	0.011312
511.373255	0.012376
511.590848	0.012404
511.808422	0.011637
512.025977	0.010857
512.243515	0.011126
512.461034	0.010854
512.678536	0.010560
512.896018	0.010266
513.113483	0.010058
513.330930	0.009481
513.548358	0.009796
513.765768	0.009918
513.983160	0.009385
514.200533	0.009756
514.417889	0.009308
514.635226	0.009529
514.852545	0.010211
515.069845	0.010517
515.287128	0.010158
515.504392	0.009805
515.721638	0.009281
515.938866	0.009810
516.156075	0.009703
516.373267	0.010024
516.590440	0.009652
516.807594	0.009815
517.024731	0.009289
517.241850	0.009459
517.458950	0.009106
517.676032	0.009336
517.893095	0.009424
518.110141	0.009785
518.327168	0.009713
518.544177	0.009849
518.761168	0.009626
518.978141	0.009051
519.195095	0.008994
519.412031	0.009001
519.628949	0.009273
519.845849	0.008814
520.062731	0.008410
520.279594	0.007890
520.496439	0.007508
520.713266	0.007681
520.930074	0.008425
521.146865	0.008646
521.363637	0.008565
521.580391	0.008557
521.797127	0.008364
522.013844	0.008312
522.230543	0.008437
522.447224	0.008351
522.663887	0.007859
522.880532	0.008016
523.097158	0.007725
523.313766	0.008120
523.530356	0.008213
523.746928	0.008734
523.963481	0.008228
524.180017	0.008367
524.396534	0.007996
524.613032	0.008339
524.829513	0.008144
525.045975	0.008317
525.262420	0.008393
525.478845	0.008271
525.695253	0.008279
525.911643	0.008649
526.128014	0.008756
526.344367	0.009348
526.560702	0.009338
526.777018	0.009603
526.993316	0.009137
527.209597	0.008933
527.425858	0.008571
527.642102	0.008337
527.858328	0.008282
528.074535	0.007846
528.290724	0.007278
528.506894	0.007213
528.723047	0.007189
528.939181	0.007432
529.155297	0.006656
529.371395	0.006510
529.587475	0.006320
529.803536	0.006472
530.019579	0.006458
530.235604	0.006878
530.451611	0.006294
530.667600	0.006199
530.883570	0.005973
531.099522	0.006757
531.315456	0.006945
531.531372	0.006584
531.747269	0.005719
531.963148	0.005656
532.179009	0.005215
532.394852	0.005328
532.610676	0.005109
532.826482	0.004951
533.042271	0.004467
533.258040	0.004402
533.473792	0.004947
533.689525	0.006326
533.905240	0.006941
534.120937	0.007332
534.336616	0.007681
534.552277	0.007873
534.767919	0.007998
534.983543	0.008841
535.199149	0.009019
535.414736	0.009060
535.630306	0.007958
535.845857	0.007612
536.061390	0.007628
536.276904	0.007467
536.492401	0.007518
536.707879	0.007382
536.923339	0.006836
537.138781	0.006445
537.354204	0.006543
537.569610	0.006648
537.784997	0.006543
538.000366	0.006002
538.215716	0.005579
538.431049	0.005051
538.646363	0.005358
538.861659	0.005595
539.076937	0.005965
539.292196	0.005694
539.507438	0.005436
539.722661	0.005766
539.937866	0.006391
540.153052	0.006619
540.368221	0.006856
540.583371	0.006004
540.798503	0.005696
541.013617	0.005816
541.228712	0.005665
541.443789	0.005860
541.658848	0.005488
541.873889	0.004918
542.088912	0.004816
542.303916	0.004756
542.518902	0.005389
542.733870	0.005311
542.948820	0.005241
543.163752	0.005299
543.378665	0.005748
543.593560	0.005638
543.808437	0.005466
544.023295	0.005848
544.238136	0.006012
544.452958	0.006155
544.667762	0.006230
544.882548	0.006004
545.097315	0.005891
545.312064	0.005462
545.526795	0.005484
545.741508	0.005615
545.956203	0.005464
546.170879	0.005099
546.385537	0.005216
546.600177	0.005134
546.814799	0.005131
547.029402	0.005354
547.243988	0.005493
547.458555	0.005438
547.673103	0.005542
547.887634	0.005361
548.102146	0.005695
548.316640	0.005240
548.531116	0.004807
548.745574	0.004614
548.960013	0.004460
549.174435	0.004435
549.388838	0.004456
549.603222	0.004515
549.817589	0.004487
550.031937	0.004265
550.246267	0.003971
550.460579	0.004329
550.674873	0.004335
550.889148	0.004383
551.103405	0.004117
551.317644	0.004053
551.531865	0.003659
551.746068	0.003384
551.960252	0.003050
552.174418	0.003585
552.388566	0.003352
552.602696	0.003203
552.816807	0.003030
553.030900	0.003037
553.244975	0.002897
553.459032	0.002840
553.673070	0.003059
553.887091	0.003433
554.101093	0.002868
554.315077	0.002834
554.529042	0.002967
554.742990	0.003007
554.956919	0.002744
555.170830	0.002706
555.384722	0.002667
555.598597	0.002651
555.812453	0.002623
556.026291	0.002984
556.240111	0.003165
556.453913	0.003205
556.667696	0.003164
556.881461	0.003332
557.095208	0.003244
557.308937	0.003314
557.522647	0.003079
557.736339	0.002533
557.950013	0.002119
558.163669	0.001809
558.377307	0.001995
558.590926	0.002159
558.804527	0.002224
559.018110	0.002408
559.231675	0.002295
559.445221	0.002077
559.658749	0.002546
559.872259	0.003068
560.085751	0.003470
560.299225	0.002797
560.512680	0.002168
560.726117	0.002287
560.939536	0.002247
561.152937	0.002514
561.366319	0.002607
561.579683	0.002364
561.793029	0.001951
562.006357	0.001553
562.219667	0.001691
562.432958	0.001974
562.646231	0.001711
562.859486	0.001435
563.072723	0.001040
563.285941	0.001118
563.499141	0.000652
563.712323	0.000974
563.925487	0.000734
564.138632	0.000536
564.351760	0.000196
564.564869	0.000269
564.777960	0.000558
564.991032	0.000886
565.204087	0.000653
565.417123	0.000698
565.630141	0.000234
565.843140	0.000371
566.056122	0.000297
566.269085	0.000342
566.482030	0.000188
566.694957	-0.000142
566.907866	-0.000576
567.120756	-0.000861
567.333628	-0.000654
567.546482	-0.000839
567.759318	-0.000961
567.972135	-0.001043
568.184935	-0.001189
568.397716	-0.001417
568.610478	-0.001494
568.823223	-0.001494
569.035949	-0.001210
569.248657	-0.001306
569.461347	-0.001119
569.674019	-0.001057
569.886672	-0.000925
570.099308	-0.001038
570.311925	-0.000933
570.524523	-0.001088
570.737104	-0.001010
570.949666	-0.001002
571.162210	-0.001241
571.374736	-0.001229
571.587244	-0.001275
571.799733	-0.001331
572.012205	-0.001093
572.224658	-0.001200
572.437092	-0.000970
572.649509	-0.000925
572.861907	-0.000931
573.074287	-0.000875
573.286649	-0.000816
573.498993	-0.000887
573.711318	-0.000764
573.923625	-0.000605
574.135914	-0.000256
574.348185	-0.000280
574.560438	-0.000654
574.772672	-0.000549
574.984888	-0.000363
575.197086	-0.000677
575.409266	-0.000616
575.621427	-0.000712
575.833570	-0.000848
576.045695	-0.000939
576.257802	-0.000924
576.469890	-0.000623
576.681961	-0.000865
576.894013	-0.000855
577.106046	-0.000594
577.318062	-0.000708
577.530059	-0.000751
577.742039	-0.000803
577.954000	-0.001022
578.165942	-0.001153
578.377867	-0.001320
578.589773	-0.001079
578.801661	-0.001466
579.013531	-0.001775
579.225382	-0.001709
579.437216	-0.001778
579.649031	-0.001814
579.860828	-0.002155
580.072606	-0.002359
580.284367	-0.002303
580.496109	-0.002708
580.707833	-0.002576
580.919539	-0.002513
581.131227	-0.002625
581.342896	-0.002696
581.554547	-0.002569
581.766180	-0.002397
581.977795	-0.002521
582.189391	-0.002364
582.400969	-0.001945
582.612529	-0.001998
582.824071	-0.001937
583.035595	-0.001805
583.247100	-0.001695
583.458587	-0.001755
583.670056	-0.001794
583.881506	-0.001423
584.092939	-0.001675
584.304353	-0.002165
584.515749	-0.002003
584.727127	-0.002066
584.938486	-0.002296
585.149828	-0.002177
585.361151	-0.002450
585.572456	-0.002606
585.783742	-0.002528
585.995011	-0.002585
586.206261	-0.002394
586.417493	-0.002470
586.628706	-0.002477
586.839902	-0.002337
587.051079	-0.002445
587.262238	-0.002071
587.473379	-0.001706
587.684502	-0.001772
587.895606	-0.001551
588.106692	-0.001314
588.317760	-0.001142
588.528810	-0.001097
588.739841	-0.000729
588.950855	-0.001101
589.161850	-0.001423
589.372827	-0.001597
589.583785	-0.001658
589.794726	-0.001762
590.005648	-0.001752
590.216552	-0.001985
590.427437	-0.002254
590.638305	-0.002550
590.849154	-0.002199
591.059985	-0.002379
591.270798	-0.002245
591.481592	-0.002296
591.692369	-0.002099
591.903127	-0.002169
592.113867	-0.001739
592.324588	-0.001390
592.535292	-0.001566
592.745977	-0.001650
592.956644	-0.001473
593.167293	-0.001517
593.377923	-0.001637
593.588536	-0.001970
593.799130	-0.002190
594.009706	-0.002783
594.220263	-0.002848
594.430803	-0.002599
594.641324	-0.002441
594.851827	-0.002687
595.062312	-0.002731
595.272778	-0.002633
595.483227	-0.002431
595.693657	-0.002103
595.904069	-0.001574
596.114462	-0.001570
596.324838	-0.001664
596.535195	-0.001698
596.745534	-0.001408
596.955855	-0.001364
597.166157	-0.001388
597.376441	-0.001592
597.586707	-0.002122
597.796955	-0.002478
598.007185	-0.002343
598.217396	-0.002491
598.427589	-0.002764
598.637764	-0.003019
598.847921	-0.003143
599.058060	-0.003228
599.268180	-0.003102
599.478282	-0.002704
599.688366	-0.002744
599.898431	-0.002883
600.108479	-0.003014
600.318508	-0.003072
600.528519	-0.002786
600.738511	-0.002566
600.948486	-0.002417
601.158442	-0.002391
601.368380	-0.002392
601.578300	-0.002432
601.788202	-0.002387
601.998085	-0.002276
602.207950	-0.001734
602.417797	-0.001858
602.627626	-0.001952
602.837436	-0.001775
603.047228	-0.001667
603.257002	-0.001738
603.466758	-0.001529
603.676496	-0.001451
603.886215	-0.001299
604.095916	-0.001851
604.305599	-0.001877
604.515264	-0.002053
604.724910	-0.002329
604.934538	-0.002543
605.144148	-0.002389
605.353740	-0.002482
605.563314	-0.002758
605.772869	-0.002555
605.982406	-0.002044
606.191925	-0.001991
606.401425	-0.002121
606.610908	-0.001897
606.820372	-0.001708
607.029818	-0.001765
607.239246	-0.001854
607.448655	-0.001834
607.658047	-0.002201
607.867420	-0.002649
608.076775	-0.002851
608.286111	-0.002669
608.495430	-0.002776
608.704730	-0.002968
608.914012	-0.003092
609.123275	-0.002864
609.332521	-0.002710
609.541748	-0.002519
609.750957	-0.002430
609.960148	-0.002307
610.169321	-0.002446
610.378475	-0.002626
610.587611	-0.002547
610.796729	-0.002783
611.005829	-0.002710
611.214910	-0.002827
611.423974	-0.003142
611.633019	-0.003214
611.842045	-0.003149
612.051054	-0.002756
612.260044	-0.002752
612.469017	-0.002873
612.677970	-0.002588
612.886906	-0.002694
613.095824	-0.002749
613.304723	-0.002727
613.513604	-0.002549
613.722467	-0.002554
613.931311	-0.002728
614.140138	-0.002480
614.348946	-0.002364
614.557736	-0.002440
614.766507	-0.002505
614.975261	-0.002638
615.183996	-0.002434
615.392713	-0.002394
615.601412	-0.002558
615.810092	-0.002528
616.018754	-0.002626
616.227399	-0.002732
616.436024	-0.002681
616.644632	-0.002515
616.853222	-0.002244
617.061793	-0.002249
617.270346	-0.002441
617.478880	-0.002189
617.687397	-0.002311
617.895895	-0.002481
618.104375	-0.002318
618.312837	-0.002315
618.521281	-0.002687
618.729706	-0.002840
618.938113	-0.002765
619.146502	-0.002667
619.354873	-0.002637
619.563226	-0.002580
619.771560	-0.002361
619.979876	-0.002636
620.188174	-0.002582
620.396453	-0.002276
620.604715	-0.002083
620.812958	-0.002069
621.021183	-0.001937
621.229390	-0.001836
621.437578	-0.001847
621.645748	-0.001894
621.853900	-0.001325
622.062034	-0.001394
622.270150	-0.001427
622.478247	-0.001349
622.686326	-0.001391
622.894387	-0.001207
623.102430	-0.001341
623.310454	-0.001260
623.518461	-0.001114
623.726449	-0.001370
623.934418	-0.001499
624.142370	-0.001502
624.350303	-0.001537
624.558218	-0.001501
624.766115	-0.001833
624.973994	-0.001969
625.181855	-0.001904
625.389697	-0.002049
625.597521	-0.002005
625.805327	-0.001962
626.013114	-0.001950
626.220883	-0.002164
626.428634	-0.002290
626.636367	-0.002061
626.844082	-0.001900
627.051778	-0.001881
627.259457	-0.001735
627.467117	-0.001902
627.674758	-0.001790
627.882382	-0.001870
628.089987	-0.001941
628.297574	-0.001808
628.505143	-0.002132
628.712694	-0.002334
628.920226	-0.002448
629.127740	-0.002487
629.335236	-0.002365
629.542714	-0.002470
629.750174	-0.002263
629.957615	-0.002098
630.165038	-0.002245
630.372443	-0.002083
630.579829	-0.001986
630.787198	-0.002116
630.994548	-0.002340
631.201880	-0.002320
631.409194	-0.002346
631.616489	-0.002481
631.823766	-0.002540
632.031025	-0.002297
632.238266	-0.002283
632.445489	-0.002287
632.652693	-0.002217
632.859879	-0.002183
633.067047	-0.002072
633.274197	-0.002156
633.481329	-0.002283
633.688442	-0.002197
633.895537	-0.002191
634.102614	-0.002190
634.309672	-0.001960
634.516713	-0.001943
634.723735	-0.001822
634.930739	-0.001978
635.137724	-0.001829
635.344692	-0.001684
635.551641	-0.001728
635.758572	-0.001904
635.965485	-0.001966
636.172379	-0.002107
636.379256	-0.002136
636.586114	-0.002329
636.792954	-0.002462
636.999775	-0.002425
637.206579	-0.002570
637.413364	-0.002437
637.620131	-0.002415
637.826880	-0.002402
638.033610	-0.002405
638.240323	-0.002415
638.447017	-0.002236
638.653692	-0.002185
638.860350	-0.002358
639.066990	-0.002210
639.273611	-0.002331
639.480214	-0.002260
639.686798	-0.002296
639.893365	-0.002376
640.099913	-0.002376
640.306443	-0.002492
640.512955	-0.002385
640.719449	-0.002074
640.925924	-0.001916
641.132381	-0.001947
641.338820	-0.001998
641.545241	-0.001830
641.751644	-0.001902
641.958028	-0.001812
642.164394	-0.001832
642.370742	-0.001627
642.577071	-0.001901
642.783383	-0.002072
642.989676	-0.001954
643.195951	-0.002085
643.402207	-0.002048
643.608446	-0.001945
643.814666	-0.001969
644.020868	-0.001765
644.227052	-0.001864
644.433218	-0.001585
644.639365	-0.001664
644.845494	-0.001674
645.051605	-0.001552
645.257698	-0.001672
645.463772	-0.001713
645.669828	-0.001727
645.875866	-0.001974
646.081886	-0.001971
646.287888	-0.001950
646.493871	-0.001861
646.699836	-0.001949
646.905783	-0.001842
647.111712	-0.001770
647.317622	-0.001884
647.523514	-0.002081
647.729388	-0.001963
647.935244	-0.002137
648.141082	-0.002272
648.346901	-0.002379
648.552702	-0.002453
648.758485	-0.002596
648.964250	-0.002741
649.169996	-0.002624
649.375724	-0.002447
649.581434	-0.002298
649.787126	-0.002282
649.992800	-0.002378
650.198455	-0.002403
650.404092	-0.002332
650.609711	-0.002315
650.815311	-0.002396
651.020894	-0.002266
651.226458	-0.002336
651.432004	-0.002556
651.637532	-0.002660
651.843041	-0.002715
652.048532	-0.002736
652.254006	-0.002729
652.459460	-0.002900
652.664897	-0.002960
652.870315	-0.003116
653.075716	-0.003214
653.281097	-0.003274
653.486461	-0.003236
653.691807	-0.003324
653.897134	-0.003373
654.102443	-0.003337
654.307734	-0.003239
654.513006	-0.002923
654.718261	-0.002876
654.923497	-0.002727
655.128715	-0.002523
655.333915	-0.002406
655.539096	-0.002256
655.744259	-0.001975
655.949404	-0.001928
656.154531	-0.001861
656.359640	-0.002081
656.564730	-0.001985
656.769802	-0.001976
656.974856	-0.001952
657.179892	-0.001983
657.384909	-0.001842
657.589908	-0.001722
657.794889	-0.001645
657.999852	-0.001694
658.204797	-0.001546
658.409723	-0.001609
658.614631	-0.001510
658.819521	-0.001472
659.024393	-0.001359
659.229246	-0.001347
659.434081	-0.001542
659.638898	-0.001604
659.843697	-0.001523
660.048478	-0.001488
660.253240	-0.001562
660.457984	-0.001657
660.662710	-0.001689
660.867417	-0.001751
661.072107	-0.001859
661.276778	-0.001757
661.481431	-0.001704
661.686066	-0.001584
661.890682	-0.001563
662.095281	-0.001278
662.299861	-0.001121
662.504422	-0.001187
662.708966	-0.001166
662.913491	-0.001222
663.117999	-0.001292
663.322488	-0.001317
663.526958	-0.001485
663.731411	-0.001486
663.935845	-0.001698
664.140261	-0.001689
664.344659	-0.001615
664.549038	-0.001598
664.753400	-0.001430
664.957743	-0.001304
665.162068	-0.001097
665.366375	-0.000984
665.570663	-0.000855
665.774933	-0.000850
665.979185	-0.000791
666.183419	-0.000644
666.387635	-0.000698
666.591832	-0.000745
666.796011	-0.000977
667.000172	-0.001079
667.204315	-0.000946
667.408439	-0.001221
667.612545	-0.001016
667.816634	-0.001171
668.020703	-0.001274
668.224755	-0.001257
668.428788	-0.001152
668.632803	-0.001008
668.836800	-0.001128
669.040779	-0.001112
669.244739	-0.000985
669.448681	-0.001013
669.652605	-0.000887
669.856511	-0.000870
670.060399	-0.000787
670.264268	-0.000759
670.468119	-0.000677
670.671952	-0.000477
670.875767	-0.000337
671.079563	-0.000194
671.283341	-0.000125
671.487101	-0.000113
671.690843	0.000090
671.894567	0.000198
672.098272	0.000272
672.301959	0.000400
672.505628	0.000521
672.709278	0.000369
672.912911	0.000526
673.116525	0.000476
673.320121	0.000484
673.523699	0.000394
673.727258	0.000427
673.930799	0.000383
674.134322	0.000415
674.337827	0.000272
674.541314	0.000314
674.744782	0.000214
674.948232	0.000374
675.151664	0.000371
675.355078	0.000535
675.558474	0.000511
675.761851	0.000421
675.965210	0.000284
676.168551	0.000257
676.371873	0.000235
676.575178	0.000249
676.778464	0.000195
676.981732	0.000161
677.184981	0.000110
677.388213	0.000067
677.591426	0.000186
677.794621	0.000185
677.997798	0.000209
678.200956	0.000373
678.404097	0.000283
678.607219	0.000263
678.810323	0.000404
679.013408	0.000187
679.216476	0.000208
679.419525	0.000152
679.622556	0.000220
679.825569	0.000235
680.028563	-0.000013
680.231540	0.000131
680.434498	0.000157
680.637438	0.000231
680.840359	0.000359
681.043263	0.000498
681.246148	0.000705
681.449015	0.000880
681.651864	0.000816
681.854694	0.000844
682.057506	0.000671
682.260301	0.000769
682.463076	0.000589
682.665834	0.000586
682.868573	0.000380
683.071295	0.000437
683.273998	0.000284
683.476682	0.000323
683.679349	0.000486
683.881997	0.000576
684.084627	0.000604
684.287239	0.000705
684.489833	0.000628
684.692408	0.000748
684.894965	0.000636
685.097504	0.000733
685.300025	0.000951
685.502527	0.000748
685.705012	0.000622
685.907478	0.000432
686.109925	0.000430
686.312355	0.000581
686.514766	0.000544
686.717159	0.000532
686.919534	0.000512
687.121891	0.000337
687.324230	0.000513
687.526550	0.000763
687.728852	0.000774
687.931136	0.000943
688.133401	0.000901
688.335649	0.001048
688.537878	0.000870
688.740089	0.000916
688.942281	0.000944
689.144456	0.000886
689.346612	0.000818
689.548750	0.000944
689.750870	0.000988
689.952971	0.001210
690.155055	0.001223
690.357120	0.001379
690.559167	0.001294
690.761195	0.001446
690.963206	0.001706
691.165198	0.001795
691.367172	0.001824
691.569128	0.001763
691.771065	0.001690
691.972984	0.001740
692.174885	0.001599
692.376768	0.001768
692.578633	0.001687
692.780479	0.001523
692.982308	0.001577
693.184118	0.001570
693.385909	0.001591
693.587683	0.001449
693.789438	0.001163
693.991175	0.001322
694.192894	0.001228
694.394595	0.001110
694.596277	0.001110
694.797941	0.001019
694.999587	0.000955
695.201215	0.000671
695.402824	0.000600
695.604416	0.000700
695.805989	0.000682
696.007543	0.000524
696.209080	0.000391
696.410598	0.000349
696.612099	0.000332
696.813580	0.000325
697.015044	0.000380
697.216490	0.000410
697.417917	0.000484
697.619326	0.000495
697.820717	0.000398
698.022089	0.000621
698.223444	0.000530
698.424780	0.000595
698.626098	0.000503
698.827397	0.000588
699.028679	0.000678
699.229942	0.000615
699.431187	0.000553
699.632414	0.000736
699.833622	0.000684
700.034813	0.000903
700.235985	0.000792
700.437139	0.001050
700.638274	0.001045
700.839392	0.000944
701.040491	0.000947
701.241572	0.001042
701.442635	0.001151
701.643679	0.001242
701.844706	0.001266
702.045714	0.001433
702.246704	0.001217
702.447675	0.001129
702.648629	0.001257
702.849564	0.001372
703.050481	0.001371
703.251380	0.001364
703.452260	0.001346
703.653122	0.001299
703.853966	0.001293
704.054792	0.001377
704.255600	0.001498
704.456389	0.001461
704.657160	0.001443
704.857913	0.001568
705.058648	0.001525
705.259365	0.001507
705.460063	0.001455
705.660743	0.001324
705.861405	0.001361
706.062048	0.001335
706.262674	0.001330
706.463281	0.001351
706.663870	0.001314
706.864441	0.001280
707.064993	0.001346
707.265527	0.001431
707.466043	0.001430
707.666541	0.001387
707.867021	0.001458
708.067482	0.001476
708.267925	0.001378
708.468350	0.001133
708.668757	0.001093
708.869145	0.001193
709.069516	0.000983
709.269868	0.000992
709.470201	0.001038
709.670517	0.000982
709.870814	0.001016
710.071093	0.001071
710.271354	0.001200
710.471597	0.001305
710.671821	0.001070
710.872028	0.001214
711.072216	0.001231
711.272385	0.001183
711.472537	0.001281
711.672670	0.001295
711.872785	0.001334
712.072882	0.001275
712.272961	0.001239
712.473021	0.001332
712.673063	0.001267
712.873087	0.001348
713.073093	0.001354
713.273081	0.001187
713.473050	0.000934
713.673001	0.000842
713.872934	0.000895
714.072849	0.000823
714.272745	0.000595
714.472623	0.000390
714.672483	0.000170
714.872325	-0.000025
715.072148	-0.000006
715.271954	0.000001
715.471741	-0.000184
715.671509	-0.000066
715.871260	-0.000252
716.070992	-0.000139
716.270707	-0.000003
716.470403	0.000143
716.670080	0.000233
716.869740	0.000203
717.069381	0.000337
717.269004	0.000474
717.468609	0.000296
717.668195	0.000295
717.867764	0.000251
718.067314	0.000289
718.266846	0.000320
718.466360	0.000395
718.665855	0.000313
718.865332	0.000307
719.064791	0.000335
719.264232	0.000389
719.463655	0.000598
719.663059	0.000627
719.862445	0.000730
720.061813	0.000619
720.261163	0.000556
720.460494	0.000586
720.659807	0.000432
720.859102	0.000397
721.058379	0.000185
721.257638	0.000045
721.456878	0.000284
721.656100	0.000110
721.855304	-0.000031
722.054490	-0.000045
722.253657	0.000085
722.452806	0.000173
722.651937	0.000089
722.851050	0.000242
723.050145	0.000261
723.249221	-0.000003
723.448279	0.000007
723.647319	0.000092
723.846340	0.000025
724.045344	-0.000152
724.244329	-0.000252
724.443296	-0.000416
724.642245	-0.000419
724.841175	-0.000579
725.040088	-0.000771
725.238982	-0.000915
725.437857	-0.001024
725.636715	-0.001105
725.835554	-0.001087
726.034376	-0.001112
726.233179	-0.000959
726.431963	-0.001082
726.630730	-0.001049
726.829478	-0.001006
727.028208	-0.001076
727.226920	-0.001297
727.425614	-0.001372
727.624289	-0.001430
727.822946	-0.001409
728.021585	-0.001566
728.220206	-0.001567
728.418808	-0.001584
728.617392	-0.001591
728.815958	-0.001667
729.014506	-0.001563
729.213036	-0.001557
729.411547	-0.001478
729.610040	-0.001531
729.808515	-0.001586
730.006972	-0.001504
730.205410	-0.001532
730.403831	-0.001523
730.602233	-0.001443
730.800616	-0.001265
730.998982	-0.001229
731.197329	-0.001283
731.395658	-0.001293
731.593969	-0.001251
731.792262	-0.001349
731.990536	-0.001156
732.188793	-0.001033
732.387031	-0.000786
732.585250	-0.000670
732.783452	-0.000447
732.981635	-0.000197
733.179800	-0.000180
733.377947	-0.000053
733.576076	0.000203
733.774186	0.000244
733.972278	0.000250
734.170352	0.000214
734.368408	0.000257
734.566446	0.000114
734.764465	0.000051
734.962466	0.000246
735.160449	0.000337
735.358413	0.000190
735.556360	0.000187
735.754288	0.000197
735.952198	0.000223
736.150090	0.000218
736.347963	0.000315
736.545818	0.000211
736.743655	0.000151
736.941474	0.000280
737.139275	0.000488
737.337057	0.000458
737.534821	0.000624
737.732567	0.000569
737.930295	0.000451
738.128005	0.000451
738.325696	0.000530
738.523369	0.000659
738.721024	0.000833
738.918660	0.000664
739.116279	0.000805
739.313879	0.000863
739.511461	0.001038
739.709024	0.001229
739.906570	0.001252
740.104097	0.001347
740.301606	0.001377
740.499097	0.000995
740.696569	0.001005
740.894024	0.001017
741.091460	0.000791
741.288878	0.000703
741.486277	0.000700
741.683659	0.000786
741.881022	0.000762
742.078367	0.000798
742.275694	0.001033
742.473002	0.001156
742.670293	0.001180
742.867565	0.001448
743.064819	0.001558
743.262054	0.001554
743.459272	0.001630
743.656471	0.001683
743.853652	0.001810
744.050815	0.001852
744.247959	0.002007
744.445085	0.002170
744.642194	0.002123
744.839283	0.002284
745.036355	0.002575
745.233408	0.002704
745.430444	0.002927
745.627461	0.002958
745.824459	0.003063
746.021440	0.003020
746.218402	0.002963
746.415346	0.003078
746.612272	0.003034
746.809180	0.002874
747.006069	0.002867
747.202940	0.002781
747.399793	0.002714
747.596628	0.002758
747.793444	0.002848
747.990243	0.002784
748.187023	0.002897
748.383784	0.002830
748.580528	0.002853
748.777253	0.002963
748.973960	0.002843
749.170649	0.002880
749.367320	0.002979
749.563973	0.002985
749.760607	0.003078
749.957223	0.003141
750.153821	0.003207
750.350400	0.003231
750.546962	0.003112
750.743505	0.003206
750.940030	0.003141
751.136536	0.003034
751.333025	0.002943
751.529495	0.002860
751.725947	0.002688
751.922381	0.002726
752.118796	0.002698
752.315194	0.002694
752.511573	0.002794
752.707934	0.003027
752.904276	0.003094
753.100601	0.003275
753.296907	0.003385
753.493195	0.003270
753.689465	0.003219
753.885716	0.003425
754.081949	0.003485
754.278164	0.003284
754.474361	0.003156
754.670540	0.003046
754.866700	0.002973
755.062843	0.003059
755.258967	0.003334
755.455072	0.003407
755.651160	0.003224
755.847229	0.003177
756.043280	0.003343
756.239313	0.003496
756.435328	0.003706
756.631324	0.003674
756.827302	0.003739
757.023262	0.003577
757.219204	0.003762
757.415127	0.004019
757.611033	0.004193
757.806920	0.004314
758.002788	0.004238
758.198639	0.004346
758.394471	0.004552
758.590286	0.004520
758.786081	0.004760
758.981859	0.004851
759.177619	0.004909
759.373360	0.004997
759.569083	0.005173
759.764788	0.005366
759.960474	0.005495
760.156143	0.005431
760.351793	0.005506
760.547425	0.005743
760.743038	0.005725
760.938634	0.005739
761.134211	0.005682
761.329770	0.005661
761.525311	0.005665
761.720833	0.005610
761.916338	0.005868
762.111824	0.005999
762.307292	0.005979
762.502741	0.006120
762.698173	0.006198
762.893586	0.006211
763.088981	0.006152
763.284358	0.006415
763.479716	0.006418
763.675057	0.006406
763.870379	0.006451
764.065683	0.006511
764.260968	0.006485
764.456236	0.006486
764.651485	0.006607
764.846716	0.006847
765.041929	0.006698
765.237123	0.006727
765.432299	0.006659
765.627457	0.006673
765.822597	0.006638
766.017719	0.006564
766.212822	0.006571
766.407907	0.006651
766.602974	0.006579
766.798023	0.006640
766.993054	0.006650
767.188066	0.006806
767.383060	0.006716
767.578036	0.006642
767.772993	0.006803
767.967933	0.006732
768.162854	0.006580
768.357757	0.006690
768.552642	0.006729
768.747508	0.006868
768.942356	0.006810
769.137186	0.006978
769.331998	0.007129
769.526792	0.007212
769.721567	0.007324
769.916324	0.007627
770.111063	0.007609
770.305784	0.007744
770.500486	0.007831
770.695171	0.007901
770.889837	0.007965
771.084484	0.007959
771.279114	0.008042
771.473725	0.008134
771.668318	0.008334
771.862893	0.008458
772.057450	0.008434
772.251988	0.008406
772.446509	0.008554
772.641011	0.008522
772.835494	0.008704
773.029960	0.008553
773.224407	0.008616
773.418836	0.008363
773.613247	0.008268
773.807640	0.008018
774.002014	0.008049
774.196370	0.008139
774.390708	0.008105
774.585028	0.007839
774.779330	0.007927
774.973613	0.007862
775.167878	0.007816
775.362125	0.007978
775.556354	0.008176
775.750564	0.008104
775.944756	0.007854
776.138930	0.008074
776.333086	0.008456
776.527223	0.008574
776.721343	0.008475
776.915444	0.008648
777.109526	0.008474
777.303591	0.008594
777.497637	0.008885
777.691666	0.009062
777.885676	0.008969
778.079667	0.008992
778.273641	0.009024
778.467596	0.009323
778.661533	0.009500
778.855452	0.009740
779.049352	0.009858
779.243235	0.009825
779.437099	0.010003
779.630945	0.010229
779.824773	0.010265
780.018582	0.010321
780.212373	0.010306
780.406146	0.010194
780.599901	0.010092
780.793638	0.010045
780.987356	0.010159
781.181056	0.009989
781.374738	0.010026
781.568402	0.009980
781.762047	0.009864
781.955674	0.009843
782.149283	0.009707
782.342874	0.009865
782.536447	0.009768
782.730001	0.009551
782.923537	0.009771
783.117055	0.009608
783.310555	0.009459
783.504036	0.009381
783.697499	0.009317
783.890944	0.009503
784.084371	0.009571
784.277780	0.009713
784.471170	0.009915
784.664542	0.009784
784.857896	0.009970
785.051231	0.010107
785.244549	0.010174
785.437848	0.010208
785.631129	0.010249
785.824392	0.010108
786.017636	0.010131
786.210863	0.009977
786.404071	0.010018
786.597260	0.009820
786.790432	0.009664
786.983585	0.009621
787.176721	0.009559
787.369838	0.009506
787.562936	0.009449
787.756017	0.009543
787.949079	0.009706
788.142123	0.009711
788.335149	0.009804
788.528156	0.009957
788.721146	0.010165
788.914117	0.010447
789.107070	0.010664
789.300005	0.010781
789.492921	0.010875
789.685819	0.010850
789.878699	0.010867
790.071561	0.011047
790.264405	0.011232
790.457230	0.011388
790.650037	0.011528
790.842826	0.011426
791.035597	0.011487
791.228349	0.011324
791.421084	0.011502
791.613800	0.011661
791.806497	0.011795
791.999177	0.011781
792.191838	0.011904
792.384481	0.011735
792.577106	0.011809
792.769713	0.011916
792.962301	0.012060
793.154871	0.012007
793.347423	0.011846
793.539957	0.011584
793.732473	0.011328
793.924970	0.011176
794.117449	0.011294
794.309910	0.011319
794.502353	0.011232
794.694777	0.011121
794.887183	0.011095
795.079571	0.011148
795.271941	0.011188
795.464293	0.011479
795.656626	0.011458
795.848941	0.011289
796.041238	0.011344
796.233516	0.011454
796.425777	0.011665
796.618019	0.011587
796.810243	0.011726
797.002449	0.011842
797.194636	0.011801
797.386805	0.011950
797.578956	0.012157
797.771089	0.012026
797.963204	0.012140
798.155300	0.011966
798.347378	0.011938
798.539438	0.011845
798.731480	0.011882
798.923503	0.011763
799.115509	0.011691
799.307496	0.011712
799.499465	0.011907
799.691415	0.011789
799.883348	0.011840
800.075262	0.011851
800.267158	0.011824
800.459035	0.011730
800.650895	0.011741
800.842736	0.011683
801.034559	0.011693
801.226364	0.011603
801.418150	0.011527
801.609919	0.011345
801.801669	0.011453
801.993401	0.011363
802.185114	0.011344
802.376810	0.011418
802.568487	0.011510
802.760146	0.011333
802.951787	0.011507
803.143409	0.011551
803.335014	0.011691
803.526600	0.011662
803.718168	0.011752
803.909717	0.011733
804.101249	0.011607
804.292762	0.011472
804.484257	0.011558
804.675734	0.011348
804.867192	0.011288
805.058632	0.011312
805.250054	0.011251
805.441458	0.011277
805.632844	0.011401
805.824211	0.011481
806.015561	0.011426
806.206891	0.011373
806.398204	0.011354
806.589499	0.011366
806.780775	0.011113
806.972033	0.011178
807.163273	0.011253
807.354495	0.010979
807.545698	0.010951
807.736883	0.011031
807.928050	0.011109
808.119199	0.011102
808.310329	0.011220
808.501441	0.011702
808.692535	0.011789
808.883611	0.011711
809.074669	0.011890
809.265708	0.012034
809.456729	0.012264
809.647732	0.012292
809.838717	0.012167
810.029683	0.012121
810.220632	0.011710
810.411562	0.011521
810.602474	0.011494
810.793367	0.011426
810.984242	0.011267
811.175100	0.010919
811.365938	0.010851
811.556759	0.011055
811.747562	0.010861
811.938346	0.011022
812.129112	0.011159
812.319860	0.011104
812.510589	0.011032
812.701300	0.011064
812.891994	0.011119
813.082668	0.010975
813.273325	0.010910
813.463964	0.011001
813.654584	0.010972
813.845186	0.010749
814.035769	0.010713
814.226335	0.010942
814.416882	0.011105
814.607411	0.011359
814.797922	0.011511
814.988415	0.011429
815.178889	0.011365
815.369345	0.011574
815.559783	0.011863
815.750203	0.012044
815.940605	0.012094
816.130988	0.012172
816.321353	0.012240
816.511700	0.012360
816.702028	0.012703
816.892339	0.012921
817.082631	0.012831
817.272905	0.012981
817.463161	0.013079
817.653398	0.012864
817.843617	0.012869
818.033819	0.012762
818.224001	0.012523
818.414166	0.012244
818.604312	0.012092
818.794440	0.011949
818.984550	0.011712
819.174642	0.011595
819.364716	0.011807
819.554771	0.011642
819.744808	0.011518
819.934827	0.011635
820.124827	0.011825
820.314810	0.011914
820.504774	0.011885
820.694720	0.011802
820.884647	0.011801
821.074557	0.011657
821.264448	0.011682
821.454321	0.011644
821.644176	0.011558
821.834012	0.011237
822.023831	0.011275
822.213631	0.011308
822.403413	0.011342
822.593176	0.011173
822.782922	0.011131
822.972649	0.010907
823.162358	0.010760
823.352049	0.010818
823.541721	0.010947
823.731376	0.010909
823.921012	0.010984
824.110629	0.010840
824.300229	0.010857
824.489811	0.010918
824.679374	0.010831
824.868919	0.010755
825.058445	0.010444
825.247954	0.010176
825.437444	0.009690
825.626916	0.009231
825.816370	0.009296
826.005806	0.009159
826.195223	0.008847
826.384622	0.008985
826.574003	0.009031
826.763366	0.009109
826.952711	0.009193
827.142037	0.009309
827.331345	0.009501
827.520635	0.009258
827.709906	0.009003
827.899160	0.008941
828.088395	0.008477
828.277612	0.008261
828.466810	0.008195
828.655991	0.007991
828.845153	0.007956
829.034297	0.007662
829.223423	0.007609
829.412531	0.007707
829.601620	0.007600
829.790691	0.007737
829.979744	0.007482
830.168779	0.007576
830.357795	0.007555
830.546793	0.007427
830.735773	0.007748
830.924735	0.007685
831.113679	0.007795
831.302604	0.007986
831.491511	0.008086
831.680400	0.008432
831.869271	0.008098
832.058123	0.008167
832.246957	0.008369
832.435773	0.008335
832.624571	0.008404
832.813351	0.008385
833.002112	0.008352
833.190855	0.008294
833.379580	0.008239
833.568287	0.008342
833.756975	0.008160
833.945645	0.008039
834.134297	0.008008
834.322931	0.008032
834.511547	0.008211
834.700144	0.008190
834.888723	0.008134
835.077284	0.008038
835.265826	0.008016
835.454351	0.008252
835.642857	0.008145
835.831345	0.008101
836.019815	0.008045
836.208266	0.007786
836.396699	0.007789
836.585114	0.007714
836.773511	0.007701
836.961890	0.007714
837.150250	0.007550
837.338592	0.007806
837.526916	0.007751
837.715222	0.007777
837.903510	0.007718
838.091779	0.007534
838.280030	0.007581
838.468263	0.007717
838.656477	0.007733
838.844674	0.007655
839.032852	0.007560
839.221012	0.007486
839.409153	0.007458
839.597277	0.007550
839.785382	0.007781
839.973469	0.007803
840.161538	0.007849
840.349589	0.007796
840.537621	0.007964
840.725635	0.007885
840.913631	0.007848
841.101609	0.007681
841.289568	0.007650
841.477509	0.007639
841.665432	0.007579
841.853337	0.007467
842.041224	0.007351
842.229092	0.007177
842.416942	0.007147
842.604774	0.007148
842.792588	0.007161
842.980383	0.007268
843.168160	0.007099
843.355919	0.007100
843.543660	0.006950
843.731382	0.007189
843.919087	0.007277
844.106773	0.007302
844.294441	0.007405
844.482090	0.007482
844.669722	0.007207
844.857335	0.007256
845.044930	0.007292
845.232507	0.007499
845.420065	0.007446
845.607605	0.007590
845.795127	0.007656
845.982631	0.007639
846.170117	0.007809
846.357584	0.008111
846.545033	0.008124
846.732464	0.008257
846.919877	0.008165
847.107272	0.008150
847.294648	0.008299
847.482006	0.008319
847.669346	0.008246
847.856667	0.008326
848.043971	0.008333
848.231256	0.008495
848.418523	0.008833
848.605771	0.008937
848.793002	0.009143
848.980214	0.008864
849.167408	0.008594
849.354584	0.008633
849.541742	0.008391
849.728881	0.008164
849.916002	0.008077
850.103105	0.007666
850.290190	0.007523
850.477256	0.007284
850.664304	0.007209
850.851334	0.007165
851.038346	0.007168
851.225340	0.007181
851.412315	0.007104
851.599272	0.006813
851.786211	0.006748
851.973132	0.006673
852.160034	0.006581
852.346918	0.006662
852.533784	0.006739
852.720632	0.006496
852.907462	0.006282
853.094273	0.006068
853.281066	0.006052
853.467841	0.005803
853.654598	0.005793
853.841336	0.005765
854.028056	0.005803
854.214758	0.005594
854.401442	0.005531
854.588107	0.005623
854.774755	0.005783
854.961384	0.005647
855.147995	0.005655
855.334587	0.005692
855.521162	0.005689
855.707718	0.005443
855.894256	0.005536
856.080775	0.005748
856.267277	0.005868
856.453760	0.005794
856.640225	0.005637
856.826672	0.005770
857.013101	0.005694
857.199511	0.005668
857.385903	0.005546
857.572277	0.005694
857.758633	0.005500
857.944970	0.005225
858.131290	0.005321
858.317591	0.005593
858.503873	0.005422
858.690138	0.005454
858.876384	0.005413
859.062612	0.005628
859.248822	0.005785
859.435014	0.006013
859.621188	0.006135
859.807343	0.006147
859.993480	0.006179
860.179599	0.006493
860.365699	0.006598
860.551781	0.006628
860.737846	0.006429
860.923891	0.006010
861.109919	0.006116
861.295929	0.006272
861.481920	0.006298
861.667893	0.006266
861.853848	0.006092
862.039784	0.005873
862.225702	0.005965
862.411603	0.006174
862.597484	0.006465
862.783348	0.006563
862.969193	0.006246
863.155021	0.006300
863.340830	0.006612
863.526620	0.006666
863.712393	0.006912
863.898147	0.007101
864.083883	0.007337
864.269601	0.007593
864.455301	0.007616
864.640982	0.007963
864.826645	0.007870
865.012290	0.007599
865.197917	0.007612
865.383526	0.007618
865.569116	0.007268
865.754688	0.006915
865.940242	0.006574
866.125777	0.006254
866.311295	0.005913
866.496794	0.005830
866.682275	0.005834
866.867737	0.005779
867.053182	0.005576
867.238608	0.005375
867.424016	0.005240
867.609406	0.005189
867.794778	0.004831
867.980131	0.005007
868.165466	0.004696
868.350783	0.004368
868.536082	0.004067
868.721362	0.003956
868.906625	0.004082
869.091869	0.004110
869.277094	0.003961
869.462302	0.003971
869.647491	0.003716
869.832662	0.003834
870.017815	0.003847
870.202950	0.003724
870.388066	0.003473
870.573165	0.003332
870.758245	0.003150
870.943306	0.002761
871.128350	0.002728
871.313375	0.002523
871.498382	0.002462
871.683371	0.002554
871.868342	0.002440
872.053294	0.002250
872.238229	0.002066
872.423144	0.001940
872.608042	0.002020
872.792922	0.001821
872.977783	0.001642
873.162626	0.001507
873.347451	0.001247
873.532258	0.001208
873.717046	0.001429
873.901816	0.001373
874.086568	0.001133
874.271302	0.001213
874.456017	0.001129
874.640715	0.001376
874.825394	0.001475
875.010055	0.001493
875.194697	0.001573
875.379322	0.001372
875.563928	0.001462
875.748516	0.001642
875.933085	0.001755
876.117637	0.001942
876.302170	0.002160
876.486685	0.002181
876.671182	0.001790
876.855661	0.001763
877.040121	0.001706
877.224563	0.001249
877.408987	0.001276
877.593393	0.001171
877.777780	0.001186
877.962150	0.000762
878.146501	0.000855
878.330833	0.001149
878.515148	0.001027
878.699444	0.001161
878.883722	0.001590
879.067982	0.001589
879.252224	0.001496
879.436447	0.001541
879.620653	0.001833
879.804840	0.001817
879.989008	0.002021
880.173159	0.001995
880.357291	0.002050
880.541405	0.001770
880.725501	0.001586
880.909579	0.001466
881.093638	0.001233
881.277680	0.000782
881.461703	0.000340
881.645707	0.000224
881.829694	0.000215
882.013662	-0.000120
882.197612	0.000128
882.381544	0.000048
882.565458	-0.000018
882.749353	-0.000238
882.933230	-0.000316
883.117089	-0.000520
883.300930	-0.000646
883.484753	-0.000567
883.668557	-0.000413
883.852343	-0.000522
884.036111	-0.000479
884.219861	-0.000440
884.403592	-0.000512
884.587305	-0.000461
884.771000	-0.000363
884.954677	-0.000669
885.138335	-0.000732
885.321976	-0.000810
885.505598	-0.000962
885.689201	-0.000744
885.872787	-0.000636
886.056354	-0.000294
886.239904	-0.000267
886.423434	0.000092
886.606947	0.000505
886.790442	0.000336
886.973918	0.000363
887.157376	0.000495
887.340816	0.000420
887.524237	0.000291
887.707641	-0.000026
887.891026	-0.000149
888.074393	-0.000629
888.257741	-0.001001
888.441072	-0.000958
888.624384	-0.000983
888.807678	-0.001429
888.990954	-0.001751
889.174211	-0.001877
889.357451	-0.001570
889.540672	-0.001698
889.723875	-0.001709
889.907059	-0.001751
890.090226	-0.001939
890.273374	-0.001927
890.456504	-0.001736
890.639616	-0.001507
890.822709	-0.001380
891.005785	-0.001476
891.188842	-0.001378
891.371881	-0.001398
891.554901	-0.001209
891.737904	-0.001109
891.920888	-0.001368
892.103854	-0.001522
892.286802	-0.001640
892.469731	-0.001818
892.652643	-0.002333
892.835536	-0.002065
893.018410	-0.001911
893.201267	-0.001975
893.384106	-0.001848
893.566926	-0.001623
893.749728	-0.001585
893.932511	-0.001611
894.115277	-0.001668
894.298024	-0.001270
894.480753	-0.001487
894.663464	-0.001502
894.846157	-0.001998
895.028831	-0.002321
895.211487	-0.002350
895.394125	-0.002395
895.576745	-0.002340
895.759346	-0.002305
895.941930	-0.002487
896.124495	-0.002641
896.307041	-0.002832
896.489570	-0.002657
896.672080	-0.002484
896.854573	-0.002560
897.037046	-0.002252
897.219502	-0.002423
897.401940	-0.002426
897.584359	-0.002457
897.766760	-0.002483
897.949143	-0.002471
898.131507	-0.002807
898.313854	-0.003060
898.496182	-0.003404
898.678492	-0.003503
898.860783	-0.003704
899.043057	-0.003660
899.225312	-0.003796
899.407549	-0.003838
899.589768	-0.004113
899.771968	-0.003653
899.954151	-0.003569
900.136315	-0.003695
900.318461	-0.003799
900.500588	-0.003762
900.682698	-0.004102
900.864789	-0.004052
901.046862	-0.003768
901.228917	-0.003592
901.410953	-0.003820
901.592971	-0.003801
901.774972	-0.003493
901.956953	-0.003408
902.138917	-0.003382
902.320862	-0.003436
902.502790	-0.003326
902.684699	-0.003622
902.866589	-0.003701
903.048462	-0.003394
903.230316	-0.003276
903.412152	-0.003283
903.593970	-0.003310
903.775770	-0.003137
903.957551	-0.002967
904.139314	-0.002906
904.321059	-0.002755
904.502786	-0.002801
904.684494	-0.003158
904.866185	-0.002974
905.047857	-0.002882
905.229510	-0.002994
905.411146	-0.003252
905.592763	-0.003112
905.774363	-0.003368
905.955943	-0.003426
906.137506	-0.003356
906.319051	-0.003476
906.500577	-0.004107
906.682085	-0.004315
906.863575	-0.004641
907.045046	-0.004687
907.226500	-0.005039
907.407935	-0.004840
907.589352	-0.004791
907.770750	-0.005268
907.952131	-0.005026
908.133493	-0.004793
908.314837	-0.005131
908.496163	-0.005217
908.677470	-0.005193
908.858760	-0.005252
909.040031	-0.005786
909.221284	-0.006139
909.402518	-0.005748
909.583735	-0.006084
909.764933	-0.006658
909.946113	-0.006683
910.127275	-0.006667
910.308418	-0.007397
910.489544	-0.007487
910.670651	-0.007365
910.851740	-0.007340
911.032810	-0.007692
911.213863	-0.008308
911.394897	-0.008358
911.575913	-0.008247
911.756911	-0.008181
911.937890	-0.007970
912.118851	-0.008050
912.299794	-0.008324
912.480719	-0.008879
912.661626	-0.008989
912.842514	-0.008481
913.023384	-0.008173
913.204236	-0.008589
913.385070	-0.009132
913.565886	-0.009163
913.746683	-0.009546
913.927462	-0.009609
914.108223	-0.009568
914.288965	-0.009291
914.469690	-0.009429
914.650396	-0.010084
914.831084	-0.010219
915.011754	-0.010178
915.192405	-0.010260
915.373038	-0.010021
915.553653	-0.010139
915.734250	-0.010174
915.914829	-0.010364
916.095389	-0.010288
916.275931	-0.010048
916.456455	-0.010008
916.636961	-0.010100
916.817448	-0.010034
916.997917	-0.010260
917.178368	-0.009947
917.358801	-0.009957
917.539216	-0.010236
917.719612	-0.010520
917.899990	-0.010459
918.080350	-0.010383
918.260692	-0.010449
918.441015	-0.010538
918.621320	-0.010618
918.801607	-0.011242
918.981876	-0.011299
919.162127	-0.011541
919.342359	-0.011546
919.522573	-0.011744
919.702769	-0.011975
919.882947	-0.011927
920.063106	-0.012089
920.243247	-0.011970
920.423370	-0.011884
920.603475	-0.011720
920.783562	-0.011588
920.963630	-0.011850
921.143680	-0.012050
921.323712	-0.012172
921.503725	-0.012505
921.683721	-0.012406
921.863698	-0.012928
922.043657	-0.013175
922.223598	-0.013801
922.403520	-0.013996
922.583424	-0.013909
922.763311	-0.014247
922.943178	-0.014566
923.123028	-0.014856
923.302859	-0.015374
923.482673	-0.015587
923.662467	-0.015453
923.842244	-0.014992
924.022003	-0.015058
924.201743	-0.015098
924.381465	-0.015147
924.561169	-0.015233
924.740854	-0.014944
924.920522	-0.015316
925.100171	-0.014937
925.279802	-0.015166
925.459414	-0.015825
925.639009	-0.016162
925.818585	-0.016534
925.998143	-0.017179
926.177683	-0.017431
926.357205	-0.017831
926.536708	-0.017697
926.716193	-0.018291
926.895660	-0.018811
927.075109	-0.019095
927.254539	-0.019446
927.433951	-0.019597
927.613345	-0.019175
927.792721	-0.018807
927.972079	-0.018897
928.151418	-0.019169
928.330739	-0.019470
928.510042	-0.019212
928.689327	-0.019261
928.868593	-0.019439
929.047841	-0.019476
929.227071	-0.019858
929.406283	-0.020319
929.585476	-0.020616
929.764652	-0.020904
929.943809	-0.020474
930.122948	-0.021090
930.302068	-0.021361
930.481171	-0.021618
930.660255	-0.021494
930.839321	-0.021220
931.018369	-0.021643
931.197398	-0.021817
931.376409	-0.021790
931.555402	-0.022294
931.734377	-0.021895
931.913334	-0.022466
932.092272	-0.022243
932.271192	-0.023163
932.450094	-0.023804
932.628978	-0.024161
932.807844	-0.024204
932.986691	-0.024875
933.165520	-0.025188
933.344331	-0.025719
933.523123	-0.025110
933.701898	-0.024941
933.880654	-0.025321
934.059392	-0.025216
934.238111	-0.024931
934.416813	-0.025233
934.595496	-0.024886
934.774161	-0.024602
934.952808	-0.024865
935.131437	-0.025261
935.310047	-0.026116
935.488639	-0.026238
935.667213	-0.026399
935.845769	-0.027117
936.024306	-0.027179
936.202825	-0.027654
936.381326	-0.028504
936.559809	-0.028519
936.738274	-0.029245
936.916720	-0.029468
937.095148	-0.029363
937.273558	-0.029188
937.451950	-0.029111
937.630323	-0.029540
937.808678	-0.029318
937.987015	-0.029502
938.165334	-0.029316
938.343635	-0.029094
938.521917	-0.028731
938.700181	-0.029060
938.878427	-0.029289
939.056655	-0.029857
939.234864	-0.029531
939.413055	-0.030683
939.591228	-0.030449
939.769383	-0.031504
939.947519	-0.031832
940.125638	-0.032184
940.303738	-0.032860
940.481820	-0.033764
940.659883	-0.033745
940.837929	-0.034096
941.015956	-0.033826
941.193965	-0.034264
941.371955	-0.033730
941.549928	-0.033833
941.727882	-0.033738
941.905818	-0.032847
942.083736	-0.032774
942.261636	-0.031902
942.439517	-0.031883
942.617380	-0.031628
942.795225	-0.030660
942.973052	-0.030910
943.150860	-0.031257
943.328651	-0.031443
943.506423	-0.031811
943.684176	-0.031201
943.861912	-0.031145
944.039629	-0.031484
944.217328	-0.030618
944.395009	-0.032229
944.572672	-0.031977
944.750317	-0.031094
944.927943	-0.031566
945.105551	-0.031624
945.283141	-0.032380
945.460712	-0.033240
945.638265	-0.033553
945.815801	-0.034807
945.993317	-0.033747
946.170816	-0.034649
946.348297	-0.035597
946.525759	-0.035712
946.703203	-0.035249
946.880629	-0.034790
947.058036	-0.033228
947.235425	-0.032431
947.412797	-0.031848
947.590149	-0.032552
947.767484	-0.031420
947.944800	-0.030358
948.122099	-0.029673
948.299379	-0.029887
948.476640	-0.029612
948.653884	-0.030552
948.831109	-0.031612
949.008316	-0.031122
949.185505	-0.030098
949.362676	-0.029912
949.539828	-0.029140
949.716962	-0.029135
949.894078	-0.028709
950.071176	-0.028574
950.248256	-0.029006
950.425317	-0.027240
950.602360	-0.027861
950.779385	-0.027834
950.956391	-0.027689
951.133380	-0.028723
951.310350	-0.028372
951.487302	-0.027789
951.664235	-0.026877
951.841151	-0.024958
952.018048	-0.024517
952.194927	-0.023720
952.371788	-0.022939
952.548631	-0.022921
952.725455	-0.022017
952.902261	-0.022012
953.079049	-0.021096
953.255819	-0.024446
953.432570	-0.026026
953.609303	-0.025626
953.786018	-0.024774
953.962715	-0.025113
954.139394	-0.025551
954.316054	-0.026781
954.492696	-0.024845
954.669320	-0.025105
954.845926	-0.021087
955.022513	-0.019235
955.199083	-0.019575
955.375634	-0.018541
955.552166	-0.018960
955.728681	-0.017563
955.905177	-0.014351
956.081655	-0.015625
956.258115	-0.016813
956.434557	-0.016664
956.610980	-0.017453
956.787385	-0.015611
956.963772	-0.015864
957.140141	-0.014044
957.316492	-0.013425
957.492824	-0.013324
957.669138	-0.011905
957.845434	-0.010510
958.021712	-0.009450
958.197971	-0.008309
958.374212	-0.007661
958.550435	-0.006531
958.726640	-0.005186
958.902826	-0.004830
959.078995	-0.006166
959.255145	-0.005111
959.431277	-0.004959
959.607390	-0.005764
959.783486	-0.005087
959.959563	-0.006078
960.135622	-0.004398
960.311662	-0.005438
960.487685	-0.004588
960.663689	-0.002511
960.839675	-0.004578
961.015643	-0.002936
961.191593	-0.002471
961.367524	-0.003411
961.543437	-0.002182
961.719332	-0.002720
961.895209	-0.000950
962.071067	-0.001255
962.246907	0.000098
962.422730	0.002681
962.598533	0.003268
962.774319	0.003898
962.950086	0.006729
963.125835	0.005985
963.301566	0.004661
963.477279	0.005338
963.652973	0.005263
963.828650	0.003829
964.004308	0.004285
964.179947	0.004973
964.355569	0.004433
964.531172	0.004032
964.706757	0.003725
964.882324	0.004617
965.057873	0.006414
965.233403	0.007641
965.408916	0.008636
965.584410	0.008923
965.759885	0.009024
965.935343	0.011554
966.110782	0.011978
966.286203	0.013364
966.461606	0.014417
966.636991	0.013662
966.812357	0.014038
966.987705	0.015275
967.163035	0.015280
967.338347	0.015140
967.513641	0.013978
967.688916	0.014296
967.864173	0.013363
968.039412	0.011337
968.214632	0.011186
968.389835	0.010706
968.565019	0.007884
968.740185	0.007766
968.915333	0.008098
969.090462	0.008075
969.265573	0.009292
969.440667	0.010052
969.615741	0.012370
969.790798	0.010619
969.965836	0.011475
970.140856	0.013695
970.315858	0.012940
970.490842	0.012723
970.665808	0.014527
970.840755	0.012164
971.015684	0.011284
971.190595	0.010516
971.365487	0.011557
971.540362	0.012814
971.715218	0.012019
971.890056	0.013756
972.064875	0.013526
972.239677	0.013623
972.414460	0.014014
972.589225	0.014738
972.763972	0.015030
972.938700	0.014904
973.113411	0.013367
973.288103	0.014655
973.462777	0.015341
973.637432	0.016667
973.812070	0.015572
973.986689	0.016281
974.161290	0.018141
974.335873	0.019341
974.510437	0.019174
974.684984	0.018494
974.859512	0.018480
975.034022	0.017857
975.208513	0.015631
975.382987	0.016749
975.557442	0.018110
975.731879	0.018418
975.906298	0.016844
976.080698	0.017725
976.255080	0.018223
976.429445	0.016334
976.603790	0.015959
976.778118	0.018139
976.952427	0.016160
977.126719	0.013591
977.300992	0.014071
977.475246	0.015977
977.649483	0.015954
977.823701	0.014330
977.997901	0.015696
978.172083	0.016280
978.346247	0.014745
978.520392	0.017396
978.694519	0.018117
978.868628	0.015311
979.042719	0.014792
979.216791	0.015384
979.390845	0.015509
979.564882	0.013362
979.738899	0.012342
979.912899	0.012575
980.086880	0.010027
980.260843	0.009731
980.434788	0.010810
980.608715	0.009825
980.782623	0.010984
980.956514	0.011210
981.130386	0.014500
981.304240	0.014182
981.478075	0.012756
981.651892	0.012685
981.825692	0.013880
981.999472	0.011568
982.173235	0.011984
982.346980	0.010007
982.520706	0.011407
982.694414	0.011075
982.868104	0.010181
983.041775	0.011722
983.215428	0.012526
983.389064	0.012345
983.562680	0.016492
983.736279	0.016135
983.909860	0.014184
984.083422	0.013688
984.256966	0.012704
984.430491	0.014703
984.603999	0.016066
984.777488	0.015704
984.950959	0.017997
985.124412	0.015699
985.297847	0.017328
985.471263	0.020532
985.644661	0.021645
985.818041	0.020126
985.991403	0.019454
986.164747	0.017036
986.338072	0.018024
986.511379	0.016816
986.684668	0.017864
986.857938	0.016423
987.031191	0.014816
987.204425	0.013633
987.377641	0.015172
987.550839	0.015369
987.724018	0.016503
987.897179	0.015910
988.070322	0.014346
988.243447	0.014319
988.416554	0.014828
988.589642	0.014397
988.762712	0.014318
988.935764	0.013524
989.108798	0.013354
989.281813	0.012590
989.454811	0.013027
989.627790	0.013825
989.800751	0.011632
989.973693	0.010274
990.146617	0.012080
990.319524	0.013273
990.492412	0.014275
990.665281	0.014424
990.838133	0.015258
991.010966	0.013648
991.183781	0.013958
991.356578	0.013222
991.529356	0.015598
991.702117	0.015231
991.874859	0.014694
992.047583	0.012695
992.220288	0.011736
992.392976	0.011257
992.565645	0.012032
992.738296	0.011074
992.910929	0.013415
993.083543	0.013049
993.256139	0.011160
993.428718	0.010673
993.601277	0.013502
993.773819	0.013611
993.946342	0.016086
994.118848	0.017621
994.291335	0.018340
994.463803	0.018087
994.636254	0.017043
994.808686	0.016858
994.981100	0.017792
995.153496	0.016687
995.325874	0.016358
995.498233	0.013725
995.670574	0.011850
995.842897	0.010054
996.015202	0.010537
996.187488	0.009561
996.359757	0.010429
996.532007	0.008408
996.704239	0.008008
996.876452	0.008049
997.048648	0.008276
997.220825	0.008114
997.392984	0.008099
997.565124	0.006554
997.737247	0.006616
997.909351	0.007251
998.081437	0.008771
998.253505	0.009906
998.425554	0.011516
998.597586	0.010289
998.769599	0.010053
998.941594	0.010373
999.113571	0.011535
999.285529	0.011818
999.457469	0.009841
999.629391	0.008824
999.801295	0.006416
999.973181	0.004821
1000.145048	0.006147
1000.316897	0.005097
1000.488728	0.005112
1000.660541	0.005223
1000.832335	0.003851
1001.004111	0.007259
1001.175869	0.007335
1001.347609	0.008688
1001.519331	0.008181
1001.691034	0.008194
1001.862719	0.009253
1002.034386	0.009903
1002.206035	0.008233
1002.377665	0.009748
1002.549277	0.007233
1002.720871	0.006364
1002.892447	0.006032
1003.064004	0.005891
1003.235544	0.005407
1003.407065	0.008985
1003.578568	0.008931
1003.750052	0.008945
1003.921519	0.009273
1004.092967	0.009937
1004.264397	0.010026
1004.435809	0.008344
1004.607202	0.009210
1004.778577	0.008149
1004.949934	0.005243
1005.121273	0.005512
1005.292594	0.004363
1005.463896	0.004345
1005.635180	0.004166
1005.806446	0.005231
1005.977694	0.005002
1006.148923	0.005035
1006.320135	0.006147
1006.491328	0.004938
1006.662503	0.004093
1006.833659	0.006515
1007.004798	0.007034
1007.175918	0.006411
1007.347020	0.005545
1007.518103	0.007024
1007.689169	0.006899
1007.860216	0.007373
1008.031245	0.008151
1008.202256	0.006528
1008.373248	0.005610
1008.544223	0.004830
1008.715179	0.003593
1008.886117	0.003596
1009.057036	0.003161
1009.227938	0.003105
1009.398821	0.001773
1009.569686	0.002447
1009.740533	0.004600
1009.911361	0.004759
1010.082172	0.003897
1010.252964	0.005433
1010.423738	0.006142
1010.594493	0.005236
1010.765231	0.004799
1010.935950	0.004739
1011.106651	0.003733
1011.277334	0.002317
1011.447998	0.002892
1011.618645	0.003666
1011.789273	0.002745
1011.959882	0.002964
1012.130474	0.003921
1012.301048	0.004430
1012.471603	0.004937
1012.642140	0.006241
1012.812658	0.006888
1012.983159	0.005767
1013.153641	0.005877
1013.324105	0.007993
1013.494551	0.007770
1013.664979	0.008671
1013.835388	0.008186
1014.005779	0.007191
1014.176152	0.005184
1014.346507	0.005740
1014.516843	0.006560
1014.687162	0.005503
1014.857462	0.003385
1015.027744	0.003275
1015.198007	0.002111
1015.368252	0.002945
1015.538480	0.002594
1015.708689	0.003483
1015.878879	0.003067
1016.049052	0.003702
1016.219206	0.003640
1016.389342	0.003965
1016.559460	0.004123
1016.729559	0.005101
1016.899641	0.003771
1017.069704	0.003227
1017.239749	0.001975
1017.409775	0.001623
1017.579784	0.000229
1017.749774	-0.000088
1017.919746	-0.001439
1018.089700	-0.000744
1018.259635	-0.001613
1018.429553	0.000055
1018.599452	0.002149
1018.769333	0.002692
1018.939195	0.002028
1019.109040	0.001896
1019.278866	0.003244
1019.448674	0.004985
1019.618464	0.003846
1019.788235	0.004119
1019.957989	0.001549
1020.127724	0.001233
1020.297441	0.003332
1020.467139	0.003982
1020.636820	0.004406
1020.806482	0.003894
1020.976126	0.003549
1021.145752	0.004205
1021.315359	0.004554
1021.484948	0.005480
1021.654519	0.004488
1021.824072	0.002554
1021.993607	0.002728
1022.163123	0.002032
1022.332621	0.001955
1022.502101	0.001308
1022.671563	0.000210
1022.841007	-0.000091
1023.010432	0.000951
1023.179839	0.001062
1023.349228	0.003320
1023.518598	0.003467
1023.687951	0.003437
1023.857285	0.003350
1024.026601	0.004676
1024.195899	0.003804
1024.365178	0.002713
1024.534439	0.001753
1024.703682	0.002815
1024.872907	0.000011
1025.042114	-0.001974
1025.211302	-0.001637
1025.380472	-0.001023
1025.549624	-0.001290
1025.718758	-0.000797
1025.887873	0.001648
1026.056970	0.002668
1026.226049	0.001470
1026.395110	0.001596
1026.564153	0.002515
1026.733177	0.003955
1026.902183	0.003190
1027.071171	0.001935
1027.240141	0.002140
1027.409092	0.000617
1027.578026	-0.000999
1027.746940	0.000720
1027.915837	0.001986
1028.084716	0.002706
1028.253576	0.002865
1028.422418	0.003573
1028.591242	0.004177
1028.760048	0.005865
1028.928835	0.006460
1029.097604	0.006852
1029.266355	0.005505
1029.435088	0.003593
1029.603803	0.002962
1029.772499	0.001311
1029.941177	0.001998
1030.109837	0.002223
1030.278478	0.001399
1030.447102	0.000439
1030.615707	0.000237
1030.784294	0.000799
1030.952863	0.001823
1031.121413	0.002370
1031.289945	0.000136
1031.458460	-0.000698
1031.626955	-0.001322
1031.795433	-0.000177
1031.963892	0.000367
1032.132334	0.000476
1032.300756	0.000031
1032.469161	0.001078
1032.637548	0.001056
1032.805916	0.003663
1032.974266	0.002189
1033.142598	0.002522
1033.310911	0.000699
1033.479207	-0.001140
1033.647484	0.000761
1033.815743	0.001228
1033.983983	0.002608
1034.152206	0.002386
1034.320410	0.003531
1034.488596	0.004229
1034.656764	0.003705
1034.824914	0.002598
1034.993045	0.003437
1035.161158	0.001846
1035.329253	0.000726
1035.497330	-0.002153
1035.665388	-0.003243
1035.833428	-0.004526
1036.001450	-0.004539
1036.169454	-0.002745
1036.337440	-0.002113
1036.505407	-0.000488
1036.673356	-0.000063
1036.841287	-0.000763
1037.009200	-0.000248
1037.177094	0.001240
1037.344970	0.002218
1037.512828	0.001732
1037.680668	0.001519
1037.848489	0.000792
1038.016293	0.000398
1038.184078	-0.000136
1038.351845	0.000785
1038.519593	0.001490
1038.687324	0.001555
1038.855036	0.000486
1039.022730	-0.000087
1039.190406	-0.002607
1039.358063	-0.000866
1039.525702	-0.001958
1039.693323	-0.000742
1039.860926	-0.000707
1040.028511	-0.000840
1040.196077	-0.001353
1040.363625	-0.002473
1040.531155	-0.000441
1040.698667	0.000135
1040.866161	0.000684
1041.033636	0.000964
1041.201093	0.000070
1041.368532	-0.000111
1041.535952	-0.001349
1041.703355	-0.002729
1041.870739	-0.001966
1042.038105	-0.001795
1042.205452	-0.000090
1042.372782	-0.002334
1042.540093	-0.002312
1042.707386	-0.002360
1042.874661	-0.001063
1043.041918	0.000464
1043.209156	0.000171
1043.376376	-0.000186
1043.543578	0.000129
1043.710762	-0.000590
1043.877927	0.000100
1044.045074	-0.001778
1044.212203	-0.002670
1044.379314	-0.003379
1044.546407	-0.003819
1044.713481	-0.002628
1044.880537	-0.003038
1045.047575	-0.005865
1045.214595	-0.006157
1045.381596	-0.006023
1045.548579	-0.004158
1045.715544	-0.004644
1045.882491	-0.003669
1046.049420	-0.003454
1046.216330	-0.001509
1046.383222	0.000320
1046.550096	0.001507
1046.716951	0.002003
1046.883789	0.002862
1047.050608	0.003546
1047.217409	0.005321
1047.384192	0.003553
1047.550956	0.002599
1047.717703	0.000754
1047.884431	-0.000082
1048.051140	0.000951
1048.217832	-0.000966
1048.384505	-0.002553
1048.551161	-0.003161
1048.717798	-0.004503
1048.884416	-0.005158
1049.051017	-0.004377
1049.217599	-0.004421
1049.384163	-0.003498
1049.550709	-0.004915
1049.717237	-0.003290
1049.883746	-0.004019
1050.050237	-0.005372
1050.216710	-0.005686
1050.383165	-0.004098
1050.549601	-0.003638
1050.716019	-0.002651
1050.882420	-0.004533
1051.048801	-0.004165
1051.215165	-0.004572
1051.381510	-0.002195
1051.547837	-0.000577
1051.714146	-0.000492
1051.880437	-0.002703
1052.046709	-0.004291
1052.212964	-0.005446
1052.379200	-0.005163
1052.545417	-0.005201
1052.711617	-0.005260
1052.877798	-0.006352
1053.043961	-0.007578
1053.210106	-0.006754
1053.376233	-0.005970
1053.542341	-0.006793
1053.708432	-0.005094
1053.874504	-0.005162
1054.040557	-0.004779
1054.206593	-0.005350
1054.372610	-0.005315
1054.538609	-0.004481
1054.704590	-0.004390
1054.870553	-0.002715
1055.036497	-0.002473
1055.202424	-0.004735
1055.368331	-0.005208
1055.534221	-0.006002
1055.700093	-0.006635
1055.865946	-0.005865
1056.031781	-0.005883
1056.197598	-0.005952
1056.363397	-0.006691
1056.529177	-0.004684
1056.694939	-0.005566
1056.860683	-0.004236
1057.026409	-0.003050
1057.192116	-0.002768
1057.357806	-0.001393
1057.523477	-0.001865
1057.689130	-0.003648
1057.854764	-0.005828
1058.020381	-0.008637
1058.185979	-0.007588
1058.351559	-0.008882
1058.517120	-0.009156
1058.682664	-0.007504
1058.848189	-0.009886
1059.013696	-0.010300
1059.179185	-0.009230
1059.344656	-0.007138
1059.510108	-0.004720
1059.675542	-0.003546
1059.840958	-0.003667
1060.006356	-0.004298
1060.171735	-0.005797
1060.337096	-0.005344
1060.502439	-0.004236
1060.667764	-0.006808
1060.833071	-0.006563
1060.998359	-0.007516
1061.163629	-0.007822
1061.328881	-0.007517
1061.494115	-0.008643
1061.659330	-0.008152
1061.824527	-0.009017
1061.989706	-0.009326
1062.154867	-0.005042
1062.320010	-0.005552
1062.485134	-0.005876
1062.650240	-0.006636
1062.815328	-0.006168
1062.980398	-0.005624
1063.145449	-0.006400
1063.310482	-0.005386
1063.475497	-0.005396
1063.640494	-0.004395
1063.805473	-0.003560
1063.970433	-0.002850
1064.135375	-0.003432
1064.300299	-0.003635
1064.465204	-0.004169
1064.630092	-0.003689
1064.794961	-0.004924
1064.959812	-0.004864
1065.124645	-0.008519
1065.289459	-0.008127
1065.454256	-0.009543
1065.619034	-0.007121
1065.783793	-0.007210
1065.948535	-0.007996
1066.113258	-0.006931
1066.277964	-0.008073
1066.442651	-0.008922
1066.607319	-0.008621
1066.771970	-0.008082
1066.936602	-0.006415
1067.101216	-0.007924
1067.265812	-0.008469
1067.430389	-0.008147
1067.594949	-0.009872
1067.759490	-0.008125
1067.924013	-0.007821
1068.088518	-0.006599
1068.253004	-0.007177
1068.417472	-0.008248
1068.581922	-0.008569
1068.746354	-0.006995
1068.910768	-0.005558
1069.075163	-0.003937
1069.239540	-0.004065
1069.403899	-0.003728
1069.568240	-0.004387
1069.732562	-0.006485
1069.896866	-0.007062
1070.061152	-0.006727
1070.225420	-0.005791
1070.389670	-0.006680
1070.553901	-0.009554
1070.718114	-0.009899
1070.882309	-0.009762
1071.046486	-0.009223
1071.210644	-0.007813
1071.374784	-0.007410
1071.538906	-0.008836
1071.703010	-0.011570
1071.867096	-0.010009
1072.031163	-0.006598
1072.195212	-0.006329
1072.359243	-0.006027
1072.523256	-0.006597
1072.687250	-0.006987
1072.851226	-0.005914
1073.015184	-0.005935
1073.179124	-0.005647
1073.343045	-0.008332
1073.506949	-0.009750
1073.670834	-0.008892
1073.834701	-0.009412
1073.998549	-0.008474
1074.162380	-0.009836
1074.326192	-0.009888
1074.489986	-0.008233
1074.653761	-0.006344
1074.817519	-0.005028
1074.981258	-0.005260
1075.144979	-0.005579
1075.308682	-0.008506
1075.472367	-0.007509
1075.636033	-0.005927
1075.799681	-0.005899
1075.963311	-0.006255
1076.126923	-0.007623
1076.290516	-0.006592
1076.454092	-0.007314
1076.617649	-0.008305
1076.781187	-0.004822
1076.944708	-0.007377
1077.108210	-0.009026
1077.271695	-0.009918
1077.435160	-0.009523
1077.598608	-0.009308
1077.762038	-0.010271
1077.925449	-0.009889
1078.088842	-0.010541
1078.252217	-0.011871
1078.415573	-0.011702
1078.578912	-0.010563
1078.742232	-0.010377
1078.905534	-0.010444
1079.068817	-0.012530
1079.232083	-0.013396
1079.395330	-0.013969
1079.558559	-0.011198
1079.721770	-0.009421
1079.884962	-0.011152
1080.048136	-0.012290
1080.211293	-0.011292
1080.374430	-0.009729
1080.537550	-0.007413
1080.700651	-0.005766
1080.863735	-0.004612
1081.026800	-0.006726
1081.189846	-0.007920
1081.352875	-0.007099
1081.515885	-0.007271
1081.678877	-0.008950
1081.841851	-0.010993
1082.004807	-0.009429
1082.167744	-0.009181
1082.330663	-0.008253
1082.493564	-0.007456
1082.656447	-0.008122
1082.819312	-0.006550
1082.982158	-0.002873
1083.144986	-0.001399
1083.307796	-0.000798
1083.470587	-0.004305
1083.633361	-0.004285
1083.796116	-0.004357
1083.958853	-0.004508
1084.121571	-0.002226
1084.284272	-0.001649
1084.446954	-0.005598
1084.609618	-0.007646
1084.772264	-0.007634
1084.934892	-0.005211
1085.097501	-0.005877
1085.260092	-0.009200
1085.422665	-0.009173
1085.585220	-0.010986
1085.747756	-0.013072
1085.910274	-0.012946
1086.072774	-0.011798
1086.235256	-0.012604
1086.397720	-0.013421
1086.560165	-0.014735
1086.722592	-0.012728
1086.885001	-0.014057
1087.047392	-0.014462
1087.209764	-0.013643
1087.372119	-0.011335
1087.534455	-0.012596
1087.696772	-0.009463
1087.859072	-0.011901
1088.021353	-0.009855
1088.183616	-0.010397
1088.345861	-0.009986
1088.508088	-0.009123
1088.670296	-0.010801
1088.832486	-0.012095
1088.994658	-0.014881
1089.156812	-0.018137
1089.318948	-0.018875
1089.481065	-0.020920
1089.643164	-0.020144
1089.805245	-0.020342
1089.967308	-0.021309
1090.129352	-0.019527
1090.291378	-0.020004
1090.453386	-0.018032
1090.615376	-0.016964
1090.777347	-0.014671
1090.939301	-0.012304
1091.101236	-0.014371
1091.263153	-0.014244
1091.425051	-0.015740
1091.586932	-0.016004
1091.748794	-0.015516
1091.910638	-0.011205
1092.072463	-0.013967
1092.234271	-0.015178
1092.396060	-0.016559
1092.557831	-0.014847
1092.719584	-0.014469
1092.881319	-0.013325
1093.043035	-0.013018
1093.204733	-0.009421
1093.366413	-0.012439
1093.528075	-0.011082
1093.689718	-0.010669
1093.851343	-0.011613
1094.012950	-0.012541
1094.174539	-0.012688
1094.336110	-0.011694
1094.497662	-0.010493
1094.659196	-0.014026
1094.820712	-0.014640
1094.982210	-0.014132
1095.143689	-0.014797
1095.305151	-0.014668
1095.466594	-0.014158
1095.628018	-0.014802
1095.789425	-0.014882
1095.950813	-0.012719
1096.112183	-0.013385
1096.273535	-0.011583
1096.434869	-0.015375
1096.596184	-0.012959
1096.757482	-0.011433
1096.918761	-0.010676
1097.080021	-0.010664
1097.241264	-0.011407
1097.402488	-0.013552
1097.563694	-0.011563
1097.724882	-0.013122
1097.886052	-0.009473
1098.047203	-0.009945
1098.208336	-0.012687
1098.369451	-0.011128
1098.530548	-0.011929
1098.691627	-0.009272
1098.852687	-0.013327
1099.013729	-0.015342
1099.174753	-0.014514
1099.335758	-0.017695
1099.496746	-0.017503
1099.657715	-0.016856
1099.818666	-0.017342
1099.979599	-0.013478
1100.140513	-0.015053
1100.301409	-0.012170
1100.462287	-0.013112
1100.623147	-0.012256
1100.783989	-0.011396
1100.944812	-0.013560
1101.105617	-0.013702
1101.266404	-0.015301
1101.427173	-0.017281
1101.587923	-0.019088
1101.748656	-0.020198
1101.909370	-0.019380
1102.070066	-0.019558
1102.230743	-0.018602
1102.391403	-0.013549
1102.552044	-0.013525
1102.712667	-0.014031
1102.873271	-0.015849
1103.033858	-0.016047
1103.194426	-0.015374
1103.354976	-0.012215
1103.515508	-0.015992
1103.676021	-0.014333
1103.836517	-0.016404
1103.996994	-0.015825
1104.157453	-0.013736
1104.317893	-0.011669
1104.478316	-0.009863
1104.638720	-0.009926
1104.799106	-0.010405
1104.959474	-0.008320
1105.119823	-0.008374
1105.280155	-0.006687
1105.440468	-0.006461
1105.600763	-0.009446
1105.761039	-0.012645
1105.921298	-0.014326
1106.081538	-0.016073
1106.241760	-0.018483
1106.401964	-0.018611
1106.562149	-0.019427
1106.722316	-0.022916
1106.882465	-0.017152
1107.042596	-0.013558
1107.202709	-0.012635
1107.362803	-0.015177
1107.522879	-0.012472
1107.682937	-0.013694
1107.842977	-0.012136
1108.002999	-0.011414
1108.163002	-0.012051
1108.322987	-0.020802
1108.482954	-0.021966
1108.642902	-0.020891
1108.802833	-0.018102
1108.962745	-0.022874
1109.122639	-0.022597
1109.282515	-0.024373
1109.442372	-0.022869
1109.602211	-0.019034
1109.762032	-0.016844
1109.921835	-0.016207
1110.081620	-0.016619
1110.241386	-0.018280
1110.401134	-0.010238
1110.560864	-0.006835
1110.720576	-0.003762
1110.880269	-0.005452
1111.039945	-0.012030
1111.199602	-0.010093
1111.359240	-0.012275
1111.518861	-0.011956
1111.678463	-0.011964
1111.838047	-0.014976
1111.997613	-0.018242
1112.157161	-0.016679
1112.316690	-0.020870
1112.476202	-0.016429
1112.635695	-0.016744
1112.795169	-0.016595
1112.954626	-0.017009
1113.114064	-0.019453
1113.273484	-0.022559
1113.432886	-0.021594
1113.592270	-0.021055
1113.751635	-0.014299
1113.910983	-0.014180
1114.070312	-0.020623
1114.229622	-0.022122
1114.388915	-0.022558
1114.548189	-0.017624
1114.707445	-0.019329
1114.866683	-0.018645
1115.025903	-0.023219
1115.185104	-0.024243
1115.344287	-0.023084
1115.503452	-0.017843
1115.662599	-0.017921
1115.821727	-0.016777
1115.980838	-0.015417
1116.139930	-0.013112
1116.299004	-0.016472
1116.458059	-0.018738
1116.617097	-0.020313
1116.776116	-0.023037
1116.935117	-0.023496
1117.094099	-0.024466
1117.253064	-0.025080
1117.412010	-0.025777
1117.570938	-0.022695
1117.729848	-0.018155
1117.888740	-0.016912
1118.047613	-0.019413
1118.206468	-0.020417
1118.365305	-0.022885
1118.524124	-0.018653
1118.682924	-0.018296
1118.841707	-0.022778
1119.000471	-0.025542
1119.159216	-0.028868
1119.317944	-0.028807
1119.476653	-0.028634
1119.635344	-0.028344
1119.794017	-0.021496
1119.952672	-0.024999
1120.111308	-0.027125
1120.269927	-0.023124
1120.428527	-0.021143
1120.587108	-0.021259
1120.745672	-0.022557
1120.904217	-0.022740
1121.062744	-0.022258
1121.221253	-0.025523
1121.379744	-0.023531
1121.538216	-0.026157
1121.696671	-0.026752
1121.855107	-0.029404
1122.013524	-0.030223
1122.171924	-0.027098
1122.330305	-0.025187
1122.488668	-0.023990
1122.647013	-0.029495
1122.805340	-0.028089
1122.963648	-0.025190
1123.121938	-0.026485
1123.280210	-0.023541
1123.438464	-0.023555
1123.596700	-0.020875
1123.754917	-0.022513
1123.913116	-0.022513
1124.071297	-0.018879
1124.229459	-0.019352
1124.387604	-0.012682
1124.545730	-0.012812
1124.703838	-0.015955
1124.861928	-0.016452
1125.019999	-0.028965
1125.178052	-0.030127
1125.336088	-0.030035
1125.494104	-0.032676
1125.652103	-0.035114
1125.810083	-0.040863
1125.968045	-0.040743
1126.125989	-0.037857
1126.283915	-0.039102
1126.441823	-0.031538
1126.599712	-0.032014
1126.757583	-0.035646
1126.915436	-0.033321
1127.073270	-0.031575
1127.231087	-0.028536
1127.388885	-0.027486
1127.546665	-0.028917
1127.704426	-0.022298
1127.862170	-0.020059
1128.019895	-0.015532
1128.177602	-0.012909
1128.335291	-0.007738
1128.492961	-0.002417
1128.650614	-0.008510
1128.808248	-0.007351
1128.965864	-0.010480
1129.123461	-0.016711
1129.281041	-0.011576
1129.438602	-0.017355
1129.596145	-0.016929
1129.753670	-0.020542
1129.911176	-0.023249
1130.068665	-0.017768
1130.226135	-0.018190
1130.383587	-0.014626
1130.541020	-0.011503
1130.698436	-0.019437
1130.855833	-0.017595
1131.013212	-0.020044
1131.170573	-0.023916
1131.327915	-0.029695
1131.485239	-0.029577
1131.642545	-0.029066
1131.799833	-0.036477
1131.957103	-0.036316
1132.114354	-0.037431
1132.271588	-0.041106
1132.428803	-0.040718
1132.585999	-0.035938
1132.743178	-0.036264
1132.900338	-0.039756
1133.057480	-0.037451
1133.214604	-0.033294
1133.371710	-0.034742
1133.528797	-0.028549
1133.685866	-0.020507
1133.842917	-0.016620
1133.999950	-0.014963
1134.156964	-0.015631
1134.313960	-0.003601
1134.470938	-0.011846
1134.627898	-0.004273
1134.784840	0.000849
1134.941763	-0.001257
1135.098668	-0.006648
1135.255555	-0.012982
1135.412424	-0.008865
1135.569274	-0.009042
1135.726107	-0.020245
1135.882921	-0.020584
1136.039716	-0.025910
1136.196494	-0.028421
1136.353253	-0.028691
1136.509995	-0.025459
1136.666717	-0.023790
1136.823422	-0.031196
1136.980109	-0.029163
1137.136777	-0.028429
1137.293427	-0.022060
1137.450059	-0.021983
1137.606672	-0.020148
1137.763267	-0.024526
1137.919844	-0.019844
1138.076403	-0.016658
1138.232944	-0.018316
1138.389466	-0.020408
1138.545971	-0.019048
1138.702457	-0.025184
1138.858924	-0.024200
1139.015374	-0.027959
1139.171805	-0.022841
1139.328218	-0.022708
1139.484613	-0.025391
1139.640990	-0.025053
1139.797348	-0.020616
1139.953688	-0.024129
1140.110010	-0.022122
1140.266314	-0.020865
1140.422600	-0.025950
1140.578867	-0.027810
1140.735116	-0.037915
1140.891347	-0.037182
1141.047559	-0.034397
1141.203754	-0.033795
1141.359930	-0.033529
1141.516088	-0.030281
1141.672228	-0.034254
1141.828349	-0.029177
1141.984452	-0.039339
1142.140537	-0.034043
1142.296604	-0.034246
1142.452653	-0.034908
1142.608683	-0.038702
1142.764695	-0.038452
1142.920689	-0.042745
1143.076665	-0.049404
1143.232622	-0.046502
1143.388562	-0.036299
1143.544483	-0.037750
1143.700385	-0.036354
1143.856270	-0.036186
1144.012136	-0.033193
1144.167985	-0.029111
1144.323814	-0.025572
1144.479626	-0.020900
1144.635420	-0.018333
1144.791195	-0.018851
1144.946952	-0.021871
1145.102691	-0.017320
1145.258411	-0.017653
1145.414113	-0.016664
1145.569798	-0.010738
1145.725463	-0.010041
1145.881111	-0.003151
1146.036741	0.000427
1146.192352	0.002632
1146.347945	0.010296
1146.503519	0.012954
1146.659076	0.014940
1146.814614	0.009773
1146.970134	0.004094
1147.125636	-0.000427
1147.281120	-0.002391
1147.436585	-0.009238
1147.592032	-0.010179
1147.747461	-0.020352
1147.902872	-0.024918
1148.058265	-0.015402
1148.213639	-0.016538
1148.368995	-0.016220
1148.524333	-0.015665
1148.679653	-0.024384
1148.834954	-0.029954
1148.990237	-0.032181
1149.145502	-0.024049
1149.300749	-0.031394
1149.455977	-0.039688
1149.611188	-0.040047
1149.766380	-0.038744
1149.921553	-0.037887
1150.076709	-0.029204
1150.231846	-0.014489
1150.386966	-0.014453
1150.542066	-0.010790
1150.697149	-0.000724
1150.852214	-0.002847
1151.007260	0.001692
1151.162288	-0.005610
1151.317298	0.003093
1151.472289	0.010102
1151.627263	0.005706
1151.782218	-0.001946
1151.937155	-0.005545
1152.092073	-0.011475
1152.246974	-0.015939
1152.401856	-0.022066
1152.556720	-0.019836
1152.711566	-0.024680
1152.866393	-0.028421
1153.021203	-0.026727
1153.175994	-0.023981
1153.330767	-0.014117
1153.485521	-0.024045
1153.640258	-0.018470
1153.794976	-0.011251
1153.949676	-0.011366
1154.104358	-0.007506
1154.259021	-0.015036
1154.413667	-0.028044
1154.568294	-0.026833
1154.722903	-0.038560
1154.877493	-0.024802
1155.032066	-0.022360
1155.186620	-0.020672
1155.341156	-0.016976
1155.495674	-0.017960
1155.650173	-0.008175
1155.804654	-0.003789
1155.959118	-0.000415
1156.113562	0.006479
1156.267989	0.001882
1156.422397	-0.002503
1156.576788	-0.009022
1156.731160	-0.007980
1156.885513	-0.000340
1157.039849	-0.004400
1157.194166	-0.003831
1157.348465	-0.004120
1157.502746	-0.011019
1157.657009	-0.000692
1157.811253	0.001626
1157.965479	0.017913
1158.119687	0.000550
1158.273877	-0.011754
1158.428048	-0.016729
1158.582201	-0.022613
1158.736337	-0.023292
1158.890453	-0.027971
1159.044552	-0.036576
1159.198632	-0.046191
1159.352694	-0.053088
1159.506738	-0.042865
1159.660764	-0.044222
1159.814771	-0.037609
1159.968761	-0.029537
1160.122732	-0.024384
1160.276685	-0.020324
1160.430619	-0.014822
1160.584535	-0.007555
1160.738434	-0.013008
1160.892313	-0.010111
1161.046175	-0.018066
1161.200019	-0.024348
1161.353844	-0.022881
1161.507651	-0.032159
1161.661440	-0.031662
1161.815210	-0.037561
1161.968962	-0.032715
1162.122697	-0.039431
1162.276412	-0.044564
1162.430110	-0.026917
1162.583789	-0.024307
1162.737451	-0.010127
1162.891094	0.004952
1163.044718	-0.003326
1163.198325	-0.010617
1163.351913	-0.012497
1163.505483	-0.000128
1163.659035	0.013506
1163.812569	0.002196
1163.966084	-0.008296
1164.119581	-0.024644
1164.273060	-0.033619
1164.426521	-0.032469
1164.579964	-0.023874
1164.733388	-0.016635
1164.886794	-0.025101
1165.040182	-0.019927
1165.193551	-0.020071
1165.346903	-0.018885
1165.500236	-0.017220
1165.653551	-0.006037
1165.806848	0.022167
1165.960126	0.007941
1166.113386	0.008964
1166.266628	0.016717
1166.419852	0.017354
1166.573058	0.010112
1166.726245	0.007591
1166.879414	0.007948
1167.032565	0.008869
1167.185698	-0.001154
1167.338812	0.009106
1167.491909	-0.013772
1167.644987	-0.019932
1167.798046	-0.043571
1167.951088	-0.029164
1168.104111	-0.010106
1168.257117	-0.019825
1168.410103	-0.009132
1168.563072	-0.027171
1168.716023	-0.009054
1168.868955	0.007822
1169.021869	0.019526
1169.174765	0.016971
1169.327642	0.011703
1169.480501	0.018783
1169.633343	0.021046
1169.786165	0.013831
1169.938970	0.024468
1170.091757	-0.012094
1170.244525	-0.032350
1170.397275	-0.030843
1170.550007	-0.009621
1170.702720	-0.017794
1170.855415	-0.030066
1171.008092	-0.026298
1171.160751	-0.043232
1171.313392	-0.043896
1171.466014	-0.042001
1171.618619	-0.008288
1171.771205	-0.008288
1171.923772	-0.008288
