sample name	sample
index	317
start time	 02-25-2021  03:08:00 PM
880	-0.018362
Peak Time (s)	92.535
Peak Height 	-0.01836
calc peak height	90,93
Baseline Time (s)	10.535
Baseline Value 	-0.001792
subtract baseline	10,4
Abs	-0.005463
Peak Time (s)	92.535
Peak Height 	-0.005463
calc peak height	90,93
Baseline Time (s)	10.034
Baseline Value 	4.4347E-4
subtract baseline	10,3
PK_550	-0.001585
Peak Time (s)	91.541
Peak Height 	-0.001585
calc peak height	90,93
Baseline Time (s)	8.537
Baseline Value 	4.4388E-4
subtract baseline	10,2
PK_880	-0.007045
Peak Time (s)	91.038
Peak Height 	-0.007045
calc peak height	90,93
Baseline Time (s)	10.535
Baseline Value 	0.001675
subtract baseline	10,1


Time (s)	A880-A510	A880-A775	A880-A975	A880	I510	I775	I975	I880	
0.039500	-0.002966	-0.000250	-0.002421	0.000779	6822.600091	44922.147835	4000.497561	23841.473111
0.537500	-0.002083	0.000117	0.000045	0.005227	6791.220882	44530.294043	3995.714991	23628.875057
1.035000	-0.001359	-0.000313	0.002935	0.002907	6817.999373	44711.286420	4008.336970	23739.499305
1.536500	-0.000560	-0.000359	0.000570	0.000138	6849.628787	44973.472465	4009.321649	23872.283318
2.035500	-0.000465	-0.000395	-0.001391	0.000069	6851.100022	44976.708402	4004.717155	23875.626508
2.535500	-0.002729	-0.000952	-0.002188	0.003030	6804.835677	44638.135242	3995.626787	23733.584944
3.036000	-0.003315	-0.000468	-0.001098	0.003670	6794.067649	44623.200302	3996.712150	23703.036617
3.536000	-0.001219	-0.000921	-0.000849	-0.000842	6852.489882	45013.851595	4008.249146	23919.485267
4.036500	-0.000088	-0.000893	0.001036	-0.000632	6860.704581	44996.304252	4012.339654	23909.367558
4.536500	-0.002350	-0.000741	0.003001	-0.000424	6838.717375	44990.873213	4016.647985	23899.340722
5.037500	0.000677	-0.000205	0.002992	0.000010	6861.799768	45000.690355	4015.559454	23878.441182
5.537000	0.000411	0.000114	-0.002903	0.000341	6856.482875	44999.629892	4000.392833	23862.553678
6.035000	-0.000782	0.000152	-0.000963	0.000244	6846.717147	45012.683758	4005.329415	23867.197434
6.535500	0.000199	0.000411	-0.000800	0.000005	6857.586463	45060.895060	4006.308534	23878.715938
7.035500	-0.001424	0.000289	-0.004499	0.002005	6825.406096	44855.947024	3992.535160	23782.676344
7.536000	0.000264	-0.000592	0.003342	-0.000708	6864.531562	45032.776431	4018.184899	23913.048133
8.036500	0.000576	0.000338	0.002325	-0.000338	6864.007289	45086.961574	4014.778982	23895.202256
8.536500	0.000042	0.000000	-0.000634	-0.000268	6858.619742	45047.459050	4007.377010	23891.842133
9.036500	-0.001632	-0.000327	-0.003810	0.002620	6818.122697	44737.513482	3992.712772	23753.211016
9.537000	0.002408	-0.000023	0.002721	-0.000206	6879.231268	45039.189820	4015.424447	23888.836534
10.034500	0.000555	0.000623	0.000000	0.000184	6859.164470	45064.005202	4007.819232	23870.073531
10.535000	0.000000	0.000058	-0.000031	0.000000	6855.855092	45027.173986	4008.191514	23878.941363
11.035500	-0.002286	0.000516	0.002333	0.001846	6819.180581	44893.096900	4009.454780	23790.272755
11.535500	-0.002061	-0.000205	0.000836	-0.000747	6844.150032	45074.005139	4012.131608	23914.912440
12.035500	-0.000668	0.000186	0.000634	0.000077	6849.219388	45032.077989	4009.626850	23875.242649
12.536000	-0.000893	0.000621	-0.002255	0.000083	6847.157771	45073.635136	4002.584972	23874.944819
13.036000	-0.003468	-0.001116	-0.004857	0.004090	6789.043797	44521.042372	3986.685938	23682.995943
13.536500	-0.000251	-0.000083	0.002967	-0.000422	6857.380281	45054.313103	4016.559403	23899.250178
14.037000	-0.002988	0.000009	0.004399	0.001650	6814.716379	44863.052025	4014.989731	23799.655265
14.537500	-0.001624	-0.000041	0.001386	0.004798	6799.015954	44556.190579	3999.986433	23649.286720
15.034500	-0.003424	0.000113	-0.003054	0.005101	6780.577659	44541.936266	3988.578833	23634.848112
15.535000	0.001332	0.000668	0.001770	-0.000450	6871.784228	45129.864794	4013.693775	23900.628984
16.035500	0.001030	-0.000083	0.001358	-0.000970	6873.728402	45107.374447	4013.957335	23925.677935
16.535500	-0.003597	-0.000138	0.001110	0.004686	6782.699109	44557.595320	3999.588829	23654.605246
17.036000	-0.001111	0.000014	0.002455	0.000585	6840.765355	44966.359865	4012.837183	23850.811583
17.536500	-0.001924	0.000228	0.002604	0.000631	6833.136048	44982.546981	4013.086026	23848.576651
18.036500	-0.000016	-0.000037	0.000475	0.000700	6849.475917	44950.307772	4007.719461	23845.269618
18.537000	0.000108	0.000474	-0.002427	0.001176	6846.345447	44953.686752	3999.524742	23822.424436
19.037000	-0.002557	-0.000608	-0.000304	0.000936	6824.840122	44872.540984	4005.252779	23833.960415
19.537500	0.000713	0.000394	-0.000038	0.000813	6854.964653	44981.020035	4006.196593	23839.833930
20.035000	-0.000088	-0.000302	-0.001458	0.001007	6846.096033	44895.131253	4002.276621	23830.506861
20.535000	-0.001391	-0.000654	-0.002020	0.000130	6842.312779	44945.758576	4003.041326	23872.688563
21.035500	-0.001134	0.000360	0.003280	0.000928	6837.514872	44966.590653	4014.015862	23834.317261
21.536000	-0.001159	0.000435	-0.003726	0.001198	6834.892716	44947.862748	3996.336339	23821.359156
22.036000	-0.000991	0.000691	-0.002661	0.001356	6834.985554	44957.333287	3998.522402	23813.781517
22.536500	-0.002570	-0.000166	-0.000258	0.000695	6826.845463	44938.297231	4005.947235	23845.508912
23.036500	-0.000433	0.000741	0.002152	0.001337	6840.096513	44963.887741	4010.255324	23814.665466
23.537000	-0.002053	0.000199	0.003119	0.000814	6830.371250	44962.068684	4013.901666	23839.798224
24.037000	-0.000413	0.000312	0.002379	0.001006	6843.217842	44954.492495	4011.619808	23830.565755
24.534500	-0.001722	0.000196	0.001669	0.000594	6835.262736	44983.102545	4010.893129	23850.385524
25.035000	0.001019	0.000671	0.002969	0.001120	6854.950966	44978.057715	4012.783769	23825.085517
25.535000	-0.000903	0.000360	-0.000003	0.001040	6838.565197	44955.744725	4005.729566	23828.925130
26.035500	-0.001804	0.000438	0.003017	0.001222	6828.968050	44945.800306	4012.653409	23820.209989
26.535500	-0.000445	0.000604	0.000927	0.001326	6840.098143	44951.821590	4007.297809	23815.234232
27.036000	-0.001492	-0.000304	0.002794	0.001400	6830.149554	44857.090947	4011.672259	23811.660233
27.536000	-0.001663	0.000569	0.005980	-0.000842	6848.537107	45158.230671	4025.026478	23919.504697
28.036500	0.002169	0.000647	-0.000980	-0.000210	6877.123158	45104.474822	4006.393966	23889.047943
28.537000	0.001569	-0.000224	-0.002593	-0.000715	6876.281484	45069.070302	4003.701440	23913.401098
29.037500	-0.000492	0.000155	-0.000254	0.002565	6828.689188	44789.104771	4001.419893	23755.828845
29.535000	0.000852	0.000673	0.002291	-0.000367	6866.737600	45122.243413	4014.765160	23896.609398
30.035000	0.001572	0.001372	0.004796	0.000140	6868.648867	45140.911150	4019.677402	23872.227426
30.535500	-0.000847	0.000110	-0.004087	0.003414	6818.045027	44703.145841	3990.142635	23715.243034
31.038500	0.000618	0.000429	0.001605	0.001141	6851.194590	44952.799508	4009.400471	23824.105342
31.536000	-0.000618	0.000819	0.000208	0.000011	6850.251481	45099.783297	4008.749447	23878.417451
32.036500	0.000603	-0.000252	-0.001057	-0.000744	6867.878885	45069.125545	4007.505253	23914.766760
32.536500	-0.003989	0.000310	0.002065	0.004758	6778.641737	44593.603892	4001.727107	23651.189980
33.036500	0.002793	0.000878	-0.000112	-0.001449	6893.866644	45247.147545	4011.532207	23948.801546
33.537000	-0.001895	0.000208	0.001088	0.001220	6828.179688	44923.812605	4007.948008	23820.309889
34.034500	0.000929	0.000151	-0.006482	0.001401	6851.654435	44900.886702	3989.230082	23811.637251
34.537500	-0.001751	-0.000519	-0.003005	0.002733	6816.075705	44708.215152	3994.376431	23747.823454
35.035500	-0.001059	-0.000114	-0.002177	0.002225	6826.687553	44795.958055	3997.593529	23772.130859
35.535500	-0.001236	0.000549	0.005259	0.001452	6831.959880	44934.293656	4017.586996	23809.154486
36.036000	0.000234	0.000523	-0.000397	0.001661	6843.152129	44911.662756	4003.264021	23799.152435
36.536000	-0.002013	-0.000264	-0.001988	0.001951	6820.668467	44807.869884	3998.710910	23785.233109
37.036500	-0.001378	-0.000335	-0.000985	0.001599	6829.403783	44834.898587	4001.989995	23802.124673
37.536500	-0.001985	0.000546	-0.000468	0.001763	6822.575288	44903.975750	4002.844401	23794.234555
38.037000	0.000259	0.001179	0.006284	0.002631	6834.764254	44881.337398	4017.210135	23752.694651
38.537000	-0.000638	0.000605	0.000588	0.002545	6827.571717	44834.320446	4003.507974	23756.781915
39.037500	-0.000911	0.000579	0.003012	0.002124	6828.883314	44872.383732	4010.435346	23776.944301
39.535000	-0.002901	0.001467	0.004100	0.002447	6808.453957	44926.880615	4012.305846	23761.488812
40.035500	-0.002388	0.000210	0.001395	0.001672	6819.825164	44880.412123	4007.593008	23798.630296
40.535500	-0.000391	0.001116	0.000201	0.002345	6831.533682	44902.774368	4003.054254	23766.350233
41.036000	-0.000407	0.000947	0.004691	0.002657	6828.628367	44856.507953	4013.237489	23751.431387
41.536000	-0.001014	-0.000095	-0.000602	0.001686	6831.852466	44849.661810	4002.706157	23797.934384
42.036500	-0.001249	0.000645	0.004323	0.002275	6824.557357	44864.157715	4013.270626	23769.717642
42.536500	0.000010	0.001419	0.006168	0.002823	6830.858269	44886.012425	4016.452557	23743.515127
43.037000	-0.001161	0.000226	0.001373	0.001507	6832.132612	44897.848008	4007.941622	23806.527064
43.537500	0.003291	0.000947	0.006594	-0.002300	6906.032043	45336.777364	4030.168764	23989.939390
44.037500	0.000279	0.000796	-0.000499	-0.000320	6861.203903	45129.657810	4007.832675	23894.350042
44.535500	0.001183	0.001536	-0.000116	0.000894	6858.436683	45083.669680	4005.809438	23835.957856
45.035500	-0.002804	0.000704	-0.006086	0.005459	6782.867246	44564.146294	3980.501926	23617.823586
45.535500	0.003102	0.002043	0.005333	0.001324	6871.741737	45091.066737	4018.084147	23815.295807
46.036000	0.001977	0.000810	0.006997	0.000383	6870.096386	45062.900482	4024.511889	23860.538336
46.535500	0.000128	0.000495	0.002241	-0.000051	6857.453801	45074.341067	4013.869510	23881.397717
47.036500	-0.001980	0.000873	0.003170	0.003134	6810.523677	44803.446024	4008.355974	23728.632138
47.537000	0.000633	0.000561	0.006099	0.001452	6848.558303	44935.376879	4019.653285	23809.153402
48.037000	0.000695	0.000368	0.000622	0.000006	6862.007086	45056.555521	4009.771704	23878.666637
48.534500	-0.003394	0.000362	0.003727	0.004233	6788.439334	44648.871434	4007.036418	23676.203828
49.035000	-0.000517	0.000867	0.001504	0.002220	6831.519897	44890.875833	4006.523947	23772.349784
49.535000	0.001440	0.000398	0.003958	-0.001618	6883.225546	45216.994747	4021.945281	23956.973911
50.036000	0.000852	0.000528	0.007092	0.000366	6860.194142	45037.193956	4024.789048	23861.329816
50.536000	-0.001268	-0.001053	0.006225	0.000719	6838.179465	44850.476562	4021.771870	23844.352070
51.036000	-0.024344	-0.016236	0.000587	0.157765	5529.431786	31155.871650	3686.851059	17511.532121
51.536000	-0.032560	-0.024932	-0.006531	-0.054050	7052.313374	47934.245188	4130.657914	26649.406711
52.036000	-0.016971	-0.021990	0.004564	-0.116243	7850.425640	55201.799375	4347.730504	30294.464120
52.536500	-0.025953	-0.019425	-0.007460	-0.089998	7471.222836	52432.830789	4229.820744	28692.426699
53.037000	-0.024451	-0.014481	-0.015355	-0.101579	7608.474772	54349.145661	4240.728576	29387.410732
53.535000	-0.009988	-0.010785	-0.007228	-0.107175	7827.111520	55459.213255	4282.170864	29729.934691
54.035000	-0.011634	-0.008790	-0.004691	-0.080411	7520.390421	52552.150201	4209.881311	28130.924979
54.535500	-0.010901	-0.005169	-0.005427	-0.052525	7245.396021	49860.591473	4129.512286	26566.407402
55.035500	-0.009353	-0.005439	-0.003464	-0.043180	7169.548316	48834.829465	4109.628231	26064.172035
55.536000	-0.006372	-0.006303	-0.007724	-0.073559	7503.801682	52056.739781	4181.522521	27737.117431
56.036000	-0.006743	-0.004782	-0.003949	-0.047016	7232.155594	49311.392594	4118.615660	26269.045235
56.536500	-0.008469	-0.005911	-0.006306	-0.034872	7098.602028	47917.925814	4080.231708	25626.690422
57.037000	-0.011580	-0.006351	-0.003676	-0.018870	6921.413586	46249.984968	4045.954944	24807.256253
57.537500	-0.009785	-0.004873	-0.004881	-0.010552	6862.703202	45574.396558	4022.182246	24393.079270
58.037000	-0.010396	-0.005391	0.001985	-0.006755	6823.521608	45153.596055	4029.783778	24206.602214
58.535000	-0.013017	-0.006299	-0.000810	-0.001885	6757.850611	44596.811245	4010.891029	23969.856931
59.035500	-0.011784	-0.004760	-0.005718	-0.010147	6841.283057	45545.758583	4019.117972	24373.083987
59.535500	-0.011182	-0.006263	-0.006475	-0.017330	6911.070124	46105.652126	4035.059144	24729.982939
60.036000	-0.009904	-0.005760	-0.004729	-0.021732	6962.775970	46594.984499	4050.531569	24951.609934
60.536000	-0.012428	-0.006850	-0.005433	-0.034405	7056.877529	47772.908335	4081.288823	25602.365694
61.036000	-0.006482	-0.002756	-0.007227	-0.040839	7174.668464	48870.945265	4093.443018	25940.055994
61.537000	-0.004729	-0.001106	-0.011635	-0.030201	7089.787610	47931.814354	4054.497450	25384.343347
62.037000	-0.006510	-0.002469	-0.008989	-0.029922	7070.361145	47762.423916	4060.536900	25369.996636
62.537000	-0.008517	-0.002520	-0.014145	-0.031354	7064.940791	47904.843402	4051.052096	25443.925224
63.037000	-0.008307	-0.001426	-0.004625	-0.033063	7083.022456	48195.432678	4079.897055	25532.518083
63.535000	-0.008515	-0.002810	-0.010350	-0.034739	7096.902130	48225.866491	4069.410513	25619.738519
64.035500	-0.008109	-0.002751	-0.013653	-0.035509	7108.058262	48312.221500	4062.899525	25659.913456
64.535500	-0.009148	-0.002877	-0.010837	-0.037115	7113.447637	48466.860434	4074.293457	25743.999491
65.036000	-0.010144	-0.004173	-0.012316	-0.035621	7089.834251	48175.877258	4066.621366	25665.800413
65.536000	-0.009263	-0.003406	-0.009397	-0.038463	7125.196918	48552.631662	4081.534808	25814.785249
66.036500	-0.008263	-0.003130	-0.008124	-0.039087	7140.707911	48647.097019	4086.488225	25847.603878
66.537000	-0.005111	-0.002387	-0.007847	-0.039452	7174.510753	48763.658660	4088.168856	25866.818992
67.037500	-0.008018	-0.002544	-0.008233	-0.035837	7112.037767	48368.038069	4077.729945	25677.076827
67.537500	-0.007449	-0.002672	-0.009389	-0.039981	7157.096151	48789.372419	4085.518332	25894.758268
68.035000	-0.006127	-0.002941	-0.009906	-0.040291	7172.803444	48793.714265	4084.976632	25911.113981
68.535000	-0.006773	-0.002306	-0.008636	-0.039390	7157.908871	48765.686714	4085.942083	25863.589084
69.035500	-0.008985	-0.003179	-0.009529	-0.036887	7112.824992	48411.385304	4077.091985	25732.027397
69.535000	-0.007433	-0.002457	-0.009961	-0.040669	7163.866393	48884.666994	4085.820675	25931.089291
70.036000	-0.007125	-0.002279	-0.010892	-0.040482	7165.029073	48883.694038	4082.898689	25921.188102
70.536500	-0.007834	-0.002218	-0.007968	-0.040110	7154.634721	48850.878482	4089.580007	25901.571623
71.036500	-0.010981	-0.004083	-0.017828	-0.037084	7095.763315	48337.640566	4056.257058	25742.382323
71.537000	-0.007908	-0.002707	-0.009547	-0.039784	7150.784172	48764.838216	4084.587738	25884.326308
72.037000	-0.006946	-0.003092	-0.006280	-0.039650	7158.743676	48710.251465	4092.804232	25877.279379
72.547000	-0.006794	-0.002093	-0.008836	-0.037844	7142.874719	48625.439039	4081.382362	25782.224802
73.034500	-0.006384	-0.002895	-0.004318	-0.038938	7157.301740	48656.051270	4096.099860	25839.739264
73.543500	-0.007956	-0.002847	-0.006479	-0.038225	7135.392500	48586.243988	4088.537007	25802.235100
74.035500	-0.007712	-0.003451	-0.005181	-0.038377	7139.190478	48538.940456	4092.348859	25810.256675
74.536000	-0.007637	-0.003314	-0.006476	-0.036072	7117.893608	48312.159390	4082.914835	25689.339916
75.036500	-0.006414	-0.003200	-0.008134	-0.036527	7133.904169	48371.530373	4079.779485	25713.160285
75.536500	-0.006696	-0.003037	-0.007173	-0.036289	7128.941832	48363.821101	4081.664410	25700.738432
76.037000	-0.007478	-0.002750	-0.011150	-0.034909	7108.361531	48249.863715	4067.788700	25628.642386
76.537000	-0.008938	-0.003248	-0.008058	-0.033825	7084.259693	48085.300064	4072.969701	25572.144829
77.035000	-0.007687	-0.003499	-0.007926	-0.034367	7101.221615	48115.510119	4074.712922	25600.349962
77.538000	-0.006901	-0.003547	-0.004747	-0.033704	7102.391162	48041.745826	4081.248629	25565.850458
78.037500	-0.007241	-0.002978	-0.002643	-0.032205	7084.986492	47945.463976	4082.825961	25488.012050
78.535500	-0.007376	-0.002429	-0.006261	-0.030287	7065.634584	47804.020632	4068.473309	25388.779819
79.035500	-0.007506	-0.002435	-0.005709	-0.031560	7076.399154	47934.942916	4073.186525	25454.599694
79.535500	-0.008352	-0.002720	-0.010845	-0.031251	7065.530036	47873.578047	4059.190078	25438.622967
80.036500	-0.006528	-0.002913	-0.004850	-0.030623	7076.784688	47788.802810	4072.985916	25406.157639
80.536500	-0.008091	-0.002406	-0.006215	-0.028870	7045.651682	47660.611984	4064.950941	25315.796090
81.036500	-0.008338	-0.002405	-0.007685	-0.028858	7043.226517	47659.355414	4061.150365	25315.151587
81.537500	-0.006585	-0.002311	-0.002655	-0.028002	7051.619877	47581.146588	4071.883581	25271.191547
82.035000	-0.006152	-0.002359	-0.010518	-0.027814	7053.920433	47556.951004	4051.272760	25261.538824
82.535000	-0.006782	-0.002418	-0.007852	-0.027271	7042.939899	47495.207506	4056.670430	25233.672008
83.035000	-0.010602	-0.003031	-0.014685	-0.022595	6964.287572	46956.894014	4027.721775	24995.296723
83.535500	-0.006954	-0.002201	-0.005683	-0.025989	7029.368435	47386.267356	4058.933128	25168.063031
84.035500	-0.007406	-0.002026	-0.012665	-0.025283	7018.593686	47332.163110	4039.472135	25132.044370
84.536500	-0.007439	-0.003144	-0.009906	-0.025661	7021.802518	47256.734797	4047.373444	25151.324213
85.036500	-0.006549	-0.002672	-0.009142	-0.023152	7006.773999	47049.643057	4042.971126	25023.560148
85.537000	-0.008017	-0.002399	-0.006775	-0.024102	7001.978760	47173.784073	4051.351874	25071.843195
86.037000	-0.008655	-0.002944	-0.009534	-0.024192	6996.914295	47127.669875	4044.604438	25076.457386
86.537500	-0.006905	-0.002757	-0.007761	-0.023382	7005.614284	47064.420140	4047.035212	25035.271105
87.037500	-0.008285	-0.001620	-0.005551	-0.022355	6983.377615	47075.579253	4050.026000	24983.160932
87.535000	-0.005951	-0.002521	-0.005595	-0.022505	7006.315242	46999.366676	4050.294157	24990.730214
88.035500	-0.006529	-0.001990	-0.008702	-0.021768	6994.164221	46978.567540	4040.599276	24953.437574
88.536000	-0.007602	-0.001779	-0.011027	-0.020528	6972.848673	46874.507625	4031.679685	24890.736939
89.035500	-0.008328	-0.002376	-0.009270	-0.020983	6970.363181	46860.211160	4037.203429	24913.712463
89.536000	-0.008474	-0.001901	-0.009941	-0.020171	6961.575542	46826.209842	4033.498269	24872.757960
90.039000	-0.007910	-0.002264	-0.007206	-0.020074	6965.854067	46779.777092	4040.098733	24867.851057
90.537000	-0.008245	-0.001867	-0.006784	-0.019379	6956.418782	46749.718777	4039.413230	24832.824662
91.037500	-0.007045	-0.002696	-0.011407	-0.019575	6969.216312	46686.154044	4028.364606	24842.734306
91.540500	-0.007525	-0.001585	-0.006459	-0.018526	6955.201358	46692.306084	4038.089921	24789.935280
92.037500	-0.007781	-0.002234	-0.006450	-0.018582	6953.381348	46632.717643	4038.252952	24792.777571
92.535000	-0.008616	-0.002192	-0.005463	-0.018362	6943.741315	46614.869163	4040.176195	24781.708650
93.035500	-0.006785	-0.001307	-0.004349	-0.017217	6950.006158	46588.744165	4040.099938	24724.307896
93.536000	-0.006245	-0.001526	-0.011064	-0.017384	6956.473724	46583.604101	4023.786328	24732.687425
94.036000	-0.008469	-0.001428	-0.004068	-0.016607	6929.107124	46515.546129	4039.274228	24693.790798
94.536500	-0.007581	-0.001853	-0.003593	-0.016857	6939.453056	46497.972968	4041.093569	24706.261653
95.042000	-0.009405	-0.001974	-0.005215	-0.012845	6886.651380	46086.179781	4027.030177	24506.460619
95.537000	-0.008696	-0.002013	-0.009318	-0.016499	6926.062032	46446.156623	4025.914381	24688.360854
