sample name	sample
index	1260
start time	 04-29-2021  01:15:34 PM


Wavelength (nm)	Absorbance
494.344910	-0.238960
494.563924	-0.238960
494.782919	-0.238960
495.001897	-0.235618
495.220856	-0.117298
495.439797	-0.089146
495.658719	-0.102608
495.877624	-0.095333
496.096510	-0.000423
496.315378	0.062690
496.534227	0.066360
496.753059	0.099191
496.971872	0.022428
497.190667	0.004002
497.409444	0.017210
497.628203	0.019161
497.846943	0.020523
498.065665	0.019249
498.284369	0.019220
498.503055	0.019339
498.721723	0.019924
498.940372	0.020532
499.159003	0.020613
499.377616	0.019804
499.596210	0.019752
499.814787	0.019630
500.033345	0.018968
500.251885	0.018128
500.470406	0.016918
500.688910	0.015733
500.907395	0.015042
501.125862	0.015891
501.344311	0.015735
501.562742	0.015533
501.781154	0.015954
501.999548	0.015600
502.217924	0.015140
502.436282	0.015169
502.654621	0.014376
502.872942	0.014452
503.091245	0.012586
503.309530	0.012426
503.527797	0.012398
503.746045	0.012264
503.964275	0.012628
504.182487	0.013927
504.400681	0.014292
504.618856	0.014415
504.837013	0.014999
505.055152	0.016177
505.273273	0.014912
505.491376	0.015025
505.709460	0.014908
505.927526	0.014831
506.145574	0.014400
506.363604	0.014135
506.581615	0.014231
506.799608	0.014014
507.017583	0.014195
507.235540	0.015061
507.453478	0.014922
507.671399	0.014053
507.889301	0.013455
508.107185	0.013789
508.325050	0.013602
508.542898	0.013604
508.760727	0.012629
508.978538	0.012299
509.196330	0.013032
509.414105	0.012470
509.631861	0.012419
509.849599	0.012590
510.067319	0.011999
510.285021	0.012632
510.502704	0.013057
510.720369	0.014565
510.938016	0.014178
511.155645	0.013048
511.373255	0.013611
511.590848	0.013742
511.808422	0.014724
512.025977	0.014737
512.243515	0.014768
512.461034	0.014351
512.678536	0.013411
512.896018	0.014082
513.113483	0.014041
513.330930	0.014897
513.548358	0.014105
513.765768	0.012864
513.983160	0.012573
514.200533	0.012740
514.417889	0.013242
514.635226	0.013277
514.852545	0.013110
515.069845	0.013293
515.287128	0.012179
515.504392	0.012609
515.721638	0.013043
515.938866	0.013520
516.156075	0.013211
516.373267	0.012826
516.590440	0.012535
516.807594	0.012819
517.024731	0.013046
517.241850	0.013274
517.458950	0.013554
517.676032	0.013378
517.893095	0.013758
518.110141	0.013902
518.327168	0.014316
518.544177	0.014489
518.761168	0.014586
518.978141	0.015046
519.195095	0.014312
519.412031	0.014176
519.628949	0.014431
519.845849	0.013806
520.062731	0.013267
520.279594	0.013302
520.496439	0.012954
520.713266	0.011840
520.930074	0.011186
521.146865	0.011973
521.363637	0.011785
521.580391	0.011866
521.797127	0.011614
522.013844	0.011619
522.230543	0.010789
522.447224	0.011048
522.663887	0.011931
522.880532	0.012304
523.097158	0.012512
523.313766	0.012978
523.530356	0.012831
523.746928	0.013189
523.963481	0.013662
524.180017	0.014587
524.396534	0.014223
524.613032	0.013896
524.829513	0.013682
525.045975	0.013269
525.262420	0.012904
525.478845	0.012185
525.695253	0.011847
525.911643	0.011184
526.128014	0.010604
526.344367	0.010828
526.560702	0.011051
526.777018	0.011595
526.993316	0.011607
527.209597	0.011044
527.425858	0.011252
527.642102	0.011158
527.858328	0.011065
528.074535	0.011174
528.290724	0.010766
528.506894	0.010676
528.723047	0.009996
528.939181	0.010040
529.155297	0.010730
529.371395	0.011029
529.587475	0.011117
529.803536	0.011245
530.019579	0.011572
530.235604	0.011886
530.451611	0.010781
530.667600	0.010442
530.883570	0.010560
531.099522	0.010298
531.315456	0.009658
531.531372	0.009524
531.747269	0.009600
531.963148	0.009237
532.179009	0.009566
532.394852	0.010949
532.610676	0.011139
532.826482	0.011153
533.042271	0.011313
533.258040	0.011515
533.473792	0.011779
533.689525	0.011368
533.905240	0.011593
534.120937	0.011829
534.336616	0.011307
534.552277	0.011587
534.767919	0.011741
534.983543	0.011375
535.199149	0.011607
535.414736	0.011672
535.630306	0.012396
535.845857	0.012431
536.061390	0.011866
536.276904	0.011523
536.492401	0.011429
536.707879	0.011482
536.923339	0.012058
537.138781	0.012373
537.354204	0.012321
537.569610	0.012154
537.784997	0.012039
538.000366	0.012511
538.215716	0.012673
538.431049	0.012585
538.646363	0.011851
538.861659	0.011482
539.076937	0.011203
539.292196	0.011245
539.507438	0.011163
539.722661	0.011025
539.937866	0.010199
540.153052	0.010262
540.368221	0.010294
540.583371	0.010771
540.798503	0.010598
541.013617	0.010816
541.228712	0.010801
541.443789	0.010841
541.658848	0.010965
541.873889	0.011399
542.088912	0.011544
542.303916	0.011350
542.518902	0.010939
542.733870	0.011737
542.948820	0.011592
543.163752	0.011635
543.378665	0.011455
543.593560	0.011325
543.808437	0.011081
544.023295	0.010975
544.238136	0.011086
544.452958	0.011363
544.667762	0.010981
544.882548	0.010868
545.097315	0.010957
545.312064	0.010821
545.526795	0.010853
545.741508	0.011260
545.956203	0.011235
546.170879	0.011372
546.385537	0.011450
546.600177	0.011601
546.814799	0.011798
547.029402	0.011618
547.243988	0.011728
547.458555	0.011674
547.673103	0.011543
547.887634	0.011533
548.102146	0.011677
548.316640	0.011683
548.531116	0.011732
548.745574	0.011672
548.960013	0.011777
549.174435	0.011963
549.388838	0.012126
549.603222	0.011887
549.817589	0.011974
550.031937	0.011943
550.246267	0.011804
550.460579	0.011455
550.674873	0.011318
550.889148	0.011211
551.103405	0.011068
551.317644	0.010554
551.531865	0.010981
551.746068	0.010952
551.960252	0.011077
552.174418	0.011306
552.388566	0.011268
552.602696	0.011316
552.816807	0.011502
553.030900	0.011164
553.244975	0.011505
553.459032	0.011628
553.673070	0.011805
553.887091	0.011557
554.101093	0.011671
554.315077	0.011970
554.529042	0.012492
554.742990	0.012536
554.956919	0.013052
555.170830	0.013237
555.384722	0.012992
555.598597	0.012910
555.812453	0.013027
556.026291	0.012885
556.240111	0.012822
556.453913	0.012500
556.667696	0.012229
556.881461	0.012242
557.095208	0.012197
557.308937	0.011890
557.522647	0.011818
557.736339	0.012064
557.950013	0.012107
558.163669	0.012335
558.377307	0.012508
558.590926	0.012893
558.804527	0.012989
559.018110	0.013200
559.231675	0.013542
559.445221	0.013671
559.658749	0.013318
559.872259	0.013193
560.085751	0.012659
560.299225	0.012307
560.512680	0.012095
560.726117	0.012158
560.939536	0.011874
561.152937	0.011873
561.366319	0.012044
561.579683	0.012280
561.793029	0.012241
562.006357	0.012610
562.219667	0.013045
562.432958	0.013122
562.646231	0.012589
562.859486	0.012646
563.072723	0.013015
563.285941	0.012869
563.499141	0.012792
563.712323	0.012677
563.925487	0.012459
564.138632	0.012072
564.351760	0.012347
564.564869	0.012732
564.777960	0.012852
564.991032	0.012621
565.204087	0.012659
565.417123	0.012459
565.630141	0.012705
565.843140	0.013005
566.056122	0.013090
566.269085	0.012267
566.482030	0.012262
566.694957	0.012193
566.907866	0.012125
567.120756	0.012087
567.333628	0.012238
567.546482	0.012253
567.759318	0.012245
567.972135	0.012495
568.184935	0.013181
568.397716	0.013354
568.610478	0.013339
568.823223	0.013355
569.035949	0.013393
569.248657	0.013607
569.461347	0.013569
569.674019	0.013611
569.886672	0.013415
570.099308	0.013166
570.311925	0.013214
570.524523	0.013361
570.737104	0.013189
570.949666	0.013174
571.162210	0.013231
571.374736	0.013184
571.587244	0.012905
571.799733	0.013099
572.012205	0.013096
572.224658	0.013315
572.437092	0.013235
572.649509	0.013638
572.861907	0.013411
573.074287	0.012830
573.286649	0.012797
573.498993	0.012863
573.711318	0.012485
573.923625	0.012647
574.135914	0.012217
574.348185	0.012266
574.560438	0.011875
574.772672	0.012106
574.984888	0.012713
575.197086	0.012794
575.409266	0.012861
575.621427	0.012902
575.833570	0.012959
576.045695	0.012820
576.257802	0.012848
576.469890	0.013003
576.681961	0.012852
576.894013	0.012131
577.106046	0.012051
577.318062	0.011819
577.530059	0.011833
577.742039	0.011708
577.954000	0.011711
578.165942	0.011403
578.377867	0.011215
578.589773	0.011299
578.801661	0.011699
579.013531	0.011841
579.225382	0.011818
579.437216	0.012018
579.649031	0.011901
579.860828	0.012101
580.072606	0.012536
580.284367	0.012319
580.496109	0.012367
580.707833	0.012599
580.919539	0.012337
581.131227	0.012260
581.342896	0.012099
581.554547	0.012148
581.766180	0.012163
581.977795	0.011964
582.189391	0.012183
582.400969	0.012088
582.612529	0.012034
582.824071	0.012114
583.035595	0.012429
583.247100	0.012413
583.458587	0.012432
583.670056	0.012261
583.881506	0.012447
584.092939	0.012825
584.304353	0.012951
584.515749	0.012868
584.727127	0.013248
584.938486	0.013446
585.149828	0.013604
585.361151	0.013725
585.572456	0.014043
585.783742	0.013936
585.995011	0.013960
586.206261	0.014056
586.417493	0.014065
586.628706	0.013627
586.839902	0.013679
587.051079	0.013935
587.262238	0.013621
587.473379	0.013412
587.684502	0.013365
587.895606	0.013068
588.106692	0.013118
588.317760	0.013125
588.528810	0.013274
588.739841	0.013221
588.950855	0.013063
589.161850	0.013170
589.372827	0.013014
589.583785	0.013171
589.794726	0.013266
590.005648	0.013191
590.216552	0.013361
590.427437	0.013622
590.638305	0.013523
590.849154	0.013445
591.059985	0.013636
591.270798	0.013957
591.481592	0.014080
591.692369	0.014388
591.903127	0.014492
592.113867	0.014357
592.324588	0.014095
592.535292	0.014229
592.745977	0.014283
592.956644	0.014256
593.167293	0.014263
593.377923	0.014027
593.588536	0.013569
593.799130	0.013296
594.009706	0.013223
594.220263	0.013356
594.430803	0.013243
594.641324	0.013284
594.851827	0.013373
595.062312	0.013436
595.272778	0.013620
595.483227	0.013976
595.693657	0.014081
595.904069	0.014117
596.114462	0.014151
596.324838	0.013958
596.535195	0.013931
596.745534	0.014203
596.955855	0.014155
597.166157	0.013949
597.376441	0.013832
597.586707	0.013847
597.796955	0.014122
598.007185	0.014303
598.217396	0.014422
598.427589	0.014482
598.637764	0.014231
598.847921	0.014127
599.058060	0.014089
599.268180	0.014127
599.478282	0.014246
599.688366	0.014214
599.898431	0.014249
600.108479	0.014280
600.318508	0.014306
600.528519	0.014518
600.738511	0.014779
600.948486	0.015021
601.158442	0.015158
601.368380	0.015119
601.578300	0.015052
601.788202	0.014901
601.998085	0.014941
602.207950	0.014789
602.417797	0.014622
602.627626	0.014402
602.837436	0.014234
603.047228	0.014309
603.257002	0.014188
603.466758	0.014162
603.676496	0.014054
603.886215	0.014240
604.095916	0.014307
604.305599	0.014255
604.515264	0.014265
604.724910	0.014161
604.934538	0.014064
605.144148	0.014193
605.353740	0.013967
605.563314	0.014076
605.772869	0.013679
605.982406	0.013578
606.191925	0.013579
606.401425	0.013572
606.610908	0.013793
606.820372	0.013788
607.029818	0.013752
607.239246	0.014085
607.448655	0.014316
607.658047	0.014505
607.867420	0.014695
608.076775	0.014893
608.286111	0.014944
608.495430	0.014818
608.704730	0.014818
608.914012	0.014908
609.123275	0.014827
609.332521	0.014801
609.541748	0.015004
609.750957	0.015246
609.960148	0.015305
610.169321	0.015512
610.378475	0.015583
610.587611	0.015613
610.796729	0.015669
611.005829	0.015874
611.214910	0.015791
611.423974	0.015939
611.633019	0.016084
611.842045	0.016022
612.051054	0.015929
612.260044	0.016258
612.469017	0.016327
612.677970	0.016350
612.886906	0.016462
613.095824	0.016559
613.304723	0.016440
613.513604	0.016371
613.722467	0.016457
613.931311	0.016389
614.140138	0.016187
614.348946	0.016275
614.557736	0.016423
614.766507	0.016337
614.975261	0.016147
615.183996	0.016044
615.392713	0.015967
615.601412	0.015913
615.810092	0.016138
616.018754	0.016073
616.227399	0.015973
616.436024	0.015898
616.644632	0.015643
616.853222	0.015776
617.061793	0.016103
617.270346	0.016125
617.478880	0.016141
617.687397	0.016053
617.895895	0.016317
618.104375	0.016191
618.312837	0.016307
618.521281	0.016554
618.729706	0.016610
618.938113	0.016522
619.146502	0.016383
619.354873	0.016419
619.563226	0.016415
619.771560	0.016195
619.979876	0.016212
620.188174	0.016008
620.396453	0.016086
620.604715	0.016081
620.812958	0.015952
621.021183	0.016160
621.229390	0.016059
621.437578	0.016020
621.645748	0.016129
621.853900	0.016315
622.062034	0.016300
622.270150	0.016332
622.478247	0.016133
622.686326	0.016033
622.894387	0.015778
623.102430	0.015832
623.310454	0.015969
623.518461	0.016087
623.726449	0.016438
623.934418	0.016544
624.142370	0.016592
624.350303	0.016607
624.558218	0.016879
624.766115	0.016901
624.973994	0.017105
625.181855	0.017146
625.389697	0.017071
625.597521	0.016787
625.805327	0.016847
626.013114	0.016900
626.220883	0.017311
626.428634	0.017422
626.636367	0.017563
626.844082	0.017675
627.051778	0.017630
627.259457	0.017439
627.467117	0.017434
627.674758	0.017426
627.882382	0.017274
628.089987	0.017196
628.297574	0.017125
628.505143	0.017340
628.712694	0.016973
628.920226	0.016992
629.127740	0.017088
629.335236	0.017059
629.542714	0.017293
629.750174	0.017167
629.957615	0.016995
630.165038	0.016884
630.372443	0.016718
630.579829	0.016846
630.787198	0.016810
630.994548	0.016883
631.201880	0.016959
631.409194	0.016683
631.616489	0.016809
631.823766	0.016883
632.031025	0.016825
632.238266	0.016751
632.445489	0.016660
632.652693	0.016651
632.859879	0.016741
633.067047	0.016545
633.274197	0.016440
633.481329	0.016356
633.688442	0.016232
633.895537	0.016347
634.102614	0.016315
634.309672	0.016265
634.516713	0.016011
634.723735	0.015816
634.930739	0.015964
635.137724	0.015961
635.344692	0.015961
635.551641	0.015965
635.758572	0.015816
635.965485	0.015779
636.172379	0.015847
636.379256	0.016087
636.586114	0.016335
636.792954	0.016361
636.999775	0.016458
637.206579	0.016428
637.413364	0.016487
637.620131	0.016438
637.826880	0.016523
638.033610	0.016738
638.240323	0.016724
638.447017	0.016706
638.653692	0.016557
638.860350	0.016691
639.066990	0.016912
639.273611	0.016981
639.480214	0.017347
639.686798	0.017560
639.893365	0.017522
640.099913	0.017573
640.306443	0.017700
640.512955	0.017958
640.719449	0.017807
640.925924	0.017513
641.132381	0.017776
641.338820	0.017626
641.545241	0.017584
641.751644	0.017543
641.958028	0.017699
642.164394	0.017570
642.370742	0.017849
642.577071	0.017942
642.783383	0.018277
642.989676	0.018165
643.195951	0.018267
643.402207	0.018068
643.608446	0.018163
643.814666	0.017970
644.020868	0.018013
644.227052	0.017752
644.433218	0.017829
644.639365	0.017821
644.845494	0.017919
645.051605	0.018091
645.257698	0.018379
645.463772	0.018527
645.669828	0.018911
645.875866	0.019061
646.081886	0.019077
646.287888	0.019130
646.493871	0.018998
646.699836	0.019030
646.905783	0.018853
647.111712	0.018819
647.317622	0.018589
647.523514	0.018247
647.729388	0.018173
647.935244	0.018068
648.141082	0.018114
648.346901	0.018211
648.552702	0.018143
648.758485	0.018123
648.964250	0.018178
649.169996	0.018100
649.375724	0.018243
649.581434	0.018353
649.787126	0.018486
649.992800	0.018617
650.198455	0.018745
650.404092	0.018613
650.609711	0.018400
650.815311	0.018139
651.020894	0.018185
651.226458	0.018043
651.432004	0.017665
651.637532	0.017491
651.843041	0.017262
652.048532	0.017275
652.254006	0.017290
652.459460	0.017472
652.664897	0.017771
652.870315	0.017805
653.075716	0.018136
653.281097	0.018318
653.486461	0.018458
653.691807	0.018636
653.897134	0.018594
654.102443	0.018617
654.307734	0.018646
654.513006	0.018407
654.718261	0.018466
654.923497	0.018251
655.128715	0.018202
655.333915	0.018253
655.539096	0.018138
655.744259	0.018029
655.949404	0.018166
656.154531	0.018129
656.359640	0.018101
656.564730	0.018108
656.769802	0.018066
656.974856	0.018253
657.179892	0.018156
657.384909	0.018184
657.589908	0.018266
657.794889	0.018135
657.999852	0.018366
658.204797	0.018710
658.409723	0.018787
658.614631	0.018926
658.819521	0.019005
659.024393	0.019090
659.229246	0.019048
659.434081	0.019210
659.638898	0.019250
659.843697	0.019390
660.048478	0.019364
660.253240	0.019449
660.457984	0.019519
660.662710	0.019309
660.867417	0.019125
661.072107	0.019286
661.276778	0.019061
661.481431	0.019094
661.686066	0.018857
661.890682	0.018752
662.095281	0.018628
662.299861	0.018654
662.504422	0.018543
662.708966	0.018821
662.913491	0.018641
663.117999	0.018722
663.322488	0.018871
663.526958	0.018914
663.731411	0.018769
663.935845	0.018767
664.140261	0.018620
664.344659	0.019128
664.549038	0.019158
664.753400	0.019308
664.957743	0.019459
665.162068	0.019420
665.366375	0.019538
665.570663	0.019687
665.774933	0.019879
665.979185	0.020172
666.183419	0.020137
666.387635	0.020222
666.591832	0.020338
666.796011	0.020487
667.000172	0.020632
667.204315	0.020780
667.408439	0.020942
667.612545	0.021098
667.816634	0.021104
668.020703	0.021062
668.224755	0.021144
668.428788	0.021365
668.632803	0.021389
668.836800	0.021561
669.040779	0.021593
669.244739	0.021899
669.448681	0.022053
669.652605	0.022066
669.856511	0.022217
670.060399	0.022279
670.264268	0.022297
670.468119	0.022280
670.671952	0.022135
670.875767	0.021929
671.079563	0.021843
671.283341	0.021818
671.487101	0.021812
671.690843	0.021780
671.894567	0.021711
672.098272	0.021595
672.301959	0.021533
672.505628	0.021580
672.709278	0.021781
672.912911	0.021813
673.116525	0.021906
673.320121	0.022109
673.523699	0.022054
673.727258	0.022169
673.930799	0.022280
674.134322	0.022446
674.337827	0.022553
674.541314	0.022523
674.744782	0.022546
674.948232	0.022540
675.151664	0.022374
675.355078	0.022471
675.558474	0.022440
675.761851	0.022211
675.965210	0.022238
676.168551	0.022303
676.371873	0.022278
676.575178	0.022147
676.778464	0.021940
676.981732	0.021779
677.184981	0.021746
677.388213	0.021586
677.591426	0.021716
677.794621	0.021480
677.997798	0.021399
678.200956	0.021454
678.404097	0.021368
678.607219	0.021436
678.810323	0.021604
679.013408	0.021526
679.216476	0.021611
679.419525	0.021580
679.622556	0.021459
679.825569	0.021264
680.028563	0.021277
680.231540	0.021261
680.434498	0.020979
680.637438	0.021063
680.840359	0.021169
681.043263	0.021207
681.246148	0.021088
681.449015	0.021246
681.651864	0.021274
681.854694	0.021233
682.057506	0.021417
682.260301	0.021680
682.463076	0.021589
682.665834	0.021676
682.868573	0.021603
683.071295	0.021831
683.273998	0.021920
683.476682	0.022134
683.679349	0.022196
683.881997	0.022313
684.084627	0.022557
684.287239	0.022787
684.489833	0.022762
684.692408	0.022793
684.894965	0.022755
685.097504	0.022956
685.300025	0.022843
685.502527	0.022844
685.705012	0.022641
685.907478	0.022671
686.109925	0.022587
686.312355	0.022487
686.514766	0.022735
686.717159	0.023024
686.919534	0.022990
687.121891	0.023181
687.324230	0.023323
687.526550	0.023452
687.728852	0.023223
687.931136	0.023168
688.133401	0.023319
688.335649	0.023050
688.537878	0.022832
688.740089	0.022681
688.942281	0.022540
689.144456	0.022411
689.346612	0.022400
689.548750	0.022575
689.750870	0.022630
689.952971	0.022564
690.155055	0.022751
690.357120	0.022847
690.559167	0.023040
690.761195	0.023214
690.963206	0.023328
691.165198	0.023472
691.367172	0.023399
691.569128	0.023598
691.771065	0.023866
691.972984	0.023882
692.174885	0.023885
692.376768	0.023815
692.578633	0.023747
692.780479	0.023826
692.982308	0.023837
693.184118	0.023843
693.385909	0.023638
693.587683	0.023384
693.789438	0.023348
693.991175	0.023473
694.192894	0.023569
694.394595	0.023587
694.596277	0.023396
694.797941	0.023345
694.999587	0.023361
695.201215	0.023458
695.402824	0.023550
695.604416	0.023740
695.805989	0.023550
696.007543	0.023503
696.209080	0.023520
696.410598	0.023707
696.612099	0.023680
696.813580	0.023716
697.015044	0.023551
697.216490	0.023538
697.417917	0.023399
697.619326	0.023563
697.820717	0.023635
698.022089	0.023513
698.223444	0.023438
698.424780	0.023439
698.626098	0.023273
698.827397	0.023348
699.028679	0.023353
699.229942	0.023355
699.431187	0.023196
699.632414	0.022883
699.833622	0.022743
700.034813	0.022702
700.235985	0.022676
700.437139	0.022870
700.638274	0.022954
700.839392	0.022871
701.040491	0.022873
701.241572	0.022969
701.442635	0.023291
701.643679	0.023574
701.844706	0.023603
702.045714	0.023486
702.246704	0.023468
702.447675	0.023403
702.648629	0.023494
702.849564	0.023495
703.050481	0.023576
703.251380	0.023459
703.452260	0.023557
703.653122	0.023664
703.853966	0.023861
704.054792	0.024010
704.255600	0.024206
704.456389	0.024463
704.657160	0.024586
704.857913	0.024607
705.058648	0.024852
705.259365	0.024934
705.460063	0.024904
705.660743	0.024946
705.861405	0.024837
706.062048	0.024788
706.262674	0.024673
706.463281	0.024627
706.663870	0.024648
706.864441	0.024590
707.064993	0.024529
707.265527	0.024799
707.466043	0.024925
707.666541	0.024859
707.867021	0.024937
708.067482	0.025054
708.267925	0.025276
708.468350	0.025278
708.668757	0.025343
708.869145	0.025231
709.069516	0.025053
709.269868	0.025024
709.470201	0.025231
709.670517	0.025373
709.870814	0.025340
710.071093	0.025440
710.271354	0.025483
710.471597	0.025481
710.671821	0.025456
710.872028	0.025469
711.072216	0.025304
711.272385	0.025087
711.472537	0.024889
711.672670	0.024688
711.872785	0.024457
712.072882	0.024442
712.272961	0.024287
712.473021	0.024335
712.673063	0.024299
712.873087	0.024412
713.073093	0.024570
713.273081	0.024381
713.473050	0.024462
713.673001	0.024390
713.872934	0.024367
714.072849	0.024440
714.272745	0.024399
714.472623	0.024318
714.672483	0.024311
714.872325	0.024258
715.072148	0.024347
715.271954	0.024397
715.471741	0.024397
715.671509	0.024437
715.871260	0.024314
716.070992	0.024437
716.270707	0.024561
716.470403	0.024582
716.670080	0.024566
716.869740	0.024581
717.069381	0.024379
717.269004	0.024401
717.468609	0.024184
717.668195	0.024103
717.867764	0.023989
718.067314	0.023757
718.266846	0.023544
718.466360	0.023419
718.665855	0.023301
718.865332	0.023279
719.064791	0.023091
719.264232	0.022944
719.463655	0.022763
719.663059	0.022546
719.862445	0.022554
720.061813	0.022660
720.261163	0.022556
720.460494	0.022486
720.659807	0.022318
720.859102	0.022431
721.058379	0.022540
721.257638	0.022779
721.456878	0.022912
721.656100	0.022872
721.855304	0.022718
722.054490	0.022836
722.253657	0.022874
722.452806	0.022933
722.651937	0.022966
722.851050	0.023000
723.050145	0.022948
723.249221	0.022817
723.448279	0.022733
723.647319	0.022827
723.846340	0.022694
724.045344	0.022639
724.244329	0.022548
724.443296	0.022343
724.642245	0.022156
724.841175	0.022143
725.040088	0.022053
725.238982	0.022026
725.437857	0.021742
725.636715	0.021676
725.835554	0.021524
726.034376	0.021544
726.233179	0.021498
726.431963	0.021388
726.630730	0.021116
726.829478	0.021073
727.028208	0.020881
727.226920	0.020923
727.425614	0.020715
727.624289	0.020764
727.822946	0.020649
728.021585	0.020614
728.220206	0.020620
728.418808	0.020468
728.617392	0.020478
728.815958	0.020491
729.014506	0.020346
729.213036	0.020465
729.411547	0.020503
729.610040	0.020445
729.808515	0.020417
730.006972	0.020468
730.205410	0.020660
730.403831	0.020473
730.602233	0.020459
730.800616	0.020466
730.998982	0.020269
731.197329	0.020210
731.395658	0.020216
731.593969	0.020049
731.792262	0.019709
731.990536	0.019579
732.188793	0.019659
732.387031	0.019738
732.585250	0.019782
732.783452	0.019856
732.981635	0.019894
733.179800	0.019975
733.377947	0.020101
733.576076	0.020296
733.774186	0.020503
733.972278	0.020652
734.170352	0.020603
734.368408	0.020693
734.566446	0.020920
734.764465	0.020897
734.962466	0.020912
735.160449	0.021071
735.358413	0.021227
735.556360	0.021120
735.754288	0.021124
735.952198	0.021236
736.150090	0.021133
736.347963	0.021197
736.545818	0.021245
736.743655	0.021361
736.941474	0.021293
737.139275	0.021550
737.337057	0.021623
737.534821	0.021745
737.732567	0.021877
737.930295	0.021966
738.128005	0.021927
738.325696	0.021862
738.523369	0.021910
738.721024	0.021810
738.918660	0.021583
739.116279	0.021629
739.313879	0.021548
739.511461	0.021446
739.709024	0.021556
739.906570	0.021601
740.104097	0.021799
740.301606	0.021671
740.499097	0.021858
740.696569	0.021915
740.894024	0.022021
741.091460	0.022200
741.288878	0.022124
741.486277	0.021996
741.683659	0.021870
741.881022	0.021798
742.078367	0.021800
742.275694	0.021797
742.473002	0.021690
742.670293	0.021618
742.867565	0.021557
743.064819	0.021691
743.262054	0.021748
743.459272	0.021654
743.656471	0.021492
743.853652	0.021599
744.050815	0.021503
744.247959	0.021665
744.445085	0.021605
744.642194	0.021539
744.839283	0.021450
745.036355	0.021302
745.233408	0.021296
745.430444	0.021300
745.627461	0.021137
745.824459	0.021016
746.021440	0.020597
746.218402	0.020495
746.415346	0.020454
746.612272	0.020496
746.809180	0.020517
747.006069	0.020522
747.202940	0.020554
747.399793	0.020747
747.596628	0.020789
747.793444	0.021125
747.990243	0.021404
748.187023	0.021489
748.383784	0.021367
748.580528	0.021597
748.777253	0.021614
748.973960	0.021705
749.170649	0.021612
749.367320	0.021669
749.563973	0.021576
749.760607	0.021538
749.957223	0.021397
750.153821	0.021586
750.350400	0.021381
750.546962	0.021505
750.743505	0.021588
750.940030	0.021581
751.136536	0.021660
751.333025	0.021671
751.529495	0.021521
751.725947	0.021638
751.922381	0.021613
752.118796	0.021881
752.315194	0.021845
752.511573	0.021785
752.707934	0.021973
752.904276	0.021957
753.100601	0.022147
753.296907	0.022174
753.493195	0.022036
753.689465	0.021918
753.885716	0.021787
754.081949	0.021870
754.278164	0.021939
754.474361	0.021920
754.670540	0.021924
754.866700	0.021843
755.062843	0.021838
755.258967	0.021982
755.455072	0.022071
755.651160	0.022031
755.847229	0.022034
756.043280	0.022003
756.239313	0.021952
756.435328	0.021702
756.631324	0.021687
756.827302	0.021522
757.023262	0.021353
757.219204	0.021202
757.415127	0.021103
757.611033	0.021105
757.806920	0.021042
758.002788	0.020999
758.198639	0.021414
758.394471	0.021454
758.590286	0.021628
758.786081	0.021809
758.981859	0.021827
759.177619	0.022019
759.373360	0.021989
759.569083	0.021863
759.764788	0.021862
759.960474	0.021773
760.156143	0.021797
760.351793	0.021839
760.547425	0.021807
760.743038	0.022071
760.938634	0.022096
761.134211	0.022135
761.329770	0.022413
761.525311	0.022589
761.720833	0.022596
761.916338	0.022567
762.111824	0.022823
762.307292	0.022913
762.502741	0.022847
762.698173	0.022912
762.893586	0.022989
763.088981	0.022834
763.284358	0.022726
763.479716	0.022554
763.675057	0.022735
763.870379	0.022535
764.065683	0.022338
764.260968	0.022197
764.456236	0.021984
764.651485	0.021695
764.846716	0.021543
765.041929	0.021449
765.237123	0.021454
765.432299	0.021065
765.627457	0.020969
765.822597	0.020958
766.017719	0.020807
766.212822	0.020996
766.407907	0.021123
766.602974	0.021224
766.798023	0.021182
766.993054	0.021302
767.188066	0.021385
767.383060	0.021411
767.578036	0.021524
767.772993	0.021787
767.967933	0.021637
768.162854	0.021711
768.357757	0.021570
768.552642	0.021596
768.747508	0.021636
768.942356	0.021764
769.137186	0.021829
769.331998	0.021967
769.526792	0.022074
769.721567	0.022245
769.916324	0.022281
770.111063	0.022649
770.305784	0.022756
770.500486	0.022807
770.695171	0.022845
770.889837	0.022905
771.084484	0.022775
771.279114	0.022717
771.473725	0.022557
771.668318	0.022497
771.862893	0.022497
772.057450	0.022523
772.251988	0.022366
772.446509	0.022515
772.641011	0.022405
772.835494	0.022503
773.029960	0.022505
773.224407	0.022688
773.418836	0.022589
773.613247	0.022451
773.807640	0.022340
774.002014	0.022361
774.196370	0.022341
774.390708	0.022299
774.585028	0.022240
774.779330	0.022277
774.973613	0.022129
775.167878	0.022303
775.362125	0.022333
775.556354	0.022356
775.750564	0.022238
775.944756	0.022049
776.138930	0.022091
776.333086	0.022172
776.527223	0.022275
776.721343	0.022435
776.915444	0.022393
777.109526	0.022414
777.303591	0.022460
777.497637	0.022743
777.691666	0.022703
777.885676	0.022749
778.079667	0.022862
778.273641	0.022909
778.467596	0.022843
778.661533	0.023031
778.855452	0.023073
779.049352	0.023163
779.243235	0.023074
779.437099	0.023115
779.630945	0.023131
779.824773	0.023085
780.018582	0.023048
780.212373	0.023069
780.406146	0.022857
780.599901	0.022803
780.793638	0.022611
780.987356	0.022407
781.181056	0.022171
781.374738	0.022064
781.568402	0.021818
781.762047	0.021421
781.955674	0.021005
782.149283	0.020973
782.342874	0.020770
782.536447	0.020661
782.730001	0.020735
782.923537	0.020768
783.117055	0.020533
783.310555	0.020438
783.504036	0.020681
783.697499	0.020971
783.890944	0.020913
784.084371	0.021057
784.277780	0.021032
784.471170	0.021010
784.664542	0.021135
784.857896	0.021478
785.051231	0.021664
785.244549	0.021823
785.437848	0.021969
785.631129	0.021843
785.824392	0.021817
786.017636	0.022068
786.210863	0.022094
786.404071	0.022248
786.597260	0.022067
786.790432	0.022003
786.983585	0.021822
787.176721	0.021900
787.369838	0.022102
787.562936	0.022133
787.756017	0.022218
787.949079	0.022250
788.142123	0.022226
788.335149	0.022307
788.528156	0.022325
788.721146	0.022468
788.914117	0.022531
789.107070	0.022556
789.300005	0.022766
789.492921	0.022620
789.685819	0.022854
789.878699	0.022749
790.071561	0.022914
790.264405	0.022992
790.457230	0.022948
790.650037	0.022858
790.842826	0.023071
791.035597	0.023182
791.228349	0.023311
791.421084	0.023253
791.613800	0.023499
791.806497	0.023616
791.999177	0.023538
792.191838	0.023478
792.384481	0.023525
792.577106	0.023469
792.769713	0.023279
792.962301	0.023220
793.154871	0.023152
793.347423	0.023090
793.539957	0.022882
793.732473	0.022942
793.924970	0.022926
794.117449	0.022733
794.309910	0.022634
794.502353	0.022413
794.694777	0.022168
794.887183	0.022139
795.079571	0.021909
795.271941	0.021864
795.464293	0.021901
795.656626	0.021685
795.848941	0.021666
796.041238	0.021620
796.233516	0.021874
796.425777	0.022080
796.618019	0.022333
796.810243	0.022520
797.002449	0.022671
797.194636	0.022703
797.386805	0.022992
797.578956	0.023192
797.771089	0.023280
797.963204	0.023273
798.155300	0.023281
798.347378	0.023209
798.539438	0.023067
798.731480	0.023227
798.923503	0.023331
799.115509	0.023348
799.307496	0.023289
799.499465	0.023243
799.691415	0.023381
799.883348	0.023493
800.075262	0.023376
800.267158	0.023644
800.459035	0.023637
800.650895	0.023498
800.842736	0.023504
801.034559	0.023546
801.226364	0.023671
801.418150	0.023510
801.609919	0.023516
801.801669	0.023632
801.993401	0.023541
802.185114	0.023487
802.376810	0.023693
802.568487	0.023733
802.760146	0.023705
802.951787	0.023592
803.143409	0.023843
803.335014	0.023931
803.526600	0.023730
803.718168	0.023719
803.909717	0.023834
804.101249	0.023709
804.292762	0.023760
804.484257	0.023691
804.675734	0.023813
804.867192	0.023551
805.058632	0.023331
805.250054	0.023527
805.441458	0.023586
805.632844	0.023494
805.824211	0.023596
806.015561	0.023694
806.206891	0.023880
806.398204	0.023901
806.589499	0.023852
806.780775	0.024114
806.972033	0.024129
807.163273	0.024055
807.354495	0.024092
807.545698	0.024134
807.736883	0.024006
807.928050	0.023876
808.119199	0.023772
808.310329	0.024027
808.501441	0.023895
808.692535	0.023995
808.883611	0.024029
809.074669	0.024046
809.265708	0.024028
809.456729	0.024065
809.647732	0.024296
809.838717	0.024338
810.029683	0.024346
810.220632	0.024712
810.411562	0.024899
810.602474	0.025262
810.793367	0.025500
810.984242	0.025497
811.175100	0.025575
811.365938	0.025572
811.556759	0.025761
811.747562	0.025921
811.938346	0.025834
812.129112	0.025549
812.319860	0.025528
812.510589	0.025551
812.701300	0.025688
812.891994	0.025837
813.082668	0.025922
813.273325	0.026143
813.463964	0.026013
813.654584	0.026166
813.845186	0.026396
814.035769	0.026390
814.226335	0.026314
814.416882	0.026338
814.607411	0.026456
814.797922	0.026444
814.988415	0.026440
815.178889	0.026718
815.369345	0.026767
815.559783	0.026723
815.750203	0.026992
815.940605	0.027262
816.130988	0.027334
816.321353	0.027313
816.511700	0.027612
816.702028	0.027444
816.892339	0.027342
817.082631	0.027378
817.272905	0.027271
817.463161	0.027219
817.653398	0.027140
817.843617	0.026983
818.033819	0.026723
818.224001	0.026343
818.414166	0.026427
818.604312	0.026191
818.794440	0.026043
818.984550	0.026174
819.174642	0.026044
819.364716	0.025792
819.554771	0.025806
819.744808	0.026074
819.934827	0.026267
820.124827	0.026427
820.314810	0.026823
820.504774	0.026800
820.694720	0.027006
820.884647	0.027101
821.074557	0.027230
821.264448	0.027396
821.454321	0.027557
821.644176	0.027625
821.834012	0.027591
822.023831	0.027453
822.213631	0.027564
822.403413	0.027542
822.593176	0.027546
822.782922	0.027540
822.972649	0.027538
823.162358	0.027391
823.352049	0.027417
823.541721	0.027468
823.731376	0.027513
823.921012	0.027721
824.110629	0.027569
824.300229	0.027526
824.489811	0.027586
824.679374	0.027576
824.868919	0.027507
825.058445	0.027600
825.247954	0.027718
825.437444	0.027844
825.626916	0.027686
825.816370	0.027892
826.005806	0.028089
826.195223	0.028173
826.384622	0.028434
826.574003	0.028656
826.763366	0.028698
826.952711	0.028451
827.142037	0.028335
827.331345	0.028369
827.520635	0.028352
827.709906	0.028137
827.899160	0.028322
828.088395	0.028171
828.277612	0.028248
828.466810	0.028177
828.655991	0.028400
828.845153	0.028498
829.034297	0.028790
829.223423	0.028616
829.412531	0.028710
829.601620	0.028518
829.790691	0.028687
829.979744	0.028477
830.168779	0.028474
830.357795	0.028273
830.546793	0.028572
830.735773	0.028187
830.924735	0.028437
831.113679	0.028728
831.302604	0.028863
831.491511	0.028795
831.680400	0.028906
831.869271	0.029104
832.058123	0.029397
832.246957	0.029303
832.435773	0.029439
832.624571	0.029358
832.813351	0.029137
833.002112	0.028794
833.190855	0.028710
833.379580	0.028740
833.568287	0.028615
833.756975	0.028616
833.945645	0.028602
834.134297	0.028465
834.322931	0.028649
834.511547	0.028669
834.700144	0.028786
834.888723	0.028886
835.077284	0.028963
835.265826	0.028902
835.454351	0.028903
835.642857	0.028774
835.831345	0.028899
836.019815	0.028977
836.208266	0.029022
836.396699	0.029229
836.585114	0.029282
836.773511	0.029439
836.961890	0.029497
837.150250	0.029696
837.338592	0.029853
837.526916	0.029905
837.715222	0.029963
837.903510	0.030080
838.091779	0.030312
838.280030	0.030496
838.468263	0.030366
838.656477	0.030493
838.844674	0.030398
839.032852	0.030663
839.221012	0.031235
839.409153	0.031500
839.597277	0.031758
839.785382	0.031836
839.973469	0.032033
840.161538	0.032328
840.349589	0.032673
840.537621	0.032862
840.725635	0.032757
840.913631	0.032437
841.101609	0.032286
841.289568	0.032067
841.477509	0.032026
841.665432	0.031834
841.853337	0.031564
842.041224	0.031390
842.229092	0.031317
842.416942	0.031348
842.604774	0.031291
842.792588	0.031388
842.980383	0.031578
843.168160	0.031676
843.355919	0.031660
843.543660	0.031882
843.731382	0.031946
843.919087	0.032216
844.106773	0.032364
844.294441	0.032566
844.482090	0.032533
844.669722	0.032653
844.857335	0.032634
845.044930	0.032959
845.232507	0.033019
845.420065	0.033304
845.607605	0.033351
845.795127	0.033331
845.982631	0.033452
846.170117	0.033514
846.357584	0.033748
846.545033	0.033817
846.732464	0.033705
846.919877	0.034134
847.107272	0.034223
847.294648	0.034274
847.482006	0.034668
847.669346	0.034770
847.856667	0.034821
848.043971	0.034779
848.231256	0.034889
848.418523	0.035134
848.605771	0.035087
848.793002	0.035013
848.980214	0.035122
849.167408	0.034961
849.354584	0.035080
849.541742	0.035368
849.728881	0.035451
849.916002	0.035805
850.103105	0.036007
850.290190	0.035973
850.477256	0.036171
850.664304	0.036267
850.851334	0.036313
851.038346	0.036610
851.225340	0.036774
851.412315	0.036799
851.599272	0.036887
851.786211	0.037074
851.973132	0.037353
852.160034	0.037642
852.346918	0.037533
852.533784	0.037764
852.720632	0.037788
852.907462	0.037822
853.094273	0.038237
853.281066	0.038306
853.467841	0.038253
853.654598	0.038460
853.841336	0.038299
854.028056	0.038611
854.214758	0.038732
854.401442	0.038804
854.588107	0.038931
854.774755	0.038505
854.961384	0.038598
855.147995	0.038827
855.334587	0.038854
855.521162	0.038967
855.707718	0.039092
855.894256	0.038931
856.080775	0.038963
856.267277	0.039078
856.453760	0.039393
856.640225	0.039449
856.826672	0.039281
857.013101	0.039203
857.199511	0.039203
857.385903	0.038851
857.572277	0.039098
857.758633	0.038977
857.944970	0.038947
858.131290	0.039110
858.317591	0.039197
858.503873	0.039392
858.690138	0.039377
858.876384	0.039588
859.062612	0.040164
859.248822	0.040413
859.435014	0.040479
859.621188	0.040590
859.807343	0.040603
859.993480	0.040712
860.179599	0.041018
860.365699	0.041328
860.551781	0.041448
860.737846	0.041591
860.923891	0.041681
861.109919	0.042150
861.295929	0.042486
861.481920	0.042782
861.667893	0.043121
861.853848	0.042997
862.039784	0.042910
862.225702	0.042980
862.411603	0.042905
862.597484	0.042682
862.783348	0.042509
862.969193	0.042128
863.155021	0.041904
863.340830	0.041697
863.526620	0.041738
863.712393	0.041824
863.898147	0.041941
864.083883	0.042016
864.269601	0.042333
864.455301	0.042469
864.640982	0.042602
864.826645	0.042745
865.012290	0.042597
865.197917	0.042753
865.383526	0.042715
865.569116	0.042715
865.754688	0.042808
865.940242	0.042571
866.125777	0.042554
866.311295	0.042847
866.496794	0.042764
866.682275	0.042959
866.867737	0.042879
867.053182	0.042846
867.238608	0.042649
867.424016	0.042557
867.609406	0.042641
867.794778	0.042678
867.980131	0.042356
868.165466	0.042169
868.350783	0.042124
868.536082	0.042205
868.721362	0.042355
868.906625	0.042394
869.091869	0.042392
869.277094	0.042495
869.462302	0.042527
869.647491	0.042449
869.832662	0.042626
870.017815	0.042676
870.202950	0.042465
870.388066	0.042374
870.573165	0.042696
870.758245	0.042490
870.943306	0.042360
871.128350	0.042210
871.313375	0.042384
871.498382	0.042841
871.683371	0.042921
871.868342	0.043201
872.053294	0.043465
872.238229	0.043322
872.423144	0.043427
872.608042	0.043544
872.792922	0.043534
872.977783	0.043362
873.162626	0.042945
873.347451	0.042605
873.532258	0.042312
873.717046	0.042266
873.901816	0.041969
874.086568	0.042215
874.271302	0.042201
874.456017	0.042158
874.640715	0.042337
874.825394	0.042698
875.010055	0.042900
875.194697	0.043282
875.379322	0.042932
875.563928	0.043069
875.748516	0.042924
875.933085	0.042868
876.117637	0.042922
876.302170	0.043166
876.486685	0.042882
876.671182	0.042607
876.855661	0.042251
877.040121	0.042259
877.224563	0.042184
877.408987	0.042322
877.593393	0.042568
877.777780	0.042930
877.962150	0.042566
878.146501	0.042688
878.330833	0.043228
878.515148	0.043482
878.699444	0.043824
878.883722	0.043917
879.067982	0.043909
879.252224	0.043719
879.436447	0.043635
879.620653	0.043876
879.804840	0.044266
879.989008	0.043922
880.173159	0.043996
880.357291	0.043935
880.541405	0.044076
880.725501	0.044192
880.909579	0.044365
881.093638	0.044504
881.277680	0.044643
881.461703	0.044194
881.645707	0.044467
881.829694	0.044051
882.013662	0.044126
882.197612	0.044056
882.381544	0.044190
882.565458	0.044294
882.749353	0.044266
882.933230	0.044338
883.117089	0.044575
883.300930	0.044666
883.484753	0.045099
883.668557	0.044830
883.852343	0.045316
884.036111	0.045142
884.219861	0.044814
884.403592	0.044838
884.587305	0.044964
884.771000	0.044582
884.954677	0.044410
885.138335	0.044097
885.321976	0.044354
885.505598	0.043993
885.689201	0.043891
885.872787	0.044317
886.056354	0.044181
886.239904	0.043852
886.423434	0.043955
886.606947	0.044108
886.790442	0.044627
886.973918	0.044486
887.157376	0.044323
887.340816	0.044201
887.524237	0.044414
887.707641	0.044377
887.891026	0.044479
888.074393	0.044573
888.257741	0.044623
888.441072	0.044379
888.624384	0.044560
888.807678	0.044695
888.990954	0.044696
889.174211	0.044510
889.357451	0.044434
889.540672	0.044283
889.723875	0.044200
889.907059	0.043950
890.090226	0.043986
890.273374	0.044023
890.456504	0.043990
890.639616	0.043964
890.822709	0.043699
891.005785	0.043608
891.188842	0.043932
891.371881	0.044173
891.554901	0.044238
891.737904	0.044166
891.920888	0.044047
892.103854	0.044016
892.286802	0.044251
892.469731	0.044183
892.652643	0.044370
892.835536	0.044142
893.018410	0.043829
893.201267	0.043941
893.384106	0.043930
893.566926	0.043899
893.749728	0.044011
893.932511	0.043774
894.115277	0.043944
894.298024	0.043874
894.480753	0.043812
894.663464	0.043889
894.846157	0.043362
895.028831	0.043367
895.211487	0.043316
895.394125	0.043098
895.576745	0.043323
895.759346	0.043085
895.941930	0.042810
896.124495	0.042833
896.307041	0.042515
896.489570	0.042713
896.672080	0.042592
896.854573	0.042490
897.037046	0.042389
897.219502	0.042294
897.401940	0.042065
897.584359	0.042157
897.766760	0.041759
897.949143	0.042054
898.131507	0.041958
898.313854	0.041729
898.496182	0.041739
898.678492	0.041808
898.860783	0.041320
899.043057	0.041607
899.225312	0.041876
899.407549	0.042045
899.589768	0.041974
899.771968	0.042002
899.954151	0.041849
900.136315	0.041820
900.318461	0.041886
900.500588	0.041762
900.682698	0.041904
900.864789	0.041576
901.046862	0.041546
901.228917	0.041446
901.410953	0.041105
901.592971	0.041248
901.774972	0.041298
901.956953	0.040990
902.138917	0.041358
902.320862	0.040740
902.502790	0.040845
902.684699	0.040781
902.866589	0.040930
903.048462	0.040975
903.230316	0.040993
903.412152	0.040870
903.593970	0.040875
903.775770	0.040637
903.957551	0.040817
904.139314	0.040797
904.321059	0.040891
904.502786	0.040483
904.684494	0.040562
904.866185	0.040046
905.047857	0.039538
905.229510	0.039622
905.411146	0.039891
905.592763	0.039382
905.774363	0.039098
905.955943	0.038886
906.137506	0.038974
906.319051	0.039101
906.500577	0.039500
906.682085	0.039650
906.863575	0.039227
907.045046	0.038914
907.226500	0.039205
907.407935	0.039091
907.589352	0.038901
907.770750	0.038632
907.952131	0.038158
908.133493	0.037789
908.314837	0.037478
908.496163	0.037290
908.677470	0.036959
908.858760	0.036989
909.040031	0.036747
909.221284	0.036880
909.402518	0.036937
909.583735	0.036839
909.764933	0.036900
909.946113	0.037114
910.127275	0.037611
910.308418	0.037626
910.489544	0.037699
910.670651	0.037232
910.851740	0.036931
911.032810	0.036856
911.213863	0.036686
911.394897	0.036726
911.575913	0.036618
911.756911	0.036387
911.937890	0.036169
912.118851	0.035827
912.299794	0.036099
912.480719	0.036288
912.661626	0.035990
912.842514	0.035914
913.023384	0.035756
913.204236	0.035584
913.385070	0.035231
913.565886	0.035216
913.746683	0.035471
913.927462	0.035606
914.108223	0.035522
914.288965	0.035331
914.469690	0.035454
914.650396	0.035551
914.831084	0.035732
915.011754	0.035548
915.192405	0.035757
915.373038	0.035243
915.553653	0.035048
915.734250	0.034586
915.914829	0.034630
916.095389	0.034510
916.275931	0.034090
916.456455	0.033942
916.636961	0.033796
916.817448	0.033555
916.997917	0.033618
917.178368	0.033535
917.358801	0.033664
917.539216	0.033862
917.719612	0.033749
917.899990	0.033413
918.080350	0.033078
918.260692	0.033246
918.441015	0.032702
918.621320	0.032557
918.801607	0.032146
918.981876	0.031644
919.162127	0.031354
919.342359	0.031494
919.522573	0.031588
919.702769	0.031565
919.882947	0.031624
920.063106	0.031750
920.243247	0.031187
920.423370	0.031002
920.603475	0.031078
920.783562	0.030741
920.963630	0.030290
921.143680	0.030210
921.323712	0.030045
921.503725	0.029925
921.683721	0.029411
921.863698	0.029607
922.043657	0.029195
922.223598	0.029205
922.403520	0.029316
922.583424	0.029285
922.763311	0.028844
922.943178	0.028668
923.123028	0.027810
923.302859	0.028404
923.482673	0.027740
923.662467	0.027933
923.842244	0.027523
924.022003	0.027259
924.201743	0.026837
924.381465	0.026517
924.561169	0.026381
924.740854	0.026248
924.920522	0.026054
925.100171	0.026040
925.279802	0.025525
925.459414	0.025509
925.639009	0.025355
925.818585	0.025128
925.998143	0.025367
926.177683	0.025221
926.357205	0.025510
926.536708	0.024839
926.716193	0.024836
926.895660	0.025085
927.075109	0.024413
927.254539	0.024005
927.433951	0.024289
927.613345	0.023756
927.792721	0.022872
927.972079	0.022169
928.151418	0.021430
928.330739	0.020458
928.510042	0.019999
928.689327	0.019495
928.868593	0.018685
929.047841	0.017724
929.227071	0.016884
929.406283	0.016930
929.585476	0.016494
929.764652	0.017014
929.943809	0.017317
930.122948	0.017154
930.302068	0.017366
930.481171	0.017420
930.660255	0.017240
930.839321	0.017506
931.018369	0.017601
931.197398	0.017604
931.376409	0.016836
931.555402	0.016449
931.734377	0.016039
931.913334	0.015571
932.092272	0.015405
932.271192	0.015743
932.450094	0.015482
932.628978	0.014713
932.807844	0.014721
932.986691	0.014380
933.165520	0.014297
933.344331	0.014002
933.523123	0.014001
933.701898	0.013548
933.880654	0.012366
934.059392	0.011905
934.238111	0.011527
934.416813	0.010774
934.595496	0.010389
934.774161	0.009828
934.952808	0.009809
935.131437	0.009593
935.310047	0.009528
935.488639	0.009672
935.667213	0.009352
935.845769	0.008858
936.024306	0.008433
936.202825	0.008000
936.381326	0.007890
936.559809	0.007488
936.738274	0.006605
936.916720	0.006284
937.095148	0.005705
937.273558	0.004924
937.451950	0.004870
937.630323	0.005412
937.808678	0.006012
937.987015	0.005782
938.165334	0.005939
938.343635	0.005983
938.521917	0.005214
938.700181	0.005764
938.878427	0.006533
939.056655	0.007437
939.234864	0.006890
939.413055	0.006114
939.591228	0.005825
939.769383	0.005463
939.947519	0.004859
940.125638	0.004670
940.303738	0.003993
940.481820	0.004062
940.659883	0.002893
940.837929	0.002738
941.015956	0.002676
941.193965	0.002387
941.371955	0.002475
941.549928	0.003039
941.727882	0.003023
941.905818	0.002901
942.083736	0.003001
942.261636	0.002648
942.439517	0.002385
942.617380	0.002394
942.795225	0.002384
942.973052	0.000626
943.150860	0.000166
943.328651	0.000450
943.506423	-0.000109
943.684176	-0.001100
943.861912	-0.000914
944.039629	-0.000612
944.217328	-0.000520
944.395009	-0.000406
944.572672	0.000070
944.750317	-0.000529
944.927943	-0.000811
945.105551	-0.000745
945.283141	-0.001425
945.460712	-0.001177
945.638265	-0.002636
945.815801	-0.003083
945.993317	-0.003664
946.170816	-0.003957
946.348297	-0.004330
946.525759	-0.004793
946.703203	-0.004425
946.880629	-0.004530
947.058036	-0.004506
947.235425	-0.003904
947.412797	-0.003821
947.590149	-0.004454
947.767484	-0.004478
947.944800	-0.004238
948.122099	-0.004354
948.299379	-0.005224
948.476640	-0.004057
948.653884	-0.004818
948.831109	-0.004675
949.008316	-0.005341
949.185505	-0.005179
949.362676	-0.004036
949.539828	-0.003240
949.716962	-0.003154
949.894078	-0.002351
950.071176	-0.002803
950.248256	-0.002806
950.425317	-0.002839
950.602360	-0.001890
950.779385	-0.001176
950.956391	-0.002516
951.133380	-0.002613
951.310350	-0.002726
951.487302	-0.003484
951.664235	-0.001966
951.841151	-0.001786
952.018048	-0.001932
952.194927	-0.003980
952.371788	-0.004340
952.548631	-0.003053
952.725455	-0.002661
952.902261	-0.001998
953.079049	-0.002099
953.255819	-0.004936
953.432570	-0.005294
953.609303	-0.005733
953.786018	-0.004357
953.962715	-0.005062
954.139394	-0.006194
954.316054	-0.006103
954.492696	-0.004200
954.669320	-0.003464
954.845926	-0.001670
955.022513	-0.000292
955.199083	-0.000264
955.375634	-0.000286
955.552166	0.000817
955.728681	0.002297
955.905177	0.002207
956.081655	-0.000583
956.258115	-0.001184
956.434557	-0.001473
956.610980	-0.002378
956.787385	-0.003000
956.963772	-0.002946
957.140141	-0.003251
957.316492	-0.004462
957.492824	-0.004354
957.669138	-0.003971
957.845434	-0.003228
958.021712	-0.002877
958.197971	-0.002861
958.374212	-0.000433
958.550435	0.001361
958.726640	0.002359
958.902826	0.003413
959.078995	0.002428
959.255145	0.005048
959.431277	0.005559
959.607390	0.004531
959.783486	0.004126
959.959563	0.003012
960.135622	0.003150
960.311662	0.001745
960.487685	0.001373
960.663689	0.004342
960.839675	0.005094
961.015643	0.004550
961.191593	0.006293
961.367524	0.006040
961.543437	0.006441
961.719332	0.006722
961.895209	0.008296
962.071067	0.010689
962.246907	0.007959
962.422730	0.006975
962.598533	0.009121
962.774319	0.010706
962.950086	0.012572
963.125835	0.014630
963.301566	0.012402
963.477279	0.012642
963.652973	0.010766
963.828650	0.010269
964.004308	0.009989
964.179947	0.009312
964.355569	0.007371
964.531172	0.007760
964.706757	0.004644
964.882324	0.006656
965.057873	0.007533
965.233403	0.009474
965.408916	0.011803
965.584410	0.012652
965.759885	0.012313
965.935343	0.011377
966.110782	0.011327
966.286203	0.011846
966.461606	0.011814
966.636991	0.011799
966.812357	0.011781
966.987705	0.011324
967.163035	0.009743
967.338347	0.011594
967.513641	0.014271
967.688916	0.014923
967.864173	0.016575
968.039412	0.016658
968.214632	0.017777
968.389835	0.015933
968.565019	0.017009
968.740185	0.018714
968.915333	0.017150
969.090462	0.016948
969.265573	0.016531
969.440667	0.016343
969.615741	0.015863
969.790798	0.016684
969.965836	0.016525
970.140856	0.015189
970.315858	0.014628
970.490842	0.014705
970.665808	0.013173
970.840755	0.013309
971.015684	0.013551
971.190595	0.013874
971.365487	0.011008
971.540362	0.011964
971.715218	0.011388
971.890056	0.011435
972.064875	0.012890
972.239677	0.014110
972.414460	0.015154
972.589225	0.016927
972.763972	0.015030
972.938700	0.016848
973.113411	0.015006
973.288103	0.013836
973.462777	0.011893
973.637432	0.012125
973.812070	0.014359
973.986689	0.011634
974.161290	0.007711
974.335873	0.011107
974.510437	0.007207
974.684984	0.008384
974.859512	0.009866
975.034022	0.009828
975.208513	0.009579
975.382987	0.004355
975.557442	0.007304
975.731879	0.009656
975.906298	0.007614
976.080698	0.011016
976.255080	0.012510
976.429445	0.012733
976.603790	0.013703
976.778118	0.014371
976.952427	0.018544
977.126719	0.015733
977.300992	0.015076
977.475246	0.014843
977.649483	0.014085
977.823701	0.012393
977.997901	0.013721
978.172083	0.013908
978.346247	0.012203
978.520392	0.010398
978.694519	0.011691
978.868628	0.011803
979.042719	0.012607
979.216791	0.012571
979.390845	0.013512
979.564882	0.014950
979.738899	0.015490
979.912899	0.016366
980.086880	0.016845
980.260843	0.016175
980.434788	0.014939
980.608715	0.013727
980.782623	0.015929
980.956514	0.015722
981.130386	0.014276
981.304240	0.015301
981.478075	0.014551
981.651892	0.013462
981.825692	0.013475
981.999472	0.015670
982.173235	0.017532
982.346980	0.015431
982.520706	0.013393
982.694414	0.013026
982.868104	0.012000
983.041775	0.011323
983.215428	0.012306
983.389064	0.012803
983.562680	0.011205
983.736279	0.011328
983.909860	0.011240
984.083422	0.013696
984.256966	0.014395
984.430491	0.014588
984.603999	0.015097
984.777488	0.016117
984.950959	0.015727
985.124412	0.016057
985.297847	0.015069
985.471263	0.015678
985.644661	0.013797
985.818041	0.012996
985.991403	0.013861
986.164747	0.014853
986.338072	0.013699
986.511379	0.014173
986.684668	0.015765
986.857938	0.014665
987.031191	0.016796
987.204425	0.018150
987.377641	0.017605
987.550839	0.014989
987.724018	0.014262
987.897179	0.013473
988.070322	0.014550
988.243447	0.013752
988.416554	0.014800
988.589642	0.011320
988.762712	0.012643
988.935764	0.012825
989.108798	0.014014
989.281813	0.013198
989.454811	0.012959
989.627790	0.011298
989.800751	0.011230
989.973693	0.012167
990.146617	0.014194
990.319524	0.013824
990.492412	0.013433
990.665281	0.012130
990.838133	0.013146
991.010966	0.015166
991.183781	0.014065
991.356578	0.014635
991.529356	0.013792
991.702117	0.013676
991.874859	0.013711
992.047583	0.012462
992.220288	0.013384
992.392976	0.013176
992.565645	0.012087
992.738296	0.013402
992.910929	0.011506
993.083543	0.011511
993.256139	0.008929
993.428718	0.007977
993.601277	0.009724
993.773819	0.010590
993.946342	0.011198
994.118848	0.012020
994.291335	0.011439
994.463803	0.012464
994.636254	0.011780
994.808686	0.013529
994.981100	0.012057
995.153496	0.012593
995.325874	0.011764
995.498233	0.011547
995.670574	0.010730
995.842897	0.011062
996.015202	0.014128
996.187488	0.016054
996.359757	0.015271
996.532007	0.016624
996.704239	0.016743
996.876452	0.018271
997.048648	0.016825
997.220825	0.016578
997.392984	0.015382
997.565124	0.011648
997.737247	0.008893
997.909351	0.010727
998.081437	0.010800
998.253505	0.009407
998.425554	0.007460
998.597586	0.007329
998.769599	0.007032
998.941594	0.007994
999.113571	0.008976
999.285529	0.011612
999.457469	0.010559
999.629391	0.011803
999.801295	0.012920
999.973181	0.013589
1000.145048	0.015515
1000.316897	0.015900
1000.488728	0.017829
1000.660541	0.016881
1000.832335	0.016435
1001.004111	0.016368
1001.175869	0.015175
1001.347609	0.015734
1001.519331	0.015446
1001.691034	0.013209
1001.862719	0.012351
1002.034386	0.011008
1002.206035	0.012277
1002.377665	0.013770
1002.549277	0.014193
1002.720871	0.014934
1002.892447	0.013100
1003.064004	0.013214
1003.235544	0.013290
1003.407065	0.014740
1003.578568	0.015435
1003.750052	0.013779
1003.921519	0.010251
1004.092967	0.010977
1004.264397	0.008829
1004.435809	0.008703
1004.607202	0.009103
1004.778577	0.010372
1004.949934	0.008607
1005.121273	0.007514
1005.292594	0.008056
1005.463896	0.009397
1005.635180	0.008474
1005.806446	0.009780
1005.977694	0.010124
1006.148923	0.009622
1006.320135	0.009508
1006.491328	0.010816
1006.662503	0.010938
1006.833659	0.010082
1007.004798	0.009275
1007.175918	0.008607
1007.347020	0.007875
1007.518103	0.007265
1007.689169	0.007358
1007.860216	0.006274
1008.031245	0.006360
1008.202256	0.005180
1008.373248	0.004964
1008.544223	0.005827
1008.715179	0.005367
1008.886117	0.005571
1009.057036	0.006261
1009.227938	0.005488
1009.398821	0.005445
1009.569686	0.005616
1009.740533	0.008439
1009.911361	0.009884
1010.082172	0.008821
1010.252964	0.007325
1010.423738	0.005983
1010.594493	0.005393
1010.765231	0.005624
1010.935950	0.004371
1011.106651	0.004461
1011.277334	0.001674
1011.447998	0.000831
1011.618645	0.001987
1011.789273	0.005142
1011.959882	0.005350
1012.130474	0.006645
1012.301048	0.007835
1012.471603	0.009576
1012.642140	0.007563
1012.812658	0.007197
1012.983159	0.008162
1013.153641	0.006990
1013.324105	0.005467
1013.494551	0.005945
1013.664979	0.004089
1013.835388	0.003645
1014.005779	0.003458
1014.176152	0.003536
1014.346507	0.004037
1014.516843	0.002425
1014.687162	0.003662
1014.857462	0.003951
1015.027744	0.006535
1015.198007	0.007055
1015.368252	0.005551
1015.538480	0.005150
1015.708689	0.005395
1015.878879	0.005411
1016.049052	0.005917
1016.219206	0.004892
1016.389342	0.005233
1016.559460	0.004664
1016.729559	0.005112
1016.899641	0.006171
1017.069704	0.006670
1017.239749	0.007103
1017.409775	0.008307
1017.579784	0.008794
1017.749774	0.009224
1017.919746	0.009090
1018.089700	0.007928
1018.259635	0.007751
1018.429553	0.009775
1018.599452	0.009919
1018.769333	0.013730
1018.939195	0.012367
1019.109040	0.012281
1019.278866	0.012189
1019.448674	0.010340
1019.618464	0.009993
1019.788235	0.010453
1019.957989	0.010221
1020.127724	0.011926
1020.297441	0.008277
1020.467139	0.008448
1020.636820	0.009391
1020.806482	0.009849
1020.976126	0.012134
1021.145752	0.012695
1021.315359	0.011992
1021.484948	0.009405
1021.654519	0.007149
1021.824072	0.007531
1021.993607	0.008716
1022.163123	0.007248
1022.332621	0.006374
1022.502101	0.005572
1022.671563	0.004070
1022.841007	0.005982
1023.010432	0.007754
1023.179839	0.007429
1023.349228	0.006847
1023.518598	0.007245
1023.687951	0.007369
1023.857285	0.007150
1024.026601	0.006284
1024.195899	0.007141
1024.365178	0.006284
1024.534439	0.006233
1024.703682	0.007183
1024.872907	0.005863
1025.042114	0.004561
1025.211302	0.004813
1025.380472	0.004184
1025.549624	0.005452
1025.718758	0.004665
1025.887873	0.002434
1026.056970	0.001161
1026.226049	-0.000348
1026.395110	0.000465
1026.564153	0.000200
1026.733177	0.000470
1026.902183	0.002737
1027.071171	0.002056
1027.240141	0.003099
1027.409092	0.003731
1027.578026	0.004055
1027.746940	0.005393
1027.915837	0.007089
1028.084716	0.007564
1028.253576	0.007208
1028.422418	0.006039
1028.591242	0.005847
1028.760048	0.005353
1028.928835	0.006744
1029.097604	0.006029
1029.266355	0.006647
1029.435088	0.004796
1029.603803	0.005233
1029.772499	0.005469
1029.941177	0.004873
1030.109837	0.004380
1030.278478	0.005075
1030.447102	0.003756
1030.615707	0.004423
1030.784294	0.002717
1030.952863	0.004106
1031.121413	0.004011
1031.289945	0.003176
1031.458460	0.003347
1031.626955	0.004583
1031.795433	0.004998
1031.963892	0.005992
1032.132334	0.006003
1032.300756	0.005621
1032.469161	0.004789
1032.637548	0.003179
1032.805916	0.004917
1032.974266	0.004630
1033.142598	0.003560
1033.310911	0.003915
1033.479207	0.003998
1033.647484	0.003290
1033.815743	0.005171
1033.983983	0.005088
1034.152206	0.006407
1034.320410	0.003412
1034.488596	0.002992
1034.656764	0.003566
1034.824914	0.001229
1034.993045	0.001570
1035.161158	0.001238
1035.329253	0.001347
1035.497330	0.001403
1035.665388	-0.000103
1035.833428	0.002050
1036.001450	0.002623
1036.169454	0.002657
1036.337440	0.004206
1036.505407	0.003323
1036.673356	0.003867
1036.841287	0.003639
1037.009200	0.003465
1037.177094	0.004412
1037.344970	0.004745
1037.512828	0.004983
1037.680668	0.003131
1037.848489	0.001880
1038.016293	0.001235
1038.184078	0.001496
1038.351845	0.001427
1038.519593	0.001513
1038.687324	0.001715
1038.855036	0.001446
1039.022730	0.001538
1039.190406	0.003890
1039.358063	0.002671
1039.525702	0.001505
1039.693323	0.001562
1039.860926	0.000838
1040.028511	0.000878
1040.196077	0.000863
1040.363625	0.002411
1040.531155	0.001735
1040.698667	0.000770
1040.866161	0.004152
1041.033636	0.004855
1041.201093	0.004466
1041.368532	0.004701
1041.535952	0.004994
1041.703355	0.004891
1041.870739	0.002436
1042.038105	0.002293
1042.205452	0.002504
1042.372782	0.000940
1042.540093	0.000409
1042.707386	0.001518
1042.874661	0.000784
1043.041918	0.001221
1043.209156	0.000830
1043.376376	0.002007
1043.543578	0.002846
1043.710762	0.003231
1043.877927	0.001946
1044.045074	0.004321
1044.212203	0.003489
1044.379314	0.002981
1044.546407	0.001248
1044.713481	0.003273
1044.880537	0.002107
1045.047575	0.001473
1045.214595	0.000370
1045.381596	0.001419
1045.548579	0.001460
1045.715544	0.001924
1045.882491	0.000935
1046.049420	0.002790
1046.216330	0.000686
1046.383222	0.000981
1046.550096	0.002490
1046.716951	0.004170
1046.883789	0.005378
1047.050608	0.004387
1047.217409	0.003232
1047.384192	0.004436
1047.550956	0.004218
1047.717703	0.004087
1047.884431	0.003168
1048.051140	0.002862
1048.217832	0.002331
1048.384505	-0.000922
1048.551161	-0.000432
1048.717798	0.000568
1048.884416	0.001012
1049.051017	0.000061
1049.217599	0.001666
1049.384163	0.002127
1049.550709	0.002772
1049.717237	0.002100
1049.883746	0.005142
1050.050237	0.004915
1050.216710	0.003104
1050.383165	0.003985
1050.549601	0.004874
1050.716019	0.004422
1050.882420	0.004495
1051.048801	0.003790
1051.215165	0.004289
1051.381510	0.003212
1051.547837	0.002367
1051.714146	0.002859
1051.880437	0.004729
1052.046709	0.006365
1052.212964	0.006002
1052.379200	0.007249
1052.545417	0.008172
1052.711617	0.009084
1052.877798	0.008243
1053.043961	0.009909
1053.210106	0.012785
1053.376233	0.012069
1053.542341	0.010197
1053.708432	0.010468
1053.874504	0.010181
1054.040557	0.007885
1054.206593	0.005926
1054.372610	0.007952
1054.538609	0.007230
1054.704590	0.004414
1054.870553	0.002833
1055.036497	0.003457
1055.202424	0.001987
1055.368331	0.001940
1055.534221	0.001942
1055.700093	0.002343
1055.865946	0.002312
1056.031781	0.000479
1056.197598	0.002866
1056.363397	0.001356
1056.529177	-0.000732
1056.694939	0.000213
1056.860683	-0.000842
1057.026409	0.000041
1057.192116	-0.001143
1057.357806	-0.003530
1057.523477	-0.003025
1057.689130	-0.003695
1057.854764	-0.002307
1058.020381	-0.001485
1058.185979	-0.001972
1058.351559	-0.002204
1058.517120	-0.002769
1058.682664	-0.002117
1058.848189	-0.000300
1059.013696	-0.001068
1059.179185	-0.002981
1059.344656	-0.004036
1059.510108	-0.001981
1059.675542	-0.002295
1059.840958	-0.001833
1060.006356	-0.001178
1060.171735	-0.000685
1060.337096	-0.001816
1060.502439	0.000605
1060.667764	0.002187
1060.833071	0.002660
1060.998359	0.001089
1061.163629	0.002053
1061.328881	0.002428
1061.494115	0.002844
1061.659330	0.003903
1061.824527	0.004708
1061.989706	0.003890
1062.154867	0.003727
1062.320010	0.004804
1062.485134	0.004723
1062.650240	0.004915
1062.815328	0.004743
1062.980398	0.005678
1063.145449	0.005412
1063.310482	0.005129
1063.475497	0.005225
1063.640494	0.003142
1063.805473	0.001545
1063.970433	0.000138
1064.135375	-0.002506
1064.300299	-0.003488
1064.465204	-0.004882
1064.630092	-0.004824
1064.794961	-0.005180
1064.959812	-0.005103
1065.124645	-0.002030
1065.289459	0.000738
1065.454256	0.002548
1065.619034	0.004736
1065.783793	0.007061
1065.948535	0.007686
1066.113258	0.008853
1066.277964	0.008036
1066.442651	0.008021
1066.607319	0.006023
1066.771970	0.004791
1066.936602	0.005582
1067.101216	0.006311
1067.265812	0.005512
1067.430389	0.006209
1067.594949	0.004385
1067.759490	0.006199
1067.924013	0.006425
1068.088518	0.006859
1068.253004	0.006808
1068.417472	0.003501
1068.581922	0.003635
1068.746354	0.003018
1068.910768	0.002401
1069.075163	0.003221
1069.239540	0.003141
1069.403899	0.003329
1069.568240	0.003904
1069.732562	0.004081
1069.896866	0.007475
1070.061152	0.006350
1070.225420	0.006597
1070.389670	0.004703
1070.553901	0.003066
1070.718114	0.003635
1070.882309	0.002469
1071.046486	0.003910
1071.210644	0.004084
1071.374784	0.002727
1071.538906	0.004312
1071.703010	0.004063
1071.867096	0.006210
1072.031163	0.007754
1072.195212	0.006306
1072.359243	0.007263
1072.523256	0.006553
1072.687250	0.006424
1072.851226	0.008116
1073.015184	0.007927
1073.179124	0.009102
1073.343045	0.010461
1073.506949	0.010137
1073.670834	0.012363
1073.834701	0.011819
1073.998549	0.011622
1074.162380	0.011282
1074.326192	0.008656
1074.489986	0.008912
1074.653761	0.008744
1074.817519	0.006723
1074.981258	0.006903
1075.144979	0.006311
1075.308682	0.006994
1075.472367	0.007271
1075.636033	0.005993
1075.799681	0.005868
1075.963311	0.006221
1076.126923	0.004627
1076.290516	0.005263
1076.454092	0.005479
1076.617649	0.007996
1076.781187	0.006445
1076.944708	0.006339
1077.108210	0.007049
1077.271695	0.007296
1077.435160	0.007987
1077.598608	0.009679
1077.762038	0.009019
1077.925449	0.008811
1078.088842	0.006512
1078.252217	0.008194
1078.415573	0.006993
1078.578912	0.007881
1078.742232	0.008297
1078.905534	0.007010
1079.068817	0.005876
1079.232083	0.005542
1079.395330	0.004984
1079.558559	0.005645
1079.721770	0.009283
1079.884962	0.007476
1080.048136	0.006802
1080.211293	0.010666
1080.374430	0.011257
1080.537550	0.013636
1080.700651	0.014513
1080.863735	0.014853
1081.026800	0.014574
1081.189846	0.011352
1081.352875	0.013427
1081.515885	0.013568
1081.678877	0.012316
1081.841851	0.012485
1082.004807	0.010503
1082.167744	0.009118
1082.330663	0.009776
1082.493564	0.008494
1082.656447	0.007960
1082.819312	0.010846
1082.982158	0.010759
1083.144986	0.009533
1083.307796	0.008754
1083.470587	0.010856
1083.633361	0.011242
1083.796116	0.010476
1083.958853	0.009880
1084.121571	0.011504
1084.284272	0.007313
1084.446954	0.010118
1084.609618	0.009452
1084.772264	0.008895
1084.934892	0.006995
1085.097501	0.007727
1085.260092	0.009617
1085.422665	0.011929
1085.585220	0.011018
1085.747756	0.012052
1085.910274	0.011258
1086.072774	0.013211
1086.235256	0.014046
1086.397720	0.011592
1086.560165	0.012726
1086.722592	0.010405
1086.885001	0.007639
1087.047392	0.009176
1087.209764	0.009501
1087.372119	0.006731
1087.534455	0.005526
1087.696772	0.005546
1087.859072	0.006260
1088.021353	0.005367
1088.183616	0.006023
1088.345861	0.008238
1088.508088	0.006684
1088.670296	0.007119
1088.832486	0.009629
1088.994658	0.012176
1089.156812	0.011792
1089.318948	0.016852
1089.481065	0.017469
1089.643164	0.018920
1089.805245	0.017958
1089.967308	0.016021
1090.129352	0.015644
1090.291378	0.016788
1090.453386	0.012569
1090.615376	0.012299
1090.777347	0.011435
1090.939301	0.012251
1091.101236	0.009753
1091.263153	0.010320
1091.425051	0.013222
1091.586932	0.013314
1091.748794	0.012595
1091.910638	0.014649
1092.072463	0.014702
1092.234271	0.011802
1092.396060	0.011094
1092.557831	0.012664
1092.719584	0.012814
1092.881319	0.011001
1093.043035	0.011926
1093.204733	0.011084
1093.366413	0.009113
1093.528075	0.011600
1093.689718	0.010249
1093.851343	0.007906
1094.012950	0.006576
1094.174539	0.004965
1094.336110	0.006349
1094.497662	0.005157
1094.659196	0.002571
1094.820712	0.002766
1094.982210	0.000800
1095.143689	0.004093
1095.305151	0.004643
1095.466594	0.004969
1095.628018	0.008403
1095.789425	0.005787
1095.950813	0.006245
1096.112183	0.004651
1096.273535	0.009293
1096.434869	0.009201
1096.596184	0.009696
1096.757482	0.010045
1096.918761	0.011035
1097.080021	0.007773
1097.241264	0.011437
1097.402488	0.013163
1097.563694	0.016980
1097.724882	0.012734
1097.886052	0.012306
1098.047203	0.010406
1098.208336	0.011580
1098.369451	0.012109
1098.530548	0.017899
1098.691627	0.018478
1098.852687	0.016382
1099.013729	0.012113
1099.174753	0.011036
1099.335758	0.011486
1099.496746	0.009059
1099.657715	0.008483
1099.818666	0.006434
1099.979599	0.003494
1100.140513	0.002081
1100.301409	0.003352
1100.462287	0.004264
1100.623147	0.004094
1100.783989	0.004846
1100.944812	0.006252
1101.105617	0.005781
1101.266404	0.008623
1101.427173	0.007003
1101.587923	0.005899
1101.748656	0.004227
1101.909370	0.006374
1102.070066	0.009558
1102.230743	0.008746
1102.391403	0.010327
1102.552044	0.010621
1102.712667	0.009624
1102.873271	0.007760
1103.033858	0.008090
1103.194426	0.007834
1103.354976	0.010154
1103.515508	0.010257
1103.676021	0.008829
1103.836517	0.008763
1103.996994	0.010477
1104.157453	0.012067
1104.317893	0.009794
1104.478316	0.007735
1104.638720	0.009209
1104.799106	0.007379
1104.959474	0.003973
1105.119823	0.005268
1105.280155	0.006867
1105.440468	0.003205
1105.600763	0.003242
1105.761039	0.006941
1105.921298	0.010696
1106.081538	0.009244
1106.241760	0.008378
1106.401964	0.014268
1106.562149	0.015265
1106.722316	0.020616
1106.882465	0.022748
1107.042596	0.018168
1107.202709	0.020433
1107.362803	0.016980
1107.522879	0.019242
1107.682937	0.020250
1107.842977	0.013776
1108.002999	0.010651
1108.163002	0.004222
1108.322987	0.004784
1108.482954	0.007334
1108.642902	0.006981
1108.802833	0.008482
1108.962745	0.004780
1109.122639	0.004279
1109.282515	0.007395
1109.442372	0.009696
1109.602211	0.011348
1109.762032	0.009242
1109.921835	0.011153
1110.081620	0.009909
1110.241386	0.010922
1110.401134	0.011137
1110.560864	0.013882
1110.720576	0.018853
1110.880269	0.019164
1111.039945	0.017495
1111.199602	0.019920
1111.359240	0.014692
1111.518861	0.010398
1111.678463	0.009013
1111.838047	0.013368
1111.997613	0.014610
1112.157161	0.009069
1112.316690	0.007284
1112.476202	0.007467
1112.635695	0.004724
1112.795169	0.012647
1112.954626	0.017849
1113.114064	0.018879
1113.273484	0.013724
1113.432886	0.008468
1113.592270	0.006172
1113.751635	0.006862
1113.910983	0.009275
1114.070312	0.010927
1114.229622	0.010730
1114.388915	0.007738
1114.548189	0.009807
1114.707445	0.015128
1114.866683	0.016470
1115.025903	0.017610
1115.185104	0.016448
1115.344287	0.013140
1115.503452	0.014866
1115.662599	0.008753
1115.821727	0.008443
1115.980838	0.009274
1116.139930	0.003496
1116.299004	0.005455
1116.458059	0.006162
1116.617097	0.010212
1116.776116	0.008946
1116.935117	0.011665
1117.094099	0.013261
1117.253064	0.016195
1117.412010	0.011333
1117.570938	0.016390
1117.729848	0.016516
1117.888740	0.014533
1118.047613	0.014557
1118.206468	0.014006
1118.365305	0.013151
1118.524124	0.008533
1118.682924	0.005925
1118.841707	0.011705
1119.000471	0.014740
1119.159216	0.015745
1119.317944	0.020098
1119.476653	0.016132
1119.635344	0.020758
1119.794017	0.019364
1119.952672	0.023148
1120.111308	0.022397
1120.269927	0.019921
1120.428527	0.015396
1120.587108	0.010928
1120.745672	0.009598
1120.904217	0.011269
1121.062744	0.010295
1121.221253	0.008702
1121.379744	0.010474
1121.538216	0.017895
1121.696671	0.016653
1121.855107	0.015081
1122.013524	0.014857
1122.171924	0.015860
1122.330305	0.012314
1122.488668	0.013373
1122.647013	0.011086
1122.805340	0.013516
1122.963648	0.007781
1123.121938	0.007104
1123.280210	0.011781
1123.438464	0.019757
1123.596700	0.019975
1123.754917	0.023807
1123.913116	0.019077
1124.071297	0.020074
1124.229459	0.017427
1124.387604	0.018592
1124.545730	0.019593
1124.703838	0.017141
1124.861928	0.009202
1125.019999	0.012152
1125.178052	0.011786
1125.336088	0.012642
1125.494104	0.010175
1125.652103	0.009441
1125.810083	0.005694
1125.968045	0.003134
1126.125989	0.004412
1126.283915	0.008774
1126.441823	0.006389
1126.599712	0.006575
1126.757583	0.007015
1126.915436	0.012610
1127.073270	0.016134
1127.231087	0.022033
1127.388885	0.027894
1127.546665	0.023131
1127.704426	0.021626
1127.862170	0.019658
1128.019895	0.021275
1128.177602	0.020774
1128.335291	0.018740
1128.492961	0.013704
1128.650614	0.009617
1128.808248	0.006364
1128.965864	0.008874
1129.123461	0.009198
1129.281041	0.011718
1129.438602	0.009391
1129.596145	0.010444
1129.753670	0.007936
1129.911176	0.012129
1130.068665	0.009829
1130.226135	0.009563
1130.383587	0.010034
1130.541020	0.008667
1130.698436	0.007642
1130.855833	0.008347
1131.013212	0.010065
1131.170573	0.018209
1131.327915	0.012978
1131.485239	0.016068
1131.642545	0.020337
1131.799833	0.022333
1131.957103	0.021341
1132.114354	0.021863
1132.271588	0.023540
1132.428803	0.021904
1132.585999	0.016869
1132.743178	0.020668
1132.900338	0.016235
1133.057480	0.014322
1133.214604	0.011594
1133.371710	0.015163
1133.528797	0.016043
1133.685866	0.009932
1133.842917	0.014737
1133.999950	0.011330
1134.156964	0.004236
1134.313960	0.005324
1134.470938	0.004604
1134.627898	0.004665
1134.784840	0.006066
1134.941763	0.004098
1135.098668	0.009985
1135.255555	0.003922
1135.412424	0.007347
1135.569274	0.011056
1135.726107	0.018150
1135.882921	0.012047
1136.039716	0.016986
1136.196494	0.011140
1136.353253	0.010797
1136.509995	0.011186
1136.666717	0.018003
1136.823422	0.010248
1136.980109	0.010250
1137.136777	0.006935
1137.293427	0.013127
1137.450059	0.015788
1137.606672	0.016153
1137.763267	0.014030
1137.919844	0.011755
1138.076403	0.003011
1138.232944	0.011574
1138.389466	0.018910
1138.545971	0.026246
1138.702457	0.025118
1138.858924	0.014042
1139.015374	0.018708
1139.171805	0.019188
1139.328218	0.024255
1139.484613	0.024106
1139.640990	0.020268
1139.797348	0.020809
1139.953688	0.014816
1140.110010	0.016165
1140.266314	0.026561
1140.422600	0.024831
1140.578867	0.025006
1140.735116	0.024694
1140.891347	0.027760
1141.047559	0.028863
1141.203754	0.026276
1141.359930	0.023466
1141.516088	0.024178
1141.672228	0.018586
1141.828349	0.017755
1141.984452	0.019540
1142.140537	0.012876
1142.296604	0.017481
1142.452653	0.015328
1142.608683	0.009824
1142.764695	0.012349
1142.920689	0.010007
1143.076665	0.007915
1143.232622	0.007766
1143.388562	0.004176
1143.544483	0.004182
1143.700385	-0.004941
1143.856270	-0.000762
1144.012136	0.003525
1144.167985	0.004550
1144.323814	0.003558
1144.479626	0.001670
1144.635420	0.001448
1144.791195	0.004563
1144.946952	0.011005
1145.102691	0.022579
1145.258411	0.011754
1145.414113	0.009103
1145.569798	-0.000149
1145.725463	0.005120
1145.881111	0.005733
1146.036741	0.001969
1146.192352	0.007698
1146.347945	0.000536
1146.503519	-0.007412
1146.659076	0.003169
1146.814614	0.003977
1146.970134	0.013636
1147.125636	0.010526
1147.281120	0.012218
1147.436585	0.016906
1147.592032	0.010276
1147.747461	0.015843
1147.902872	0.014315
1148.058265	0.018249
1148.213639	0.011952
1148.368995	0.010987
1148.524333	0.004002
1148.679653	0.005338
1148.834954	0.012160
1148.990237	0.010633
1149.145502	0.001166
1149.300749	0.000709
1149.455977	-0.014008
1149.611188	-0.009986
1149.766380	-0.008864
1149.921553	0.000091
1150.076709	-0.001729
1150.231846	-0.008145
1150.386966	-0.011920
1150.542066	-0.005381
1150.697149	0.002271
1150.852214	0.008338
1151.007260	0.015344
1151.162288	0.008689
1151.317298	0.001790
1151.472289	0.012946
1151.627263	0.005802
1151.782218	0.006661
1151.937155	0.005766
1152.092073	0.004151
1152.246974	0.012919
1152.401856	0.008714
1152.556720	0.011485
1152.711566	0.013109
1152.866393	0.009032
1153.021203	0.019839
1153.175994	0.026658
1153.330767	0.022268
1153.485521	0.018750
1153.640258	0.016672
1153.794976	0.012889
1153.949676	0.011394
1154.104358	0.013558
1154.259021	0.004980
1154.413667	0.004412
1154.568294	0.008804
1154.722903	0.009389
1154.877493	0.006517
1155.032066	0.004994
1155.186620	0.008027
1155.341156	0.015056
1155.495674	0.015471
1155.650173	0.010513
1155.804654	0.006061
1155.959118	0.006341
1156.113562	0.015867
1156.267989	0.019521
1156.422397	0.021416
1156.576788	0.015308
1156.731160	0.017485
1156.885513	0.015692
1157.039849	0.021120
1157.194166	0.018288
1157.348465	0.011306
1157.502746	0.005517
1157.657009	0.001112
1157.811253	0.001169
1157.965479	0.002849
1158.119687	-0.003531
1158.273877	-0.005568
1158.428048	-0.011911
1158.582201	-0.010130
1158.736337	-0.012231
1158.890453	-0.005756
1159.044552	0.009073
1159.198632	0.003170
1159.352694	0.017103
1159.506738	0.021331
1159.660764	0.013566
1159.814771	0.027928
1159.968761	0.023049
1160.122732	0.017912
1160.276685	0.011818
1160.430619	-0.002825
1160.584535	-0.003501
1160.738434	-0.015120
1160.892313	-0.014517
1161.046175	0.002535
1161.200019	-0.000998
1161.353844	0.003173
1161.507651	0.008126
1161.661440	0.009942
1161.815210	0.011489
1161.968962	0.016432
1162.122697	0.019186
1162.276412	0.014656
1162.430110	0.003384
1162.583789	0.003003
1162.737451	0.006030
1162.891094	0.011659
1163.044718	0.021340
1163.198325	0.029614
1163.351913	0.030572
1163.505483	0.032206
1163.659035	0.031641
1163.812569	0.039710
1163.966084	0.033394
1164.119581	0.034637
1164.273060	0.021470
1164.426521	-0.000395
1164.579964	-0.008187
1164.733388	0.007379
1164.886794	-0.000096
1165.040182	-0.003382
1165.193551	-0.012559
1165.346903	-0.013119
1165.500236	-0.022244
1165.653551	-0.012846
1165.806848	0.000924
1165.960126	0.010432
1166.113386	-0.011314
1166.266628	-0.003867
1166.419852	-0.008524
1166.573058	-0.001731
1166.726245	0.008359
1166.879414	0.018763
1167.032565	0.025724
1167.185698	0.021409
1167.338812	0.009087
1167.491909	0.021404
1167.644987	0.021800
1167.798046	0.035686
1167.951088	0.034297
1168.104111	0.043922
1168.257117	0.047943
1168.410103	0.028767
1168.563072	0.034700
1168.716023	0.046144
1168.868955	0.027780
1169.021869	0.032450
1169.174765	0.028950
1169.327642	0.015734
1169.480501	0.000332
1169.633343	-0.007338
1169.786165	0.007293
1169.938970	-0.003023
1170.091757	-0.008258
1170.244525	-0.002562
1170.397275	-0.016400
1170.550007	-0.014638
1170.702720	-0.003025
1170.855415	-0.008342
1171.008092	-0.006235
1171.160751	-0.012066
1171.313392	-0.006482
1171.466014	-0.053822
1171.618619	0.007225
1171.771205	0.007225
1171.923772	0.007225
