sample name	sample
index	477
start time	 03-11-2021  12:49:10 PM
880	0.203515
Peak Time (s)	92.535
Peak Height 	0.2035
calc peak height	90,93
Baseline Time (s)	10.034
Baseline Value 	-0.005599
subtract baseline	10,4
Abs	0.131955
Peak Time (s)	90.537
Peak Height 	0.132
calc peak height	90,93
Baseline Time (s)	11.035
Baseline Value 	0.004475
subtract baseline	10,3
PK_550	0.065149
Peak Time (s)	90.037
Peak Height 	0.06515
calc peak height	90,93
Baseline Time (s)	8.537
Baseline Value 	5.2883E-4
subtract baseline	10,2
PK_880	0.127144
Peak Time (s)	92.04
Peak Height 	0.1271
calc peak height	90,93
Baseline Time (s)	9.537
Baseline Value 	0.002344
subtract baseline	10,1


Time (s)	A880-A510	A880-A775	A880-A975	A880	I510	I775	I975	I880	
0.034500	-0.000456	-0.000443	-0.002928	0.003642	7057.291671	45440.799101	3963.728881	24130.850920
0.537500	-0.005289	-0.001184	-0.007430	0.007889	6970.558098	44955.301900	3941.171595	23923.852220
1.037500	-0.002767	-0.000276	-0.005719	0.004957	7022.439048	45328.641765	3953.087707	24066.567775
1.537000	-0.001373	-0.001380	-0.004225	0.001633	7067.849219	45545.967655	3965.585334	24229.492366
2.035500	-0.001305	-0.000131	-0.006092	0.002194	7063.076857	45613.469018	3959.269154	24201.878530
2.535500	-0.003684	-0.000528	-0.007698	0.007105	6993.201250	45094.886893	3942.490325	23961.926175
3.036000	-0.000375	-0.000624	-0.008389	-0.001079	7103.909286	45887.660277	3961.804967	24363.357508
3.536000	-0.000964	-0.000444	0.000369	0.000581	7082.011954	45741.528081	3980.410263	24281.331639
4.036500	0.002014	0.000132	-0.000263	0.001406	7102.966820	45716.926292	3976.567237	24240.656759
4.539500	-0.000996	-0.000295	-0.002936	0.001099	7076.668084	45705.097429	3970.352188	24255.777842
5.034000	0.000112	-0.000134	-0.001195	0.001133	7087.094602	45717.545468	3974.830092	24254.086557
5.543000	0.002675	0.000490	-0.003793	0.001443	7109.054436	45748.610376	3967.209918	24238.833664
6.035000	0.000151	0.000404	-0.002107	0.001278	7086.070513	45756.305842	3972.053941	24246.951343
6.534500	0.000377	0.000014	-0.001146	0.000506	7095.775865	45794.063797	3976.609376	24284.995427
7.035500	0.000633	-0.000192	0.001024	0.000678	7096.593723	45756.698716	3981.885121	24276.515998
7.535500	-0.001169	0.000384	0.000807	0.000723	7078.643039	45809.170345	3981.193747	24274.322035
8.036500	-0.000751	-0.000314	-0.005683	-0.000386	7093.477680	45849.706122	3967.050036	24329.056147
8.536500	0.000412	0.000000	0.004019	0.000194	7099.159652	45823.473860	3991.127177	24300.405458
9.039500	-0.000593	-0.000554	-0.004444	-0.000283	7094.015540	45815.846656	3970.020186	24323.967797
9.537000	0.000000	0.000174	-0.001668	-0.000165	7098.639579	45876.126618	3977.002470	24318.111069
10.034500	0.001452	0.000319	0.000733	0.000000	7111.204938	45874.174316	3982.910149	24309.983972
10.535000	0.002144	-0.000266	0.000871	-0.000158	7119.529225	45832.020863	3983.696268	24317.805449
11.035000	-0.000112	-0.000229	0.000000	0.000149	7094.501127	45805.303771	3980.577580	24302.648095
11.535500	-0.000762	0.000174	-0.004306	0.000131	7088.337224	45846.878349	3969.297707	24303.493146
12.035500	-0.000352	0.000084	0.000009	0.000183	7091.825906	45832.787184	3980.508605	24300.929766
12.535500	0.000689	0.000145	-0.000770	-0.000182	7105.536850	45874.946861	3979.417458	24318.985242
13.036000	-0.001188	0.000037	-0.002098	0.000376	7081.824054	45809.178933	3974.448119	24291.430484
13.539500	-0.001368	-0.000537	-0.004273	-0.000388	7087.502419	45828.012985	3970.745437	24329.179534
14.037000	-0.002656	-0.000992	-0.001421	0.002097	7050.976529	45538.452952	3971.706533	24206.686588
14.543500	-0.001180	-0.000394	-0.003190	0.001632	7069.727630	45642.896403	3968.290546	24229.533968
15.034500	-0.002001	-0.000796	-0.000066	0.000370	7073.997014	45727.571352	3979.819641	24291.723562
15.540000	-0.000071	-0.000353	0.002647	-0.000215	7098.439968	45829.015733	3988.562601	24320.600090
16.035000	-0.000917	0.000053	0.001056	0.000127	7086.880367	45835.354249	3983.430814	24303.722030
16.535500	-0.001110	-0.000022	-0.000207	0.000037	7085.870952	45836.773125	3980.325054	24308.160999
17.036000	0.002422	-0.000145	-0.004355	-0.002693	7147.178936	46095.228534	3976.585570	24443.413579
17.536000	-0.001480	-0.000285	-0.001799	0.000709	7075.760797	45744.554763	3974.358487	24275.009773
18.036500	-0.000147	-0.000784	-0.002915	0.001091	7084.990345	45657.726496	3970.427171	24256.146388
18.536500	-0.000394	-0.000220	-0.004499	0.001308	7080.480984	45691.839107	3965.718913	24245.472759
19.037500	-0.000484	-0.000036	0.000511	0.001640	7076.383541	45677.300465	3977.989422	24229.126225
19.536500	0.000072	-0.000032	-0.001372	0.001406	7084.049757	45700.675748	3973.647575	24240.633991
20.035000	0.000353	-0.000299	0.000331	0.001069	7090.068003	45707.680608	3979.021438	24257.269448
20.535000	-0.001800	-0.000766	0.003786	0.000746	7072.296425	45693.491114	3989.036461	24273.165651
21.035500	0.000524	0.000601	-0.004668	0.002250	7080.256225	45680.080319	3962.826758	24199.168958
21.535500	-0.001209	0.000265	-0.003373	0.001443	7071.272138	45726.389453	3968.305282	24238.815585
22.036000	0.001317	-0.000318	-0.004243	0.001490	7095.350458	45664.338738	3965.913359	24236.525700
22.536500	-0.001436	0.000307	-0.005047	0.001893	7064.720577	45686.217875	3962.768610	24216.704488
23.039500	-0.001894	-0.000757	-0.002983	0.000904	7069.855746	45678.830194	3970.740324	24265.386135
23.536500	-0.001843	-0.000447	-0.000297	0.001087	7068.576512	45691.275779	3977.316983	24256.358004
24.037000	-0.001397	0.000102	-0.004118	0.001467	7069.226529	45707.942524	3966.299172	24237.659706
24.537500	0.002386	0.000141	-0.000186	0.001763	7103.112130	45682.633450	3975.827854	24223.076167
25.034500	-0.000185	-0.000093	0.000108	0.001184	7083.718868	45716.653866	3978.131194	24251.608817
25.535500	0.000344	-0.000054	-0.002034	0.001824	7082.633710	45657.398240	3970.813879	24220.070782
26.035500	0.001496	0.000515	0.003577	0.001979	7092.327254	45698.154148	3985.203798	24212.454337
26.535500	0.000130	-0.000080	0.000786	0.001432	7084.368639	45693.453285	3979.262913	24239.359025
27.035500	0.001067	0.000014	-0.002791	-0.001118	7118.381763	45954.706290	3976.556409	24365.294129
27.541500	0.001304	0.000196	0.001644	-0.000315	7112.841149	45893.201399	3986.162553	24325.560357
28.037000	-0.000322	0.000262	-0.001655	0.000410	7089.911378	45828.065262	3975.523566	24289.753641
28.537000	-0.001319	-0.000330	-0.004332	0.000444	7079.888083	45766.179894	3968.411215	24288.047165
29.037500	0.001445	-0.000647	0.000603	0.000054	7110.605219	45773.333125	3982.422914	24307.297144
29.535000	0.001646	0.000819	-0.001938	0.001142	7101.953354	45810.765828	3972.856964	24253.674155
30.035500	-0.000295	-0.000124	-0.000373	0.000215	7092.069243	45809.116731	3979.415806	24299.367259
30.535000	-0.001943	-0.000177	-0.002826	0.003131	7047.887068	45517.038632	3965.328745	24155.923815
31.035500	0.000144	-0.000188	0.003348	0.001526	7083.582847	45673.560801	3985.795539	24234.728078
31.535500	0.000780	0.000372	0.001930	0.000638	7098.414819	45816.316087	3984.392289	24278.494520
32.039000	-0.000097	-0.000292	0.000631	0.000002	7096.069795	45813.582230	3982.633438	24309.875052
32.536500	-0.000458	-0.000419	-0.001726	0.000270	7089.940924	45774.511746	3975.704259	24296.629198
33.037000	0.001961	0.000339	0.002265	-0.000773	7123.761454	45952.721797	3989.030901	24348.207128
33.536500	-0.000336	0.000262	-0.005541	0.001075	7083.304134	45762.296766	3963.610622	24256.940007
34.037500	0.000508	0.000074	-0.000083	0.002161	7080.952341	45636.843112	3975.050755	24203.505530
34.536000	0.001274	0.000412	0.001519	0.002404	7086.044672	45646.269321	3978.633595	24191.589876
35.035500	-0.002695	-0.000733	0.001686	0.001868	7052.809435	45586.375990	3980.489980	24217.918573
35.536000	-0.002531	-0.000241	-0.002476	0.001860	7054.472573	45635.549060	3969.564727	24218.335221
36.036000	-0.002964	-0.000888	-0.003661	0.001696	7051.868747	45587.982038	3966.893460	24226.379321
36.536000	-0.001823	-0.000193	-0.003235	0.002095	7059.028674	45617.109328	3966.963864	24206.769158
37.036000	0.000310	0.000234	0.002658	0.002113	7079.504970	45657.411424	3982.413222	24205.887256
37.536000	-0.001714	0.000050	-0.002150	0.002092	7060.109287	45641.334337	3969.809886	24206.910691
38.037000	0.000413	-0.000075	-0.004358	0.002190	7079.754680	45619.434399	3963.787855	24202.105459
38.536500	-0.001206	-0.000621	-0.004140	0.001761	7068.218498	45607.815120	3965.473909	24223.167856
39.035000	0.002223	0.000513	-0.001229	0.003088	7088.609663	45588.908649	3969.611307	24157.994171
39.535000	-0.002149	-0.000408	-0.000685	0.001837	7058.375445	45621.375917	3974.322200	24219.441288
40.035000	-0.000192	0.000846	0.002447	0.003213	7063.983749	45609.302936	3978.944803	24151.859465
40.536000	-0.002850	-0.000621	-0.001969	0.001406	7055.768902	45642.825229	3972.080536	24240.657125
41.035500	-0.000834	-0.000132	-0.000383	0.002162	7067.945813	45616.553013	3974.262244	24203.492568
41.536500	-0.000255	0.000098	-0.002477	0.002619	7069.121438	45594.239565	3967.575590	24181.012565
42.036500	-0.001891	-0.000134	-0.002024	0.002373	7055.697705	45595.673859	3969.405293	24193.126812
42.536500	0.000815	-0.000337	-0.002742	0.002353	7082.069565	45577.607537	3967.577242	24194.069418
43.037000	-0.001244	-0.000617	-0.007126	0.001802	7067.459041	45604.320216	3957.605874	24221.181301
43.537000	0.003546	-0.000457	0.004443	-0.002974	7161.050754	46092.121432	4000.749554	24457.395837
44.035000	-0.002796	0.000386	-0.002650	0.001165	7058.611469	45765.711634	3970.927025	24252.514572
44.535000	0.001166	0.000150	0.002792	0.001171	7096.987261	45741.808252	3985.263375	24252.206668
45.035500	-0.000954	0.000374	-0.002168	0.001403	7074.135259	45741.083296	3971.567618	24240.826566
45.536000	0.000175	0.000891	0.003422	0.001234	7086.726707	45808.690880	3986.770010	24249.109990
46.039000	0.001750	0.000313	0.000679	0.001750	7097.032519	45700.863232	3978.141935	24223.711412
46.535500	0.000954	0.000390	0.000458	0.001429	7092.411890	45740.048139	3978.406476	24239.521547
47.036500	-0.000949	-0.000166	-0.001678	0.003418	7054.701729	45489.942783	3967.576348	24141.844001
47.542000	0.000043	0.000421	-0.002234	0.001316	7084.641423	45754.271416	3971.621790	24245.064505
48.037500	-0.000368	0.000471	-0.001297	0.002171	7072.372316	45675.037338	3971.838322	24203.048065
48.537500	-0.000164	-0.000754	0.002478	0.000220	7093.298377	45746.507633	3986.957245	24299.142888
49.035000	0.001217	-0.000313	-0.002729	0.000985	7099.302887	45714.614679	3971.193597	24261.398558
49.535500	0.002050	0.000938	0.003492	-0.000610	7123.031247	45995.895796	3991.867231	24340.111619
50.035500	-0.000632	-0.000751	-0.000941	0.002283	7068.727356	45543.768762	3972.477917	24197.505077
50.538500	0.001148	0.000220	-0.000447	-0.004425	7151.690570	46304.113531	3991.535367	24529.647309
51.035500	-0.035909	-0.013196	0.012861	0.357879	4574.211019	21187.068558	3351.542335	12269.385651
51.536500	-0.040160	-0.004371	-0.041341	0.081091	6066.152342	38176.096583	3698.893158	20656.652051
52.036500	-0.045773	-0.054814	-0.052007	-0.207608	9007.946596	63939.435883	4475.718325	37456.413318
52.537000	-0.042030	-0.160082	-0.034880	-0.324087	10967.058470	65535.000000	5067.543201	48098.537802
53.037500	-0.040391	-0.133804	-0.021779	-0.297809	10520.211888	65535.000000	5000.755513	45442.456687
53.534500	-0.041587	-0.114922	-0.017253	-0.278927	10174.368683	65535.000000	4930.259067	43630.775317
54.035000	-0.027929	-0.103439	-0.014491	-0.267444	10211.076248	65535.000000	4888.565372	42566.964016
54.535500	-0.017094	-0.095400	-0.011096	-0.259405	10258.521999	65535.000000	4866.698031	41838.739510
55.036000	-0.002658	-0.096492	-0.004944	-0.260498	10527.647564	65535.000000	4900.909280	41936.898884
55.535500	0.003772	-0.063711	0.002340	-0.225818	10045.098633	65262.001756	4774.479701	38937.902465
56.036000	0.008831	-0.026478	0.012919	-0.170513	9260.673299	62721.164649	4584.457845	34624.138959
56.536500	0.018857	-0.006758	0.015357	-0.128973	8813.016517	59790.946864	4433.629504	31726.694795
57.037000	0.029589	0.005259	0.026289	-0.089108	8427.124254	56259.077650	4330.450840	29195.005951
57.536500	0.041383	0.015587	0.038168	-0.051894	8110.923946	53057.319407	4245.575887	27032.383517
58.037500	0.049212	0.022719	0.047967	-0.008778	7701.564199	49070.941873	4141.244245	24747.955242
58.535000	0.055675	0.028910	0.057687	0.026091	7395.359863	46122.183372	4067.623259	23059.335310
59.035500	0.072058	0.036634	0.064395	0.044852	7370.611120	45038.125914	4033.821560	22205.337619
59.535500	0.070297	0.042301	0.065554	0.105413	6768.329946	40037.706562	3880.276869	19687.407144
60.035500	0.074284	0.044612	0.073023	0.120413	6670.601312	38969.037453	3862.267892	19116.132556
60.535500	0.078504	0.046195	0.081915	0.117359	6734.874643	39355.983763	3890.979961	19230.849422
61.036000	0.086761	0.051468	0.086905	0.137414	6631.160769	38136.732140	3854.898815	18492.069717
61.537000	0.099065	0.058120	0.089673	0.139162	6723.815994	38536.604727	3857.303665	18429.279622
62.037000	0.105506	0.060661	0.089456	0.139182	6781.296601	38743.979074	3856.746025	18428.584788
62.537000	0.111129	0.063375	0.097519	0.138932	6834.613657	38989.271266	3876.536317	18437.546533
63.037000	0.113086	0.066043	0.100639	0.139980	6842.931076	39124.030205	3881.525952	18399.994779
63.538000	0.116819	0.066825	0.099627	0.142118	6857.562994	39011.170270	3873.946419	18323.670059
64.035500	0.112131	0.067527	0.109812	0.147526	6765.825926	38622.292494	3885.462294	18132.320897
64.538000	0.119408	0.068807	0.105863	0.146667	6839.585432	38798.537553	3878.000056	18162.560291
65.036000	0.120932	0.068836	0.115357	0.149070	6831.547319	38602.932577	3895.207594	18078.120388
65.536500	0.122691	0.070107	0.108246	0.151952	6821.308801	38470.915241	3871.038497	17977.491875
66.036500	0.119317	0.069951	0.105306	0.158653	6730.593055	37914.070921	3848.242216	17746.018437
66.537000	0.121295	0.071058	0.113476	0.158263	6751.726433	38034.829167	3868.458291	17759.396406
67.037000	0.121294	0.071449	0.120024	0.161351	6724.174946	37817.439849	3876.740610	17653.814155
67.537500	0.123630	0.072553	0.114937	0.165424	6708.768255	37579.766621	3854.951937	17515.730382
68.037500	0.119940	0.071114	0.106895	0.172682	6613.094173	36892.671048	3819.565694	17272.846971
68.535000	0.125276	0.072032	0.115974	0.171182	6672.553391	37082.369072	3843.900232	17322.727390
69.038500	0.126673	0.072636	0.125131	0.174173	6658.606324	36895.119881	3858.358972	17223.461408
69.535500	0.124749	0.072310	0.118388	0.175176	6633.125693	36791.291578	3840.229258	17190.337884
70.036000	0.122278	0.072063	0.109416	0.182437	6549.624026	36210.760619	3803.264702	16952.720627
70.536500	0.125688	0.073105	0.111366	0.179286	6605.707461	36533.730719	3814.731964	17055.345893
71.036500	0.127130	0.073858	0.119002	0.181379	6600.111460	36430.241584	3827.346868	16987.122126
71.537000	0.125794	0.073141	0.118317	0.182436	6579.589610	36293.601662	3823.363344	16952.760725
72.037500	0.127845	0.073433	0.115911	0.183444	6588.519446	36238.675944	3815.606957	16920.097315
72.535000	0.128098	0.073422	0.115843	0.185195	6575.697261	36103.826513	3811.499012	16863.538817
73.034500	0.127175	0.074808	0.116501	0.187355	6549.445513	36044.687801	3808.118864	16794.045645
73.534500	0.128530	0.073617	0.120425	0.186798	6565.712950	35996.424039	3818.237273	16811.951775
74.035500	0.129327	0.075083	0.121773	0.194264	6509.318044	35542.647800	3804.450816	16574.154241
74.535500	0.129960	0.074228	0.119830	0.188946	6559.590896	35879.556519	3812.030194	16743.093215
75.036500	0.129722	0.075403	0.117872	0.190880	6541.165497	35822.026326	3803.293776	16681.432198
75.536000	0.130873	0.074730	0.120312	0.191023	6549.711429	35760.248862	3808.440882	16676.876579
76.036500	0.127329	0.073274	0.115924	0.195571	6481.692938	35309.415258	3788.569444	16532.945917
76.537000	0.130911	0.074624	0.115522	0.192834	6534.692594	35615.581685	3793.721732	16619.364432
77.037500	0.129677	0.073474	0.120758	0.192552	6526.658335	35550.327334	3806.009145	16628.299224
77.535000	0.130386	0.074562	0.120359	0.194144	6519.225328	35512.515252	3801.558817	16577.933272
78.034500	0.128284	0.071661	0.113639	0.197999	6469.438604	35009.476953	3778.251786	16456.697091
78.535500	0.130774	0.073425	0.121064	0.194975	6515.499090	35365.154996	3801.277596	16551.705582
79.035500	0.132052	0.073338	0.119398	0.195653	6520.549919	35308.122835	3796.066024	16530.363946
79.536000	0.130944	0.072962	0.124672	0.196422	6504.778395	35222.747924	3806.107263	16506.156021
80.036500	0.125097	0.070524	0.119699	0.200738	6420.601660	34724.416476	3785.510798	16371.239473
80.536500	0.131937	0.071643	0.126077	0.197124	6507.219370	35072.863632	3807.686179	16484.140462
81.037000	0.130188	0.071851	0.118495	0.197520	6489.280347	35058.941492	3789.940091	16471.729165
81.537000	0.129595	0.070587	0.116180	0.197111	6487.745078	34995.723289	3785.747092	16484.542637
82.035000	0.126226	0.070962	0.117109	0.203914	6403.883569	34524.522864	3772.944729	16272.787953
82.535000	0.126534	0.069605	0.120027	0.197704	6457.389168	34879.625659	3792.915112	16465.934944
83.035000	0.128388	0.070067	0.117918	0.198704	6464.459616	34840.063425	3786.064755	16434.653526
83.535500	0.128672	0.069464	0.122956	0.198584	6467.812227	34804.611680	3797.457774	16438.421696
84.035500	0.125539	0.069161	0.121233	0.204632	6392.451293	34341.752777	3780.347012	16250.630740
84.536500	0.128506	0.068554	0.123573	0.199405	6459.628952	34677.800564	3797.003830	16412.764125
85.036500	0.127552	0.069016	0.129204	0.200183	6445.322635	34654.728615	3807.838245	16388.510474
85.536500	0.128176	0.068291	0.123121	0.199586	6455.402849	34645.320900	3795.598170	16407.120336
86.037000	0.126631	0.067182	0.122993	0.199350	6444.601914	34581.688234	3795.839577	16414.497822
86.534500	0.126098	0.067368	0.119406	0.200204	6433.188661	34533.003272	3786.040259	16387.853454
87.034500	0.128711	0.065895	0.124971	0.200239	6454.432516	34423.445979	3798.254634	16386.759783
87.538000	0.127370	0.067518	0.126398	0.202162	6427.554516	34401.699503	3797.153641	16327.012498
88.035000	0.126362	0.065876	0.121873	0.201176	6427.375213	34354.205723	3789.326781	16357.624860
88.535500	0.127558	0.065363	0.124332	0.201696	6432.932231	34279.531480	3793.609343	16341.477096
89.036000	0.125787	0.064905	0.124364	0.201235	6422.174084	34279.711822	3794.698613	16355.774988
89.536000	0.126838	0.064344	0.122182	0.201394	6429.493304	34227.786950	3789.527167	16350.836892
90.036500	0.126497	0.065149	0.119228	0.201823	6423.177076	34254.904717	3782.103005	16337.524652
90.537000	0.125167	0.065085	0.131955	0.202412	6407.487866	34207.799141	3809.012121	16319.250670
91.037000	0.124778	0.063386	0.130772	0.201919	6408.335616	34121.039064	3807.460403	16334.529585
91.537000	0.126171	0.063436	0.124600	0.202087	6418.349820	34112.604744	3793.337056	16329.339112
92.040000	0.127144	0.063375	0.128440	0.202072	6426.437786	34109.278554	3801.899770	16329.783644
92.535000	0.126815	0.063508	0.126893	0.203515	6411.934874	34015.376909	3795.249557	16285.112708
93.038000	0.125240	0.062536	0.124121	0.202722	6405.557280	34002.505601	3790.873163	16309.640452
93.535000	0.124189	0.061426	0.128640	0.202004	6402.845596	33974.509654	3802.497897	16331.909832
94.036000	0.122823	0.060086	0.125947	0.207175	6349.994610	33512.428606	3785.095464	16172.456215
94.536500	0.125689	0.061303	0.124900	0.202877	6407.961595	33903.394165	3792.251917	16304.857301
95.036000	0.125288	0.060818	0.127419	0.202730	6405.885106	33879.262870	3798.159821	16309.400141
95.537000	0.124997	0.060586	0.128497	0.203559	6396.766084	33803.733116	3798.713174	16283.755952
