sample name	sample
index	554
start time	 03-15-2021  12:09:08 PM
880	-0.001026
Peak Time (s)	91.537
Peak Height 	-0.001026
calc peak height	90,93
Baseline Time (s)	8.539
Baseline Value 	-0.004446
subtract baseline	10,4
Abs	0.000845
Peak Time (s)	92.04
Peak Height 	8.4543E-4
calc peak height	90,93
Baseline Time (s)	10.037
Baseline Value 	0.002947
subtract baseline	10,3
PK_550	0.001775
Peak Time (s)	92.04
Peak Height 	0.001775
calc peak height	90,93
Baseline Time (s)	9.037
Baseline Value 	4.4156E-4
subtract baseline	10,2
PK_880	-0.001520
Peak Time (s)	91.037
Peak Height 	-0.00152
calc peak height	90,93
Baseline Time (s)	11.534
Baseline Value 	0.001272
subtract baseline	10,1


Time (s)	A880-A510	A880-A775	A880-A975	A880	I510	I775	I975	I880	
0.036500	-0.001194	-0.000169	-0.009572	0.005707	6087.122673	40239.329123	3727.108144	21324.864832
0.537000	-0.003038	-0.000016	-0.003315	0.007277	6061.580924	40117.621065	3737.183949	21258.119887
1.036500	-0.001037	-0.000451	0.000969	0.004213	6099.559719	40343.892747	3753.196955	21388.682357
1.538500	0.001364	-0.000032	-0.000130	0.000972	6142.386224	40661.121002	3757.914681	21527.753073
2.037000	-0.002397	-0.000185	-0.004264	0.004470	6087.378806	40344.581485	3741.205051	21377.657986
2.535000	0.001402	0.000164	-0.000272	0.001304	6140.135620	40649.295435	3756.868239	21513.455083
3.035500	0.000956	0.000266	0.000788	-0.001082	6154.980340	40866.515416	3764.501994	21616.459213
3.536000	-0.000328	-0.000420	-0.001056	0.000014	6136.783355	40710.862601	3757.988459	21569.110866
4.036000	-0.000903	-0.000617	0.000306	0.004017	6102.047138	40346.508372	3752.172374	21397.053225
4.536500	0.000165	-0.000224	-0.004692	0.000594	6136.121282	40677.380445	3748.718293	21544.059991
5.037000	-0.000673	0.000511	0.002192	0.000843	6127.839783	40719.720099	3763.344885	21533.342414
5.537000	-0.001046	-0.000040	-0.002531	0.000025	6131.230685	40743.072128	3754.710579	21568.624524
6.037000	0.001137	0.000373	0.000328	0.000301	6145.779004	40754.995181	3760.413810	21556.710338
6.537500	-0.000104	-0.000564	-0.003974	-0.000511	6142.497591	40744.034592	3752.715124	21591.754031
7.035000	0.000255	-0.000477	-0.001818	-0.000016	6141.463571	40708.544542	3756.373480	21570.407041
7.538000	0.001694	0.000176	-0.004081	0.000556	6148.094086	40715.556562	3750.139359	21545.708108
8.035500	0.000211	-0.000118	-0.001735	-0.000288	6143.207096	40763.545975	3757.155381	21582.138574
8.538500	-0.000046	-0.000045	0.006036	0.000000	6139.039543	40744.785019	3773.812578	21569.696237
9.036500	0.000440	0.000000	0.001113	0.000086	6142.098371	40741.225313	3762.630376	21566.002395
9.536500	0.001312	0.000554	-0.000396	0.000561	6145.124539	40748.051937	3758.235270	21545.471616
10.036500	-0.000139	-0.000360	0.000000	-0.000276	6140.436023	40741.384122	3760.964909	21581.623988
10.537000	0.001188	-0.000097	-0.003313	-0.000209	6150.075711	40758.489536	3753.504324	21578.720725
11.034500	-0.000490	0.000335	0.000260	-0.000097	6136.396092	40786.377560	3761.143434	21573.889083
11.534500	0.000000	0.000479	-0.004238	0.004258	6107.047669	40420.369090	3741.723530	21386.736831
12.035500	0.000168	-0.000533	-0.001836	-0.000570	6145.033134	40751.942260	3757.554569	21594.337713
12.535500	0.001219	0.000350	0.005669	0.000158	6147.501629	40765.424229	3772.634055	21562.883637
13.036000	0.002553	-0.000087	-0.002796	-0.002566	6178.701090	40965.675064	3759.845963	21680.838531
13.536000	-0.002982	0.000548	0.003492	0.004554	6082.357919	40400.705600	3758.004090	21374.079595
14.035500	0.000826	-0.000004	0.000555	0.000532	6141.637291	40701.904376	3760.402846	21546.732444
14.537500	-0.001320	0.000097	0.000511	0.002367	6111.370908	40551.121451	3756.252296	21467.782074
15.037000	0.002227	-0.000042	-0.002283	-0.000567	6160.795418	40794.526416	3756.561765	21594.211890
15.578000	-0.001316	0.001026	0.000904	0.006210	6082.436825	40299.017376	3748.674278	21303.454824
16.037500	0.002028	0.000281	0.004532	-0.000992	6162.529012	40859.959479	3772.663353	21612.600176
16.535000	0.000836	0.000737	-0.002628	-0.000851	6152.290840	40887.471658	3756.426379	21606.458764
17.038500	-0.000776	0.000494	-0.001789	-0.000921	6140.500452	40872.369615	3758.433917	21609.522685
17.535500	-0.000579	0.000473	-0.004184	0.002421	6116.570011	40579.092843	3745.836967	21465.436657
18.036000	-0.001826	0.000347	-0.001786	0.003099	6102.011366	40509.317440	3749.596746	21436.366530
18.536000	-0.001753	-0.000143	0.002658	0.001201	6116.915722	40631.609352	3763.583881	21517.903621
19.036500	0.000731	0.000797	0.000763	0.001150	6136.199298	40717.931328	3759.497505	21520.124775
19.536000	-0.000600	0.000884	0.000067	0.003282	6109.890236	40540.038474	3753.260284	21428.517710
20.037000	0.001554	0.000678	0.000807	0.001490	6139.880030	40677.866905	3758.842486	21505.464287
20.539500	-0.000507	0.000206	0.000060	0.001420	6124.712969	40642.861850	3757.347057	21508.471360
21.036500	-0.000846	0.000465	-0.000870	0.001226	6123.614916	40682.345514	3755.722611	21516.836964
21.535500	-0.004828	0.000145	0.000705	0.002912	6080.835595	40508.026354	3755.478434	21444.390779
22.035500	0.000034	0.000368	-0.001233	0.001205	6130.469054	40675.702143	3754.971213	21517.746599
22.538000	-0.000894	0.000102	0.006919	0.001317	6122.561923	40642.841287	3772.837212	21512.917546
23.036000	-0.000009	-0.000262	-0.003878	0.001191	6130.243405	40622.114552	3749.193135	21518.332872
23.535500	-0.003986	-0.000016	0.003671	0.002805	6087.960640	40503.287972	3762.273122	21448.973412
24.036000	-0.000778	0.000796	-0.003519	0.001693	6120.580990	40670.506983	3748.881566	21496.726530
24.536500	0.000760	0.000325	-0.000104	0.001421	6134.350878	40653.110373	3756.981764	21508.428405
25.037000	0.001072	0.000457	0.005741	0.001591	6135.436629	40649.903771	3769.585996	21501.133130
25.540500	-0.001583	-0.000198	-0.003669	0.002970	6104.818804	40473.199737	3745.765065	21441.888462
26.035000	-0.000380	-0.000244	0.003590	0.000986	6128.984577	40641.576386	3766.136511	21527.188248
26.538500	0.001050	0.000684	0.000540	0.001917	6132.783889	40641.234910	3757.308361	21487.111584
27.035500	0.000159	0.000850	-0.000555	0.001709	6127.586367	40673.873694	3755.354684	21496.061804
27.535500	0.000844	0.000556	0.004671	0.001782	6132.240594	40641.824880	3766.771079	21492.893775
28.036000	0.001419	0.001612	0.002530	-0.000014	6150.344691	40890.770382	3766.001641	21570.284610
28.536000	0.001144	0.002112	0.004819	0.000567	6143.802863	40883.767353	3769.816126	21545.247001
29.089500	0.001231	0.000254	0.002715	-0.000818	6155.070609	40842.310933	3768.208292	21605.041334
29.537000	-0.000508	0.001093	0.003448	-0.000278	6137.639060	40868.516425	3768.640684	21581.724637
30.037000	-0.002888	-0.000497	-0.003912	0.004753	6081.579687	40293.333485	3741.357410	21365.592948
30.537000	-0.000190	0.000643	0.001686	-0.000732	6143.535959	40868.872971	3765.724035	21601.349662
31.037500	-0.000076	0.001103	0.001033	-0.000369	6141.630868	40877.340598	3763.463144	21585.636922
31.535500	-0.000958	-0.000696	-0.001417	0.003458	6105.859346	40387.935879	3749.620037	21420.991901
32.036000	-0.000915	0.000820	-0.000745	0.005620	6089.886483	40332.209637	3746.363570	21328.608456
32.535500	0.001381	0.000202	0.005489	-0.000817	6156.211598	40837.774920	3774.418675	21605.015015
33.068500	0.000163	0.000455	0.000686	-0.000853	6147.157450	40863.048692	3763.767655	21606.568288
33.536500	-0.002438	-0.000096	0.001845	0.003453	6094.726436	40440.266883	3756.799195	21421.202043
34.037000	-0.003281	0.000761	-0.000797	0.005888	6070.133873	40303.895542	3745.663039	21317.161364
34.537000	0.001331	0.000534	0.006028	-0.000115	6150.449337	40805.389830	3774.053829	21574.674911
35.037500	0.001191	0.000583	0.005328	-0.001044	6156.496191	40890.915823	3774.566610	21614.838774
35.535000	-0.002580	0.000743	-0.000263	0.003398	6094.065697	40517.687159	3752.280339	21423.530405
36.035000	0.000155	0.000338	-0.000529	0.003735	6112.176859	40453.454545	3750.957702	21409.130628
36.535500	-0.002083	0.001041	-0.002932	0.002117	6107.489430	40654.872447	3749.238597	21478.510602
37.035500	0.000075	0.001441	-0.001153	0.002586	6120.283699	40648.903202	3752.110766	21458.384976
37.536000	-0.001837	-0.000012	-0.004065	0.003362	6099.944808	40455.389837	3744.048886	21425.098266
38.036500	-0.000230	0.001480	-0.000983	0.004635	6102.461131	40474.350196	3747.992819	21370.623695
38.537000	-0.000418	0.000396	0.004120	0.002048	6120.621356	40604.807335	3764.952565	21481.489455
39.036500	-0.000501	0.000623	-0.002624	0.002363	6117.604328	40597.145872	3749.373983	21467.940570
39.537000	-0.001016	0.000185	0.003161	0.003064	6108.391826	40498.242134	3760.566187	21437.842739
40.037500	0.000657	0.000582	0.001861	0.002420	6125.962262	40588.610478	3759.116426	21465.483010
40.537000	0.003129	0.001027	0.004428	0.002653	6143.023939	40607.006722	3764.290730	21455.483340
41.035500	0.000040	0.000593	0.009244	0.002292	6122.249809	40600.715685	3775.870313	21470.989452
41.535500	-0.000193	0.000379	0.006705	0.002203	6121.154375	40589.926906	3770.374817	21474.831142
42.036000	0.000445	0.000262	0.001551	0.002134	6126.526407	40585.697139	3759.062186	21477.780544
42.536500	-0.000332	0.000451	0.010322	0.002223	6119.944510	40594.331814	3778.455321	21473.951974
43.036500	0.001861	0.000167	0.001860	0.002253	6136.403799	40567.133407	3759.483819	21472.675230
43.536500	-0.000838	0.000287	-0.001206	0.003486	6106.545333	40470.495835	3750.018622	21419.758927
44.037000	0.001251	0.000577	-0.002440	0.002519	6129.731435	40579.626563	3749.435212	21461.264325
44.537000	0.001664	0.000625	-0.002426	0.002534	6132.756517	40582.444027	3749.431236	21460.578908
45.035000	-0.000447	0.000449	0.002924	0.002138	6119.723012	40601.640796	3762.095355	21477.616304
45.535000	-0.000505	0.000030	-0.002855	0.003913	6105.835383	40411.300928	3745.483017	21401.482296
46.035500	0.000473	0.000877	0.001284	0.000023	6142.825218	40823.218132	3763.149388	21568.684533
46.557000	0.002003	0.001086	0.008278	0.000330	6152.188367	40814.707695	3778.115642	21555.464877
47.036000	0.000211	0.000827	0.005063	-0.000221	6142.693050	40840.201543	3772.124958	21579.233661
47.536500	-0.002339	0.000551	-0.000894	0.004107	6090.548507	40439.634121	3749.342499	21393.201521
48.036500	-0.002302	0.000742	0.002143	0.003771	6093.360440	40485.311316	3756.756591	21407.593898
48.536500	0.002095	0.001200	-0.001784	0.000184	6154.016578	40837.498594	3756.006466	21561.756514
49.037000	0.000029	0.000289	0.002020	0.001549	6127.813745	40638.934228	3761.397526	21502.945335
49.537500	-0.000618	0.001406	0.003497	0.005342	6094.204831	40406.737009	3756.274536	21340.426263
50.037500	-0.001834	0.000303	0.001990	0.003943	6095.591034	40432.393675	3756.040429	21400.229891
50.535000	0.001471	0.001225	0.006217	-0.000190	6152.099333	40872.444432	3774.645725	21577.921241
51.036000	0.002417	0.000797	0.001897	-0.000230	6159.663619	40838.427623	3765.074818	21579.641465
51.535500	-0.000083	0.000365	-0.000593	0.004510	6104.514250	40388.658217	3749.119357	21375.959514
52.036500	-0.002447	0.000513	0.000645	0.005155	6081.865762	40345.730773	3750.417878	21348.410201
52.536500	0.001824	0.000921	0.005607	0.003973	6123.026560	40483.271122	3763.978404	21398.934527
53.036500	0.017177	-0.008422	0.017723	0.213871	4931.927718	25566.420204	3410.869110	14277.337497
53.537000	-0.014566	-0.025286	-0.001844	-0.056359	6474.270652	43559.532644	3888.968273	24168.158209
54.037000	-0.019806	-0.029922	-0.007963	-0.174716	7560.285671	55745.025934	4210.493863	30856.971105
54.537000	0.000310	-0.025888	0.017940	-0.152954	7542.359099	53629.307262	4224.018860	29486.554948
55.035000	-0.014506	-0.023100	0.003529	-0.103477	6893.134955	48453.633111	4029.038095	26614.953353
55.535500	-0.024236	-0.021911	-0.008856	-0.134115	7093.803529	51920.983423	4081.847358	28354.376399
56.035500	-0.016287	-0.020994	-0.009335	-0.197747	7858.836243	59784.159791	4282.684247	32384.034543
56.536000	0.001311	-0.026701	0.000214	-0.224346	8398.188787	62589.839511	4411.489876	34251.495059
57.036000	0.004095	-0.020359	0.000443	-0.212819	8287.095562	61880.935737	4370.077110	33428.187611
57.536500	0.003407	-0.013087	0.002674	-0.184588	7935.180898	59099.817906	4278.762934	31501.655664
58.037000	0.000939	-0.008719	-0.001712	-0.150176	7519.073538	55340.162882	4152.276189	29316.517942
58.537000	0.002554	-0.008439	-0.001796	-0.124904	7270.171494	52404.856284	4075.511503	27818.507008
59.037000	0.004566	-0.005816	0.002167	-0.096623	7009.221150	49562.038810	4005.979682	26242.309964
59.537500	0.002706	-0.004636	-0.001682	-0.078895	6824.655927	47815.665674	3947.464175	25305.319373
60.035500	0.000742	-0.006516	0.001461	-0.079193	6809.338961	47652.176548	3956.602707	25320.758526
60.535500	0.003679	-0.004407	-0.003752	-0.046904	6548.902465	44644.569431	3860.811832	23708.378758
61.036000	-0.000463	-0.004264	-0.003543	-0.025565	6336.654427	42653.806473	3810.372474	22706.692497
61.536000	-0.001437	-0.005403	-0.004535	-0.015633	6249.546437	41651.980275	3785.244002	22257.006154
62.036500	-0.004596	-0.005155	-0.003979	-0.004795	6140.915482	40717.293586	3762.162523	21777.890547
62.537000	-0.007616	-0.005493	-0.002573	0.000661	6076.807670	40215.431307	3753.219574	21541.169422
63.037000	-0.008162	-0.005730	-0.002167	0.005655	6035.579133	39768.166345	3743.188766	21327.111404
63.534500	-0.003846	-0.004591	-0.003745	0.003167	6086.285496	40077.704207	3745.167541	21433.425004
64.038000	-0.003177	-0.003777	-0.004717	-0.007438	6172.080506	41069.571464	3766.397524	21893.640953
64.560000	-0.005453	-0.004804	-0.007240	-0.013537	6201.675922	41518.463752	3774.396814	22163.399542
65.038000	-0.006322	-0.003755	-0.003008	-0.011848	6181.848557	41461.563300	3780.129653	22088.336704
65.542500	-0.005276	-0.002900	-0.006715	-0.016077	6222.873679	41916.104817	3781.308263	22276.882441
66.036000	-0.005990	-0.002537	-0.003717	-0.016952	6224.133545	42027.663065	3790.109284	22316.131011
66.538500	-0.006868	-0.002101	-0.001460	-0.017861	6224.373523	42149.224783	3797.364613	22356.982398
67.036500	-0.002042	-0.001674	-0.000040	-0.017387	6258.623708	42145.000620	3799.543085	22335.697348
67.537000	-0.007978	-0.002309	-0.001707	-0.012244	6172.121910	41625.618721	3783.970131	22105.912002
68.036500	-0.005405	-0.001292	-0.001448	-0.016847	6227.899853	42130.715031	3795.062409	22311.436387
68.537000	-0.005009	-0.001572	-0.001073	-0.017177	6233.593189	42135.144220	3796.681588	22326.238974
69.037500	-0.003216	-0.001034	-0.004919	-0.016210	6240.083631	42096.411038	3785.682626	22282.874019
69.535000	-0.007061	-0.001937	-0.005793	-0.011392	6172.614562	41582.775395	3772.831273	22068.093435
70.035500	-0.003684	-0.001512	-0.004481	-0.014658	6224.230534	41913.343640	3783.155094	22213.416798
70.536000	-0.002418	-0.000914	-0.005863	-0.015580	6241.399477	42050.271057	3782.110149	22254.618958
71.035500	-0.001842	-0.001760	0.002900	-0.015726	6247.089058	41987.221111	3802.492492	22261.168563
71.536000	-0.006609	-0.001557	-0.008359	-0.010494	6169.179341	41536.606558	3765.091566	22028.318542
72.036500	-0.001993	-0.000236	0.001037	-0.013232	6226.308258	41899.946320	3792.474456	22149.839858
72.537000	-0.002539	-0.000705	-0.003075	-0.014340	6230.714405	41957.407646	3785.623273	22199.235464
73.037000	-0.003726	-0.000499	-0.001899	-0.014284	6220.969527	41970.839902	3788.171617	22196.707248
73.540000	-0.005400	0.000100	-0.007523	-0.007817	6157.897514	41445.899705	3761.004587	21910.283964
74.035000	-0.005004	-0.000302	0.001078	-0.012230	6195.011463	41803.956177	3790.276310	22105.264728
74.535500	-0.001268	0.000026	0.000582	-0.013350	6232.912637	41934.082057	3791.702781	22155.084864
75.035500	-0.003161	-0.000038	-0.002882	-0.012987	6215.258207	41895.693940	3782.990926	22138.943210
75.536000	-0.005405	-0.000915	-0.008106	-0.007471	6155.203765	41325.125583	3758.948506	21895.094509
76.036000	-0.004592	0.000508	0.001110	-0.011866	6195.380741	41843.965870	3789.518749	22089.106043
76.536000	-0.002059	0.001416	-0.003031	-0.011453	6211.885635	41888.424473	3779.184342	22070.799998
77.036000	-0.003608	0.000423	-0.007061	-0.011920	6203.449142	41841.207733	3771.173243	22091.507803
77.537000	-0.008186	-0.000592	-0.009824	-0.006723	6128.247995	41287.540261	3753.511382	21862.255968
78.036500	-0.006974	0.000041	-0.003977	-0.011231	6172.049181	41745.179229	3776.549964	22060.955151
78.537000	-0.004607	-0.000109	-0.006193	-0.011739	6194.284714	41777.276329	3772.711070	22083.473181
79.035000	-0.002610	0.000577	-0.007798	-0.011016	6204.189626	41774.021258	3767.505505	22051.454968
79.535500	-0.002105	0.000958	-0.001487	-0.010579	6204.717605	41768.912194	3780.697656	22032.092517
80.035500	-0.005918	0.000328	-0.003366	-0.010152	6171.870322	41674.280905	3775.497136	22013.194273
80.536000	-0.002234	0.001321	-0.000702	-0.009993	6199.151199	41748.968679	3781.147624	22006.189725
81.036000	-0.003381	0.000751	0.000074	-0.010088	6190.990603	41706.428963	3783.120528	22010.379807
81.536500	-0.006840	0.000409	-0.004839	-0.004069	6118.310721	41141.501522	3758.649331	21746.221481
82.037000	-0.003616	0.000459	-0.006171	-0.009473	6184.404802	41625.333221	3767.693187	21983.219890
82.537000	-0.004298	0.000492	0.000731	-0.009828	6181.873261	41660.059020	3784.020241	21998.901285
83.037500	-0.002092	0.001106	0.004464	-0.009469	6196.185358	41682.852225	3791.706602	21983.058477
83.535000	-0.003978	0.001539	-0.004762	-0.008941	6177.494635	41674.277738	3769.651064	21959.753931
84.035500	-0.003738	0.000167	-0.005663	-0.009085	6180.460970	41564.711838	3767.960654	21966.114061
84.535500	-0.005613	0.000332	-0.004722	-0.009440	6168.735504	41611.084363	3770.858076	21981.771055
85.036000	-0.002457	0.001266	-0.001914	-0.008200	6183.524640	41583.751282	3774.372611	21927.120239
85.536000	-0.008513	0.000358	-0.010330	-0.002779	6095.908286	41023.382870	3743.777735	21690.061552
86.036500	-0.001992	0.001022	0.000856	-0.008094	6186.303717	41552.562630	3780.377067	21922.468752
86.537000	-0.003280	0.000605	-0.006576	-0.008529	6179.706454	41554.198671	3764.687731	21941.631349
87.037000	-0.004979	0.001201	-0.001916	-0.007887	6161.660560	41550.032002	3773.665246	21913.344394
87.537500	-0.007601	0.000589	-0.004280	-0.001697	6094.630287	40948.666787	3754.650624	21643.104727
88.035000	-0.003058	0.000923	-0.001786	-0.007431	6172.947872	41484.772525	3772.934435	21893.329047
88.534500	-0.003229	0.000868	-0.004595	-0.007978	6175.842268	41528.545941	3767.872520	21917.357755
89.034500	-0.004688	0.001031	-0.002938	-0.007286	6159.288016	41481.472428	3770.029440	21886.968198
89.535500	-0.006128	0.000363	-0.006974	-0.002414	6111.158205	40991.740571	3750.307882	21674.208578
90.052500	-0.003157	0.000163	-0.005461	-0.007040	6169.166396	41382.488013	3763.857666	21876.170305
90.536000	-0.003363	0.000876	-0.000835	-0.006924	6166.682682	41435.477395	3773.929563	21871.054642
91.036500	-0.001520	0.001311	-0.002041	-0.006753	6179.578387	41458.964392	3770.843565	21863.563393
91.536500	-0.007981	0.000983	-0.004137	-0.001026	6086.728591	40924.444085	3753.489520	21614.070215
92.040000	-0.002010	0.001775	0.000845	-0.005642	6167.233191	41401.499624	3774.826573	21814.911227
92.540000	-0.002863	0.001475	0.000413	-0.005386	6158.708850	41352.149728	3773.279967	21803.707814
93.043000	-0.001876	-0.000038	-0.002972	-0.006633	6175.905214	41328.576560	3768.492215	21858.286950
93.535000	-0.005576	0.001525	-0.004259	-0.000145	6098.187251	40894.644225	3751.285056	21575.943889
94.035500	-0.004276	0.000973	-0.003520	-0.005672	6150.068547	41332.998479	3765.129282	21816.207432
94.535500	-0.004301	0.001181	-0.001814	-0.005833	6151.110324	41365.748629	3769.294412	21823.269760
95.036500	-0.004789	0.001200	0.000417	-0.005120	6141.914077	41304.210357	3772.690551	21792.062311
95.536500	-0.004942	0.000727	-0.000446	-0.004830	6138.536812	41236.715732	3770.108623	21779.396925
96.064000	-0.004355	0.001875	-0.006272	-0.004655	6141.686699	41322.868902	3756.779433	21771.790737
96.567000	-0.002319	0.001058	-0.001614	-0.005464	6163.486993	41322.138727	3768.915588	21807.120674
97.040000	-0.003225	0.000809	-0.002645	-0.005281	6155.118239	41283.823834	3766.207966	21799.101030
97.534500	-0.004097	0.001016	-0.001990	-0.004313	6141.044587	41216.572045	3765.511187	21756.852996
98.035000	-0.004554	0.000976	-0.006197	-0.004933	6142.293139	41267.912495	3757.560284	21783.931578
98.535500	-0.002197	0.001062	-0.003723	-0.004806	6159.362227	41264.162175	3762.752542	21778.348584
99.035500	-0.003889	0.001685	-0.001538	-0.004408	6143.363820	41284.147054	3766.730885	21761.017872
