sample name	sample
index	811
start time	 03-31-2021  03:21:26 PM


Wavelength (nm)	Absorbance
494.344910	0.332179
494.563924	0.332179
494.782919	0.332179
495.001897	-0.678144
495.220856	-0.158787
495.439797	-0.061218
495.658719	0.720521
495.877624	NaN
496.096510	NaN
496.315378	0.151615
496.534227	1.162700
496.753059	NaN
496.971872	1.505359
497.190667	0.043346
497.409444	0.034577
497.628203	0.030924
497.846943	0.031156
498.065665	0.030727
498.284369	0.031500
498.503055	0.030732
498.721723	0.031332
498.940372	0.031160
499.159003	0.032388
499.377616	0.032112
499.596210	0.031992
499.814787	0.031577
500.033345	0.031788
500.251885	0.031234
500.470406	0.031442
500.688910	0.031047
500.907395	0.030580
501.125862	0.029781
501.344311	0.030549
501.562742	0.030233
501.781154	0.030497
501.999548	0.029690
502.217924	0.029613
502.436282	0.029791
502.654621	0.030021
502.872942	0.030329
503.091245	0.030147
503.309530	0.028862
503.527797	0.029637
503.746045	0.028600
503.964275	0.029168
504.182487	0.028528
504.400681	0.028886
504.618856	0.028907
504.837013	0.028029
505.055152	0.027424
505.273273	0.027799
505.491376	0.027569
505.709460	0.028166
505.927526	0.027160
506.145574	0.028671
506.363604	0.028237
506.581615	0.028205
506.799608	0.028494
507.017583	0.028777
507.235540	0.028994
507.453478	0.028876
507.671399	0.028524
507.889301	0.028826
508.107185	0.028210
508.325050	0.027497
508.542898	0.027593
508.760727	0.027955
508.978538	0.027505
509.196330	0.027293
509.414105	0.026687
509.631861	0.026625
509.849599	0.026768
510.067319	0.026361
510.285021	0.026786
510.502704	0.026416
510.720369	0.026014
510.938016	0.026660
511.155645	0.026628
511.373255	0.026694
511.590848	0.026343
511.808422	0.026330
512.025977	0.027328
512.243515	0.027942
512.461034	0.028520
512.678536	0.028738
512.896018	0.028252
513.113483	0.027808
513.330930	0.028016
513.548358	0.028301
513.765768	0.028108
513.983160	0.027536
514.200533	0.026630
514.417889	0.025349
514.635226	0.025011
514.852545	0.025516
515.069845	0.025379
515.287128	0.025162
515.504392	0.025279
515.721638	0.025286
515.938866	0.024783
516.156075	0.025263
516.373267	0.025361
516.590440	0.025759
516.807594	0.025123
517.024731	0.025970
517.241850	0.025765
517.458950	0.026078
517.676032	0.026773
517.893095	0.026497
518.110141	0.025904
518.327168	0.025926
518.544177	0.025775
518.761168	0.027038
518.978141	0.027145
519.195095	0.027322
519.412031	0.027153
519.628949	0.026295
519.845849	0.026276
520.062731	0.026351
520.279594	0.027528
520.496439	0.027564
520.713266	0.026291
520.930074	0.025552
521.146865	0.025340
521.363637	0.025076
521.580391	0.025131
521.797127	0.025725
522.013844	0.026228
522.230543	0.025162
522.447224	0.025187
522.663887	0.025158
522.880532	0.025793
523.097158	0.025530
523.313766	0.025447
523.530356	0.025617
523.746928	0.025383
523.963481	0.024711
524.180017	0.024653
524.396534	0.025181
524.613032	0.025071
524.829513	0.024949
525.045975	0.025522
525.262420	0.025687
525.478845	0.025552
525.695253	0.025861
525.911643	0.026149
526.128014	0.026740
526.344367	0.026141
526.560702	0.025602
526.777018	0.025236
526.993316	0.025346
527.209597	0.025445
527.425858	0.026135
527.642102	0.026178
527.858328	0.026758
528.074535	0.026200
528.290724	0.026166
528.506894	0.026914
528.723047	0.026939
528.939181	0.026496
529.155297	0.026262
529.371395	0.025056
529.587475	0.024683
529.803536	0.024223
530.019579	0.025008
530.235604	0.025549
530.451611	0.025470
530.667600	0.025757
530.883570	0.025927
531.099522	0.026537
531.315456	0.027378
531.531372	0.027683
531.747269	0.027608
531.963148	0.026867
532.179009	0.026179
532.394852	0.026416
532.610676	0.026582
532.826482	0.026983
533.042271	0.026717
533.258040	0.026148
533.473792	0.026606
533.689525	0.026627
533.905240	0.027373
534.120937	0.027526
534.336616	0.027396
534.552277	0.027237
534.767919	0.027170
534.983543	0.026957
535.199149	0.027429
535.414736	0.026896
535.630306	0.027095
535.845857	0.026867
536.061390	0.026948
536.276904	0.026897
536.492401	0.026855
536.707879	0.027113
536.923339	0.027677
537.138781	0.027760
537.354204	0.028131
537.569610	0.027524
537.784997	0.026852
538.000366	0.027128
538.215716	0.027262
538.431049	0.027602
538.646363	0.027347
538.861659	0.027206
539.076937	0.026712
539.292196	0.026391
539.507438	0.026945
539.722661	0.027545
539.937866	0.027432
540.153052	0.027509
540.368221	0.027434
540.583371	0.027536
540.798503	0.027336
541.013617	0.027447
541.228712	0.027561
541.443789	0.027582
541.658848	0.027171
541.873889	0.027341
542.088912	0.026973
542.303916	0.026904
542.518902	0.027032
542.733870	0.026968
542.948820	0.027561
543.163752	0.027636
543.378665	0.027580
543.593560	0.027684
543.808437	0.027422
544.023295	0.027868
544.238136	0.027975
544.452958	0.027806
544.667762	0.027887
544.882548	0.027919
545.097315	0.028233
545.312064	0.028185
545.526795	0.028779
545.741508	0.028929
545.956203	0.028820
546.170879	0.028576
546.385537	0.028297
546.600177	0.028562
546.814799	0.028290
547.029402	0.027605
547.243988	0.028104
547.458555	0.027685
547.673103	0.028014
547.887634	0.028073
548.102146	0.027891
548.316640	0.028262
548.531116	0.028067
548.745574	0.028023
548.960013	0.028086
549.174435	0.027579
549.388838	0.027579
549.603222	0.027511
549.817589	0.027736
550.031937	0.028091
550.246267	0.028094
550.460579	0.028076
550.674873	0.028113
550.889148	0.028379
551.103405	0.028533
551.317644	0.028948
551.531865	0.028798
551.746068	0.028945
551.960252	0.028876
552.174418	0.028764
552.388566	0.028795
552.602696	0.028950
552.816807	0.029082
553.030900	0.029090
553.244975	0.029024
553.459032	0.029058
553.673070	0.029112
553.887091	0.029361
554.101093	0.029588
554.315077	0.029473
554.529042	0.029498
554.742990	0.029498
554.956919	0.029474
555.170830	0.029236
555.384722	0.028985
555.598597	0.028790
555.812453	0.028374
556.026291	0.027974
556.240111	0.027958
556.453913	0.028009
556.667696	0.027807
556.881461	0.027869
557.095208	0.028368
557.308937	0.029082
557.522647	0.029007
557.736339	0.029409
557.950013	0.029721
558.163669	0.029957
558.377307	0.029462
558.590926	0.029559
558.804527	0.029494
559.018110	0.029017
559.231675	0.028587
559.445221	0.028316
559.658749	0.028321
559.872259	0.028163
560.085751	0.028209
560.299225	0.028436
560.512680	0.028541
560.726117	0.028957
560.939536	0.029050
561.152937	0.029005
561.366319	0.029365
561.579683	0.029173
561.793029	0.029434
562.006357	0.029323
562.219667	0.029641
562.432958	0.029564
562.646231	0.029043
562.859486	0.028982
563.072723	0.028801
563.285941	0.028896
563.499141	0.029032
563.712323	0.029071
563.925487	0.029252
564.138632	0.029355
564.351760	0.029591
564.564869	0.029978
564.777960	0.030170
564.991032	0.030474
565.204087	0.030352
565.417123	0.030364
565.630141	0.030449
565.843140	0.030680
566.056122	0.030444
566.269085	0.030464
566.482030	0.030539
566.694957	0.030557
566.907866	0.030574
567.120756	0.030724
567.333628	0.030682
567.546482	0.030479
567.759318	0.029894
567.972135	0.030369
568.184935	0.030172
568.397716	0.030058
568.610478	0.030179
568.823223	0.030358
569.035949	0.030196
569.248657	0.030241
569.461347	0.029949
569.674019	0.030454
569.886672	0.030041
570.099308	0.030022
570.311925	0.030013
570.524523	0.029956
570.737104	0.029808
570.949666	0.030026
571.162210	0.030494
571.374736	0.031051
571.587244	0.030961
571.799733	0.031008
572.012205	0.031382
572.224658	0.031006
572.437092	0.031012
572.649509	0.031206
572.861907	0.031334
573.074287	0.031014
573.286649	0.030870
573.498993	0.030937
573.711318	0.031116
573.923625	0.030844
574.135914	0.031439
574.348185	0.031437
574.560438	0.031435
574.772672	0.031238
574.984888	0.031312
575.197086	0.031609
575.409266	0.031997
575.621427	0.031784
575.833570	0.031973
576.045695	0.031915
576.257802	0.031878
576.469890	0.031548
576.681961	0.031787
576.894013	0.031899
577.106046	0.031578
577.318062	0.030912
577.530059	0.031160
577.742039	0.031313
577.954000	0.031482
578.165942	0.031626
578.377867	0.032040
578.589773	0.032012
578.801661	0.031793
579.013531	0.032222
579.225382	0.032233
579.437216	0.032269
579.649031	0.031929
579.860828	0.031475
580.072606	0.031645
580.284367	0.031596
580.496109	0.031406
580.707833	0.031601
580.919539	0.031469
581.131227	0.031813
581.342896	0.031861
581.554547	0.031983
581.766180	0.032598
581.977795	0.032758
582.189391	0.032925
582.400969	0.033196
582.612529	0.033144
582.824071	0.033329
583.035595	0.033488
583.247100	0.033918
583.458587	0.033995
583.670056	0.033818
583.881506	0.033630
584.092939	0.033153
584.304353	0.033124
584.515749	0.033092
584.727127	0.032862
584.938486	0.032934
585.149828	0.032413
585.361151	0.032213
585.572456	0.032435
585.783742	0.032371
585.995011	0.032805
586.206261	0.032880
586.417493	0.033058
586.628706	0.033099
586.839902	0.032883
587.051079	0.033053
587.262238	0.033385
587.473379	0.033146
587.684502	0.033206
587.895606	0.033527
588.106692	0.033621
588.317760	0.033420
588.528810	0.033394
588.739841	0.033277
588.950855	0.033090
589.161850	0.032859
589.372827	0.032952
589.583785	0.033039
589.794726	0.032712
590.005648	0.032786
590.216552	0.033003
590.427437	0.033257
590.638305	0.033534
590.849154	0.033506
591.059985	0.033815
591.270798	0.033923
591.481592	0.033692
591.692369	0.033627
591.903127	0.033609
592.113867	0.033727
592.324588	0.033449
592.535292	0.033220
592.745977	0.033556
592.956644	0.033855
593.167293	0.033678
593.377923	0.034054
593.588536	0.034390
593.799130	0.034348
594.009706	0.033969
594.220263	0.034501
594.430803	0.034671
594.641324	0.034612
594.851827	0.034296
595.062312	0.034532
595.272778	0.034472
595.483227	0.034412
595.693657	0.034221
595.904069	0.034392
596.114462	0.034154
596.324838	0.034334
596.535195	0.034519
596.745534	0.034682
596.955855	0.034476
597.166157	0.034439
597.376441	0.034186
597.586707	0.034375
597.796955	0.034607
598.007185	0.034759
598.217396	0.035002
598.427589	0.034834
598.637764	0.034930
598.847921	0.035236
599.058060	0.035490
599.268180	0.035790
599.478282	0.035768
599.688366	0.035634
599.898431	0.035587
600.108479	0.035594
600.318508	0.035800
600.528519	0.035634
600.738511	0.035445
600.948486	0.035325
601.158442	0.035356
601.368380	0.035636
601.578300	0.035887
601.788202	0.035982
601.998085	0.035828
602.207950	0.035639
602.417797	0.035761
602.627626	0.035741
602.837436	0.035646
603.047228	0.035726
603.257002	0.035587
603.466758	0.035457
603.676496	0.035394
603.886215	0.035685
604.095916	0.035937
604.305599	0.036014
604.515264	0.036075
604.724910	0.036333
604.934538	0.036508
605.144148	0.036480
605.353740	0.036628
605.563314	0.036726
605.772869	0.036478
605.982406	0.036488
606.191925	0.036403
606.401425	0.036752
606.610908	0.036742
606.820372	0.036528
607.029818	0.036316
607.239246	0.036406
607.448655	0.036554
607.658047	0.036402
607.867420	0.036159
608.076775	0.036071
608.286111	0.035935
608.495430	0.035807
608.704730	0.035917
608.914012	0.036375
609.123275	0.036375
609.332521	0.036353
609.541748	0.036611
609.750957	0.037090
609.960148	0.037353
610.169321	0.037340
610.378475	0.037422
610.587611	0.037673
610.796729	0.037680
611.005829	0.037686
611.214910	0.037354
611.423974	0.037439
611.633019	0.037407
611.842045	0.037492
612.051054	0.037578
612.260044	0.037703
612.469017	0.037341
612.677970	0.037237
612.886906	0.037408
613.095824	0.037682
613.304723	0.037638
613.513604	0.037506
613.722467	0.037539
613.931311	0.037716
614.140138	0.037681
614.348946	0.037724
614.557736	0.037726
614.766507	0.037595
614.975261	0.037886
615.183996	0.038006
615.392713	0.038036
615.601412	0.037937
615.810092	0.037820
616.018754	0.037764
616.227399	0.037957
616.436024	0.037949
616.644632	0.038087
616.853222	0.037978
617.061793	0.037972
617.270346	0.038030
617.478880	0.038298
617.687397	0.038088
617.895895	0.038181
618.104375	0.038066
618.312837	0.038059
618.521281	0.038245
618.729706	0.038222
618.938113	0.038268
619.146502	0.038394
619.354873	0.038279
619.563226	0.038669
619.771560	0.038768
619.979876	0.039000
620.188174	0.039326
620.396453	0.039198
620.604715	0.039048
620.812958	0.039117
621.021183	0.039236
621.229390	0.038959
621.437578	0.038982
621.645748	0.039330
621.853900	0.039190
622.062034	0.039138
622.270150	0.039135
622.478247	0.039177
622.686326	0.039164
622.894387	0.038850
623.102430	0.039060
623.310454	0.039085
623.518461	0.038652
623.726449	0.038909
623.934418	0.038639
624.142370	0.038437
624.350303	0.038618
624.558218	0.038623
624.766115	0.038784
624.973994	0.038874
625.181855	0.038882
625.389697	0.039070
625.597521	0.038968
625.805327	0.039461
626.013114	0.039931
626.220883	0.039839
626.428634	0.039822
626.636367	0.040101
626.844082	0.039951
627.051778	0.039639
627.259457	0.039450
627.467117	0.039577
627.674758	0.039410
627.882382	0.039308
628.089987	0.039427
628.297574	0.039667
628.505143	0.039530
628.712694	0.039801
628.920226	0.040327
629.127740	0.040671
629.335236	0.040594
629.542714	0.040763
629.750174	0.040753
629.957615	0.040958
630.165038	0.040892
630.372443	0.041035
630.579829	0.041203
630.787198	0.040984
630.994548	0.040904
631.201880	0.041089
631.409194	0.041019
631.616489	0.041012
631.823766	0.040588
632.031025	0.040618
632.238266	0.040544
632.445489	0.040425
632.652693	0.040647
632.859879	0.040649
633.067047	0.040717
633.274197	0.040744
633.481329	0.040691
633.688442	0.041131
633.895537	0.041156
634.102614	0.041148
634.309672	0.041090
634.516713	0.040940
634.723735	0.041056
634.930739	0.040847
635.137724	0.040937
635.344692	0.041058
635.551641	0.041021
635.758572	0.041051
635.965485	0.041010
636.172379	0.041049
636.379256	0.040991
636.586114	0.040951
636.792954	0.041228
636.999775	0.041165
637.206579	0.041003
637.413364	0.040940
637.620131	0.041007
637.826880	0.041030
638.033610	0.041052
638.240323	0.041287
638.447017	0.041641
638.653692	0.041484
638.860350	0.041463
639.066990	0.041735
639.273611	0.041636
639.480214	0.041422
639.686798	0.041583
639.893365	0.041581
640.099913	0.041543
640.306443	0.041215
640.512955	0.041190
640.719449	0.041426
640.925924	0.041421
641.132381	0.041404
641.338820	0.041513
641.545241	0.041457
641.751644	0.041675
641.958028	0.041772
642.164394	0.041921
642.370742	0.041974
642.577071	0.041970
642.783383	0.041997
642.989676	0.042251
643.195951	0.042350
643.402207	0.042474
643.608446	0.042479
643.814666	0.042417
644.020868	0.042441
644.227052	0.042479
644.433218	0.042340
644.639365	0.042454
644.845494	0.042484
645.051605	0.042516
645.257698	0.042549
645.463772	0.042430
645.669828	0.042389
645.875866	0.042158
646.081886	0.042196
646.287888	0.042294
646.493871	0.042313
646.699836	0.042507
646.905783	0.042577
647.111712	0.042506
647.317622	0.042804
647.523514	0.043044
647.729388	0.043375
647.935244	0.043426
648.141082	0.043570
648.346901	0.043438
648.552702	0.043195
648.758485	0.043128
648.964250	0.043351
649.169996	0.043237
649.375724	0.043286
649.581434	0.043342
649.787126	0.043347
649.992800	0.043336
650.198455	0.043352
650.404092	0.043491
650.609711	0.043532
650.815311	0.043576
651.020894	0.043556
651.226458	0.043361
651.432004	0.043296
651.637532	0.043486
651.843041	0.043689
652.048532	0.043880
652.254006	0.043914
652.459460	0.044078
652.664897	0.043905
652.870315	0.043946
653.075716	0.043906
653.281097	0.043920
653.486461	0.043816
653.691807	0.043666
653.897134	0.043773
654.102443	0.043872
654.307734	0.043836
654.513006	0.044003
654.718261	0.044074
654.923497	0.044256
655.128715	0.044363
655.333915	0.044546
655.539096	0.044735
655.744259	0.044532
655.949404	0.044605
656.154531	0.044735
656.359640	0.044601
656.564730	0.044718
656.769802	0.044890
656.974856	0.044941
657.179892	0.045032
657.384909	0.044888
657.589908	0.044979
657.794889	0.044931
657.999852	0.044772
658.204797	0.044961
658.409723	0.044981
658.614631	0.045127
658.819521	0.045065
659.024393	0.044827
659.229246	0.044933
659.434081	0.044971
659.638898	0.045048
659.843697	0.045298
660.048478	0.045349
660.253240	0.045446
660.457984	0.045325
660.662710	0.045352
660.867417	0.045385
661.072107	0.045231
661.276778	0.045260
661.481431	0.045450
661.686066	0.045496
661.890682	0.045639
662.095281	0.045601
662.299861	0.045685
662.504422	0.046008
662.708966	0.046296
662.913491	0.046435
663.117999	0.046668
663.322488	0.046436
663.526958	0.046397
663.731411	0.046432
663.935845	0.046501
664.140261	0.046444
664.344659	0.046314
664.549038	0.046150
664.753400	0.046550
664.957743	0.046733
665.162068	0.047039
665.366375	0.047052
665.570663	0.047003
665.774933	0.046973
665.979185	0.047218
666.183419	0.047569
666.387635	0.047697
666.591832	0.047637
666.796011	0.047556
667.000172	0.047461
667.204315	0.047556
667.408439	0.047703
667.612545	0.047967
667.816634	0.047843
668.020703	0.047624
668.224755	0.047739
668.428788	0.047639
668.632803	0.047475
668.836800	0.047476
669.040779	0.047482
669.244739	0.047462
669.448681	0.047319
669.652605	0.047276
669.856511	0.047305
670.060399	0.047359
670.264268	0.047216
670.468119	0.047454
670.671952	0.047461
670.875767	0.047634
671.079563	0.047737
671.283341	0.047846
671.487101	0.047923
671.690843	0.047913
671.894567	0.047864
672.098272	0.048019
672.301959	0.048120
672.505628	0.048251
672.709278	0.048380
672.912911	0.048338
673.116525	0.048464
673.320121	0.048659
673.523699	0.048629
673.727258	0.048744
673.930799	0.048754
674.134322	0.048727
674.337827	0.048804
674.541314	0.048613
674.744782	0.048706
674.948232	0.048461
675.151664	0.048381
675.355078	0.048499
675.558474	0.048563
675.761851	0.048593
675.965210	0.048670
676.168551	0.048690
676.371873	0.048690
676.575178	0.048424
676.778464	0.048611
676.981732	0.048678
677.184981	0.048783
677.388213	0.048895
677.591426	0.048976
677.794621	0.048856
677.997798	0.048764
678.200956	0.048902
678.404097	0.049088
678.607219	0.049174
678.810323	0.049104
679.013408	0.049196
679.216476	0.049227
679.419525	0.049424
679.622556	0.049579
679.825569	0.049824
680.028563	0.049877
680.231540	0.050125
680.434498	0.050167
680.637438	0.050365
680.840359	0.050226
681.043263	0.050222
681.246148	0.050175
681.449015	0.050121
681.651864	0.050012
681.854694	0.050335
682.057506	0.050221
682.260301	0.050160
682.463076	0.050162
682.665834	0.050223
682.868573	0.050186
683.071295	0.050049
683.273998	0.050205
683.476682	0.050395
683.679349	0.050016
683.881997	0.050005
684.084627	0.050349
684.287239	0.050382
684.489833	0.050561
684.692408	0.050808
684.894965	0.050934
685.097504	0.050950
685.300025	0.050845
685.502527	0.051075
685.705012	0.050973
685.907478	0.050679
686.109925	0.050741
686.312355	0.050632
686.514766	0.050412
686.717159	0.050509
686.919534	0.050280
687.121891	0.050357
687.324230	0.050327
687.526550	0.050514
687.728852	0.050509
687.931136	0.050551
688.133401	0.050634
688.335649	0.050699
688.537878	0.050764
688.740089	0.051033
688.942281	0.051105
689.144456	0.051055
689.346612	0.051053
689.548750	0.051274
689.750870	0.051468
689.952971	0.051447
690.155055	0.051567
690.357120	0.051659
690.559167	0.051748
690.761195	0.051759
690.963206	0.051941
691.165198	0.052032
691.367172	0.052052
691.569128	0.052082
691.771065	0.052217
691.972984	0.052393
692.174885	0.052358
692.376768	0.052391
692.578633	0.052453
692.780479	0.052505
692.982308	0.052648
693.184118	0.052629
693.385909	0.052485
693.587683	0.052448
693.789438	0.052303
693.991175	0.052365
694.192894	0.052166
694.394595	0.052150
694.596277	0.051948
694.797941	0.052037
694.999587	0.052181
695.201215	0.052256
695.402824	0.052366
695.604416	0.052408
695.805989	0.052589
696.007543	0.052898
696.209080	0.052919
696.410598	0.053121
696.612099	0.053079
696.813580	0.053031
697.015044	0.053063
697.216490	0.053218
697.417917	0.053302
697.619326	0.053193
697.820717	0.053060
698.022089	0.053074
698.223444	0.053111
698.424780	0.053019
698.626098	0.053002
698.827397	0.052951
699.028679	0.052764
699.229942	0.052721
699.431187	0.052810
699.632414	0.052928
699.833622	0.053105
700.034813	0.053203
700.235985	0.053409
700.437139	0.053607
700.638274	0.053695
700.839392	0.053860
701.040491	0.053935
701.241572	0.053918
701.442635	0.053864
701.643679	0.053596
701.844706	0.053515
702.045714	0.053372
702.246704	0.053159
702.447675	0.053068
702.648629	0.053036
702.849564	0.053136
703.050481	0.053171
703.251380	0.052970
703.452260	0.053230
703.653122	0.053167
703.853966	0.053233
704.054792	0.053312
704.255600	0.053409
704.456389	0.053441
704.657160	0.053365
704.857913	0.053204
705.058648	0.053343
705.259365	0.053257
705.460063	0.053261
705.660743	0.053202
705.861405	0.053267
706.062048	0.053102
706.262674	0.052952
706.463281	0.052948
706.663870	0.052979
706.864441	0.053042
707.064993	0.052974
707.265527	0.053095
707.466043	0.053382
707.666541	0.053362
707.867021	0.053525
708.067482	0.053595
708.267925	0.053497
708.468350	0.053634
708.668757	0.053753
708.869145	0.053927
709.069516	0.054036
709.269868	0.053832
709.470201	0.053990
709.670517	0.054055
709.870814	0.054191
710.071093	0.054281
710.271354	0.054310
710.471597	0.054384
710.671821	0.054253
710.872028	0.054179
711.072216	0.054274
711.272385	0.054155
711.472537	0.054170
711.672670	0.054122
711.872785	0.054079
712.072882	0.054177
712.272961	0.054442
712.473021	0.054613
712.673063	0.054495
712.873087	0.054446
713.073093	0.054391
713.273081	0.054332
713.473050	0.054352
713.673001	0.054470
713.872934	0.054313
714.072849	0.053981
714.272745	0.054072
714.472623	0.054116
714.672483	0.054188
714.872325	0.054417
715.072148	0.054411
715.271954	0.054238
715.471741	0.054167
715.671509	0.054252
715.871260	0.054149
716.070992	0.054031
716.270707	0.054140
716.470403	0.053971
716.670080	0.053795
716.869740	0.053895
717.069381	0.054064
717.269004	0.054118
717.468609	0.053969
717.668195	0.054066
717.867764	0.054144
718.067314	0.054004
718.266846	0.054091
718.466360	0.054259
718.665855	0.054219
718.865332	0.054122
719.064791	0.054258
719.264232	0.054555
719.463655	0.054677
719.663059	0.054592
719.862445	0.054868
720.061813	0.055104
720.261163	0.054871
720.460494	0.054881
720.659807	0.054976
720.859102	0.055022
721.058379	0.054757
721.257638	0.054745
721.456878	0.054800
721.656100	0.054611
721.855304	0.054469
722.054490	0.054621
722.253657	0.054679
722.452806	0.054839
722.651937	0.054622
722.851050	0.054623
723.050145	0.054465
723.249221	0.054582
723.448279	0.054582
723.647319	0.054290
723.846340	0.054286
724.045344	0.054193
724.244329	0.054034
724.443296	0.053860
724.642245	0.053912
724.841175	0.053908
725.040088	0.053751
725.238982	0.053597
725.437857	0.053505
725.636715	0.053443
725.835554	0.053503
726.034376	0.053467
726.233179	0.053514
726.431963	0.053400
726.630730	0.053314
726.829478	0.053223
727.028208	0.053233
727.226920	0.053540
727.425614	0.053424
727.624289	0.053224
727.822946	0.053161
728.021585	0.053269
728.220206	0.053392
728.418808	0.053358
728.617392	0.053291
728.815958	0.053589
729.014506	0.053565
729.213036	0.053686
729.411547	0.053866
729.610040	0.053806
729.808515	0.053765
730.006972	0.053695
730.205410	0.053829
730.403831	0.053921
730.602233	0.053694
730.800616	0.053620
730.998982	0.053459
731.197329	0.053413
731.395658	0.053484
731.593969	0.053459
731.792262	0.053384
731.990536	0.053338
732.188793	0.053304
732.387031	0.053206
732.585250	0.053135
732.783452	0.053204
732.981635	0.053027
733.179800	0.052991
733.377947	0.052768
733.576076	0.052867
733.774186	0.053023
733.972278	0.052832
734.170352	0.052948
734.368408	0.053070
734.566446	0.053052
734.764465	0.053248
734.962466	0.053265
735.160449	0.053256
735.358413	0.053097
735.556360	0.052795
735.754288	0.052864
735.952198	0.052843
736.150090	0.053103
736.347963	0.053106
736.545818	0.052751
736.743655	0.052647
736.941474	0.052826
737.139275	0.052674
737.337057	0.052617
737.534821	0.052549
737.732567	0.052384
737.930295	0.052090
738.128005	0.051870
738.325696	0.051978
738.523369	0.051977
738.721024	0.051994
738.918660	0.052283
739.116279	0.052353
739.313879	0.052314
739.511461	0.052519
739.709024	0.052518
739.906570	0.052918
740.104097	0.052915
740.301606	0.053042
740.499097	0.053276
740.696569	0.053265
740.894024	0.053220
741.091460	0.053482
741.288878	0.053305
741.486277	0.053324
741.683659	0.053069
741.881022	0.053131
742.078367	0.053001
742.275694	0.052691
742.473002	0.052479
742.670293	0.052422
742.867565	0.052308
743.064819	0.052283
743.262054	0.052070
743.459272	0.052127
743.656471	0.052109
743.853652	0.052131
744.050815	0.052073
744.247959	0.052409
744.445085	0.052522
744.642194	0.052444
744.839283	0.052776
745.036355	0.052877
745.233408	0.052732
745.430444	0.052667
745.627461	0.052563
745.824459	0.052672
746.021440	0.052456
746.218402	0.052413
746.415346	0.052296
746.612272	0.051910
746.809180	0.051759
747.006069	0.051716
747.202940	0.051585
747.399793	0.051680
747.596628	0.051401
747.793444	0.051415
747.990243	0.051516
748.187023	0.051538
748.383784	0.051594
748.580528	0.051679
748.777253	0.051793
748.973960	0.052037
749.170649	0.052085
749.367320	0.052323
749.563973	0.052137
749.760607	0.052063
749.957223	0.052149
750.153821	0.052252
750.350400	0.052415
750.546962	0.052249
750.743505	0.052329
750.940030	0.052196
751.136536	0.052115
751.333025	0.052241
751.529495	0.052286
751.725947	0.052138
751.922381	0.051993
752.118796	0.051884
752.315194	0.051923
752.511573	0.051486
752.707934	0.051496
752.904276	0.051421
753.100601	0.051183
753.296907	0.050908
753.493195	0.051045
753.689465	0.050861
753.885716	0.051015
754.081949	0.051099
754.278164	0.051278
754.474361	0.051290
754.670540	0.051415
754.866700	0.051592
755.062843	0.051680
755.258967	0.051733
755.455072	0.051857
755.651160	0.051714
755.847229	0.051811
756.043280	0.051912
756.239313	0.052140
756.435328	0.052174
756.631324	0.052293
756.827302	0.052292
757.023262	0.052147
757.219204	0.052243
757.415127	0.052172
757.611033	0.052050
757.806920	0.051942
758.002788	0.051737
758.198639	0.051686
758.394471	0.051692
758.590286	0.051701
758.786081	0.051901
758.981859	0.051784
759.177619	0.051659
759.373360	0.051706
759.569083	0.051607
759.764788	0.051339
759.960474	0.051225
760.156143	0.050762
760.351793	0.050702
760.547425	0.050411
760.743038	0.050344
760.938634	0.050217
761.134211	0.050005
761.329770	0.049746
761.525311	0.049859
761.720833	0.049656
761.916338	0.049759
762.111824	0.049772
762.307292	0.049858
762.502741	0.049811
762.698173	0.049766
762.893586	0.049798
763.088981	0.050151
763.284358	0.050104
763.479716	0.050392
763.675057	0.050439
763.870379	0.050273
764.065683	0.049958
764.260968	0.049899
764.456236	0.049996
764.651485	0.049997
764.846716	0.049888
765.041929	0.049926
765.237123	0.049790
765.432299	0.049725
765.627457	0.049950
765.822597	0.050189
766.017719	0.050289
766.212822	0.050233
766.407907	0.050134
766.602974	0.050029
766.798023	0.049912
766.993054	0.049579
767.188066	0.049481
767.383060	0.049084
767.578036	0.048823
767.772993	0.048520
767.967933	0.048696
768.162854	0.048834
768.357757	0.048916
768.552642	0.048580
768.747508	0.048711
768.942356	0.048966
769.137186	0.049350
769.331998	0.049391
769.526792	0.049599
769.721567	0.049339
769.916324	0.049046
770.111063	0.048962
770.305784	0.049098
770.500486	0.048983
770.695171	0.048941
770.889837	0.048694
771.084484	0.048854
771.279114	0.048675
771.473725	0.048691
771.668318	0.048839
771.862893	0.048692
772.057450	0.048704
772.251988	0.048744
772.446509	0.048626
772.641011	0.048539
772.835494	0.048259
773.029960	0.048297
773.224407	0.048357
773.418836	0.048193
773.613247	0.048401
773.807640	0.048381
774.002014	0.048274
774.196370	0.048260
774.390708	0.048499
774.585028	0.048559
774.779330	0.048773
774.973613	0.048816
775.167878	0.048805
775.362125	0.048617
775.556354	0.048640
775.750564	0.048937
775.944756	0.049030
776.138930	0.048761
776.333086	0.048809
776.527223	0.048690
776.721343	0.048472
776.915444	0.048682
777.109526	0.048737
777.303591	0.048848
777.497637	0.048880
777.691666	0.048603
777.885676	0.048585
778.079667	0.048705
778.273641	0.048532
778.467596	0.048642
778.661533	0.048425
778.855452	0.048575
779.049352	0.048530
779.243235	0.048227
779.437099	0.048350
779.630945	0.048517
779.824773	0.048494
780.018582	0.048818
780.212373	0.048861
780.406146	0.049139
780.599901	0.049000
780.793638	0.049125
780.987356	0.049349
781.181056	0.049527
781.374738	0.049580
781.568402	0.049523
781.762047	0.049213
781.955674	0.049240
782.149283	0.048962
782.342874	0.048788
782.536447	0.048469
782.730001	0.048508
782.923537	0.048154
783.117055	0.047991
783.310555	0.047807
783.504036	0.047932
783.697499	0.047789
783.890944	0.047647
784.084371	0.047729
784.277780	0.047719
784.471170	0.047574
784.664542	0.047759
784.857896	0.047841
785.051231	0.048008
785.244549	0.048021
785.437848	0.048045
785.631129	0.048182
785.824392	0.048050
786.017636	0.048190
786.210863	0.048132
786.404071	0.048062
786.597260	0.047969
786.790432	0.047976
786.983585	0.047975
787.176721	0.047913
787.369838	0.047975
787.562936	0.048049
787.756017	0.048118
787.949079	0.048210
788.142123	0.048220
788.335149	0.048297
788.528156	0.047972
788.721146	0.047852
788.914117	0.047857
789.107070	0.047641
789.300005	0.047550
789.492921	0.047400
789.685819	0.047156
789.878699	0.047117
790.071561	0.046993
790.264405	0.047253
790.457230	0.047244
790.650037	0.047172
790.842826	0.047208
791.035597	0.047264
791.228349	0.047081
791.421084	0.047221
791.613800	0.047113
791.806497	0.047002
791.999177	0.046936
792.191838	0.046855
792.384481	0.046734
792.577106	0.046942
792.769713	0.047221
792.962301	0.047456
793.154871	0.047346
793.347423	0.047371
793.539957	0.047434
793.732473	0.047293
793.924970	0.047463
794.117449	0.047612
794.309910	0.047498
794.502353	0.047373
794.694777	0.047586
794.887183	0.047693
795.079571	0.047969
795.271941	0.048179
795.464293	0.048457
795.656626	0.048555
795.848941	0.048627
796.041238	0.048841
796.233516	0.049104
796.425777	0.048993
796.618019	0.048986
796.810243	0.048975
797.002449	0.049066
797.194636	0.048981
797.386805	0.049026
797.578956	0.049116
797.771089	0.048760
797.963204	0.048496
798.155300	0.048556
798.347378	0.048559
798.539438	0.048442
798.731480	0.048169
798.923503	0.048208
799.115509	0.047901
799.307496	0.047905
799.499465	0.048061
799.691415	0.048160
799.883348	0.048130
800.075262	0.048442
800.267158	0.048431
800.459035	0.048549
800.650895	0.048791
800.842736	0.049168
801.034559	0.049225
801.226364	0.049458
801.418150	0.049519
801.609919	0.049458
801.801669	0.049193
801.993401	0.049213
802.185114	0.049320
802.376810	0.049152
802.568487	0.048840
802.760146	0.048882
802.951787	0.048967
803.143409	0.048870
803.335014	0.048946
803.526600	0.049235
803.718168	0.049349
803.909717	0.049399
804.101249	0.049455
804.292762	0.049498
804.484257	0.049428
804.675734	0.049486
804.867192	0.049618
805.058632	0.049641
805.250054	0.049458
805.441458	0.049382
805.632844	0.049184
805.824211	0.049153
806.015561	0.049383
806.206891	0.049577
806.398204	0.049131
806.589499	0.049201
806.780775	0.049158
806.972033	0.049246
807.163273	0.049250
807.354495	0.049403
807.545698	0.049486
807.736883	0.049631
807.928050	0.049545
808.119199	0.049926
808.310329	0.049879
808.501441	0.050145
808.692535	0.050241
808.883611	0.050426
809.074669	0.050493
809.265708	0.050482
809.456729	0.050559
809.647732	0.050508
809.838717	0.050468
810.029683	0.050431
810.220632	0.050401
810.411562	0.050324
810.602474	0.050109
810.793367	0.050273
810.984242	0.050513
811.175100	0.050346
811.365938	0.050493
811.556759	0.050328
811.747562	0.050373
811.938346	0.050333
812.129112	0.050400
812.319860	0.050446
812.510589	0.050269
812.701300	0.050159
812.891994	0.050072
813.082668	0.049816
813.273325	0.050029
813.463964	0.049930
813.654584	0.049995
813.845186	0.050089
814.035769	0.050116
814.226335	0.050125
814.416882	0.050275
814.607411	0.050286
814.797922	0.050346
814.988415	0.050317
815.178889	0.050264
815.369345	0.050008
815.559783	0.049842
815.750203	0.049974
815.940605	0.049997
816.130988	0.049798
816.321353	0.049937
816.511700	0.050026
816.702028	0.049843
816.892339	0.050116
817.082631	0.050254
817.272905	0.050277
817.463161	0.050325
817.653398	0.050367
817.843617	0.050337
818.033819	0.050279
818.224001	0.050282
818.414166	0.050592
818.604312	0.050451
818.794440	0.050423
818.984550	0.050346
819.174642	0.050478
819.364716	0.050514
819.554771	0.050684
819.744808	0.050647
819.934827	0.050740
820.124827	0.050660
820.314810	0.050924
820.504774	0.051131
820.694720	0.051028
820.884647	0.050871
821.074557	0.050872
821.264448	0.050578
821.454321	0.050715
821.644176	0.050629
821.834012	0.050523
822.023831	0.050292
822.213631	0.050183
822.403413	0.050398
822.593176	0.050158
822.782922	0.050138
822.972649	0.050610
823.162358	0.050443
823.352049	0.050371
823.541721	0.050384
823.731376	0.050443
823.921012	0.050593
824.110629	0.050625
824.300229	0.050971
824.489811	0.050955
824.679374	0.050656
824.868919	0.050937
825.058445	0.050978
825.247954	0.051199
825.437444	0.051050
825.626916	0.051139
825.816370	0.051324
826.005806	0.051252
826.195223	0.051444
826.384622	0.051399
826.574003	0.051441
826.763366	0.051575
826.952711	0.051533
827.142037	0.052003
827.331345	0.051737
827.520635	0.051641
827.709906	0.051639
827.899160	0.051537
828.088395	0.051572
828.277612	0.051417
828.466810	0.051591
828.655991	0.051515
828.845153	0.051222
829.034297	0.051451
829.223423	0.051436
829.412531	0.051514
829.601620	0.051639
829.790691	0.051771
829.979744	0.051925
830.168779	0.051916
830.357795	0.052038
830.546793	0.052212
830.735773	0.052125
830.924735	0.052242
831.113679	0.052323
831.302604	0.052331
831.491511	0.052332
831.680400	0.052533
831.869271	0.052448
832.058123	0.052589
832.246957	0.052613
832.435773	0.052713
832.624571	0.052632
832.813351	0.052772
833.002112	0.052826
833.190855	0.052851
833.379580	0.052880
833.568287	0.053012
833.756975	0.052980
833.945645	0.052948
834.134297	0.052998
834.322931	0.053290
834.511547	0.053296
834.700144	0.053256
834.888723	0.053450
835.077284	0.053558
835.265826	0.053806
835.454351	0.053789
835.642857	0.053988
835.831345	0.054320
836.019815	0.054340
836.208266	0.054210
836.396699	0.054305
836.585114	0.054454
836.773511	0.054319
836.961890	0.054283
837.150250	0.054749
837.338592	0.054800
837.526916	0.054710
837.715222	0.054433
837.903510	0.054697
838.091779	0.054727
838.280030	0.054811
838.468263	0.054913
838.656477	0.054620
838.844674	0.054189
839.032852	0.054076
839.221012	0.053994
839.409153	0.054410
839.597277	0.054209
839.785382	0.054384
839.973469	0.054305
840.161538	0.054111
840.349589	0.054455
840.537621	0.054683
840.725635	0.054738
840.913631	0.054941
841.101609	0.054954
841.289568	0.055097
841.477509	0.055133
841.665432	0.055304
841.853337	0.055470
842.041224	0.055461
842.229092	0.055409
842.416942	0.055221
842.604774	0.055104
842.792588	0.055094
842.980383	0.055280
843.168160	0.055142
843.355919	0.055068
843.543660	0.055100
843.731382	0.055184
843.919087	0.055266
844.106773	0.055645
844.294441	0.055682
844.482090	0.055653
844.669722	0.055625
844.857335	0.055853
845.044930	0.056097
845.232507	0.056388
845.420065	0.056478
845.607605	0.056671
845.795127	0.056697
845.982631	0.056906
846.170117	0.057304
846.357584	0.057529
846.545033	0.057882
846.732464	0.057767
846.919877	0.057898
847.107272	0.057985
847.294648	0.058110
847.482006	0.058330
847.669346	0.058528
847.856667	0.058319
848.043971	0.058400
848.231256	0.058047
848.418523	0.058068
848.605771	0.057860
848.793002	0.058087
848.980214	0.058042
849.167408	0.057902
849.354584	0.057965
849.541742	0.058125
849.728881	0.058116
849.916002	0.058435
850.103105	0.058568
850.290190	0.058831
850.477256	0.058794
850.664304	0.059080
850.851334	0.059250
851.038346	0.059278
851.225340	0.059434
851.412315	0.059842
851.599272	0.059833
851.786211	0.059714
851.973132	0.059766
852.160034	0.059824
852.346918	0.059734
852.533784	0.059859
852.720632	0.059874
852.907462	0.059974
853.094273	0.059581
853.281066	0.059676
853.467841	0.060106
853.654598	0.059924
853.841336	0.060010
854.028056	0.059986
854.214758	0.059894
854.401442	0.059694
854.588107	0.059351
854.774755	0.059290
854.961384	0.059048
855.147995	0.058751
855.334587	0.058820
855.521162	0.058677
855.707718	0.058708
855.894256	0.058754
856.080775	0.058967
856.267277	0.059301
856.453760	0.059636
856.640225	0.059805
856.826672	0.060026
857.013101	0.060413
857.199511	0.060503
857.385903	0.060786
857.572277	0.061264
857.758633	0.061263
857.944970	0.061199
858.131290	0.061278
858.317591	0.061648
858.503873	0.061751
858.690138	0.061548
858.876384	0.061683
859.062612	0.061466
859.248822	0.061424
859.435014	0.061466
859.621188	0.061618
859.807343	0.061496
859.993480	0.061246
860.179599	0.061279
860.365699	0.061167
860.551781	0.061204
860.737846	0.061431
860.923891	0.061191
861.109919	0.061476
861.295929	0.061369
861.481920	0.061240
861.667893	0.061359
861.853848	0.061342
862.039784	0.061678
862.225702	0.061538
862.411603	0.061448
862.597484	0.061519
862.783348	0.061468
862.969193	0.061749
863.155021	0.062023
863.340830	0.062386
863.526620	0.062475
863.712393	0.062105
863.898147	0.062456
864.083883	0.062396
864.269601	0.062818
864.455301	0.062780
864.640982	0.062939
864.826645	0.062893
865.012290	0.062553
865.197917	0.062578
865.383526	0.063036
865.569116	0.062920
865.754688	0.062868
865.940242	0.062780
866.125777	0.062932
866.311295	0.062845
866.496794	0.063246
866.682275	0.063112
866.867737	0.063092
867.053182	0.062853
867.238608	0.062829
867.424016	0.063355
867.609406	0.062793
867.794778	0.062743
867.980131	0.062665
868.165466	0.062703
868.350783	0.062807
868.536082	0.062526
868.721362	0.062495
868.906625	0.062554
869.091869	0.062060
869.277094	0.062506
869.462302	0.062281
869.647491	0.062115
869.832662	0.061593
870.017815	0.061459
870.202950	0.061886
870.388066	0.061989
870.573165	0.062029
870.758245	0.062418
870.943306	0.062460
871.128350	0.062609
871.313375	0.062663
871.498382	0.062965
871.683371	0.063214
871.868342	0.063070
872.053294	0.063208
872.238229	0.063313
872.423144	0.062868
872.608042	0.062620
872.792922	0.062513
872.977783	0.062747
873.162626	0.062748
873.347451	0.062908
873.532258	0.063185
873.717046	0.063130
873.901816	0.063195
874.086568	0.063283
874.271302	0.063592
874.456017	0.063798
874.640715	0.063648
874.825394	0.063941
875.010055	0.064007
875.194697	0.063883
875.379322	0.063890
875.563928	0.063929
875.748516	0.064154
875.933085	0.064252
876.117637	0.064275
876.302170	0.064204
876.486685	0.063832
876.671182	0.063416
876.855661	0.063072
877.040121	0.062989
877.224563	0.062900
877.408987	0.062777
877.593393	0.062539
877.777780	0.062422
877.962150	0.062512
878.146501	0.062540
878.330833	0.062852
878.515148	0.063010
878.699444	0.063292
878.883722	0.063197
879.067982	0.063175
879.252224	0.063257
879.436447	0.063373
879.620653	0.063398
879.804840	0.063383
879.989008	0.063780
880.173159	0.063797
880.357291	0.063740
880.541405	0.063847
880.725501	0.064014
880.909579	0.064248
881.093638	0.064211
881.277680	0.064479
881.461703	0.064700
881.645707	0.064435
881.829694	0.064713
882.013662	0.064877
882.197612	0.064988
882.381544	0.065080
882.565458	0.064719
882.749353	0.064814
882.933230	0.064719
883.117089	0.064574
883.300930	0.064389
883.484753	0.064693
883.668557	0.064931
883.852343	0.064722
884.036111	0.064995
884.219861	0.065135
884.403592	0.065163
884.587305	0.065164
884.771000	0.065326
884.954677	0.065619
885.138335	0.065355
885.321976	0.064985
885.505598	0.065406
885.689201	0.065275
885.872787	0.065439
886.056354	0.065689
886.239904	0.065738
886.423434	0.065897
886.606947	0.065803
886.790442	0.065758
886.973918	0.065682
887.157376	0.065237
887.340816	0.064995
887.524237	0.064811
887.707641	0.064620
887.891026	0.064747
888.074393	0.064518
888.257741	0.064193
888.441072	0.063975
888.624384	0.064031
888.807678	0.064081
888.990954	0.064166
889.174211	0.064255
889.357451	0.064014
889.540672	0.063888
889.723875	0.063590
889.907059	0.063570
890.090226	0.063691
890.273374	0.063460
890.456504	0.063549
890.639616	0.063535
890.822709	0.063303
891.005785	0.063303
891.188842	0.063074
891.371881	0.063154
891.554901	0.063049
891.737904	0.062845
891.920888	0.063132
892.103854	0.062900
892.286802	0.062932
892.469731	0.063137
892.652643	0.063301
892.835536	0.063229
893.018410	0.063199
893.201267	0.063819
893.384106	0.064105
893.566926	0.064142
893.749728	0.064181
893.932511	0.063992
894.115277	0.063810
894.298024	0.063803
894.480753	0.063763
894.663464	0.063867
894.846157	0.063336
895.028831	0.063132
895.211487	0.062906
895.394125	0.062879
895.576745	0.063336
895.759346	0.063165
895.941930	0.062929
896.124495	0.063109
896.307041	0.063341
896.489570	0.063702
896.672080	0.063625
896.854573	0.063357
897.037046	0.063083
897.219502	0.062914
897.401940	0.063122
897.584359	0.063049
897.766760	0.062853
897.949143	0.062698
898.131507	0.062447
898.313854	0.062545
898.496182	0.062721
898.678492	0.062950
898.860783	0.062398
899.043057	0.062401
899.225312	0.062360
899.407549	0.062375
899.589768	0.062373
899.771968	0.062077
899.954151	0.061730
900.136315	0.061476
900.318461	0.061344
900.500588	0.061659
900.682698	0.061490
900.864789	0.061296
901.046862	0.061280
901.228917	0.060845
901.410953	0.060818
901.592971	0.061357
901.774972	0.061799
901.956953	0.061893
902.138917	0.061477
902.320862	0.061211
902.502790	0.061461
902.684699	0.061310
902.866589	0.061166
903.048462	0.061106
903.230316	0.060380
903.412152	0.059904
903.593970	0.059489
903.775770	0.059580
903.957551	0.059684
904.139314	0.059159
904.321059	0.058994
904.502786	0.059058
904.684494	0.058879
904.866185	0.058853
905.047857	0.058679
905.229510	0.058909
905.411146	0.058442
905.592763	0.058408
905.774363	0.058994
905.955943	0.058766
906.137506	0.059176
906.319051	0.059330
906.500577	0.059449
906.682085	0.059766
906.863575	0.059816
907.045046	0.060195
907.226500	0.060022
907.407935	0.059611
907.589352	0.059977
907.770750	0.059892
907.952131	0.059543
908.133493	0.059378
908.314837	0.059180
908.496163	0.058706
908.677470	0.058790
908.858760	0.058798
909.040031	0.058982
909.221284	0.058811
909.402518	0.058247
909.583735	0.058714
909.764933	0.059112
909.946113	0.058939
910.127275	0.058947
910.308418	0.058780
910.489544	0.058509
910.670651	0.057996
910.851740	0.057785
911.032810	0.057829
911.213863	0.057535
911.394897	0.057117
911.575913	0.056974
911.756911	0.056992
911.937890	0.056574
912.118851	0.056647
912.299794	0.056193
912.480719	0.056162
912.661626	0.055786
912.842514	0.055907
913.023384	0.055656
913.204236	0.055674
913.385070	0.055394
913.565886	0.055307
913.746683	0.055043
913.927462	0.055614
914.108223	0.055236
914.288965	0.055373
914.469690	0.055225
914.650396	0.055178
914.831084	0.054654
915.011754	0.054639
915.192405	0.054924
915.373038	0.054953
915.553653	0.054943
915.734250	0.054914
915.914829	0.054556
916.095389	0.054131
916.275931	0.054049
916.456455	0.054063
916.636961	0.054121
916.817448	0.053841
916.997917	0.053609
917.178368	0.052976
917.358801	0.053048
917.539216	0.053315
917.719612	0.053168
917.899990	0.053291
918.080350	0.053779
918.260692	0.053499
918.441015	0.053107
918.621320	0.053276
918.801607	0.053367
918.981876	0.053438
919.162127	0.053180
919.342359	0.052894
919.522573	0.052288
919.702769	0.051424
919.882947	0.051521
920.063106	0.051851
920.243247	0.051619
920.423370	0.051429
920.603475	0.050662
920.783562	0.050432
920.963630	0.050851
921.143680	0.050999
921.323712	0.051068
921.503725	0.050533
921.683721	0.050283
921.863698	0.050009
922.043657	0.050109
922.223598	0.050542
922.403520	0.050065
922.583424	0.049387
922.763311	0.049017
922.943178	0.049289
923.123028	0.049306
923.302859	0.048654
923.482673	0.048657
923.662467	0.048186
923.842244	0.047602
924.022003	0.047362
924.201743	0.047227
924.381465	0.047011
924.561169	0.046216
924.740854	0.046232
924.920522	0.046537
925.100171	0.046168
925.279802	0.045749
925.459414	0.045755
925.639009	0.046306
925.818585	0.046104
925.998143	0.046357
926.177683	0.046323
926.357205	0.045985
926.536708	0.045892
926.716193	0.045619
926.895660	0.045737
927.075109	0.045698
927.254539	0.045060
927.433951	0.045302
927.613345	0.045406
927.792721	0.045211
927.972079	0.044833
928.151418	0.044229
928.330739	0.044030
928.510042	0.043601
928.689327	0.043412
928.868593	0.043454
929.047841	0.042958
929.227071	0.042249
929.406283	0.041624
929.585476	0.041681
929.764652	0.041928
929.943809	0.041841
930.122948	0.041879
930.302068	0.041746
930.481171	0.041724
930.660255	0.042040
930.839321	0.042091
931.018369	0.042299
931.197398	0.042224
931.376409	0.041602
931.555402	0.041131
931.734377	0.041321
931.913334	0.040843
932.092272	0.040322
932.271192	0.039666
932.450094	0.039447
932.628978	0.039685
932.807844	0.038931
932.986691	0.039263
933.165520	0.039487
933.344331	0.038992
933.523123	0.038952
933.701898	0.039065
933.880654	0.038597
934.059392	0.037441
934.238111	0.037517
934.416813	0.038111
934.595496	0.038032
934.774161	0.038073
934.952808	0.037947
935.131437	0.036946
935.310047	0.037076
935.488639	0.036627
935.667213	0.036669
935.845769	0.035385
936.024306	0.034957
936.202825	0.034889
936.381326	0.033934
936.559809	0.033742
936.738274	0.034238
936.916720	0.033308
937.095148	0.033416
937.273558	0.033418
937.451950	0.034047
937.630323	0.034178
937.808678	0.033140
937.987015	0.032987
938.165334	0.032872
938.343635	0.032460
938.521917	0.032197
938.700181	0.032339
938.878427	0.031608
939.056655	0.031296
939.234864	0.030535
939.413055	0.030203
939.591228	0.030676
939.769383	0.029949
939.947519	0.029887
940.125638	0.029330
940.303738	0.029077
940.481820	0.028950
940.659883	0.029016
940.837929	0.027878
941.015956	0.028153
941.193965	0.027638
941.371955	0.028218
941.549928	0.028300
941.727882	0.029109
941.905818	0.028498
942.083736	0.029570
942.261636	0.028819
942.439517	0.029672
942.617380	0.028469
942.795225	0.027389
942.973052	0.027177
943.150860	0.026409
943.328651	0.025674
943.506423	0.025283
943.684176	0.024317
943.861912	0.023872
944.039629	0.023598
944.217328	0.024243
944.395009	0.024453
944.572672	0.023145
944.750317	0.023113
944.927943	0.022630
945.105551	0.022232
945.283141	0.021962
945.460712	0.022557
945.638265	0.022020
945.815801	0.021322
945.993317	0.021280
946.170816	0.022299
946.348297	0.021880
946.525759	0.021754
946.703203	0.022116
946.880629	0.022134
947.058036	0.021089
947.235425	0.020498
947.412797	0.021166
947.590149	0.020804
947.767484	0.020363
947.944800	0.021476
948.122099	0.021735
948.299379	0.021667
948.476640	0.021152
948.653884	0.021102
948.831109	0.020560
949.008316	0.020641
949.185505	0.020772
949.362676	0.019145
949.539828	0.017502
949.716962	0.018169
949.894078	0.018584
950.071176	0.018402
950.248256	0.018622
950.425317	0.019360
950.602360	0.019314
950.779385	0.019632
950.956391	0.021680
951.133380	0.022095
951.310350	0.020575
951.487302	0.021061
951.664235	0.021721
951.841151	0.021152
952.018048	0.021396
952.194927	0.020492
952.371788	0.021556
952.548631	0.019825
952.725455	0.020141
952.902261	0.021160
953.079049	0.019264
953.255819	0.019917
953.432570	0.019876
953.609303	0.019337
953.786018	0.019514
953.962715	0.018210
954.139394	0.019290
954.316054	0.018692
954.492696	0.019099
954.669320	0.020613
954.845926	0.020460
955.022513	0.021413
955.199083	0.021892
955.375634	0.021629
955.552166	0.020021
955.728681	0.020522
955.905177	0.021011
956.081655	0.019926
956.258115	0.019879
956.434557	0.019452
956.610980	0.019559
956.787385	0.020278
956.963772	0.020769
957.140141	0.022299
957.316492	0.020858
957.492824	0.021381
957.669138	0.023020
957.845434	0.021288
958.021712	0.020907
958.197971	0.020148
958.374212	0.020473
958.550435	0.018615
958.726640	0.019337
958.902826	0.019705
959.078995	0.019556
959.255145	0.018708
959.431277	0.020719
959.607390	0.022037
959.783486	0.024056
959.959563	0.024529
960.135622	0.025780
960.311662	0.027053
960.487685	0.026076
960.663689	0.026094
960.839675	0.025509
961.015643	0.026569
961.191593	0.027645
961.367524	0.027209
961.543437	0.026329
961.719332	0.027207
961.895209	0.026584
962.071067	0.027627
962.246907	0.028148
962.422730	0.028704
962.598533	0.028414
962.774319	0.026059
962.950086	0.024679
963.125835	0.026734
963.301566	0.024909
963.477279	0.025271
963.652973	0.026112
963.828650	0.026121
964.004308	0.025040
964.179947	0.023297
964.355569	0.025395
964.531172	0.025668
964.706757	0.022948
964.882324	0.024326
965.057873	0.024212
965.233403	0.025241
965.408916	0.025501
965.584410	0.027276
965.759885	0.028117
965.935343	0.024778
966.110782	0.024338
966.286203	0.024902
966.461606	0.026526
966.636991	0.025983
966.812357	0.024865
966.987705	0.024746
967.163035	0.023846
967.338347	0.025496
967.513641	0.027774
967.688916	0.029630
967.864173	0.030339
968.039412	0.028985
968.214632	0.029176
968.389835	0.031973
968.565019	0.032751
968.740185	0.032942
968.915333	0.032563
969.090462	0.033681
969.265573	0.032304
969.440667	0.033483
969.615741	0.034270
969.790798	0.033396
969.965836	0.031550
970.140856	0.031823
970.315858	0.031311
970.490842	0.032071
970.665808	0.030759
970.840755	0.031088
971.015684	0.029460
971.190595	0.028456
971.365487	0.029438
971.540362	0.029711
971.715218	0.028044
971.890056	0.030403
972.064875	0.029313
972.239677	0.030326
972.414460	0.031255
972.589225	0.031923
972.763972	0.031801
972.938700	0.032699
973.113411	0.030129
973.288103	0.032005
973.462777	0.031597
973.637432	0.032128
973.812070	0.031120
973.986689	0.028948
974.161290	0.027964
974.335873	0.030195
974.510437	0.030287
974.684984	0.030965
974.859512	0.029767
975.034022	0.030423
975.208513	0.032243
975.382987	0.033440
975.557442	0.034889
975.731879	0.035478
975.906298	0.033882
976.080698	0.034416
976.255080	0.035706
976.429445	0.036346
976.603790	0.035081
976.778118	0.030437
976.952427	0.031008
977.126719	0.030177
977.300992	0.030026
977.475246	0.031520
977.649483	0.030614
977.823701	0.031837
977.997901	0.030102
978.172083	0.030173
978.346247	0.032426
978.520392	0.029708
978.694519	0.031481
978.868628	0.029927
979.042719	0.028841
979.216791	0.028225
979.390845	0.026409
979.564882	0.026696
979.738899	0.025144
979.912899	0.025331
980.086880	0.025228
980.260843	0.024260
980.434788	0.025133
980.608715	0.025705
980.782623	0.026749
980.956514	0.025661
981.130386	0.026928
981.304240	0.027683
981.478075	0.026150
981.651892	0.027572
981.825692	0.028052
981.999472	0.030132
982.173235	0.028526
982.346980	0.026999
982.520706	0.028705
982.694414	0.028701
982.868104	0.029385
983.041775	0.029868
983.215428	0.029092
983.389064	0.027901
983.562680	0.024391
983.736279	0.024549
983.909860	0.025881
984.083422	0.024317
984.256966	0.024281
984.430491	0.024194
984.603999	0.024973
984.777488	0.025711
984.950959	0.025717
985.124412	0.027553
985.297847	0.031092
985.471263	0.030461
985.644661	0.031479
985.818041	0.029935
985.991403	0.028538
986.164747	0.028561
986.338072	0.028143
986.511379	0.027635
986.684668	0.027263
986.857938	0.024733
987.031191	0.024243
987.204425	0.024541
987.377641	0.026636
987.550839	0.027129
987.724018	0.026825
987.897179	0.026066
988.070322	0.027488
988.243447	0.027093
988.416554	0.027404
988.589642	0.027308
988.762712	0.029708
988.935764	0.027957
989.108798	0.027681
989.281813	0.027015
989.454811	0.027615
989.627790	0.027227
989.800751	0.028574
989.973693	0.026695
990.146617	0.027509
990.319524	0.025155
990.492412	0.024345
990.665281	0.025039
990.838133	0.025798
991.010966	0.026676
991.183781	0.028353
991.356578	0.029962
991.529356	0.032045
991.702117	0.030345
991.874859	0.031265
992.047583	0.032884
992.220288	0.034262
992.392976	0.033535
992.565645	0.031857
992.738296	0.029960
992.910929	0.027769
993.083543	0.027282
993.256139	0.028879
993.428718	0.028071
993.601277	0.028349
993.773819	0.026299
993.946342	0.025959
994.118848	0.025681
994.291335	0.026084
994.463803	0.027372
994.636254	0.026101
994.808686	0.024973
994.981100	0.025684
995.153496	0.025283
995.325874	0.027010
995.498233	0.027646
995.670574	0.030675
995.842897	0.029801
996.015202	0.027805
996.187488	0.027515
996.359757	0.029095
996.532007	0.028401
996.704239	0.029397
996.876452	0.028383
997.048648	0.029440
997.220825	0.026886
997.392984	0.027815
997.565124	0.030543
997.737247	0.032506
997.909351	0.029640
998.081437	0.030227
998.253505	0.028867
998.425554	0.028334
998.597586	0.027231
998.769599	0.028604
998.941594	0.028188
999.113571	0.027037
999.285529	0.025731
999.457469	0.027815
999.629391	0.027411
999.801295	0.027684
999.973181	0.028474
1000.145048	0.027571
1000.316897	0.026824
1000.488728	0.026172
1000.660541	0.025687
1000.832335	0.026372
1001.004111	0.025085
1001.175869	0.025694
1001.347609	0.027168
1001.519331	0.025228
1001.691034	0.025868
1001.862719	0.025102
1002.034386	0.025634
1002.206035	0.024814
1002.377665	0.024570
1002.549277	0.025702
1002.720871	0.025708
1002.892447	0.024267
1003.064004	0.023142
1003.235544	0.022509
1003.407065	0.023158
1003.578568	0.022651
1003.750052	0.022900
1003.921519	0.022743
1004.092967	0.021338
1004.264397	0.018853
1004.435809	0.019127
1004.607202	0.020092
1004.778577	0.021196
1004.949934	0.021575
1005.121273	0.022069
1005.292594	0.021796
1005.463896	0.021470
1005.635180	0.022460
1005.806446	0.021557
1005.977694	0.020021
1006.148923	0.021851
1006.320135	0.020714
1006.491328	0.020238
1006.662503	0.019438
1006.833659	0.018679
1007.004798	0.021158
1007.175918	0.021223
1007.347020	0.023897
1007.518103	0.023283
1007.689169	0.022125
1007.860216	0.023495
1008.031245	0.022504
1008.202256	0.022074
1008.373248	0.021606
1008.544223	0.018307
1008.715179	0.019600
1008.886117	0.018983
1009.057036	0.021297
1009.227938	0.022034
1009.398821	0.021215
1009.569686	0.021425
1009.740533	0.022579
1009.911361	0.023981
1010.082172	0.024268
1010.252964	0.021424
1010.423738	0.020581
1010.594493	0.018366
1010.765231	0.018549
1010.935950	0.018669
1011.106651	0.019294
1011.277334	0.019264
1011.447998	0.017483
1011.618645	0.016940
1011.789273	0.019045
1011.959882	0.020602
1012.130474	0.023004
1012.301048	0.021993
1012.471603	0.022804
1012.642140	0.024083
1012.812658	0.022829
1012.983159	0.025719
1013.153641	0.024303
1013.324105	0.024679
1013.494551	0.024478
1013.664979	0.022253
1013.835388	0.022217
1014.005779	0.021553
1014.176152	0.021301
1014.346507	0.022592
1014.516843	0.021562
1014.687162	0.023824
1014.857462	0.022409
1015.027744	0.022299
1015.198007	0.023116
1015.368252	0.023934
1015.538480	0.023230
1015.708689	0.021908
1015.878879	0.021438
1016.049052	0.022541
1016.219206	0.022077
1016.389342	0.020112
1016.559460	0.017867
1016.729559	0.018526
1016.899641	0.018622
1017.069704	0.017309
1017.239749	0.016485
1017.409775	0.017204
1017.579784	0.016184
1017.749774	0.018974
1017.919746	0.018356
1018.089700	0.019197
1018.259635	0.018908
1018.429553	0.017620
1018.599452	0.018176
1018.769333	0.019088
1018.939195	0.018856
1019.109040	0.018739
1019.278866	0.015824
1019.448674	0.018129
1019.618464	0.018448
1019.788235	0.018625
1019.957989	0.019050
1020.127724	0.019070
1020.297441	0.017737
1020.467139	0.016013
1020.636820	0.016598
1020.806482	0.015993
1020.976126	0.015701
1021.145752	0.016131
1021.315359	0.014598
1021.484948	0.014689
1021.654519	0.015557
1021.824072	0.016866
1021.993607	0.017549
1022.163123	0.016056
1022.332621	0.017270
1022.502101	0.017142
1022.671563	0.017681
1022.841007	0.017744
1023.010432	0.018895
1023.179839	0.018877
1023.349228	0.017961
1023.518598	0.017335
1023.687951	0.017353
1023.857285	0.016390
1024.026601	0.016939
1024.195899	0.017073
1024.365178	0.017172
1024.534439	0.015223
1024.703682	0.014277
1024.872907	0.015152
1025.042114	0.015194
1025.211302	0.015812
1025.380472	0.016680
1025.549624	0.015312
1025.718758	0.013252
1025.887873	0.013191
1026.056970	0.013818
1026.226049	0.012399
1026.395110	0.010825
1026.564153	0.012025
1026.733177	0.010874
1026.902183	0.011397
1027.071171	0.011669
1027.240141	0.012749
1027.409092	0.013004
1027.578026	0.012046
1027.746940	0.014266
1027.915837	0.015305
1028.084716	0.015135
1028.253576	0.015985
1028.422418	0.014788
1028.591242	0.015271
1028.760048	0.015399
1028.928835	0.016637
1029.097604	0.016994
1029.266355	0.015716
1029.435088	0.015472
1029.603803	0.015965
1029.772499	0.015717
1029.941177	0.016499
1030.109837	0.017448
1030.278478	0.016920
1030.447102	0.014650
1030.615707	0.014927
1030.784294	0.016578
1030.952863	0.018101
1031.121413	0.016489
1031.289945	0.015884
1031.458460	0.016774
1031.626955	0.016214
1031.795433	0.017993
1031.963892	0.020200
1032.132334	0.019970
1032.300756	0.018957
1032.469161	0.018285
1032.637548	0.019457
1032.805916	0.019406
1032.974266	0.020074
1033.142598	0.018785
1033.310911	0.017748
1033.479207	0.015869
1033.647484	0.017449
1033.815743	0.017670
1033.983983	0.016959
1034.152206	0.015988
1034.320410	0.016845
1034.488596	0.014952
1034.656764	0.015965
1034.824914	0.016259
1034.993045	0.017312
1035.161158	0.015823
1035.329253	0.015229
1035.497330	0.015527
1035.665388	0.016171
1035.833428	0.016451
1036.001450	0.016235
1036.169454	0.017190
1036.337440	0.016289
1036.505407	0.015738
1036.673356	0.015720
1036.841287	0.015739
1037.009200	0.016050
1037.177094	0.015519
1037.344970	0.014836
1037.512828	0.013812
1037.680668	0.013001
1037.848489	0.014137
1038.016293	0.013980
1038.184078	0.014189
1038.351845	0.015196
1038.519593	0.015069
1038.687324	0.016338
1038.855036	0.017017
1039.022730	0.019239
1039.190406	0.018444
1039.358063	0.016547
1039.525702	0.017826
1039.693323	0.018078
1039.860926	0.017248
1040.028511	0.017093
1040.196077	0.015407
1040.363625	0.015350
1040.531155	0.015558
1040.698667	0.017213
1040.866161	0.018599
1041.033636	0.017490
1041.201093	0.018220
1041.368532	0.018532
1041.535952	0.018242
1041.703355	0.020740
1041.870739	0.022660
1042.038105	0.022569
1042.205452	0.020880
1042.372782	0.019467
1042.540093	0.019684
1042.707386	0.017530
1042.874661	0.017279
1043.041918	0.017883
1043.209156	0.016905
1043.376376	0.014542
1043.543578	0.013067
1043.710762	0.014157
1043.877927	0.014577
1044.045074	0.014336
1044.212203	0.015691
1044.379314	0.016200
1044.546407	0.014619
1044.713481	0.014225
1044.880537	0.013220
1045.047575	0.013136
1045.214595	0.013032
1045.381596	0.013845
1045.548579	0.012694
1045.715544	0.013140
1045.882491	0.012380
1046.049420	0.013738
1046.216330	0.012956
1046.383222	0.014232
1046.550096	0.014288
1046.716951	0.012778
1046.883789	0.012341
1047.050608	0.011605
1047.217409	0.010335
1047.384192	0.010461
1047.550956	0.010617
1047.717703	0.011065
1047.884431	0.008133
1048.051140	0.008516
1048.217832	0.009715
1048.384505	0.010205
1048.551161	0.011855
1048.717798	0.011574
1048.884416	0.013004
1049.051017	0.013052
1049.217599	0.014350
1049.384163	0.017839
1049.550709	0.018318
1049.717237	0.017339
1049.883746	0.016752
1050.050237	0.017210
1050.216710	0.018762
1050.383165	0.017620
1050.549601	0.016983
1050.716019	0.016520
1050.882420	0.015711
1051.048801	0.014256
1051.215165	0.016538
1051.381510	0.016268
1051.547837	0.015494
1051.714146	0.014948
1051.880437	0.014967
1052.046709	0.014805
1052.212964	0.014791
1052.379200	0.013668
1052.545417	0.013923
1052.711617	0.012426
1052.877798	0.012997
1053.043961	0.012133
1053.210106	0.011701
1053.376233	0.012661
1053.542341	0.011878
1053.708432	0.011456
1053.874504	0.012645
1054.040557	0.012864
1054.206593	0.010299
1054.372610	0.009390
1054.538609	0.011499
1054.704590	0.010282
1054.870553	0.011039
1055.036497	0.011427
1055.202424	0.010668
1055.368331	0.011014
1055.534221	0.012279
1055.700093	0.014312
1055.865946	0.013350
1056.031781	0.012837
1056.197598	0.015218
1056.363397	0.013754
1056.529177	0.015034
1056.694939	0.016243
1056.860683	0.016775
1057.026409	0.015923
1057.192116	0.016001
1057.357806	0.017312
1057.523477	0.016663
1057.689130	0.013951
1057.854764	0.012198
1058.020381	0.011436
1058.185979	0.011015
1058.351559	0.010826
1058.517120	0.009838
1058.682664	0.010051
1058.848189	0.011561
1059.013696	0.013356
1059.179185	0.014784
1059.344656	0.015743
1059.510108	0.016164
1059.675542	0.015970
1059.840958	0.015510
1060.006356	0.017348
1060.171735	0.016506
1060.337096	0.014916
1060.502439	0.014565
1060.667764	0.014062
1060.833071	0.014176
1060.998359	0.014113
1061.163629	0.012570
1061.328881	0.011222
1061.494115	0.012211
1061.659330	0.013263
1061.824527	0.012254
1061.989706	0.011306
1062.154867	0.011897
1062.320010	0.012079
1062.485134	0.012408
1062.650240	0.014145
1062.815328	0.016328
1062.980398	0.013436
1063.145449	0.014658
1063.310482	0.016405
1063.475497	0.016893
1063.640494	0.017289
1063.805473	0.016373
1063.970433	0.015767
1064.135375	0.015228
1064.300299	0.013807
1064.465204	0.014521
1064.630092	0.014410
1064.794961	0.014522
1064.959812	0.014918
1065.124645	0.014483
1065.289459	0.014476
1065.454256	0.015186
1065.619034	0.016776
1065.783793	0.016988
1065.948535	0.017806
1066.113258	0.016102
1066.277964	0.014805
1066.442651	0.013493
1066.607319	0.014900
1066.771970	0.013695
1066.936602	0.014226
1067.101216	0.012261
1067.265812	0.013080
1067.430389	0.012084
1067.594949	0.012378
1067.759490	0.013721
1067.924013	0.014501
1068.088518	0.013661
1068.253004	0.014985
1068.417472	0.013775
1068.581922	0.014552
1068.746354	0.013542
1068.910768	0.014506
1069.075163	0.015329
1069.239540	0.015337
1069.403899	0.014231
1069.568240	0.012989
1069.732562	0.014666
1069.896866	0.015744
1070.061152	0.015349
1070.225420	0.016367
1070.389670	0.015245
1070.553901	0.015135
1070.718114	0.012907
1070.882309	0.014251
1071.046486	0.015660
1071.210644	0.016009
1071.374784	0.013736
1071.538906	0.014808
1071.703010	0.011688
1071.867096	0.010496
1072.031163	0.010820
1072.195212	0.011867
1072.359243	0.010904
1072.523256	0.011525
1072.687250	0.012167
1072.851226	0.014373
1073.015184	0.014180
1073.179124	0.015316
1073.343045	0.015573
1073.506949	0.013126
1073.670834	0.015626
1073.834701	0.016175
1073.998549	0.015374
1074.162380	0.013754
1074.326192	0.011704
1074.489986	0.010481
1074.653761	0.011049
1074.817519	0.012318
1074.981258	0.015353
1075.144979	0.014476
1075.308682	0.014766
1075.472367	0.014061
1075.636033	0.013991
1075.799681	0.013850
1075.963311	0.013833
1076.126923	0.014076
1076.290516	0.014472
1076.454092	0.012432
1076.617649	0.011464
1076.781187	0.011545
1076.944708	0.011082
1077.108210	0.008995
1077.271695	0.009489
1077.435160	0.008957
1077.598608	0.008994
1077.762038	0.007648
1077.925449	0.008827
1078.088842	0.008254
1078.252217	0.008468
1078.415573	0.011138
1078.578912	0.011962
1078.742232	0.011802
1078.905534	0.012458
1079.068817	0.012765
1079.232083	0.015421
1079.395330	0.017536
1079.558559	0.017176
1079.721770	0.015573
1079.884962	0.014560
1080.048136	0.014988
1080.211293	0.016373
1080.374430	0.016901
1080.537550	0.015490
1080.700651	0.014730
1080.863735	0.010858
1081.026800	0.012925
1081.189846	0.014694
1081.352875	0.011932
1081.515885	0.011637
1081.678877	0.010344
1081.841851	0.012970
1082.004807	0.015339
1082.167744	0.014758
1082.330663	0.015947
1082.493564	0.016858
1082.656447	0.015821
1082.819312	0.018693
1082.982158	0.020466
1083.144986	0.021836
1083.307796	0.019113
1083.470587	0.018933
1083.633361	0.019470
1083.796116	0.020526
1083.958853	0.020873
1084.121571	0.022983
1084.284272	0.022889
1084.446954	0.023401
1084.609618	0.020785
1084.772264	0.022424
1084.934892	0.021159
1085.097501	0.021409
1085.260092	0.022841
1085.422665	0.023071
1085.585220	0.020710
1085.747756	0.019967
1085.910274	0.020231
1086.072774	0.023760
1086.235256	0.023703
1086.397720	0.021614
1086.560165	0.019395
1086.722592	0.014818
1086.885001	0.013365
1087.047392	0.015461
1087.209764	0.016132
1087.372119	0.016932
1087.534455	0.015455
1087.696772	0.016451
1087.859072	0.020087
1088.021353	0.023255
1088.183616	0.028133
1088.345861	0.028076
1088.508088	0.023664
1088.670296	0.021077
1088.832486	0.021167
1088.994658	0.020095
1089.156812	0.019818
1089.318948	0.017849
1089.481065	0.014971
1089.643164	0.013743
1089.805245	0.013434
1089.967308	0.017114
1090.129352	0.020519
1090.291378	0.019625
1090.453386	0.022574
1090.615376	0.021359
1090.777347	0.023621
1090.939301	0.025298
1091.101236	0.025286
1091.263153	0.024566
1091.425051	0.021115
1091.586932	0.021847
1091.748794	0.020404
1091.910638	0.019771
1092.072463	0.021520
1092.234271	0.021321
1092.396060	0.019620
1092.557831	0.018529
1092.719584	0.019274
1092.881319	0.022705
1093.043035	0.019191
1093.204733	0.019857
1093.366413	0.019459
1093.528075	0.016766
1093.689718	0.017663
1093.851343	0.020390
1094.012950	0.020940
1094.174539	0.020839
1094.336110	0.019066
1094.497662	0.021620
1094.659196	0.022995
1094.820712	0.021383
1094.982210	0.020228
1095.143689	0.017589
1095.305151	0.016585
1095.466594	0.016412
1095.628018	0.017054
1095.789425	0.018249
1095.950813	0.016840
1096.112183	0.013670
1096.273535	0.013381
1096.434869	0.011585
1096.596184	0.015419
1096.757482	0.015839
1096.918761	0.016244
1097.080021	0.016436
1097.241264	0.018965
1097.402488	0.019350
1097.563694	0.022235
1097.724882	0.022537
1097.886052	0.025615
1098.047203	0.021953
1098.208336	0.020963
1098.369451	0.020307
1098.530548	0.018552
1098.691627	0.015370
1098.852687	0.012605
1099.013729	0.009990
1099.174753	0.011248
1099.335758	0.015114
1099.496746	0.015428
1099.657715	0.017477
1099.818666	0.014992
1099.979599	0.019066
1100.140513	0.019409
1100.301409	0.021325
1100.462287	0.018003
1100.623147	0.017174
1100.783989	0.010075
1100.944812	0.008923
1101.105617	0.009855
1101.266404	0.011084
1101.427173	0.007832
1101.587923	0.008367
1101.748656	0.010223
1101.909370	0.013462
1102.070066	0.014902
1102.230743	0.016588
1102.391403	0.017250
1102.552044	0.012173
1102.712667	0.016482
1102.873271	0.013701
1103.033858	0.016202
1103.194426	0.013450
1103.354976	0.013091
1103.515508	0.010210
1103.676021	0.012328
1103.836517	0.015906
1103.996994	0.020020
1104.157453	0.018023
1104.317893	0.023640
1104.478316	0.021012
1104.638720	0.019816
1104.799106	0.021554
1104.959474	0.023521
1105.119823	0.023366
1105.280155	0.018298
1105.440468	0.016456
1105.600763	0.016698
1105.761039	0.014181
1105.921298	0.013399
1106.081538	0.015648
1106.241760	0.017318
1106.401964	0.016652
1106.562149	0.016159
1106.722316	0.019062
1106.882465	0.019561
1107.042596	0.017796
1107.202709	0.019560
1107.362803	0.020402
1107.522879	0.023985
1107.682937	0.023308
1107.842977	0.028315
1108.002999	0.031348
1108.163002	0.029473
1108.322987	0.029983
1108.482954	0.030473
1108.642902	0.025694
1108.802833	0.024128
1108.962745	0.021515
1109.122639	0.018630
1109.282515	0.014898
1109.442372	0.010155
1109.602211	0.008539
1109.762032	0.007193
1109.921835	0.008273
1110.081620	0.010274
1110.241386	0.010294
1110.401134	0.008441
1110.560864	0.010538
1110.720576	0.007831
1110.880269	0.008706
1111.039945	0.011765
1111.199602	0.012672
1111.359240	0.010556
1111.518861	0.010706
1111.678463	0.010275
1111.838047	0.013067
1111.997613	0.010593
1112.157161	0.014023
1112.316690	0.015937
1112.476202	0.017627
1112.635695	0.019074
1112.795169	0.022406
1112.954626	0.021314
1113.114064	0.026865
1113.273484	0.025982
1113.432886	0.027643
1113.592270	0.028595
1113.751635	0.028121
1113.910983	0.026449
1114.070312	0.022038
1114.229622	0.024124
1114.388915	0.026437
1114.548189	0.027652
1114.707445	0.026323
1114.866683	0.024365
1115.025903	0.027266
1115.185104	0.024690
1115.344287	0.025815
1115.503452	0.029534
1115.662599	0.022778
1115.821727	0.024668
1115.980838	0.020294
1116.139930	0.018752
1116.299004	0.020982
1116.458059	0.016292
1116.617097	0.019135
1116.776116	0.014197
1116.935117	0.010609
1117.094099	0.015563
1117.253064	0.013854
1117.412010	0.013883
1117.570938	0.022448
1117.729848	0.024522
1117.888740	0.021321
1118.047613	0.020365
1118.206468	0.025902
1118.365305	0.027279
1118.524124	0.019449
1118.682924	0.019163
1118.841707	0.019584
1119.000471	0.014310
1119.159216	0.010832
1119.317944	0.015408
1119.476653	0.017345
1119.635344	0.017524
1119.794017	0.022716
1119.952672	0.025343
1120.111308	0.025554
1120.269927	0.024465
1120.428527	0.025189
1120.587108	0.026158
1120.745672	0.022463
1120.904217	0.020653
1121.062744	0.016826
1121.221253	0.011130
1121.379744	0.015235
1121.538216	0.014773
1121.696671	0.016326
1121.855107	0.015805
1122.013524	0.015818
1122.171924	0.017749
1122.330305	0.016886
1122.488668	0.017505
1122.647013	0.020215
1122.805340	0.016438
1122.963648	0.018253
1123.121938	0.016628
1123.280210	0.016882
1123.438464	0.019476
1123.596700	0.017777
1123.754917	0.021743
1123.913116	0.021173
1124.071297	0.017794
1124.229459	0.019584
1124.387604	0.018796
1124.545730	0.017239
1124.703838	0.015499
1124.861928	0.013884
1125.019999	0.018453
1125.178052	0.014010
1125.336088	0.017909
1125.494104	0.026688
1125.652103	0.030775
1125.810083	0.029632
1125.968045	0.032093
1126.125989	0.034296
1126.283915	0.034876
1126.441823	0.033508
1126.599712	0.037062
1126.757583	0.034725
1126.915436	0.028685
1127.073270	0.028726
1127.231087	0.027673
1127.388885	0.029194
1127.546665	0.025463
1127.704426	0.024137
1127.862170	0.023257
1128.019895	0.026497
1128.177602	0.030394
1128.335291	0.027363
1128.492961	0.024183
1128.650614	0.025176
1128.808248	0.021160
1128.965864	0.022382
1129.123461	0.025376
1129.281041	0.028350
1129.438602	0.027916
1129.596145	0.025870
1129.753670	0.031930
1129.911176	0.033031
1130.068665	0.031515
1130.226135	0.037004
1130.383587	0.043107
1130.541020	0.047792
1130.698436	0.043404
1130.855833	0.042161
1131.013212	0.041783
1131.170573	0.042008
1131.327915	0.042840
1131.485239	0.045148
1131.642545	0.042434
1131.799833	0.037236
1131.957103	0.032487
1132.114354	0.038938
1132.271588	0.033269
1132.428803	0.030401
1132.585999	0.027925
1132.743178	0.028152
1132.900338	0.026058
1133.057480	0.029667
1133.214604	0.030887
1133.371710	0.025284
1133.528797	0.023506
1133.685866	0.024559
1133.842917	0.021781
1133.999950	0.026050
1134.156964	0.021444
1134.313960	0.027292
1134.470938	0.022379
1134.627898	0.024072
1134.784840	0.022673
1134.941763	0.023690
1135.098668	0.025990
1135.255555	0.030711
1135.412424	0.028294
1135.569274	0.029991
1135.726107	0.021413
1135.882921	0.023320
1136.039716	0.017607
1136.196494	0.022563
1136.353253	0.020711
1136.509995	0.018948
1136.666717	0.017523
1136.823422	0.014539
1136.980109	0.011117
1137.136777	0.015878
1137.293427	0.014877
1137.450059	0.016353
1137.606672	0.015193
1137.763267	0.011068
1137.919844	0.014554
1138.076403	0.012117
1138.232944	0.013538
1138.389466	0.015504
1138.545971	0.012602
1138.702457	0.011471
1138.858924	0.015140
1139.015374	0.019081
1139.171805	0.019023
1139.328218	0.019059
1139.484613	0.023553
1139.640990	0.020579
1139.797348	0.024044
1139.953688	0.031653
1140.110010	0.033529
1140.266314	0.034396
1140.422600	0.028742
1140.578867	0.032925
1140.735116	0.029175
1140.891347	0.032222
1141.047559	0.031060
1141.203754	0.029306
1141.359930	0.020615
1141.516088	0.019318
1141.672228	0.014992
1141.828349	0.019233
1141.984452	0.018685
1142.140537	0.019844
1142.296604	0.021827
1142.452653	0.026452
1142.608683	0.026721
1142.764695	0.025087
1142.920689	0.023057
1143.076665	0.021741
1143.232622	0.026164
1143.388562	0.025719
1143.544483	0.022490
1143.700385	0.021259
1143.856270	0.021812
1144.012136	0.019757
1144.167985	0.020563
1144.323814	0.023153
1144.479626	0.021620
1144.635420	0.017671
1144.791195	0.016821
1144.946952	0.022938
1145.102691	0.023499
1145.258411	0.019328
1145.414113	0.017584
1145.569798	0.017217
1145.725463	0.021696
1145.881111	0.021673
1146.036741	0.016398
1146.192352	0.013889
1146.347945	0.014024
1146.503519	0.014892
1146.659076	0.015510
1146.814614	0.016314
1146.970134	0.019014
1147.125636	0.016810
1147.281120	0.020015
1147.436585	0.022099
1147.592032	0.020573
1147.747461	0.025888
1147.902872	0.022671
1148.058265	0.022280
1148.213639	0.026509
1148.368995	0.036167
1148.524333	0.034877
1148.679653	0.032081
1148.834954	0.036491
1148.990237	0.041785
1149.145502	0.034997
1149.300749	0.031448
1149.455977	0.034601
1149.611188	0.029589
1149.766380	0.026843
1149.921553	0.027888
1150.076709	0.032922
1150.231846	0.030218
1150.386966	0.024549
1150.542066	0.025521
1150.697149	0.030461
1150.852214	0.033172
1151.007260	0.039112
1151.162288	0.039327
1151.317298	0.038659
1151.472289	0.037121
1151.627263	0.038312
1151.782218	0.044803
1151.937155	0.041832
1152.092073	0.030000
1152.246974	0.029259
1152.401856	0.031459
1152.556720	0.029231
1152.711566	0.021700
1152.866393	0.019342
1153.021203	0.013647
1153.175994	0.013797
1153.330767	0.018171
1153.485521	0.034103
1153.640258	0.032444
1153.794976	0.037197
1153.949676	0.029833
1154.104358	0.042980
1154.259021	0.048451
1154.413667	0.052430
1154.568294	0.045644
1154.722903	0.050497
1154.877493	0.046790
1155.032066	0.041221
1155.186620	0.038016
1155.341156	0.041902
1155.495674	0.036666
1155.650173	0.042169
1155.804654	0.044794
1155.959118	0.055712
1156.113562	0.040405
1156.267989	0.031607
1156.422397	0.040202
1156.576788	0.035096
1156.731160	0.040700
1156.885513	0.043767
1157.039849	0.034795
1157.194166	0.036713
1157.348465	0.025749
1157.502746	0.031047
1157.657009	0.028400
1157.811253	0.022564
1157.965479	0.022834
1158.119687	0.020841
1158.273877	0.014209
1158.428048	0.019573
1158.582201	0.015952
1158.736337	0.017731
1158.890453	0.013214
1159.044552	0.022423
1159.198632	0.029873
1159.352694	0.032488
1159.506738	0.033084
1159.660764	0.039104
1159.814771	0.036692
1159.968761	0.038144
1160.122732	0.043320
1160.276685	0.044644
1160.430619	0.034497
1160.584535	0.030013
1160.738434	0.021488
1160.892313	0.014753
1161.046175	0.006738
1161.200019	0.003046
1161.353844	0.003401
1161.507651	0.004014
1161.661440	-0.001566
1161.815210	0.002827
1161.968962	0.001335
1162.122697	0.004076
1162.276412	0.014848
1162.430110	0.015498
1162.583789	0.022817
1162.737451	0.015569
1162.891094	0.012444
1163.044718	0.022545
1163.198325	0.018193
1163.351913	0.019195
1163.505483	0.031348
1163.659035	0.023731
1163.812569	0.032455
1163.966084	0.037474
1164.119581	0.044308
1164.273060	0.049271
1164.426521	0.047270
1164.579964	0.055193
1164.733388	0.048984
1164.886794	0.042454
1165.040182	0.043419
1165.193551	0.034837
1165.346903	0.024610
1165.500236	0.024231
1165.653551	0.012931
1165.806848	0.022059
1165.960126	0.025077
1166.113386	0.041217
1166.266628	0.045148
1166.419852	0.042890
1166.573058	0.040126
1166.726245	0.042840
1166.879414	0.040928
1167.032565	0.052656
1167.185698	0.049933
1167.338812	0.050516
1167.491909	0.042608
1167.644987	0.035119
1167.798046	0.034138
1167.951088	0.046829
1168.104111	0.052212
1168.257117	0.051159
1168.410103	0.044404
1168.563072	0.039980
1168.716023	0.038597
1168.868955	0.046029
1169.021869	0.042631
1169.174765	0.048557
1169.327642	0.037347
1169.480501	0.019728
1169.633343	0.027740
1169.786165	0.039140
1169.938970	0.037898
1170.091757	0.045033
1170.244525	0.033108
1170.397275	0.034526
1170.550007	0.027581
1170.702720	0.031918
1170.855415	0.037660
1171.008092	0.029981
1171.160751	0.017945
1171.313392	0.015556
1171.466014	-0.017848
1171.618619	0.007348
1171.771205	0.007348
1171.923772	0.007348
