sample name	sample
index	117
start time	 02-15-2021  12:32:41 PM
880	-0.080781
Peak Time (s)	92.036
Peak Height 	-0.08078
calc peak height	90,93
Baseline Time (s)	9.535
Baseline Value 	-0.001693
subtract baseline	10,4
Abs	-0.000492
Peak Time (s)	92.036
Peak Height 	-4.9242E-4
calc peak height	90,93
Baseline Time (s)	10.035
Baseline Value 	-5.2751E-4
subtract baseline	10,3
PK_550	-0.003877
Peak Time (s)	90.535
Peak Height 	-0.003877
calc peak height	90,93
Baseline Time (s)	11.536
Baseline Value 	0.001112
subtract baseline	10,2
PK_880	-0.007266
Peak Time (s)	90.535
Peak Height 	-0.007266
calc peak height	90,93
Baseline Time (s)	11.039
Baseline Value 	-3.5732E-4
subtract baseline	10,1


Time (s)	A880-A510	A880-A775	A880-A975	A880	I510	I775	I975	I880	
0.035000	0.000458	-0.001095	0.002101	-0.001012	4336.992148	16612.749753	3270.381115	9323.028555
0.535500	-0.002136	-0.002294	-0.010142	0.002195	4319.575718	16476.138963	3259.802221	9276.561927
1.036000	-0.006383	-0.001679	-0.007262	0.000718	4311.343183	16540.842987	3262.748478	9297.931327
1.539500	0.005435	0.000976	0.006973	0.001498	4344.470660	16599.098117	3272.032225	9286.639989
2.036500	0.004224	-0.000040	-0.006444	-0.000181	4345.892981	16619.739049	3263.916329	9310.956056
2.536500	-0.001180	-0.000545	0.007988	0.001383	4324.858321	16555.377802	3272.824507	9288.293132
3.036500	0.001719	-0.000184	0.000639	0.003094	4328.423141	16513.545097	3266.525162	9263.596513
3.537000	0.002134	0.001092	0.014497	0.001214	4335.331875	16611.559266	3277.552595	9290.746385
4.035000	-0.003741	0.000972	-0.006211	-0.000477	4322.765478	16660.610131	3264.278249	9315.265528
4.535000	0.002576	-0.001021	-0.006077	-0.001395	4344.571701	16626.992257	3264.996665	9328.600811
5.035000	-0.002166	-0.000947	-0.008276	0.003509	4315.573090	16477.146710	3260.173900	9257.619225
5.535500	0.002475	-0.000970	0.012712	-0.001079	4343.309661	16618.764060	3277.915565	9324.015047
6.036000	-0.000989	-0.000339	-0.004535	-0.000281	4330.427395	16613.534476	3265.290057	9312.415691
6.536000	0.001220	0.000117	-0.002322	-0.000076	4336.465701	16621.342350	3266.668966	9309.429675
7.036500	-0.003507	0.000468	-0.017450	0.000260	4321.258866	16621.809914	3256.210964	9304.560463
7.536500	0.004194	-0.000294	0.011319	0.000096	4344.961731	16603.201796	3276.086757	9306.947872
8.036000	0.004303	0.000973	-0.000604	-0.000071	4345.800341	16647.930938	3267.850794	9309.360005
8.537000	0.003069	0.001531	-0.002716	0.000694	4339.731896	16641.459157	3265.868956	9298.272408
9.035000	-0.000366	0.001726	-0.002462	0.000820	4328.991239	16643.617730	3265.957383	9296.452170
9.535000	0.000653	0.001105	-0.009294	0.000000	4334.527555	16649.837117	3261.856495	9308.333568
10.035000	-0.002592	-0.000022	0.000000	-0.000695	4326.859215	16636.363058	3268.700931	9318.432686
10.535500	-0.002676	-0.000204	0.009341	-0.001011	4327.551625	16640.517842	3275.468421	9323.022689
11.038500	0.000000	-0.000301	0.000843	0.003505	4322.043769	16497.234000	3266.383011	9257.685490
11.536000	0.002058	0.000000	0.002454	-0.000466	4340.182748	16629.887376	3270.247226	9315.104054
12.036500	-0.000528	-0.000939	0.017807	-0.001188	4334.547170	16623.088859	3281.654533	9325.592478
12.536500	0.000857	-0.000599	0.019152	-0.001163	4338.656768	16632.934603	3282.610294	9325.229194
13.036500	-0.003265	0.000472	0.010142	0.004155	4310.397752	16501.030078	3272.390909	9248.330024
13.537000	0.002251	0.000525	0.010381	-0.001331	4343.392222	16673.314007	3276.433494	9327.669936
14.035000	0.003925	0.000709	0.012824	-0.000632	4346.358755	16657.217986	3277.676035	9317.512428
14.535000	-0.002182	0.000502	0.003757	0.001505	4321.498942	16584.122106	3269.781939	9286.536874
15.038000	-0.000092	-0.000829	0.003323	0.004451	4318.944772	16451.758478	3267.440125	9244.080835
15.559500	-0.000845	0.000810	0.005422	-0.001505	4334.549245	16687.697685	3273.051625	9330.215628
16.036000	-0.003025	-0.000559	0.004685	-0.002027	4329.555929	16661.175290	3272.899782	9337.812101
16.536000	0.002454	0.000312	0.000885	0.000857	4337.376200	16598.367924	3268.238414	9295.908042
17.037000	0.001806	0.000312	0.009613	0.003452	4327.609137	16517.801909	3272.512627	9258.437147
17.536500	0.004814	0.000315	0.012970	-0.003889	4359.035975	16746.996213	3280.114314	9365.011305
18.037500	0.002287	-0.000165	-0.006036	-0.001301	4343.409219	16650.785079	3264.960447	9327.232682
18.540500	-0.000797	-0.000725	0.005968	-0.000340	4331.180824	16603.324789	3272.616014	9313.264354
19.035000	-0.001447	0.000226	-0.000181	0.002305	4321.305903	16550.704843	3266.503593	9274.974751
19.535500	-0.002020	-0.000651	0.011942	-0.000452	4327.846050	16609.166939	3276.919524	9314.902305
20.035500	-0.000672	0.001029	0.004097	0.000677	4328.500564	16626.323679	3270.595013	9298.516874
20.535000	-0.000909	-0.000124	0.007618	-0.000747	4332.068101	16634.782278	3274.063209	9319.177753
21.036000	-0.000853	-0.002145	-0.003158	0.000003	4329.980248	16548.534863	3266.039734	9308.287574
21.536000	0.003305	0.000865	0.000160	0.000155	4342.079291	16637.495481	3268.222405	9306.081307
22.036500	-0.001870	-0.000718	0.015176	-0.000894	4329.622679	16620.828644	3279.548188	9321.324638
22.537000	-0.000373	-0.000202	0.011233	-0.000880	4334.087277	16636.500314	3276.719225	9321.119789
23.037000	0.000332	0.000080	-0.008769	0.001630	4328.654471	16567.124706	3261.109004	9284.729749
23.537500	0.002376	0.000476	0.011107	-0.000218	4340.393969	16636.974964	3276.158435	9311.492393
24.035000	0.002022	-0.000397	0.005888	-0.000505	4340.192432	16618.728080	3272.675814	9315.671316
24.535500	0.001826	0.000318	0.004331	0.001026	4334.969563	16593.300974	3270.515004	9293.463358
25.038500	-0.006577	-0.000661	-0.002092	0.001329	4308.957199	16553.440422	3265.861141	9289.075859
25.536000	0.002646	0.001033	0.004514	0.000502	4339.034347	16631.925336	3271.008626	9301.057936
26.035500	0.001125	0.000448	-0.000754	0.000366	4334.846487	16617.906699	3267.445238	9303.030592
26.536500	0.000515	-0.001131	0.000675	-0.000949	4336.974855	16609.691082	3269.345036	9322.122167
27.036500	0.002497	0.001147	-0.002287	0.003250	4330.290138	16549.922794	3264.411759	9261.345611
27.540000	-0.000676	-0.000090	-0.008151	-0.001262	4334.324338	16651.925010	3263.490254	9326.675440
28.037500	-0.000097	-0.000828	0.009534	-0.005115	4347.759336	16749.605338	3278.528341	9382.985051
28.537500	-0.000310	0.000463	-0.001912	-0.001293	4335.522345	16670.177717	3267.791441	9327.119340
29.066000	0.003244	-0.000444	0.009154	-0.001255	4346.180440	16640.628933	3275.508615	9326.565222
29.535500	0.003848	0.000449	0.008980	-0.000215	4344.854465	16636.051758	3274.649700	9311.449378
30.036000	0.005895	0.001789	0.014459	0.000440	4349.092228	16657.470289	3278.078441	9301.953976
30.536500	-0.002467	-0.000515	0.003074	-0.000675	4327.170538	16620.313272	3270.824697	9318.128961
31.039000	0.002058	-0.000207	0.010215	-0.001369	4342.923484	16651.621071	3276.343259	9328.235992
31.537000	0.002531	0.000271	0.009521	0.001665	4335.168284	16571.953617	3273.704457	9284.217355
32.037000	0.004202	0.000921	0.010721	0.000909	4342.516358	16615.719580	3275.086137	9295.163877
32.564000	0.004511	-0.000506	-0.000971	-0.000721	4348.415085	16622.055038	3268.046670	9318.810528
33.037500	0.003185	0.000485	0.007038	-0.001004	4345.237529	16661.832131	3273.835867	9322.916595
33.537000	0.005798	0.000274	0.010086	-0.001463	4354.612832	16669.565408	3276.317714	9329.590824
34.035000	0.003394	0.000630	-0.008403	-0.001264	4346.664692	16674.500813	3263.319700	9326.702272
34.536000	0.002194	0.000187	0.007481	-0.001441	4343.554677	16666.171835	3274.457284	9329.277834
35.035500	0.003365	0.000846	0.010930	0.000380	4341.582143	16629.879393	3275.609436	9302.824750
35.536500	-0.000705	-0.000558	0.017945	-0.000023	4330.503978	16598.681842	3280.913498	9308.664002
36.036500	0.004536	0.000268	0.014403	0.000105	4345.972529	16620.430186	3278.277777	9306.811609
36.536500	0.003480	-0.000396	0.008158	0.000013	4343.042855	16602.613163	3273.908888	9308.145743
37.037000	-0.001128	-0.000107	0.005300	-0.000199	4329.765371	16618.240338	3272.049284	9311.228528
37.537500	0.004631	0.000815	0.019971	0.000591	4344.782230	16622.308824	3281.932897	9299.761159
38.035000	-0.000272	-0.000478	0.005723	-0.000267	4332.543756	16608.762475	3272.393095	9312.206718
38.535500	-0.002387	0.000216	0.017584	-0.000254	4326.148672	16629.999602	3280.819958	9312.022896
39.035500	0.000096	-0.001168	-0.004861	0.001106	4329.517983	16544.644576	3264.118143	9292.302125
39.535500	0.000583	-0.001150	0.000290	-0.000595	4336.111096	16598.056679	3268.832788	9316.977985
40.036500	0.008880	0.000223	0.008719	0.001147	4356.057832	16586.554369	3273.504295	9291.707581
40.536000	0.006596	0.000707	0.000308	0.000009	4352.550177	16637.114802	3268.426388	9308.200642
41.036500	-0.004289	-0.000826	0.008825	0.000976	4316.794763	16559.294236	3273.699724	9294.188001
41.534000	0.000682	-0.000779	0.008529	-0.001266	4338.438432	16630.543850	3275.074191	9326.730638
42.037500	0.001045	-0.000690	-0.004898	-0.000688	4337.788908	16615.297574	3265.320336	9318.330564
42.534500	-0.002286	0.000336	0.002057	-0.000352	4326.743698	16636.803942	3269.890419	9313.440264
43.037500	-0.000080	-0.000540	0.013213	0.001617	4327.457058	16548.295121	3276.351453	9284.920010
43.535500	0.000583	0.000998	0.000293	0.000696	4332.216178	16624.750077	3267.939979	9298.236794
44.038000	-0.001681	0.000001	0.005997	-0.000404	4328.717121	16627.980227	3272.681374	9314.199048
44.538500	0.003719	0.001162	0.000786	-0.001637	4348.790738	16702.853269	3269.900645	9332.127465
45.036000	0.001315	0.000235	-0.010750	0.000806	4334.092662	16597.565019	3260.328601	9296.647693
45.536500	0.006532	0.000928	-0.005166	-0.001074	4355.671902	16677.905794	3265.401705	9323.943154
46.037000	0.002097	0.001047	0.000348	-0.000000	4338.890766	16648.021998	3268.460730	9308.337959
46.537000	0.002307	-0.001285	0.005489	-0.002099	4345.896045	16640.734805	3273.515949	9338.857975
47.037500	0.000633	-0.001851	0.005274	0.003102	4325.143754	16461.852587	3269.726406	9263.490029
47.535000	0.001384	-0.000545	0.000946	-0.001348	4340.814632	16640.387415	3269.810857	9327.926133
48.067000	-0.000455	-0.000439	0.000433	0.002115	4324.839645	16535.952882	3267.057549	9277.717715
48.537500	0.001903	-0.000460	0.013077	-0.000042	4338.428550	16602.298256	3277.435766	9308.939209
49.038000	-0.000349	-0.000732	0.010525	0.002748	4323.260551	16507.305294	3273.649080	9268.581023
49.538500	0.000602	-0.000165	0.003161	-0.002187	4340.985339	16678.527643	3271.943196	9340.149514
50.036500	0.000930	-0.000392	-0.003923	-0.000036	4335.472344	16604.267386	3265.541980	9308.861573
50.536500	0.005042	-0.000799	0.006038	-0.002512	4355.510880	16668.841532	3274.193793	9344.883906
51.037000	-0.004008	-0.001043	0.001774	0.002175	4314.067268	16515.407678	3267.942457	9276.860055
51.537000	0.003929	-0.000142	0.009378	-0.005697	4361.879432	16789.626768	3278.834350	9391.547921
52.037500	0.001290	-0.001751	0.010707	0.002281	4329.576581	16490.252505	3274.106640	9275.325762
52.535000	-0.067835	-0.030711	0.003153	0.238022	3671.241271	10369.384558	3142.686463	6649.507625
53.035500	-0.017588	-0.014346	-0.011485	0.002482	4273.479213	16100.847766	3258.708372	9272.426020
53.535500	-0.009366	-0.008028	-0.006724	-0.186281	4990.372185	23485.162265	3422.089940	12683.504932
54.036000	-0.005764	-0.008923	0.009559	-0.190306	5025.205193	23632.802840	3443.842998	12773.608177
54.536000	-0.020916	-0.010779	-0.012569	-0.112147	4638.356629	20174.164913	3345.663506	11164.976997
55.036000	-0.031891	-0.016334	-0.008441	-0.098415	4549.103225	19431.577950	3337.397953	10911.070176
55.536500	-0.029894	-0.015295	0.007778	-0.104789	4578.778979	19713.096410	3357.139031	11027.931040
56.037000	-0.023864	-0.013742	0.002864	-0.097401	4573.926278	19491.123324	3346.262458	10892.636889
56.537000	-0.013990	-0.011430	0.002467	-0.091756	4589.087311	19365.608238	3341.031814	10790.791915
57.035000	-0.014604	-0.008328	0.004521	-0.097964	4609.371754	19718.550007	3348.201710	10902.854735
57.534500	-0.008993	-0.011487	0.012849	-0.073790	4543.050739	18703.564896	3334.569128	10475.355383
58.038500	-0.008178	-0.011576	0.011860	-0.050387	4466.085019	17880.779926	3314.532627	10083.544915
58.535500	-0.014239	-0.012438	0.013172	-0.068870	4507.913721	18493.736661	3330.705962	10391.217969
59.036000	-0.012902	-0.010602	0.000650	-0.075382	4534.968702	18792.908170	3325.717084	10502.773963
59.536000	-0.011708	-0.006579	0.003984	-0.068226	4514.376346	18679.983800	3322.581200	10380.284263
60.036500	-0.013734	-0.010844	0.002157	-0.063939	4492.872108	18375.710367	3317.619228	10307.844547
60.536500	-0.010335	-0.008739	-0.012200	-0.061430	4495.883702	18361.510070	3304.290555	10265.789179
61.037500	-0.013669	-0.010430	0.005568	-0.062637	4488.696748	18344.486211	3319.323150	10285.990609
61.534500	-0.010522	-0.012275	0.000528	-0.070145	4525.066260	18544.886314	3321.326712	10412.935041
62.035000	-0.020603	-0.012099	0.003067	-0.071925	4496.654770	18614.657543	3324.861095	10443.346404
62.535000	-0.018219	-0.010521	0.007288	-0.084753	4549.135983	19138.655051	3339.160557	10666.272705
63.035500	-0.020602	-0.010889	0.003196	-0.073762	4502.897725	18724.053483	3326.482081	10474.872105
63.536000	-0.017603	-0.013447	-0.006425	-0.081302	4539.214519	18904.553046	3324.766506	10605.652087
64.036000	-0.023474	-0.014003	0.002865	-0.083129	4525.174119	18950.935185	3334.023968	10637.683865
64.536000	-0.018686	-0.009271	0.001432	-0.079923	4530.653911	19006.851986	3330.132623	10581.573116
65.099500	-0.014305	-0.009324	-0.008148	-0.082176	4553.837197	19087.730235	3324.069571	10620.965081
65.537500	-0.017511	-0.008049	0.002681	-0.082640	4544.215395	19151.984181	3333.457841	10629.111066
66.037500	-0.014176	-0.010072	-0.010182	-0.084291	4561.762115	19138.200965	3324.135621	10658.140407
66.536500	-0.011878	-0.009157	-0.007439	-0.084710	4571.410202	19187.585286	3326.740391	10665.519215
67.035000	-0.017127	-0.009958	-0.013771	-0.079041	4533.002937	18949.360100	3316.954071	10566.194064
67.538000	-0.010462	-0.009733	-0.009252	-0.085613	4579.693875	19199.716421	3325.988459	10681.461015
68.035500	-0.013696	-0.009543	-0.001545	-0.080640	4550.579055	19023.169822	3328.251984	10594.089934
68.536000	-0.005828	-0.008334	-0.007149	-0.086362	4599.091436	19279.665641	3328.349655	10694.714086
69.035500	-0.008484	-0.007460	-0.001933	-0.087996	4595.388915	19373.502869	3334.082942	10723.690636
69.536000	-0.010069	-0.007150	-0.002415	-0.088963	4593.152342	19421.477414	3334.491666	10740.885023
70.036500	-0.010916	-0.006142	0.008033	-0.083695	4571.220968	19261.955351	3338.893313	10647.650448
70.537000	-0.009889	-0.006560	0.001170	-0.089918	4597.259173	19479.724085	3338.346569	10757.918088
71.037500	-0.005201	-0.008682	-0.007163	-0.091262	4619.257990	19450.348447	3332.429353	10781.936928
71.534500	-0.007863	-0.008137	-0.015853	-0.091840	4611.625421	19492.786996	3325.680574	10792.303104
72.035500	-0.012797	-0.006645	-0.009911	-0.085981	4572.664980	19328.538691	3325.748792	10687.968537
72.535000	-0.008446	-0.006669	0.002570	-0.094017	4617.462931	19631.103956	3343.070079	10831.425729
73.035000	-0.010525	-0.006824	-0.008326	-0.096983	4620.716675	19738.594505	3336.278317	10885.045350
73.535500	-0.011367	-0.006111	-0.018852	-0.097608	4619.922336	19789.999721	3327.970160	10896.389929
74.036500	-0.013007	-0.006330	-0.012453	-0.093685	4599.611954	19631.353421	3330.029392	10825.438810
74.536500	-0.011322	-0.005808	0.003987	-0.100754	4631.686290	19923.255536	3350.184151	10953.746407
75.036500	-0.012270	-0.006905	-0.007652	-0.097572	4616.471600	19758.076115	3337.351286	10895.728725
75.537000	-0.009709	-0.005825	-0.003779	-0.102679	4644.833336	19997.404922	3345.073710	10989.045480
76.037500	-0.012134	-0.005252	-0.012877	-0.103610	4639.267178	20056.089877	3338.043710	11006.174894
76.535000	-0.008173	-0.004065	-0.006375	-0.102921	4651.482380	20075.588296	3343.034619	10993.506889
77.038000	-0.009395	-0.004738	-0.004048	-0.102493	4645.312647	20032.559026	3344.678516	10985.630878
77.536000	-0.009637	-0.004572	-0.012826	-0.102495	4644.415736	20039.078396	3337.136940	10985.661742
78.035500	-0.012967	-0.003965	0.003765	-0.096717	4610.795014	19838.354450	3346.451345	10880.220298
78.536000	-0.008487	-0.004534	-0.001177	-0.102022	4646.945794	20022.146676	3346.767958	10976.989646
79.036500	-0.010878	-0.005523	-0.007431	-0.096271	4616.807577	19761.180196	3336.432639	10872.134505
79.536500	-0.009432	-0.003639	-0.004286	-0.100642	4638.277724	20003.196241	3342.869780	10951.692892
80.037000	-0.014551	-0.005047	-0.014951	-0.096469	4604.118301	19787.135583	3330.268922	10875.727034
80.534000	-0.008049	-0.005522	-0.013798	-0.100752	4643.837064	19934.246356	3334.834719	10953.705798
81.054000	-0.010092	-0.004140	-0.020282	-0.093268	4608.700046	19699.080977	3323.215545	10817.942268
81.548500	-0.008466	-0.005324	-0.003584	-0.099353	4637.081842	19887.709328	3342.363385	10928.150831
82.041500	-0.007012	-0.004330	-0.004264	-0.097808	4636.740479	19866.383393	3340.448784	10900.016086
82.535500	-0.011260	-0.005970	-0.017697	-0.099190	4626.139253	19856.437362	3330.247955	10925.186116
83.038500	-0.017365	-0.003892	-0.017560	-0.090859	4573.771136	19616.600379	3323.471668	10774.731808
83.554500	-0.010675	-0.003853	-0.006850	-0.095655	4615.295283	19801.747174	3336.403341	10860.992850
84.036000	-0.007575	-0.003504	-0.012086	-0.094260	4621.554247	19761.509843	3330.816561	10835.804566
84.534000	-0.005975	-0.003845	-0.006272	-0.095047	4630.353843	19778.653014	3336.377796	10849.995012
85.034000	-0.007345	-0.004962	-0.011413	-0.094970	4625.012592	19732.774053	3331.974496	10848.601106
85.534500	-0.007505	-0.004192	0.000173	-0.093638	4619.524104	19711.261533	3340.677709	10824.593905
86.035000	-0.008603	-0.003926	-0.004825	-0.087257	4592.286015	19478.700774	3331.032111	10710.564953
86.537500	-0.013021	-0.002893	-0.016880	-0.092116	4593.880573	19702.703983	3325.061860	10797.239878
87.035000	-0.013575	-0.004766	-0.005135	-0.086620	4572.169017	19423.044954	3330.241190	10699.280359
87.536000	-0.009223	-0.003693	-0.015982	-0.091567	4605.666861	19651.167846	3325.349089	10787.398278
88.036000	-0.011210	-0.003947	-0.025789	-0.085469	4576.504313	19410.556010	3312.488044	10678.924015
88.535500	-0.010689	-0.004849	0.005182	-0.091176	4598.922657	19592.251590	3342.872327	10780.407599
89.037000	-0.013696	-0.003811	-0.015654	-0.083493	4560.636591	19341.493056	3319.026677	10644.095130
89.537500	-0.010104	-0.004578	-0.017164	-0.090212	4597.544062	19565.883700	3323.265654	10763.161353
90.037500	-0.015832	-0.005503	-0.029055	-0.083635	4553.600975	19283.557777	3308.462587	10646.588152
90.535000	-0.007266	-0.003877	-0.006642	-0.088077	4600.095663	19511.585764	3330.199946	10725.134836
91.038000	-0.016054	-0.004802	-0.011575	-0.082692	4549.501704	19274.529129	3321.688477	10630.018478
91.535500	-0.008669	-0.004100	-0.010031	-0.086760	4590.260564	19453.413050	3326.292455	10701.767393
92.036000	-0.013987	-0.004200	-0.000492	-0.080781	4550.049743	19225.744391	3329.243360	10596.540965
92.536000	-0.009210	-0.003950	-0.018551	-0.086173	4586.197362	19436.928276	3318.851700	10691.370988
93.036000	-0.012022	-0.004831	-0.019761	-0.085808	4574.814593	19390.056070	3317.580376	10684.915745
93.536000	-0.009182	-0.004092	-0.018240	-0.085274	4583.066200	19397.753238	3318.375584	10675.466727
94.037000	-0.010462	-0.003069	-0.007502	-0.078984	4556.131034	19201.021606	3321.985776	10565.203898
94.537500	-0.011789	-0.004732	-0.010813	-0.085164	4573.344049	19369.586288	3324.334491	10673.529235
95.034500	-0.010413	-0.003010	0.000172	-0.083474	4572.225738	19370.813305	3332.049703	10643.763191
95.535000	-0.008068	-0.003556	-0.001145	-0.083536	4580.828293	19352.645212	3330.998303	10644.845069
96.060000	-0.013620	-0.003621	-0.001097	-0.080969	4552.002315	19254.329375	3328.897070	10599.836420
96.535500	-0.006987	-0.002706	-0.016395	-0.082306	4580.292508	19338.394249	3317.470691	10623.240140
97.035500	-0.004687	-0.003829	-0.007110	-0.082179	4588.101563	19291.706102	3324.924958	10621.025754
97.536500	-0.007485	-0.003033	-0.014349	-0.081412	4575.315101	19292.767004	3318.399700	10607.580948
98.063500	-0.010999	-0.004770	0.009099	-0.077441	4548.815717	19081.063225	3334.485435	10538.404769
98.536500	-0.005373	-0.002715	-0.015199	-0.079899	4577.457846	19248.212491	3316.496666	10581.154001
