sample name	sample
index	1474
start time	 05-18-2021  12:14:37 PM
880	0.032291
Peak Time (s)	92.538
Peak Height 	0.03229
calc peak height	90,93
Baseline Time (s)	9.537
Baseline Value 	-0.005781
subtract baseline	10,4
Abs	0.020005
Peak Time (s)	90.037
Peak Height 	0.02
calc peak height	90,93
Baseline Time (s)	11.037
Baseline Value 	0.003727
subtract baseline	10,3
PK_550	0.024904
Peak Time (s)	92.037
Peak Height 	0.0249
calc peak height	90,93
Baseline Time (s)	9.036
Baseline Value 	3.0859E-5
subtract baseline	10,2
PK_880	0.020718
Peak Time (s)	90.037
Peak Height 	0.02072
calc peak height	90,93
Baseline Time (s)	11.037
Baseline Value 	0.00199
subtract baseline	10,1


Time (s)	A880-A510	A880-A775	A880-A975	A880	I510	I775	I975	I880	
0.036500	-0.002107	-0.000607	0.000557	0.001790	6563.537644	44711.225665	3956.936740	23359.788320
0.537000	-0.002842	-0.000454	-0.004378	0.004179	6537.265440	44496.610397	3938.877430	23247.506873
1.040000	-0.001644	0.000840	-0.002334	0.004562	6544.101841	44583.915767	3942.947729	23229.566725
1.537500	-0.002855	-0.000447	-0.003783	0.006426	6518.382666	44282.727445	3934.845965	23142.458852
2.038000	-0.000990	-0.000160	-0.001846	0.000318	6585.438385	44896.215355	3954.623348	23429.250475
2.535500	0.001014	0.000178	-0.002747	0.000378	6601.987499	44923.230015	3952.243733	23426.440796
3.038500	-0.001205	-0.000433	-0.002550	-0.001958	6602.978632	45090.350588	3958.530976	23537.155223
3.536000	-0.001806	0.000428	0.000761	0.001340	6569.876254	44854.365512	3958.562236	23380.981504
4.036000	-0.003742	0.000541	-0.001129	0.005197	6521.239167	44494.396618	3944.347449	23199.852601
4.536500	-0.000852	0.000347	-0.001922	0.000917	6581.535660	44887.360989	3952.950892	23400.959434
5.037000	-0.001865	-0.000103	-0.003573	0.000775	6574.154137	44857.589839	3949.218379	23407.661547
5.537000	0.001865	0.000991	-0.001524	0.001748	6597.557883	44869.323652	3951.877613	23361.759349
6.037500	0.000262	0.000325	0.000968	0.000895	6591.178955	44887.409255	3960.190056	23402.013519
6.537000	-0.000567	-0.000801	0.004145	0.000082	6591.046689	44857.147234	3970.187125	23440.439239
7.035000	0.001925	0.000564	-0.002877	0.001009	6604.371012	44899.498496	3950.361286	23396.618677
7.538000	-0.000591	0.000149	-0.001481	0.000636	6586.133413	44895.426531	3954.741588	23414.241627
8.035500	0.002141	0.001228	-0.002742	0.001262	6604.052327	44939.217141	3950.068653	23384.671015
8.536000	-0.001207	0.000258	-0.003662	0.000603	6581.184861	44909.126745	3949.423188	23415.797306
9.036000	0.001127	0.000000	0.000426	-0.000012	6606.275757	44943.701188	3961.099391	23444.887679
9.536500	-0.000176	-0.000396	-0.003683	0.000000	6595.064633	44904.231715	3950.862879	23444.304836
10.037000	0.001488	0.000847	0.001693	0.000655	6603.661408	44961.112684	3962.598659	23413.340501
10.537500	0.000569	-0.000280	0.001005	-0.000029	6601.658834	44918.301000	3962.588967	23445.693510
11.037500	0.000000	-0.000138	0.000000	-0.000058	6597.055399	44934.795973	3960.151291	23447.045875
11.534500	-0.001755	0.000708	-0.005369	0.000361	6578.592399	44976.136101	3945.813443	23427.252791
12.035500	-0.001345	-0.000048	-0.000200	0.003688	6553.959618	44582.588444	3950.354453	23270.514521
12.535500	-0.002388	0.001038	-0.003525	0.000724	6570.157240	44972.905274	3949.463985	23410.065713
13.036000	0.000245	0.000623	0.001706	-0.000283	6601.063857	45030.240933	3964.978101	23457.710178
13.535500	0.000852	0.000174	0.000778	-0.000521	6608.266424	45009.731490	3963.249460	23468.953567
14.036500	-0.001522	-0.000149	-0.003640	0.002697	6560.818647	44668.113466	3944.321233	23317.101472
14.537000	-0.001624	0.000058	-0.004840	0.001474	6570.278785	44805.697835	3944.376902	23374.676066
15.040000	-0.000666	0.000016	-0.002157	-0.000740	6597.189987	45015.776486	3956.480988	23479.359688
15.537500	0.000210	0.000565	0.000360	-0.000454	6602.223078	45041.187112	3962.039745	23465.803731
16.035000	-0.004036	-0.000565	-0.003900	0.004882	6521.413183	44418.790966	3938.330463	23214.607360
16.535000	-0.000146	0.000707	-0.002407	-0.000246	6597.419144	45034.787914	3954.631902	23455.955815
17.038000	0.001091	0.000366	0.001010	-0.002997	6631.528269	45269.113987	3970.043769	23586.596494
17.535000	-0.002151	0.001174	-0.001847	0.001946	6561.845849	44867.923361	3950.590746	23352.435021
18.036000	-0.002367	0.000502	0.002807	0.001368	6564.900427	44858.847673	3963.601825	23379.684428
18.536000	0.000414	0.000504	0.000637	0.001311	6588.930722	44864.451620	3958.325719	23382.344790
19.036500	-0.001227	0.000778	-0.000292	0.001200	6575.956508	44901.697188	3956.292033	23387.596114
19.537000	0.000956	0.000719	0.001390	0.001636	6590.783243	44853.895550	3959.394333	23367.059468
20.034000	0.000883	0.000961	-0.001923	0.002126	6585.998874	44829.914165	3949.957830	23343.960465
20.537500	-0.002506	0.000532	-0.001303	0.000963	6567.144214	44900.846254	3954.372474	23398.797632
21.037500	0.000131	0.000069	-0.002249	0.001250	6587.040503	44828.317986	3951.315704	23385.223987
21.535000	-0.002346	-0.000417	-0.005702	0.000377	6573.450511	44865.748419	3944.954373	23426.473645
22.035500	-0.000526	0.000736	0.003111	0.002548	6570.484423	44767.525142	3961.411339	23324.092541
22.536000	0.001403	0.000467	-0.002203	0.001629	6594.637893	44830.279390	3950.494728	23367.385542
23.036000	0.000242	0.000271	-0.000666	0.000787	6591.929420	44892.658854	3956.389480	23407.116067
23.536500	0.000030	0.000063	-0.001044	0.001222	6586.429419	44830.505343	3954.370443	23386.561161
24.036500	-0.001604	0.000795	0.004131	0.001518	6570.076457	44872.592895	3966.542815	23372.608322
24.537000	-0.001848	0.000665	-0.000792	0.001273	6570.089007	44883.771821	3954.869246	23384.167283
25.037500	0.000725	0.000185	-0.000382	0.001152	6592.929348	44849.064974	3956.187597	23389.861756
25.534000	-0.002675	-0.000264	0.002416	0.000518	6569.485334	44867.008102	3964.751206	23419.831029
26.035000	0.000587	-0.000212	-0.007521	0.000897	6593.920235	44835.303473	3939.218899	23401.890820
26.538000	-0.000434	-0.000416	-0.000313	0.000832	6585.803859	44821.988314	3957.155458	23404.977095
27.035500	-0.001042	0.000930	0.002400	-0.000551	6592.383434	45086.016816	3967.389492	23470.393704
27.537000	0.001082	0.000759	0.000829	-0.001098	6615.171650	45122.621620	3964.823866	23496.338938
28.036500	-0.003426	0.000176	0.001899	0.003539	6537.735216	44618.413213	3955.925758	23277.526708
28.536500	0.001006	0.000426	0.002194	-0.000675	6610.896781	45049.142955	3967.183701	23476.266286
29.037000	0.000170	0.000255	0.000386	-0.000590	6603.040936	45024.344529	3962.442840	23472.235633
29.536500	-0.001134	0.000094	-0.000659	-0.000837	6594.035604	45032.700845	3960.451585	23483.953571
30.034500	-0.003869	-0.000513	-0.004447	0.002404	6543.539968	44661.219532	3943.056383	23330.845430
30.537500	-0.002770	-0.000008	0.001065	0.001771	6558.106815	44770.794130	3958.249531	23360.684031
31.035500	-0.001491	0.000008	-0.002515	0.001729	6569.246148	44776.330143	3949.476310	23362.643633
31.538500	-0.000192	-0.000414	0.001333	-0.000876	6602.389239	44987.218529	3965.528373	23485.783708
32.036000	-0.002874	0.000102	-0.000213	0.002194	6553.664106	44740.550949	3954.022432	23340.747978
32.536000	0.001496	0.000091	-0.001193	-0.001037	6618.193619	45051.855426	3959.618146	23493.451501
33.039500	0.001279	0.000341	-0.001058	0.000567	6602.630105	44920.638083	3955.962579	23417.499115
33.537000	-0.000936	0.000629	-0.005843	0.000813	6581.701574	44924.717043	3943.536543	23405.881467
34.037000	-0.001815	0.000621	0.000416	0.002177	6562.733966	44792.178017	3955.625464	23341.547967
34.537000	-0.001473	0.000538	-0.000583	0.001502	6571.322933	44849.373069	3954.821684	23373.379470
35.043000	-0.000498	0.001011	0.000059	0.001664	6578.202517	44879.386743	3956.012017	23365.713541
35.535000	-0.002908	0.000802	0.000263	0.001832	6556.424655	44842.940326	3956.100891	23357.798725
36.038000	-0.001001	0.000584	-0.000023	0.001476	6575.533670	44856.342040	3956.275955	23374.588561
36.536500	-0.001952	-0.000559	-0.005115	0.000607	6574.838444	44829.757645	3945.830279	23415.582199
37.036000	-0.003978	-0.000558	0.001142	0.001490	6550.303491	44744.863462	3959.140757	23373.931748
37.536500	-0.000573	-0.000055	0.000107	0.001034	6582.906300	44837.279745	3957.697761	23395.423365
38.036000	-0.001180	0.000216	0.000091	0.000999	6578.053353	44866.825361	3957.743446	23397.075064
38.536500	-0.001556	0.000314	-0.000564	0.001243	6572.809732	44852.701932	3955.510200	23385.569253
39.037000	-0.002305	-0.000144	-0.003082	0.000581	6572.076215	44872.465087	3950.911335	23416.840591
39.537500	-0.000098	0.000186	-0.001841	0.000937	6587.759643	44869.958867	3953.101530	23400.019355
40.035000	-0.001021	-0.000064	0.000972	0.001000	6579.398844	44839.721016	3959.936119	23397.038273
40.543500	-0.001327	-0.000332	-0.001933	0.000368	6582.157219	44874.828263	3954.285389	23426.903706
41.038500	-0.001770	-0.000094	0.002419	0.000604	6576.404691	44874.945378	3964.541216	23415.724091
41.535500	-0.001732	-0.000016	-0.002415	0.000472	6577.848604	44895.376378	3952.832702	23421.987660
42.035500	-0.003072	0.000305	-0.000631	0.001258	6559.876625	44850.408355	3955.306217	23384.859978
42.536500	-0.000300	-0.000182	0.003180	0.000731	6587.798379	44854.321420	3966.132302	23409.760307
43.036500	-0.002390	0.000805	0.000937	0.001286	6565.395402	44895.942855	3959.135128	23383.522957
43.537000	0.001901	0.000658	0.001408	-0.002806	6636.849114	45279.002779	3970.566018	23577.501014
44.037000	-0.001195	-0.000236	-0.001984	0.002362	6566.400518	44691.883290	3949.224162	23332.837461
44.537500	0.000519	0.000436	0.004742	-0.000752	6607.401133	45057.596171	3973.792894	23479.925683
45.038000	-0.002377	0.000417	-0.002301	0.002884	6552.048943	44704.554317	3947.154929	23308.315461
45.535500	0.001652	0.000553	-0.000348	-0.000620	6615.959369	45056.186121	3960.684884	23473.670508
46.036000	-0.003059	0.000284	-0.004310	0.005358	6525.592792	44454.420598	3936.164316	23192.317100
46.536000	-0.000135	-0.000336	0.000124	-0.001638	6609.381968	45068.710570	3964.408377	23521.959244
47.036000	-0.004979	-0.000120	-0.002932	0.002240	6535.611344	44714.825563	3947.186861	23338.587674
47.536500	-0.002577	0.000362	-0.005522	0.001362	6563.174689	44845.836069	3942.976511	23379.944986
48.037500	-0.002416	0.000902	-0.003348	0.005874	6526.651714	44464.176802	3937.253139	23168.219149
48.536500	-0.000225	0.000621	-0.000079	-0.001103	6604.039185	45109.611663	3962.561391	23496.545383
49.036500	-0.002254	0.000610	-0.000277	0.003202	6550.400233	44692.433398	3951.365366	23293.345176
49.535000	0.000051	-0.000173	0.003579	-0.003811	6629.585133	45295.997085	3978.590096	23625.420028
50.038000	-0.001458	-0.000582	-0.001170	0.003100	6557.964667	44587.779832	3949.411242	23298.150675
50.535500	0.006961	-0.003282	0.006809	0.032233	6387.543749	41643.116588	3898.432886	21974.342824
51.035000	-0.005905	-0.017145	0.013227	0.418205	4291.614783	18343.842939	3303.291209	10739.663208
51.536000	-0.001346	-0.017344	-0.001264	0.122986	5676.078691	33340.376272	3690.565687	18376.290098
52.036000	-0.007961	-0.005661	-0.018047	0.087438	5867.390440	36834.981424	3726.485144	19696.852642
52.536500	-0.004226	-0.021275	-0.026350	-0.137422	7923.670557	57826.186204	4275.608338	31093.260038
53.037000	-0.042725	-0.056653	-0.023942	-0.212147	8360.750422	63032.523032	4547.412608	36387.538847
53.537000	-0.026430	-0.059343	-0.015136	-0.221158	8688.455191	63913.800951	4617.364273	37089.750312
54.037500	-0.019828	-0.065278	-0.000652	-0.229540	8891.690880	64258.453934	4711.448059	37756.164429
54.535000	-0.018137	-0.037424	0.000365	-0.164018	8072.586001	59162.801879	4458.261496	32874.104851
55.034500	-0.028830	-0.025677	-0.007197	-0.106147	7317.044700	53496.193903	4237.111532	29133.978522
55.535500	-0.022552	-0.019498	-0.012081	-0.118514	7510.842880	55702.549189	4260.746813	29891.890624
56.036000	-0.017074	-0.014413	-0.009876	-0.125888	7649.351768	57238.591809	4291.604285	30354.181986
56.536500	-0.013937	-0.013573	-0.014704	-0.133201	7765.041065	58268.003813	4299.722592	30820.499846
57.036500	-0.009607	-0.012032	-0.010462	-0.127287	7747.329272	57713.492602	4294.256015	30442.792478
57.536000	0.000398	-0.005325	-0.008619	-0.119433	7771.390101	57568.936004	4274.776018	29949.063669
58.037000	0.001917	-0.004253	-0.004186	-0.106361	7643.497410	56079.694727	4247.246087	29146.885730
58.537500	0.004432	-0.002856	-0.003283	-0.103429	7638.942988	55892.166920	4240.862000	28970.243891
59.035000	0.003299	0.001210	0.001485	-0.075566	7332.812271	53067.757738	4170.231217	27349.822186
59.538000	0.003789	0.002266	0.001677	-0.060242	7183.935711	51447.166256	4125.949432	26501.970031
60.035500	0.006470	0.004533	0.000134	-0.042554	7038.409737	49754.458789	4071.857209	25559.819562
60.536000	0.008809	0.008371	0.005968	-0.021604	6864.776924	47945.111642	4030.989293	24492.429961
61.039000	0.004985	0.009054	0.004032	0.011170	6544.276598	44738.259752	3942.354405	22922.503436
61.536500	0.007162	0.011622	0.001508	0.008092	6588.648402	45285.406884	3943.712657	23064.934939
62.037000	0.007245	0.012998	0.007688	0.005123	6614.671291	45711.387514	3966.422233	23203.327334
62.537000	0.004206	0.013141	0.006315	-0.000595	6637.660500	46292.682138	3977.374683	23472.466083
63.046500	0.005811	0.013465	0.001201	-0.005000	6689.762898	46767.577072	3975.580888	23682.267481
63.537500	0.011267	0.015305	0.002166	-0.017207	6847.102335	48208.867278	4009.408958	24274.851277
64.035000	0.009483	0.015833	0.003846	-0.016059	6820.546725	48144.324590	4010.795613	24218.422214
64.535500	0.010783	0.015115	0.000752	-0.026159	6924.835961	49131.778351	4029.231939	24720.113996
65.035000	0.008026	0.014608	-0.002799	-0.024002	6879.548865	48849.204849	4014.189876	24612.002834
65.536000	0.007775	0.014678	0.000619	-0.032221	6953.248390	49734.236476	4045.069433	25026.927374
66.039000	0.010077	0.014677	0.006181	-0.032346	6975.969855	49747.606183	4060.466204	25033.288223
66.536500	0.010420	0.014639	0.007047	-0.031222	6968.634429	49622.387692	4059.761386	24976.034440
67.037000	0.007347	0.014545	-0.000218	-0.022310	6857.874514	48664.071787	4016.519811	24527.562870
67.540000	0.013268	0.014778	0.012216	-0.025566	6942.419787	49033.000335	4058.436493	24690.369185
68.037000	0.006521	0.015023	0.000121	-0.018112	6812.345515	48273.896316	4006.440478	24319.460998
68.535000	0.011288	0.015645	0.004847	-0.019494	6868.140207	48483.668245	4022.434841	24387.742788
69.038000	0.011426	0.016160	0.006585	-0.016423	6841.427428	48216.291068	4018.925246	24236.285444
69.535500	0.011510	0.016903	0.007930	-0.014373	6823.620573	48080.187539	4017.072029	24135.779240
70.036000	0.007955	0.016858	0.004044	-0.008137	6736.138511	47431.784865	3990.811545	23832.963093
70.535500	0.012366	0.018438	0.007416	-0.011794	6808.080034	47971.731908	4008.980627	24009.993275
71.036500	0.013587	0.018241	0.006736	-0.011773	6818.894655	47949.118275	4007.156261	24008.977180
71.536500	0.013973	0.019024	0.010605	-0.010652	6812.263497	47914.036352	4014.327965	23954.542975
72.037000	0.011789	0.019708	0.002397	-0.004962	6741.958777	47398.475671	3978.511360	23680.431387
72.537000	0.016558	0.019609	0.003887	-0.008724	6818.187274	47775.222055	3991.912762	23861.273145
73.037000	0.011736	0.019587	0.007346	-0.002408	6718.960477	47125.339090	3984.603485	23558.554431
73.538000	0.016151	0.020488	0.009760	-0.006176	6791.621881	47603.215442	4000.482689	23738.648053
74.035000	0.013454	0.020773	0.008926	0.000563	6707.957561	46944.133577	3981.062561	23417.698403
74.535500	0.018153	0.020860	0.012178	-0.002248	6774.394389	47238.771069	3996.581876	23550.934679
75.036000	0.014282	0.021095	0.007068	0.005674	6670.577596	46461.275311	3963.488387	23177.563577
75.536500	0.016116	0.021587	0.008206	0.001941	6719.229803	46886.919555	3975.742508	23352.662310
76.036500	0.013177	0.021942	0.009107	0.008402	6637.441769	46273.228983	3961.767165	23050.582721
76.539500	0.018857	0.021766	0.010166	0.006036	6707.340993	46492.346005	3970.353617	23160.666416
77.037000	0.013645	0.021440	0.004625	0.013181	6600.516164	45749.193938	3938.880133	22829.964955
77.540000	0.018337	0.022243	0.010749	0.009905	6669.048751	46153.356991	3962.111044	22980.905246
78.037500	0.017137	0.021663	0.015516	0.011004	6649.154042	45986.541657	3971.318087	22930.178660
78.535000	0.019614	0.020671	0.015266	0.011677	6664.752093	45821.770436	3968.992817	22899.128081
79.035500	0.013772	0.021383	0.009758	0.018337	6557.897866	45238.267800	3938.823327	22594.686921
79.535500	0.020427	0.022130	0.013021	0.013431	6656.602020	45792.672754	3958.984490	22818.509049
80.036000	0.021711	0.021965	0.014534	0.013754	6664.928629	45744.504280	3961.953418	22803.695365
80.537500	0.020681	0.022236	0.013730	0.014678	6648.025207	45680.120565	3957.646670	22761.382418
81.036500	0.016341	0.022180	0.007932	0.021502	6552.882266	45008.100503	3926.693627	22451.646256
81.536500	0.021032	0.023496	0.008168	0.017542	6626.398288	45522.579975	3936.883783	22630.810324
82.038000	0.020281	0.022918	0.014974	0.017601	6619.454720	45460.158890	3953.477788	22628.124459
82.537500	0.020298	0.022822	0.013968	0.018823	6609.139767	45331.188396	3947.967041	22572.648588
83.038000	0.014424	0.023102	0.011185	0.025275	6505.325940	44732.804837	3925.437710	22282.503609
83.535500	0.020538	0.022980	0.015644	0.020461	6597.216520	45187.014875	3948.062835	22498.604251
84.035500	0.018912	0.023305	0.013913	0.021597	6573.767318	45108.055824	3941.013521	22447.363767
84.536000	0.019541	0.022508	0.014103	0.021809	6577.307878	45010.249554	3940.961449	22437.843398
85.036000	0.015757	0.023369	0.011017	0.028155	6492.497826	44481.936622	3918.105367	22154.326714
85.536500	0.017618	0.023923	0.013039	0.024433	6538.995527	44893.230238	3931.964776	22320.112844
86.037000	0.019653	0.024480	0.015729	0.031204	6499.514666	44296.955264	3922.098291	22019.590828
86.537000	0.018456	0.023293	0.018909	0.025730	6535.146460	44707.351877	3943.132863	22262.188416
87.037500	0.020192	0.023715	0.016031	0.027020	6538.880899	44623.919033	3932.948939	22204.736583
87.535000	0.019945	0.024134	0.014644	0.028032	6528.356899	44567.068514	3927.134283	22159.817118
88.038000	0.020999	0.023126	0.018040	0.028398	6534.098902	44435.491458	3934.484424	22143.563114
88.535500	0.021451	0.023772	0.015980	0.028947	6533.298930	44444.792770	3928.152029	22119.266448
89.035500	0.018584	0.023657	0.015974	0.032632	6478.881844	44083.134111	3919.257985	21956.831299
89.536000	0.020562	0.024129	0.017619	0.030399	6513.750970	44340.189413	3928.603495	22055.062505
90.036500	0.020718	0.024110	0.020005	0.030291	6515.951672	44348.742843	3934.658731	22059.845777
90.536500	0.019027	0.023892	0.016747	0.030571	6499.573412	44301.274863	3926.079870	22047.504930
91.037000	0.019439	0.024392	0.017435	0.031516	6495.154172	44258.868375	3925.457919	22005.846031
91.537000	0.020156	0.024350	0.014329	0.032028	6496.855256	44206.222886	3916.761403	21983.354259
92.037000	0.020547	0.024904	0.014820	0.032149	6499.090099	44247.292145	3917.645777	21978.018830
92.537500	0.019072	0.024858	0.018943	0.032291	6485.717948	44229.466132	3927.229027	21971.794458
93.035500	0.016350	0.024594	0.019554	0.035989	6433.083964	43854.337570	3919.790974	21810.030826
93.535000	0.019563	0.025030	0.016582	0.032329	6489.460342	44242.196796	3921.444271	21970.107352
94.036000	0.014911	0.023270	0.003826	0.034629	6432.443334	43857.763864	3885.860879	21869.373225
94.536000	0.021474	0.023554	0.017699	0.032457	6504.230900	44089.882750	3923.824918	21964.495510
95.036500	0.016964	0.024236	0.017247	0.035241	6444.190639	43891.129802	3916.056430	21842.644362
95.536500	0.020114	0.024795	0.017834	0.033820	6481.699114	44078.324903	3920.869280	21904.739952
96.037000	0.015822	0.023643	0.009166	0.038495	6408.484138	43529.837320	3889.290154	21701.205491
