sample name	sample
index	598
start time	 03-16-2021  04:54:17 PM
880	0.045539
Peak Time (s)	181.536
Peak Height 	0.04554
calc peak height	180,183
Baseline Time (s)	10.039
Baseline Value 	-0.006973
subtract baseline	10,4
Abs	0.048098
Peak Time (s)	181.036
Peak Height 	0.0481
calc peak height	180,183
Baseline Time (s)	10.54
Baseline Value 	0.001267
subtract baseline	10,3
PK_550	0.030844
Peak Time (s)	182.537
Peak Height 	0.03084
calc peak height	180,183
Baseline Time (s)	10.039
Baseline Value 	-0.004142
subtract baseline	10,2
PK_880	0.044266
Peak Time (s)	182.537
Peak Height 	0.04427
calc peak height	180,183
Baseline Time (s)	11.037
Baseline Value 	-4.8955E-4
subtract baseline	10,1


Time (s)	A880-A510	A880-A775	A880-A975	A880	I510	I775	I975	I880	
0.036000	0.000297	0.003547	0.001471	0.007449	5456.988768	32591.162967	3620.341150	17629.969659
0.536000	-0.001469	0.002002	-0.002086	0.009294	5435.745209	32360.559986	3610.986688	17567.481036
1.036500	-0.002519	0.001332	-0.001981	0.007733	5438.741634	32420.984236	3613.858633	17620.338567
1.542500	0.000999	0.001793	-0.004960	0.005633	5471.906415	32595.406064	3612.341928	17691.757766
2.037500	0.000928	0.002423	0.000746	0.006239	5467.887235	32597.064846	3621.186914	17671.129103
2.537500	0.001521	0.001884	-0.002803	0.005566	5475.411056	32606.237526	3616.186537	17694.046268
3.035500	0.001305	0.001142	-0.001062	0.001440	5498.784909	32838.403598	3626.423050	17835.439145
3.535500	0.001244	0.001535	-0.002808	0.003550	5485.773441	32720.366501	3619.678626	17762.953496
4.039000	0.002173	0.000707	0.001748	0.004064	5488.263528	32628.455209	3626.749422	17745.380725
4.536000	-0.000389	0.001033	0.000443	0.002515	5482.208720	32757.012064	3627.178666	17798.484165
5.036500	0.001630	0.001241	-0.004531	0.003042	5491.120670	32735.000633	3617.565670	17780.366151
5.542000	0.001045	0.000008	0.004176	0.001997	5493.879984	32722.141099	3634.688913	17816.260280
6.037000	-0.000055	0.000108	0.000266	0.001155	5492.334093	32786.861235	3629.261411	17845.260804
6.537000	0.000695	0.000525	-0.000416	0.001747	5493.282587	32774.854210	3627.017355	17824.873176
7.034500	-0.000675	0.000590	-0.004033	0.001919	5484.060598	32767.490625	3620.386146	17818.951567
7.535000	0.001428	0.000788	-0.005005	0.001694	5497.994671	32796.564375	3619.085078	17826.678285
8.035000	-0.000183	-0.000379	0.003108	0.001054	5492.169167	32760.301486	3634.465392	17848.712470
8.535500	0.001935	0.000262	-0.001486	0.000546	5507.942321	32839.378293	3627.247486	17866.227424
9.036000	0.000631	-0.000055	0.007453	0.000781	5498.692713	32801.405480	3642.708033	17858.144908
9.535500	-0.000504	0.000102	-0.005697	0.000472	5493.737886	32833.430015	3620.008080	17868.796067
10.039000	-0.001021	0.000000	0.004134	0.000000	5493.468313	32858.944901	3638.167471	17885.088488
10.539500	-0.001017	0.000080	0.000000	-0.000355	5495.618668	32888.940979	3631.457389	17897.366348
11.036500	0.000000	-0.000115	0.002776	-0.000781	5504.283971	32904.881706	3637.139138	17912.077008
11.543000	0.000929	-0.000002	-0.000875	-0.000315	5507.073770	32880.467291	3629.839397	17895.960138
12.037500	0.003330	0.000006	0.004728	-0.000631	5523.489976	32902.889596	3640.355410	17906.900343
12.534500	0.002999	0.000031	0.002332	-0.000814	5522.592817	32917.246266	3636.407793	17913.233849
13.035500	0.001074	-0.000046	0.008021	-0.000726	5510.423070	32905.831499	3646.437552	17910.184365
13.538000	-0.000399	0.000617	0.000937	0.002826	5480.293253	32707.082946	3627.499100	17787.789448
14.035500	-0.001368	-0.000110	-0.005999	0.001917	5479.936969	32719.568778	3616.972501	17819.026859
14.536000	-0.000516	0.000816	-0.000633	0.001874	5485.273674	32786.090008	3626.413203	17820.482248
15.036500	0.002236	0.000488	-0.007126	-0.000763	5517.659976	32945.289309	3619.669313	17911.453136
15.537000	0.000986	0.000453	-0.003315	-0.001095	5512.117830	32965.841122	3626.917722	17922.952568
16.036500	-0.001047	-0.000006	-0.000705	0.002832	5476.401942	32663.967231	3624.607324	17787.593711
16.536500	0.000698	-0.000983	-0.003125	-0.001949	5515.537833	32925.606867	3628.754793	17952.569564
17.034500	0.003033	-0.000118	-0.001019	-0.005022	5548.418022	33198.902312	3637.934569	18059.562508
17.535000	0.000823	-0.000655	0.002927	-0.000625	5508.304387	32856.907601	3637.130341	17906.709120
18.035500	-0.001399	-0.000425	0.008314	0.000268	5489.601361	32811.219766	3645.175988	17875.837491
18.538000	0.002927	-0.000614	0.000037	-0.000710	5521.526681	32865.578531	3632.151087	17909.646041
19.036000	-0.000594	0.000431	0.002003	-0.000212	5497.297913	32903.292431	3634.752552	17892.419439
19.539000	0.000293	0.000478	0.003885	-0.000243	5502.812044	32908.708052	3638.156885	17893.489616
20.037000	0.001081	-0.000297	-0.001702	-0.000826	5511.065924	32895.417045	3629.283049	17913.638193
20.539500	0.002937	-0.000575	-0.001686	-0.001306	5525.202028	32909.434034	3630.159023	17930.282587
21.034500	-0.002042	-0.001635	0.002997	-0.002828	5504.311393	32941.220145	3641.188488	17983.072884
21.537000	0.002602	-0.000015	-0.000279	-0.000507	5518.328225	32892.832035	3631.231837	17902.600074
22.035000	0.000578	-0.000462	0.001426	-0.001574	5512.545806	32935.687774	3636.147091	17939.538122
22.535000	-0.001757	-0.000579	0.000458	-0.001632	5498.840840	32931.588398	3634.530081	17941.560865
23.036000	0.002516	0.000211	0.005249	-0.001604	5524.451069	32984.307625	3643.032393	17940.599760
23.538000	0.003625	0.000332	-0.005407	-0.001314	5529.425363	32972.597378	3623.632852	17930.546872
24.035500	-0.000473	-0.000424	-0.003175	-0.002474	5511.632886	33000.576443	3629.591244	17970.772767
24.536500	0.000696	0.000164	-0.003373	-0.001881	5515.114354	33000.252490	3628.199562	17950.215424
25.037000	-0.002022	-0.000949	-0.000834	-0.002669	5503.478614	32977.708108	3634.077187	17977.546110
25.539500	0.000311	-0.000516	0.003630	-0.002211	5514.782230	32976.003732	3641.217407	17961.640527
26.037500	0.000011	-0.000141	-0.002834	-0.002956	5517.470692	33053.612096	3631.044757	17987.531283
26.534500	0.001673	0.000739	-0.001738	-0.001746	5520.205351	33030.734258	3630.843924	17945.525552
27.035500	0.000745	-0.001229	-0.000336	-0.006278	5542.112120	33208.968772	3641.397876	18103.515087
27.537500	0.002929	-0.000308	0.001547	-0.002585	5532.918195	33016.282299	3638.163942	17974.636379
28.036000	-0.000676	-0.001854	-0.001004	-0.000518	5498.640983	32766.981771	3629.970515	17902.974974
28.536000	0.002491	0.000149	-0.002507	-0.004235	5540.300806	33162.647242	3633.888076	18032.073624
29.039000	-0.001382	-0.001060	-0.000015	-0.005482	5524.336688	33165.329537	3640.548652	18075.657870
29.536000	0.006908	0.000740	0.000217	-0.003859	5565.065014	33177.665916	3638.063793	18018.991499
30.037000	0.000542	-0.000041	-0.004895	-0.001053	5509.189440	32928.760808	3624.072905	17921.506023
30.534500	0.000152	-0.000303	0.006119	-0.002122	5513.285747	32984.609677	3645.526409	17958.572514
31.038000	0.000956	-0.000452	-0.000990	-0.003883	5528.811365	33096.354346	3635.955949	18019.797330
31.542500	0.000228	-0.000221	0.005015	-0.005119	5531.902259	33198.457893	3648.942310	18062.939296
32.035500	-0.001484	-0.001098	-0.000848	-0.001646	5500.560353	32896.720325	3632.240632	17942.043509
32.535000	0.000249	0.000355	0.001971	-0.005110	5531.973851	33238.017217	3643.442011	18062.638671
33.036000	0.003506	-0.000296	-0.003549	-0.006344	5559.426966	33278.758788	3635.782761	18105.837011
33.536000	0.000572	-0.000975	0.001177	-0.005217	5534.591808	33152.786301	3642.207956	18066.372549
34.036500	-0.002028	-0.001121	-0.004968	-0.002570	5502.845197	32958.975094	3626.604655	17974.106662
34.536500	-0.001379	-0.000498	0.001053	-0.004168	5516.395070	33112.982365	3640.108375	18029.748064
35.037000	0.001547	0.000323	-0.000601	-0.003825	5532.049842	33146.186565	3636.544987	18017.778650
35.541000	0.003139	0.000285	0.001282	-0.003416	5539.261796	33115.170436	3639.175079	18003.558121
36.035000	0.000064	-0.001060	-0.003470	-0.002866	5517.247959	32983.693045	3629.763519	17984.400342
36.535500	0.002610	0.000273	0.002819	-0.004039	5539.829499	33157.628633	3643.040724	18025.244932
37.035500	-0.002307	-0.000622	0.001080	-0.004796	5514.581138	33148.069891	3641.280891	18051.671306
37.535500	-0.000930	-0.000201	0.006538	-0.004819	5523.056565	33178.947682	3651.157825	18052.485318
38.036000	0.001694	-0.000592	-0.003342	-0.004433	5536.649768	33124.891447	3632.760041	18038.993403
38.539000	0.000601	-0.001158	0.001613	-0.005156	5534.396348	33135.797122	3642.880240	18064.236555
39.036000	0.000597	0.000244	-0.000237	-0.003956	5527.080438	33149.812244	3637.427124	18022.345970
39.537000	-0.001188	-0.000170	0.002509	-0.004958	5522.328383	33190.770356	3644.133299	18057.308895
40.034000	-0.000745	-0.000043	-0.005808	-0.004654	5523.174206	33178.475322	3628.792887	18046.698918
40.537500	0.001670	-0.000428	0.000013	-0.004908	5539.393667	33169.278418	3639.572012	18055.561603
41.035000	-0.000375	-0.000042	0.005178	-0.004291	5523.216500	33153.205542	3647.740720	18034.030699
41.535000	0.001521	-0.000439	0.003786	-0.005077	5539.520152	33180.342590	3646.647766	18061.478523
42.035500	-0.000024	0.000193	0.005877	-0.004428	5526.176560	33179.125113	3649.251331	18038.821342
42.535500	0.000801	0.000673	-0.003086	-0.004346	5530.687453	33206.913234	3633.059148	18035.959651
43.039000	-0.000683	-0.000780	-0.002636	-0.005264	5527.248229	33169.590816	3635.485170	18068.013960
43.536500	0.002193	-0.000181	0.003711	-0.006340	5551.345275	33286.465679	3648.792498	18105.684679
44.036500	0.000431	0.001081	-0.000752	-0.000450	5504.885272	32964.647980	3630.294857	17900.624952
44.536500	0.001428	-0.000743	0.000506	-0.007957	5556.570812	33360.337511	3645.925442	18162.460032
45.037000	0.002522	0.000755	-0.000110	-0.007137	5558.251391	33407.866484	3643.343359	18133.635028
45.534500	0.001600	0.000635	0.001647	-0.005617	5543.291697	33292.982175	3643.768987	18080.350958
46.035000	-0.002705	0.000462	-0.003295	-0.002657	5499.301376	33074.720060	3629.703719	17977.139573
46.535000	0.004748	0.001097	0.004555	-0.006931	5570.684682	33417.454321	3651.392466	18126.429274
47.035500	0.001896	0.000461	0.004662	-0.005308	5543.217980	33259.253539	3648.646818	18069.562872
47.539000	-0.000401	-0.000092	0.002880	-0.004029	5521.467144	33131.514108	3643.131406	18024.892295
48.036000	-0.002285	0.000145	-0.001342	-0.002004	5497.904846	33007.452285	3631.999691	17954.469998
48.536000	0.000852	-0.000498	-0.004551	-0.008110	5553.973558	33388.227751	3637.143493	18167.858180
49.036500	0.002855	0.000802	-0.001827	-0.007377	5561.776931	33428.041244	3640.697413	18142.084617
49.536000	0.002540	-0.000153	-0.000112	-0.004039	5539.398460	33127.985512	3637.798270	18025.234857
50.037500	0.000164	0.000444	-0.006813	-0.004289	5526.475531	33186.937199	3626.383837	18033.970361
50.534500	0.002497	-0.000538	0.006186	-0.005432	5547.646904	33198.164154	3651.631462	18073.901551
51.035000	0.003842	0.001575	0.009130	-0.006155	5560.328275	33396.516775	3658.311644	18099.205523
51.535000	0.000514	-0.001022	0.001720	-0.015771	5599.255169	33892.999431	3662.358515	18439.848332
52.035500	0.003711	0.000445	0.008572	-0.015291	5616.243968	33963.434019	3674.163718	18422.657916
52.538500	0.001797	-0.011402	0.004145	0.122501	4866.687118	24916.656625	3447.814508	14198.154576
53.036000	0.001867	-0.012061	-0.001338	-0.099190	6182.942065	39509.292262	3824.715503	21734.055581
53.537000	-0.016423	-0.038895	-0.015805	-0.309554	8013.841624	58749.554202	4372.526733	33480.750772
54.036500	-0.004422	-0.115396	-0.007329	-0.435872	9935.066405	65535.000000	4921.676299	43809.472687
54.537000	0.006834	-0.087401	0.000639	-0.407877	9668.743732	65535.000000	4828.922432	41254.583314
55.037500	0.007640	-0.058499	-0.005727	-0.373450	9163.868406	64743.569082	4652.732252	38330.379369
55.535000	0.001783	-0.033418	-0.006549	-0.334371	8547.304039	62782.756296	4495.680221	35280.126282
56.035000	-0.006995	-0.014120	-0.016527	-0.284304	7830.587306	58688.687822	4284.939199	31752.634377
56.536000	0.001791	-0.008418	-0.012096	-0.266559	7729.731019	57163.492081	4242.025650	30596.804480
57.035500	0.004425	-0.004564	-0.006835	-0.243425	7506.657836	54808.394028	4186.450685	29159.261559
57.536000	0.004936	-0.001341	-0.008791	-0.213438	7203.806111	51707.465935	4092.646158	27406.234224
58.036000	0.001064	-0.001831	-0.010584	-0.177740	6828.248020	47807.245490	3990.998848	25471.173638
58.536500	0.000594	-0.000200	-0.005677	-0.149515	6576.533993	45141.437911	3932.066578	24049.940406
59.037000	0.000270	-0.000655	-0.005801	-0.123278	6357.899765	42624.772731	3869.138390	22809.068668
59.534500	-0.001442	-0.000567	-0.004696	-0.102290	6181.363860	40759.591583	3824.144729	21869.087670
60.035000	0.001078	0.000283	-0.006952	-0.087521	6089.862124	39566.129121	3787.217062	21234.297082
60.535000	0.000651	0.001666	-0.008938	-0.074516	5992.452027	38598.683218	3755.882045	20692.974437
61.035500	0.000626	0.001824	-0.001455	-0.067675	5943.806837	38053.833967	3757.200086	20414.615951
61.535500	0.007783	0.005149	0.000690	-0.068762	6002.305851	38412.626968	3763.876825	20458.580200
62.038500	0.000793	0.008218	-0.002899	-0.064091	5919.887662	38281.870889	3746.915564	20270.558740
62.536000	0.000477	0.009798	-0.011464	-0.081948	6044.716041	39900.266061	3766.018476	21000.359323
63.036000	-0.000504	0.010500	-0.003197	-0.078980	6016.169319	39707.839324	3777.094677	20876.945272
63.539500	0.002584	0.010279	-0.004750	-0.076236	6018.642311	39457.606124	3768.102358	20763.625771
64.039500	0.002156	0.009651	-0.006032	-0.069177	5965.192841	38816.634271	3750.895646	20475.350600
64.534500	0.006103	0.009462	-0.003866	-0.070729	6004.357784	38929.447606	3758.524220	20538.325358
65.034500	0.005956	0.010844	-0.001671	-0.068256	5985.643987	38839.155490	3757.953670	20438.113913
65.538000	0.006339	0.011018	0.003140	-0.066922	5978.874387	38743.323057	3765.141160	20384.268507
66.035500	0.009364	0.012649	0.004343	-0.065169	5987.922557	38733.277325	3763.999060	20313.758790
66.536500	0.008849	0.012189	-0.001257	-0.065979	5990.027950	38762.122210	3754.124760	20346.295774
67.036000	0.009953	0.011587	0.002162	-0.065843	5996.948196	38701.294887	3760.882490	20340.849348
67.536500	0.008553	0.012638	-0.004190	-0.062132	5960.610948	38482.793653	3740.330574	20192.307266
68.036500	0.008316	0.011746	0.003806	-0.061202	5952.378709	38333.999596	3754.711250	20155.294194
68.537000	0.010785	0.012020	-0.004919	-0.065012	5996.956003	38668.560392	3744.683386	20307.477028
69.037500	0.009814	0.011732	0.004757	-0.065491	5993.433822	38684.209962	3765.527712	20326.697465
69.534500	0.010028	0.012243	0.003184	-0.062417	5973.072501	38473.796243	3755.928470	20203.666251
70.035000	0.008154	0.012060	-0.000110	-0.060460	5946.008972	38299.007725	3745.203380	20125.782093
70.535500	0.011347	0.011910	0.002121	-0.064075	5994.267047	38582.406838	3757.151337	20269.902712
71.035500	0.013151	0.012892	0.008447	-0.063172	6000.719642	38588.924816	3768.380343	20233.817628
71.538500	0.012310	0.012168	0.002533	-0.061720	5984.348250	38410.673951	3753.164955	20175.911912
72.036000	0.010777	0.012405	0.003194	-0.060137	5962.223195	38300.832165	3751.276346	20112.962329
72.536500	0.015955	0.012372	0.008567	-0.062691	6017.396675	38506.854140	3767.629324	20214.615269
73.036500	0.014363	0.012726	0.013082	-0.061685	5998.745577	38453.397012	3774.961133	20174.491558
73.538000	0.015144	0.012819	0.006621	-0.059413	5988.100921	38275.581135	3756.818043	20084.280057
74.037500	0.013096	0.011403	0.008147	-0.059139	5971.580365	38138.322733	3759.397269	20073.416533
74.534500	0.015299	0.012609	0.009816	-0.060300	5995.542279	38330.798835	3765.254305	20119.462121
75.035500	0.016872	0.013063	0.010566	-0.059257	5999.331364	38282.828721	3764.645127	20078.117710
75.535500	0.014601	0.012662	0.012579	-0.057039	5967.368443	38070.216256	3764.220257	19990.507013
76.035500	0.015557	0.013083	0.007720	-0.056426	5969.795683	38054.649396	3752.943155	19966.373143
76.536000	0.019612	0.012657	0.008649	-0.057050	6003.144856	38070.716431	3756.130508	19990.965172
77.036500	0.017546	0.013302	0.006492	-0.056229	5982.529180	38056.473067	3750.029742	19958.638963
77.536500	0.018787	0.013230	0.013336	-0.055694	5987.550462	38007.356192	3763.000472	19937.601778
78.037000	0.018919	0.013088	0.009276	-0.052870	5968.426327	37768.611788	3748.858723	19827.096799
78.537000	0.020213	0.013015	0.010096	-0.054497	5989.191909	37893.483676	3753.860150	19890.680177
79.035000	0.020347	0.012846	0.008873	-0.053568	5983.526341	37805.214505	3749.459639	19854.354361
79.535000	0.019857	0.012874	0.014679	-0.052657	5973.568018	37734.417732	3759.500568	19818.795357
80.035000	0.020581	0.013289	0.009881	-0.051540	5970.781678	37678.188073	3747.381162	19775.295461
80.535500	0.019827	0.013222	0.017214	-0.050647	5959.117133	37601.363883	3760.583315	19740.566323
81.036000	0.019239	0.013146	0.008421	-0.049700	5948.296534	37519.792337	3740.691289	19703.868769
81.536000	0.019408	0.013035	0.012805	-0.046647	5928.064415	37268.639392	3743.382386	19586.035642
82.036000	0.021730	0.013531	0.008958	-0.047240	5948.514277	37354.916672	3736.817382	19608.865754
82.536000	0.018963	0.013671	0.019862	-0.045817	5919.157751	37253.308593	3756.087904	19554.149422
83.034000	0.019227	0.013822	0.015816	-0.044454	5911.508087	37157.717531	3745.041983	19501.921118
83.537500	0.016693	0.012879	0.011933	-0.044031	5891.015339	37050.143559	3736.345621	19485.728238
84.035000	0.018570	0.013454	0.009216	-0.040620	5880.439707	36828.081137	3724.119438	19355.864092
84.535000	0.018540	0.014342	0.018841	-0.039934	5875.510967	36843.782324	3742.011827	19329.843955
85.035500	0.021623	0.015222	0.014211	-0.038398	5886.161551	36792.644554	3729.630943	19271.799235
85.538500	0.018781	0.014091	0.019404	-0.037754	5862.220538	36654.499018	3738.748577	19247.525580
86.036000	0.017796	0.014547	0.016418	-0.035147	5837.752632	36487.904639	3727.551279	19149.600055
86.536000	0.018050	0.014030	0.011881	-0.035100	5839.154992	36444.325920	3718.479914	19147.834441
87.037000	0.018583	0.014672	0.014593	-0.032904	5827.887741	36324.597448	3719.496232	19065.796566
87.537000	0.020223	0.015924	0.010870	-0.030874	5825.245377	36264.748208	3708.232971	18990.313352
88.037000	0.019274	0.013908	0.010497	-0.030258	5814.697166	36063.309633	3706.312275	18967.493948
88.535000	0.020063	0.015497	0.016012	-0.028191	5806.106667	36026.855434	3713.028520	18891.128619
89.035000	0.020881	0.015946	0.017626	-0.026521	5800.396038	35933.984333	3712.921313	18829.718987
89.535000	0.018994	0.014988	0.015252	-0.024596	5774.972721	35715.508917	3704.554543	18759.176367
90.035500	0.021445	0.015521	0.022972	-0.023493	5783.936749	35672.534652	3717.464422	18718.911787
90.536000	0.019565	0.014892	0.020296	-0.023758	5773.200786	35645.065137	3712.736936	18728.577027
91.036000	0.021044	0.015787	0.013488	-0.022460	5774.403042	35614.711323	3697.036033	18681.290790
91.536500	0.020550	0.015904	0.015803	-0.021257	5763.161236	35533.085084	3699.174224	18637.604336
92.036500	0.023426	0.016837	0.017519	-0.018009	5760.697236	35359.738056	3696.231358	18520.215674
92.536500	0.024088	0.016480	0.017772	-0.018178	5766.196446	35345.683750	3697.040612	18526.307907
93.037500	0.021162	0.016168	0.010472	-0.017760	5744.148073	35291.310721	3682.360450	18511.266630
93.537000	0.022807	0.017245	0.020914	-0.016063	5743.802856	35245.076185	3699.012690	18450.310765
94.035000	0.021526	0.017782	0.013985	-0.013061	5715.811288	35062.125133	3680.127446	18343.079191
94.535500	0.023938	0.017338	0.015230	-0.013736	5735.957535	35079.312580	3683.744472	18367.139183
95.038500	0.023372	0.017091	0.022474	-0.012832	5726.346603	34994.159759	3695.805128	18334.926890
95.536000	0.022166	0.017646	0.015729	-0.009792	5698.761271	34811.187375	3677.265795	18227.164095
96.036500	0.026494	0.017127	0.018119	-0.011046	5735.081671	34865.212537	3684.121420	18271.527998
96.536500	0.025204	0.018415	0.013672	-0.009969	5719.626757	34880.745779	3673.750863	18233.417406
97.037000	0.022650	0.018458	0.024668	-0.008947	5696.430477	34808.768937	3692.570902	18197.328953
97.537000	0.026482	0.018199	0.017460	-0.007975	5714.964180	34718.454061	3677.104037	18163.088868
98.034500	0.024066	0.017459	0.013610	-0.007992	5699.407386	34665.596278	3669.956226	18163.688827
98.534500	0.026735	0.017471	0.022136	-0.007417	5712.982012	34624.490471	3684.853504	18143.484029
99.035000	0.028440	0.019391	0.020220	-0.005108	5709.058931	34596.094747	3676.903583	18062.561333
99.535500	0.026131	0.017526	0.020601	-0.005744	5698.223015	34506.634668	3678.810438	18084.806020
100.035500	0.026169	0.018857	0.020099	-0.004166	5688.289347	34488.626427	3674.915117	18029.663654
100.536000	0.025146	0.018894	0.019598	-0.003531	5677.635255	34445.236858	3672.796911	18007.557765
101.036500	0.027416	0.019085	0.019831	-0.002615	5686.333761	34392.682519	3671.525743	17975.700575
101.536500	0.027166	0.019891	0.026879	-0.000169	5669.031662	34274.013338	3680.129478	17890.910624
102.037000	0.027818	0.018973	0.022753	-0.000828	5677.436534	34255.363179	3673.639886	17913.729608
102.534500	0.025664	0.019571	0.025865	-0.000553	5661.893821	34278.637571	3678.946134	17904.191161
103.035000	0.028134	0.020718	0.019474	0.000807	5668.981216	34263.293186	3664.524059	17857.233738
103.538000	0.028010	0.020297	0.025701	0.000975	5667.118913	34220.829807	3675.775685	17851.440206
104.035500	0.027932	0.019551	0.022513	0.001357	5664.182223	34139.633155	3669.127503	17838.290853
104.538500	0.029207	0.020537	0.018509	0.001937	5668.620386	34168.827059	3660.670292	17818.322791
105.036000	0.027497	0.020168	0.023096	0.002051	5656.983213	34134.099320	3668.923520	17814.418174
105.536500	0.029273	0.020286	0.022712	0.002733	5663.958304	34093.602471	3666.948584	17790.979229
106.036500	0.026954	0.019909	0.020148	0.003677	5643.202702	33998.907260	3660.484332	17758.606728
106.537000	0.030708	0.021515	0.032921	0.004720	5660.437210	34039.242535	3682.301476	17722.936848
107.130000	0.028226	0.020214	0.025863	0.004425	5646.527841	33967.301271	3669.651851	17733.036692
107.535500	0.028578	0.020849	0.025987	0.006597	5635.005939	33857.599506	3665.860364	17658.946087
108.037500	0.028125	0.021733	0.024367	0.006164	5634.875056	33951.553282	3663.668828	17673.680873
108.535000	0.028768	0.021769	0.021123	0.006468	5637.019976	33932.385499	3657.160766	17663.336778
109.038500	0.029613	0.021130	0.023227	0.006321	5643.300333	33897.315258	3661.284497	17668.348149
109.535500	0.028372	0.020897	0.026568	0.007771	5626.302294	33777.541064	3664.765913	17619.068681
110.036000	0.028575	0.021867	0.024614	0.007531	5629.090314	33863.616835	3661.609820	17627.209732
110.536500	0.030869	0.021900	0.022052	0.007982	5640.732131	33833.788666	3656.091034	17611.883654
111.036500	0.032390	0.022355	0.027273	0.008717	5645.714134	33813.870310	3664.320300	17586.996355
111.537500	0.030308	0.022288	0.025500	0.008877	5631.528275	33797.766142	3660.764727	17581.577149
112.034500	0.030645	0.022360	0.027708	0.008788	5634.218467	33809.187885	3664.990260	17584.582023
112.535000	0.029595	0.022206	0.018651	0.009121	5625.503162	33774.591159	3647.851232	17573.339627
113.034500	0.029964	0.022378	0.024420	0.009539	5625.188282	33757.131176	3657.572863	17559.200652
113.535500	0.027904	0.021872	0.024728	0.011693	5598.789790	33568.822529	3654.204301	17486.574463
114.035500	0.031007	0.022522	0.028760	0.010810	5623.752571	33677.206071	3663.202851	17516.301043
114.536000	0.031218	0.023658	0.034974	0.011279	5622.130096	33724.452932	3673.850944	17500.506366
115.036000	0.030742	0.021986	0.023226	0.010011	5627.111308	33695.754990	3654.532326	17543.235358
115.536500	0.032098	0.022976	0.020940	0.013177	5615.739162	33542.016209	3644.665996	17436.765156
116.037000	0.029825	0.022430	0.028753	0.011280	5613.378921	33637.412866	3662.325379	17500.480650
116.537000	0.029579	0.023262	0.027308	0.011960	5607.582321	33648.163999	3658.427132	17477.605805
117.037000	0.030253	0.023270	0.026287	0.011817	5612.697084	33658.887996	3656.822291	17482.417773
117.535000	0.028042	0.023123	0.026547	0.014580	5581.707905	33453.578507	3652.264223	17389.836971
118.037500	0.032698	0.022711	0.022687	0.012322	5624.881801	33583.676957	3649.360656	17465.465774
118.538500	0.032194	0.023767	0.030943	0.013783	5612.540953	33555.060626	3661.750611	17416.471861
119.036000	0.031189	0.023144	0.033608	0.013141	5610.265595	33556.425651	3667.850930	17437.986429
119.536000	0.031394	0.023132	0.025583	0.015156	5598.963758	33413.774095	3649.472597	17370.625013
120.036500	0.032333	0.023662	0.029099	0.013741	5613.675272	33550.674724	3658.445912	17417.901717
120.536500	0.034190	0.024290	0.032797	0.015150	5616.482068	33495.612079	3662.645744	17370.805558
121.037500	0.031208	0.022671	0.022113	0.013526	5607.975563	33495.920010	3646.150013	17425.074050
121.537000	0.030277	0.023577	0.024814	0.017202	5579.315943	33301.598466	3644.395293	17302.538807
122.037500	0.032099	0.023965	0.029797	0.014762	5605.821552	33500.014113	3657.854240	17383.755843
122.535000	0.036250	0.024186	0.029829	0.015753	5625.642395	33445.847372	3656.103427	17350.710077
123.035500	0.032689	0.022931	0.023352	0.015010	5607.958171	33409.916053	3645.708462	17375.488572
123.535500	0.030857	0.023447	0.029477	0.018178	5576.857329	33224.277946	3651.050308	17270.142783
124.036000	0.033017	0.024780	0.023917	0.017103	5596.943298	33392.839075	3642.961833	17305.819010
124.536000	0.033295	0.023502	0.030864	0.016116	5604.830913	33372.362994	3657.329065	17338.618683
125.036500	0.035597	0.024016	0.028183	0.016677	5615.732097	33369.035230	3651.426343	17319.949324
125.536500	0.030295	0.024311	0.025515	0.019738	5563.771105	33175.761954	3641.102677	17218.561577
126.037000	0.032685	0.023963	0.025208	0.017095	5594.926346	33336.135793	3645.297328	17306.086426
126.537000	0.035113	0.024545	0.029283	0.018008	5604.370722	33312.935669	3651.008238	17275.805942
127.035000	0.033411	0.024122	0.031147	0.017547	5596.625898	33315.569751	3655.234597	17291.064732
127.535000	0.031182	0.023594	0.022550	0.022501	5552.249845	32934.352102	3630.915379	17127.669318
128.038000	0.034073	0.024562	0.022680	0.018361	5595.682987	33289.438894	3638.497683	17264.102440
128.535500	0.035869	0.023690	0.026796	0.018297	5607.294220	33233.016992	3645.992989	17266.231521
129.036000	0.036692	0.024379	0.033192	0.018685	5610.012377	33254.017564	3656.889391	17253.380174
129.536500	0.034953	0.025626	0.030875	0.021372	5582.443103	33153.556301	3647.801278	17164.735297
130.036500	0.032512	0.025834	0.030490	0.020060	5575.458477	33259.634273	3649.479138	17207.962728
130.537000	0.035878	0.026114	0.034776	0.020680	5592.481369	33235.854415	3656.139335	17187.514939
131.036500	0.032828	0.024095	0.026915	0.019762	5579.252206	33159.036523	3643.568756	17217.768019
131.537000	0.034114	0.024286	0.032510	0.020922	5580.035380	33091.732273	3651.575259	17179.544925
132.034500	0.038175	0.024927	0.029058	0.020380	5608.683932	33173.968167	3646.313423	17197.396454
132.535000	0.036064	0.025284	0.027679	0.020685	5593.606547	33177.645042	3643.284230	17187.353342
133.036000	0.035391	0.024834	0.030769	0.021034	5587.257117	33121.950239	3648.221190	17175.848227
133.536000	0.036743	0.025556	0.026048	0.021415	5593.295076	33145.751137	3639.058473	17163.334807
134.036500	0.033900	0.025423	0.034225	0.021450	5575.444099	33134.047610	3653.732317	17162.176193
134.536500	0.038582	0.026365	0.029708	0.022836	5595.889860	33103.183460	3643.065443	17116.677108
135.037000	0.036616	0.025679	0.031142	0.022386	5586.467668	33086.772112	3646.453250	17131.428072
135.537000	0.035148	0.025199	0.029172	0.022627	5575.884823	33036.747650	3642.480089	17123.537535
136.037500	0.035719	0.025051	0.034145	0.022097	5582.696667	33063.207605	3652.409903	17140.913911
136.537500	0.036767	0.025597	0.023413	0.023115	5582.887087	33030.533939	3631.356929	17107.554973
137.035000	0.037596	0.026132	0.028497	0.023352	5586.554430	33051.221142	3639.972834	17099.792397
137.538000	0.032562	0.026159	0.033504	0.028771	5522.458327	32679.441714	3639.236687	16923.515888
138.035500	0.035026	0.026013	0.035081	0.023612	5569.047187	33024.907068	3651.359622	17091.267157
138.536000	0.035956	0.025649	0.030499	0.023464	5575.703543	33009.956545	3643.357405	17096.117749
139.036500	0.034532	0.025011	0.025053	0.023516	5566.598158	32962.212807	3633.550273	17094.430856
139.536500	0.036040	0.025748	0.031232	0.023739	5574.526238	32997.738471	3644.180792	17087.122887
140.037000	0.038191	0.025776	0.037337	0.024676	5582.036422	32934.892945	3653.526147	17056.520270
140.536500	0.035859	0.025450	0.030014	0.024176	5570.710078	32946.875874	3641.213499	17072.848817
141.037500	0.037725	0.026400	0.036775	0.025303	5575.274678	32934.638756	3651.366542	17036.069296
141.535000	0.034887	0.025524	0.035337	0.030705	5524.828945	32504.011333	3639.057268	16861.141570
142.035000	0.036760	0.026136	0.033509	0.025585	5567.575951	32896.966256	3644.956151	17026.878490
142.536000	0.038894	0.026429	0.033976	0.025628	5580.497843	32914.201329	3645.720477	17025.494811
143.043500	0.035499	0.025892	0.028581	0.025647	5559.439219	32875.809329	3636.029659	17024.864592
143.536000	0.036120	0.026042	0.027143	0.030556	5533.220278	32549.410335	3624.823632	16865.917924
144.036500	0.038449	0.026203	0.028442	0.026081	5574.935044	32867.304953	3635.010930	17010.724830
144.537000	0.040268	0.026501	0.031587	0.026905	5581.097810	32831.118383	3639.144955	16983.964263
145.037000	0.039057	0.026301	0.027342	0.026277	5577.488275	32860.611393	3632.714579	17004.374421
145.536500	0.031992	0.025633	0.031504	0.031951	5499.840175	32426.612828	3630.040162	16821.092914
146.035500	0.035170	0.026377	0.028743	0.027264	5547.506436	32797.896623	3633.447197	16972.310878
146.541500	0.039319	0.027587	0.026749	0.027546	5571.263798	32861.795050	3629.423324	16963.160049
147.062500	0.036324	0.025515	0.032095	0.026829	5557.241087	32768.540724	3640.189366	16986.426513
147.536500	0.030998	0.025891	0.017067	0.034092	5481.076574	32298.943875	3601.334858	16752.540217
148.049500	0.039381	0.027372	0.028439	0.028891	5563.356173	32754.381278	3630.031142	16919.614761
148.539500	0.038332	0.027305	0.034243	0.028585	5558.796910	32770.881159	3640.890208	16929.534632
149.044500	0.038844	0.026745	0.034624	0.028248	5564.012219	32755.520825	3642.177074	16940.437986
149.539000	0.032702	0.026388	0.027096	0.035199	5484.632748	32257.713464	3616.647178	16717.227572
150.048000	0.038878	0.026266	0.031345	0.027850	5566.675087	32750.008084	3637.029521	16953.324436
150.623500	0.037685	0.026422	0.039509	0.028769	5553.692078	32697.606657	3650.039326	16923.565250
151.040000	0.039818	0.026980	0.034666	0.029057	5565.025833	32716.138035	3640.802383	16914.275690
151.552000	0.034086	0.026617	0.034851	0.035629	5490.338831	32244.160541	3629.456908	16703.554004
152.036500	0.036906	0.026873	0.035330	0.029524	5544.305410	32676.843575	3641.155575	16899.202800
152.536000	0.038255	0.026922	0.036444	0.029609	5552.038871	32674.305715	3642.998946	16896.444767
153.036000	0.041288	0.028173	0.043652	0.030981	5562.232971	32665.975656	3653.542380	16852.232501
153.536000	0.036468	0.026118	0.034932	0.036336	5500.384063	32162.908077	3628.353505	16681.079683
154.037000	0.035047	0.026903	0.039810	0.030084	5529.567610	32640.496548	3648.204665	16881.115047
154.537000	0.040820	0.028271	0.032594	0.031546	5555.886109	32634.022204	3632.683095	16834.076674
155.036500	0.039510	0.027220	0.033843	0.031028	5551.031778	32597.627771	3635.819737	16850.742758
155.534500	0.038027	0.026880	0.031230	0.037254	5504.233575	32152.344189	3620.259625	16651.926261
156.035000	0.038015	0.027645	0.034643	0.031441	5539.368765	32598.385705	3636.505464	16837.449528
156.535500	0.039231	0.028560	0.034076	0.032006	5543.345108	32622.359364	3634.494242	16819.319119
157.035500	0.042180	0.027918	0.035220	0.032611	5557.698214	32537.208923	3635.451878	16799.910644
157.536000	0.037509	0.027106	0.029434	0.038127	5495.883942	32108.821648	3615.624473	16624.283999
158.036000	0.041501	0.027879	0.039245	0.033084	5550.639969	32502.363702	3641.791796	16784.787491
158.537500	0.041554	0.028340	0.037224	0.033376	5549.168882	32513.833822	3637.656584	16775.427963
159.099500	0.041676	0.028452	0.042459	0.033801	5547.313595	32492.485329	3646.276378	16761.830289
159.541000	0.039827	0.027218	0.033239	0.038839	5505.530250	32068.572506	3620.998784	16601.770787
160.038000	0.042720	0.028652	0.041280	0.034665	5548.421530	32447.383894	3642.605181	16734.269604
160.548000	0.043110	0.028580	0.033193	0.033928	5555.325422	32492.548153	3629.532338	16757.780351
161.037500	0.042156	0.028472	0.046203	0.034234	5547.608563	32464.400685	3652.267373	16748.019999
161.540500	0.034520	0.026605	0.031231	0.038907	5473.374884	32022.930595	3617.387611	16599.634671
162.042500	0.043525	0.028427	0.033553	0.034760	5552.767892	32425.604331	3628.700776	16731.240037
162.536000	0.041229	0.028339	0.035978	0.034654	5539.379931	32426.849237	3633.172362	16734.617307
163.036500	0.042163	0.027730	0.037500	0.034974	5543.122720	32363.756389	3635.303943	16724.400661
163.549500	0.039661	0.027935	0.035390	0.040493	5494.598235	32005.751791	3621.867236	16549.638350
164.034000	0.039396	0.027723	0.030187	0.034698	5527.958179	32382.001680	3622.901887	16733.213685
164.562000	0.042147	0.027955	0.029864	0.035545	5539.544511	32340.364076	3620.860386	16706.238310
165.048500	0.047615	0.028988	0.040656	0.036211	5568.991405	32365.236826	3638.723080	16685.047769
165.538500	0.040337	0.028461	0.035695	0.036933	5520.116762	32280.701990	3628.645846	16662.128770
166.036000	0.040339	0.028797	0.037917	0.035943	5526.130660	32370.474705	3634.325651	16693.570213
166.536000	0.043084	0.030031	0.039565	0.037481	5533.460008	32349.866989	3634.520769	16644.752905
167.036000	0.041762	0.028721	0.039817	0.036201	5533.208272	32347.801105	3637.245226	16685.377485
167.536000	0.040975	0.028905	0.038484	0.038006	5517.482451	32238.201166	3631.674145	16628.127041
168.036500	0.043072	0.029420	0.041070	0.037859	5531.089736	32282.886619	3636.523884	16632.782139
168.537000	0.041479	0.030116	0.039453	0.037870	5521.360916	32329.268483	3633.631574	16632.437713
169.037500	0.042225	0.029580	0.034517	0.037280	5529.465038	32332.884109	3625.963769	16651.126960
169.534500	0.044113	0.029495	0.031663	0.037668	5538.591817	32300.924377	3620.295017	16638.830869
170.035000	0.042978	0.029286	0.032188	0.037656	5531.750179	32287.579151	3621.230947	16639.203570
170.538000	0.043089	0.029224	0.044400	0.037336	5534.371149	32304.964701	3643.408875	16649.326365
171.035000	0.042797	0.029431	0.042529	0.038544	5525.259984	32237.380353	3637.902861	16611.119784
171.536000	0.039994	0.028012	0.038225	0.042460	5484.820895	31879.471538	3623.383942	16487.869887
172.036000	0.042620	0.029428	0.039186	0.038483	5524.556161	32241.285600	3632.073469	16613.040763
172.536000	0.042086	0.030065	0.031714	0.038802	5519.386505	32262.730078	3618.409713	16602.944141
173.036500	0.041923	0.028581	0.038485	0.037827	5524.306351	32228.399258	3631.993684	16633.788336
173.537000	0.039673	0.028787	0.035734	0.042499	5482.676321	31928.597330	3618.970658	16486.668618
174.037500	0.044706	0.029869	0.040095	0.039270	5532.446789	32217.967134	3632.288573	16588.184960
174.534500	0.042628	0.030704	0.036979	0.040170	5514.395362	32213.564863	3625.214471	16559.821697
175.034500	0.042219	0.029378	0.033149	0.039237	5517.562987	32187.027324	3620.149405	16589.216246
175.535500	0.038344	0.028889	0.032799	0.041273	5482.060198	32017.464564	3616.004571	16525.127723
176.035500	0.043208	0.030212	0.045516	0.039938	5519.309032	32196.036123	3640.748348	16567.126504
176.536000	0.042700	0.029950	0.038218	0.040037	5515.637342	32171.745855	3627.622539	16564.004225
177.036500	0.041472	0.029829	0.038283	0.039722	5510.116985	32184.712324	3628.290400	16573.907102
177.536500	0.041902	0.029651	0.034335	0.042319	5497.089409	31998.413640	3616.854242	16492.311262
178.036500	0.041041	0.030919	0.038063	0.041225	5498.492115	32156.971939	3625.264133	16526.640807
178.540000	0.041486	0.029063	0.037087	0.040038	5508.307401	32112.004373	3625.635210	16563.978508
179.037500	0.043405	0.030098	0.045935	0.040698	5515.903357	32137.171009	3640.137294	16543.197276
179.535000	0.042412	0.029689	0.037620	0.042795	5497.294948	31969.123018	3621.742436	16477.398610
180.038000	0.041233	0.029774	0.038454	0.040870	5501.772836	32103.813311	3626.572569	16537.784509
180.535500	0.042476	0.030605	0.040194	0.042034	5502.247207	32081.456522	3627.586477	16501.238921
181.035500	0.041331	0.029327	0.048098	0.040686	5503.466360	32086.166193	3644.034957	16543.557161
181.536000	0.039575	0.030563	0.033032	0.045539	5464.016923	31844.319943	3609.050449	16391.791548
182.036000	0.042442	0.030044	0.039652	0.041565	5504.861754	32075.239058	3627.457184	16515.941821
182.536500	0.044266	0.030844	0.041910	0.042534	5510.015895	32063.945526	3629.728662	16485.580240
183.036500	0.042970	0.030639	0.037283	0.042121	5504.697520	32077.900991	3622.331337	16498.518641
183.534000	0.043161	0.030062	0.034547	0.044241	5493.109064	31897.426879	3613.893870	16432.204542
184.142500	0.043232	0.030796	0.044132	0.043082	5500.493948	32023.947771	3632.686710	16468.412233
184.537500	0.041951	0.030849	0.041590	0.042758	5494.746954	32049.257450	3628.768547	16478.545974
185.035500	0.040917	0.030732	0.040317	0.042774	5488.466053	32040.380159	3626.502095	16478.061045
185.536000	0.040122	0.030930	0.041891	0.043063	5481.985146	32034.182177	3628.760576	16469.000881
186.036000	0.039103	0.030059	0.040332	0.042286	5480.544001	32027.946457	3627.385351	16493.335507
186.536000	0.044048	0.030278	0.043821	0.042548	5508.619860	32025.095924	3633.082730	16485.141122
