sample name	sample
index	543
start time	 03-15-2021  10:47:16 AM
880	-0.005526
Peak Time (s)	92.037
Peak Height 	-0.005526
calc peak height	90,93
Baseline Time (s)	11.037
Baseline Value 	-0.005413
subtract baseline	10,4
Abs	0.004401
Peak Time (s)	90.537
Peak Height 	0.004401
calc peak height	90,93
Baseline Time (s)	10.037
Baseline Value 	0.004961
subtract baseline	10,3
PK_550	0.004732
Peak Time (s)	90.537
Peak Height 	0.004732
calc peak height	90,93
Baseline Time (s)	10.537
Baseline Value 	0.001059
subtract baseline	10,2
PK_880	0.002617
Peak Time (s)	91.537
Peak Height 	0.002617
calc peak height	90,93
Baseline Time (s)	8.536
Baseline Value 	0.003472
subtract baseline	10,1


Time (s)	A880-A510	A880-A775	A880-A975	A880	I510	I775	I975	I880	
0.036500	-0.000081	-0.000895	-0.002497	-0.000481	6124.610940	40779.356513	3703.337099	21471.225737
0.539500	-0.003706	-0.000541	-0.002527	0.005846	6048.368116	40260.332021	3689.168824	21200.434510
1.040000	-0.004106	-0.000796	-0.003526	0.003177	6065.606823	40469.288612	3692.872556	21314.218363
1.539500	0.000548	0.000236	-0.002155	-0.000106	6126.584512	40845.638642	3703.264750	21455.089735
2.035500	0.000714	0.000145	-0.000770	-0.000573	6131.489981	40878.610498	3707.430396	21475.198909
2.537500	-0.005544	-0.000323	-0.007411	0.005164	6039.631862	40338.134752	3679.916767	21229.458436
3.035500	0.001857	0.000142	0.001588	-0.001316	6146.163648	40943.512789	3714.446505	21507.255800
3.536000	-0.002114	0.000012	-0.002674	0.000152	6104.016065	40803.410318	3701.520839	21443.966822
4.036000	-0.001575	-0.000855	-0.004119	-0.000254	6111.303169	40763.027783	3699.193985	21461.455999
4.536500	0.000038	-0.000181	-0.003336	0.000621	6117.006881	40745.517299	3698.988126	21423.785426
5.037000	0.000661	0.000293	0.001114	0.000463	6123.047459	40800.836880	3709.345600	21430.596735
5.537000	-0.002869	-0.000611	-0.004364	-0.000325	6101.871441	40790.544704	3698.804197	21464.493722
6.037000	-0.001550	-0.000647	-0.004274	-0.000815	6115.829231	40830.346461	3700.102631	21485.642569
6.534500	-0.001169	-0.000428	0.002269	0.000373	6109.596947	40745.539180	3712.160292	21434.453914
7.035000	-0.002068	0.000077	-0.001410	0.000308	6103.171032	40795.388501	3704.006680	21437.238413
7.535500	-0.000613	-0.000320	0.000137	-0.000011	6116.861175	40788.686646	3708.210197	21451.006649
8.038500	0.000210	0.000413	-0.002333	-0.000053	6123.550042	40856.493835	3702.744601	21452.798102
8.536000	0.000000	0.000231	0.002303	0.000186	6120.078456	40819.616385	3712.663003	21442.523883
9.036000	-0.001235	-0.000869	-0.006122	-0.001110	6120.542797	40836.730772	3696.633317	21498.371936
9.536000	0.001359	-0.000293	-0.003382	-0.000707	6137.544097	40851.887582	3701.857059	21480.965994
10.037000	-0.001236	-0.000190	0.000000	-0.000768	6117.893812	40866.291165	3709.607662	21483.605238
10.536500	0.000266	0.000000	0.002940	0.000030	6123.346924	40813.055614	3714.460775	21449.233428
11.037500	0.000237	0.000059	0.000438	0.000000	6123.347072	40820.811084	3708.862271	21450.512907
11.535000	-0.000569	0.000377	-0.001220	0.000358	6114.342283	40817.298931	3704.320814	21435.086899
12.035000	0.000555	0.000667	0.006611	0.000082	6125.179928	40866.941048	3722.711833	21446.977982
12.541000	0.000442	0.000371	-0.000292	0.000092	6124.221800	40840.080894	3707.006799	21446.539918
13.035500	-0.001178	-0.000329	0.001287	-0.000979	6119.971042	40872.643817	3712.998775	21492.722555
13.536500	0.000120	-0.000276	-0.000970	-0.001769	6136.177508	40946.667023	3709.678514	21526.865993
14.044500	-0.001296	-0.000102	-0.002768	-0.002335	6129.565867	41011.729936	3706.896735	21551.323890
14.536500	-0.002174	-0.000194	-0.003330	0.002299	6087.064470	40597.929825	3695.258539	21351.761724
15.036500	-0.002402	-0.000241	-0.000682	0.000164	6101.707257	40780.220466	3705.967415	21443.440261
15.540000	0.001355	0.000394	-0.002562	-0.001409	6142.980163	40973.886451	3705.276264	21511.272225
16.035000	0.000990	-0.000399	-0.003053	-0.001695	6142.363694	40929.258988	3704.815487	21523.633709
16.535500	0.000096	-0.000414	0.001361	-0.001956	6137.439351	40950.922370	3715.384156	21534.937107
17.035000	-0.000605	0.000518	0.002910	0.000686	6111.534154	40800.938376	3712.902601	21420.975924
17.535000	0.002574	0.000414	0.003612	-0.003665	6170.170425	41174.613546	3724.428838	21609.029965
18.036000	0.002786	-0.000007	-0.002235	-0.000746	6148.975928	40880.507374	3704.521940	21482.685644
18.535500	-0.000996	0.000872	0.003981	0.001328	6103.566547	40775.762969	3713.876315	21393.404110
19.037000	-0.000317	-0.000785	0.000088	0.000949	6111.730108	40664.075741	3705.933383	21409.687060
19.534000	-0.001950	0.000092	-0.004948	0.000748	6100.688603	40758.266530	3695.108504	21418.318875
20.037000	0.000152	-0.000066	-0.002153	0.000953	6115.320966	40726.507208	3700.893639	21409.512861
20.534500	0.000075	0.000733	-0.004886	0.001230	6112.583145	40772.125700	3694.174674	21397.612903
21.034500	-0.002783	0.000372	-0.000377	0.001250	6090.436201	40738.797280	3704.210284	21396.739273
21.535000	-0.002426	-0.000100	0.001863	0.000880	6096.019702	40729.897723	3710.094898	21412.651385
22.038000	0.000372	-0.000062	-0.003872	0.000864	6117.709469	40734.595620	3697.248950	21413.330844
22.535500	-0.000165	-0.000661	-0.001442	0.000701	6114.816258	40696.627477	3703.054001	21420.365080
23.036000	0.000312	0.000078	-0.002090	0.001163	6114.935382	40720.784169	3700.565079	21400.511384
23.536000	-0.001045	-0.000060	-0.002649	0.000948	6106.119679	40727.502430	3699.794522	21409.728570
24.036000	-0.001099	-0.000884	-0.003271	0.000379	6110.086832	40705.189147	3699.674009	21434.180778
24.537000	-0.000748	0.000798	0.000207	0.001473	6104.363060	40756.554079	3705.022172	21387.175888
25.037500	-0.002954	-0.000658	-0.003196	0.000917	6091.674575	40677.953752	3698.640563	21411.053227
25.534500	0.000240	-0.000212	-0.005428	0.000882	6116.544220	40719.908314	3693.742815	21412.554433
26.035500	0.000564	0.000315	-0.000805	0.001445	6114.704200	40716.785959	3702.811253	21388.385704
26.535000	-0.000395	-0.000360	-0.002173	0.000554	6114.176666	40735.692192	3701.742260	21426.684266
27.035500	0.001290	0.000298	-0.000944	0.001239	6121.906371	40733.366608	3702.962338	21397.236414
27.536000	-0.001604	0.000779	0.000090	0.002162	6092.485367	40694.804941	3703.211628	21357.658098
28.036000	0.001538	-0.000046	-0.001092	-0.002244	6150.919014	41008.663428	3710.477095	21547.398460
28.541500	0.000640	0.000827	0.002706	-0.000530	6130.583731	40934.680121	3715.201431	21473.355743
29.050500	0.001292	0.000300	0.000583	-0.000862	6138.232653	40917.518950	3711.138122	21487.666061
29.537000	-0.000735	0.000030	-0.000014	-0.001240	6125.427860	40927.036511	3710.643294	21503.982755
30.034500	0.001821	-0.000011	0.001806	-0.000948	6143.019443	40897.837662	3714.106378	21491.376354
30.535000	0.000361	-0.000039	-0.000662	-0.000368	6127.159923	40844.451616	3707.210111	21466.353455
31.035500	0.001164	-0.000018	0.003107	-0.000966	6138.044506	40898.740965	3717.104310	21492.157492
31.538500	-0.000714	0.000155	0.001024	0.002237	6098.744825	40633.807421	3705.143425	21354.436705
32.035000	-0.001506	0.000021	-0.001896	0.002594	6089.926355	40590.975100	3697.797949	21339.139322
32.536500	-0.002765	-0.000422	-0.002934	-0.000048	6100.545467	40782.844478	3701.385453	21452.561128
33.058000	0.000206	0.000271	-0.003370	-0.000771	6129.081170	40906.994173	3702.028216	21483.728625
33.542000	-0.000428	-0.000378	0.001453	-0.001440	6129.357018	40908.812113	3714.421183	21512.626667
34.037000	0.000078	0.000401	0.000304	-0.000604	6126.799982	40903.824247	3709.926220	21476.558522
34.536500	0.002098	0.000329	0.004421	0.001409	6126.855616	40721.143607	3714.691129	21389.929499
35.040000	0.000905	0.000538	0.002174	0.002012	6112.949261	40686.747968	3708.237618	21364.047344
35.535000	-0.000241	0.000093	-0.000930	0.001906	6104.931307	40657.257888	3701.497928	21368.617947
36.035500	-0.001562	-0.000419	-0.001608	0.001754	6095.939068	40625.796426	3700.320076	21375.123995
36.535000	-0.000575	-0.000014	-0.004265	0.002443	6098.227123	40601.114529	3692.859559	21345.598957
37.035500	0.000695	0.000159	-0.002618	0.002111	6110.571430	40645.020203	3697.265183	21359.811360
37.536000	-0.001877	-0.000167	-0.004545	0.002156	6090.437634	40612.800568	3692.875190	21357.917907
38.036500	-0.001038	0.000114	0.001890	0.002059	6097.626119	40645.695354	3707.493880	21362.070717
38.536000	-0.001128	-0.000853	-0.002966	0.001544	6100.893945	40606.292038	3697.754071	21384.152455
39.037000	0.000816	0.000399	-0.002830	0.002744	6106.619100	40610.835796	3695.382134	21332.715784
39.537500	0.000128	0.000005	-0.002371	0.002164	6105.789038	40627.020366	3697.697644	21357.555043
40.034500	-0.001563	0.000343	0.002974	0.002432	6090.726130	40633.084185	3709.096534	21346.063371
40.535000	-0.000488	-0.001166	-0.000616	0.001581	6105.535029	40575.832352	3702.930406	21382.547085
41.038000	-0.000871	-0.000342	-0.001752	0.001882	6100.269224	40621.403969	3699.712103	21369.636326
41.536000	-0.001789	-0.000168	0.000972	0.002256	6090.348896	40603.983775	3704.983562	21353.627719
42.036000	0.000873	0.000140	0.001800	0.002367	6109.968795	40621.163074	3706.598075	21348.877563
42.536500	-0.000854	0.000033	-0.006361	0.001950	6099.876476	40648.149259	3689.305415	21366.729878
43.036500	-0.002549	0.000174	0.002611	0.002348	6083.811862	40625.700386	3708.467904	21349.653463
43.537000	-0.001434	0.000505	0.001892	0.002622	6090.260159	40630.720460	3706.230906	21337.958506
44.037500	0.000313	0.000113	-0.003398	0.002347	6105.798821	40620.433668	3695.000763	21349.693621
44.537500	-0.001237	0.000601	0.000821	0.002717	6091.042393	40630.800349	3703.606598	21333.866187
45.037500	0.000314	0.000139	0.003224	-0.001414	6134.921793	40951.914277	3718.392985	21511.526466
45.538000	0.001648	0.000869	-0.000685	-0.000571	6138.739682	40941.996226	3707.618456	21475.125207
46.035500	0.004721	0.000867	0.001326	0.000403	6155.113298	40856.317833	3709.957928	21433.160986
46.536000	0.002943	0.000763	0.004842	0.000222	6142.646755	40863.118748	3718.351896	21440.963751
47.036000	-0.000830	-0.000742	-0.000004	0.002219	6097.992335	40557.248094	3702.874135	21355.216247
47.535500	0.002399	0.001129	-0.002539	0.000159	6138.896209	40900.671716	3701.805521	21443.647095
48.036500	-0.000326	0.000254	0.007772	0.000466	6115.392262	40797.139918	3724.493080	21430.459387
48.550500	0.001723	0.001279	-0.000472	0.000139	6133.803284	40915.613632	3706.497771	21444.534863
49.037000	-0.001697	0.000399	0.001846	0.003957	6078.028257	40505.344517	3703.123872	21280.879282
49.534500	0.002690	0.000161	0.001805	0.001115	6133.733470	40732.188023	3709.431100	21402.556895
50.046000	0.000328	0.000206	0.001455	0.001810	6110.064450	40675.513964	3707.073744	21372.745040
50.535500	0.000753	0.000807	0.004831	0.000171	6126.022441	40871.444907	3718.443335	21443.157409
51.035500	-0.002406	0.000443	0.000787	0.004770	6066.418259	40438.626337	3698.932147	21246.238161
51.535000	0.003557	0.000870	0.001093	-0.001703	6162.485533	41041.669268	3714.200209	21523.986766
52.036000	0.001327	0.000808	0.002516	0.003967	6101.139703	40540.044241	3704.606459	21280.461160
52.536000	0.013612	-0.006173	0.007182	0.142976	5255.400357	29759.995917	3444.831671	16204.243979
53.036500	-0.007398	-0.017422	0.001426	0.073807	5548.120632	33609.216820	3557.486808	18527.491641
53.536000	-0.013750	-0.026476	-0.000526	-0.120951	7062.841623	50058.708015	4020.912438	27456.775337
54.035000	-0.014560	-0.122324	0.000831	-0.339782	9868.914565	65535.000000	4874.462010	43644.085303
54.540000	-0.008125	-0.037887	0.008356	-0.217140	8199.820374	60250.346826	4374.731197	33582.755052
55.037000	-0.011322	-0.028961	0.004827	-0.186038	7786.675693	57389.467515	4248.534470	31451.728196
55.534500	-0.021068	-0.022857	-0.008028	-0.173143	7531.291359	56542.068873	4161.011849	30611.950378
56.035500	-0.015006	-0.024822	-0.009238	-0.207540	7997.221313	60710.725639	4274.791648	32908.591028
56.535500	-0.004136	-0.029135	-0.006302	-0.227164	8378.224808	62789.478549	4357.255589	34302.739690
57.036500	0.002700	-0.031864	-0.005319	-0.233322	8548.876561	63265.094942	4384.259431	34753.292118
57.536500	0.002469	-0.025601	-0.003772	-0.221079	8384.955869	62438.005260	4343.974993	33863.697769
58.036500	0.002304	-0.015354	-0.001695	-0.192682	8026.876661	59996.227147	4248.962937	31894.217301
58.537000	0.003671	-0.010715	-0.000861	-0.171284	7789.439651	57830.362906	4178.631795	30492.954452
59.034500	0.002414	-0.007219	-0.004786	-0.141597	7443.503854	54608.552767	4070.614581	28659.774539
59.537000	0.002103	-0.006469	-0.003383	-0.120486	7218.069639	52234.772347	4011.063459	27430.352842
60.035500	-0.001267	-0.005521	-0.007689	-0.098386	6964.092755	49883.827742	3935.388423	26205.725363
60.535500	0.001090	-0.001200	-0.006670	-0.085008	6858.734814	48911.669238	3901.519333	25494.173947
61.036000	0.000453	-0.003521	-0.003650	-0.071421	6726.632473	47252.367151	3873.316069	24793.529557
61.536000	-0.000876	-0.002702	-0.001036	-0.072221	6721.808924	47418.515574	3882.353607	24834.186712
62.036500	-0.005126	-0.005475	-0.008573	-0.045517	6449.214144	44489.264299	3794.855414	23517.061934
62.536500	-0.002854	-0.004029	-0.000654	-0.035415	6383.279602	43666.174457	3789.506958	23039.517862
63.036500	-0.003677	-0.003998	-0.003237	-0.039622	6411.632988	44067.130359	3793.482736	23237.035053
63.537500	-0.002225	-0.003832	-0.008165	-0.043983	6460.844548	44499.763844	3792.092793	23443.829476
64.061000	-0.005502	-0.000946	-0.012383	-0.041908	6415.511354	44577.670525	3776.787755	23345.170098
64.538000	-0.004237	-0.000452	-0.006247	-0.045049	6452.791662	44929.047262	3799.427305	23494.679510
65.035500	-0.001671	-0.000369	-0.005022	-0.049458	6512.591452	45367.276692	3813.413613	23706.387811
65.552000	0.001066	0.000260	-0.001118	-0.052808	6565.569467	45759.303300	3831.692244	23868.698818
66.038500	-0.002545	0.000097	-0.006723	-0.049485	6505.278458	45415.564075	3809.237518	23707.674270
66.536000	-0.001457	0.000179	-0.002459	-0.054890	6561.707703	45957.781130	3833.576722	23970.201266
67.036500	-0.003189	-0.000092	-0.007059	-0.054637	6544.366522	45905.762195	3821.296142	23957.843662
67.537000	-0.000320	0.000886	-0.001288	-0.055169	6574.119897	46055.821098	3837.272036	23983.799093
68.034500	-0.003865	-0.000359	-0.008411	-0.050889	6505.998290	45508.816698	3808.533303	23775.555237
68.537500	-0.002586	0.000282	-0.008719	-0.055329	6555.672065	46011.629136	3818.859671	23991.641084
69.038500	-0.000592	0.000482	-0.006284	-0.052500	6548.380069	45750.766459	3817.870930	23853.713974
69.534500	-0.002398	-0.000199	-0.006494	-0.053261	6539.266334	45758.652813	3819.255399	23890.724006
70.035500	-0.003538	-0.001014	-0.007965	-0.048287	6486.430517	45189.524775	3803.183935	23649.950689
70.536000	-0.002663	-0.000919	-0.005484	-0.051128	6518.461769	45477.272270	3816.437401	23787.156884
71.036000	-0.001818	-0.000341	-0.002339	-0.047794	6496.969883	45207.106852	3815.963678	23626.234911
71.536500	-0.001193	0.000364	-0.001252	-0.046744	6493.318006	45173.474109	3816.056546	23575.821461
72.036500	-0.004227	-0.000638	-0.003349	-0.041231	6420.554080	44542.287922	3797.162438	23313.117836
72.537000	0.000139	-0.000619	-0.006187	-0.044649	6486.767334	44874.080949	3798.590561	23475.613238
73.034000	-0.001301	0.000239	-0.005827	-0.041499	6447.576698	44652.526153	3791.734334	23325.794625
73.537500	0.000121	0.000857	-0.002259	-0.041000	6455.423008	44663.993985	3799.278699	23302.173538
74.038000	-0.002871	0.001067	-0.000730	-0.033777	6369.500771	43993.066045	3785.326421	22963.146636
74.535500	0.000020	0.000510	-0.004523	-0.038245	6431.190435	44365.861368	3786.969201	23172.176350
75.035500	-0.003034	0.000631	-0.001151	-0.035307	6380.885022	44097.017359	3788.028639	23034.490276
75.541500	-0.001764	0.001028	-0.000536	-0.035636	6394.244128	44166.180527	3790.335594	23049.875461
76.036000	-0.002447	0.000212	-0.006623	-0.028968	6333.236054	43459.129225	3759.598481	22740.562172
76.537000	-0.003124	0.000593	-0.002000	-0.033456	6364.730879	43917.685742	3781.460553	22948.213951
77.037000	-0.002044	0.000408	-0.001751	-0.031494	6357.422232	43714.812508	3777.316390	22857.167351
77.536500	0.000050	0.001777	-0.005736	-0.030315	6365.003712	43732.774001	3764.914781	22802.643205
78.037500	-0.002541	0.000700	0.000493	-0.024368	6294.815992	43075.698474	3765.588046	22529.899173
78.540500	0.000672	0.001765	0.000037	-0.028295	6353.415059	43541.521730	3773.911386	22709.570853
79.038000	-0.000903	0.001440	-0.002675	-0.027326	6332.422544	43420.257706	3765.085559	22665.081395
79.535500	0.000833	0.001759	-0.004345	-0.026309	6338.347062	43355.098534	3758.693948	22618.524284
80.036000	-0.005016	0.001502	-0.006868	-0.019782	6237.793303	42726.125522	3737.441725	22322.107251
80.538500	-0.000733	0.001777	0.000323	-0.024506	6310.694930	43188.664062	3765.512237	22536.193575
81.036000	0.000025	0.002136	0.003796	-0.021557	6292.815197	42948.367811	3766.765072	22402.273686
81.537000	0.000851	0.002414	-0.000201	-0.022757	6309.343164	43085.294240	3760.096905	22456.645957
82.037000	-0.002563	0.002140	-0.001829	-0.016494	6231.110810	42483.080746	3741.518273	22174.453632
82.537000	0.000258	0.002150	0.000651	-0.021730	6296.124476	42965.618630	3759.683000	22410.110323
83.037500	0.000170	0.002832	0.003614	-0.019272	6275.453660	42801.644400	3760.881285	22299.137653
83.538000	0.000408	0.001418	-0.004847	-0.020540	6287.664712	42788.183542	3743.920489	22356.292108
84.035000	-0.001033	0.002619	-0.002425	-0.019426	6266.972600	42796.211805	3746.985745	22306.089976
84.538000	0.000536	0.003193	0.001311	-0.018385	6271.232597	42753.199673	3753.324302	22259.243972
85.036000	-0.001500	0.001406	-0.001536	-0.017731	6249.544559	42529.149406	3745.094055	22229.883143
85.536000	0.000286	0.003218	0.001503	-0.017309	6260.530726	42656.640947	3751.240799	22210.983395
86.036500	-0.001270	0.003292	-0.003956	-0.017244	6247.479088	42657.374271	3738.310263	22208.034711
86.537000	0.000833	0.003272	-0.001807	-0.016331	6257.056868	42571.815264	3741.189111	22167.180047
87.037000	0.000429	0.003491	0.001125	-0.013853	6233.917407	42365.352166	3742.247655	22056.679612
87.537500	0.001838	0.003362	-0.001155	-0.015193	6255.983420	42475.892322	3740.056566	22116.361742
88.038000	-0.004002	0.003047	-0.005769	-0.008763	6158.572828	41864.131494	3714.650264	21831.704791
88.534500	0.001797	0.003284	-0.001055	-0.014085	6246.740333	42367.631242	3737.710931	22066.994891
89.035500	0.000778	0.003637	-0.000416	-0.012241	6223.831413	42231.957409	3734.913367	21985.165836
89.538500	0.002221	0.003708	0.003168	-0.013021	6241.608327	42309.393341	3745.080232	22019.746315
90.036000	-0.002110	0.004294	-0.000215	-0.006234	6153.595421	41748.978201	3721.545704	21720.927194
90.536500	0.000311	0.004732	0.004401	-0.011472	6213.985741	42261.601317	3744.340849	21951.137605
91.037000	-0.001135	0.004181	0.000783	-0.009869	6189.820808	42066.354132	3732.198979	21880.396001
91.537000	0.002617	0.004032	0.001626	-0.011688	6234.102491	42217.641864	3738.370890	21960.683185
92.037000	-0.002373	0.003163	0.000863	-0.005526	6146.010680	41584.280753	3722.391692	21690.009303
92.535000	0.001361	0.004273	-0.000053	-0.009847	6209.414224	42072.629495	3730.217502	21879.426083
93.037500	0.002761	0.004067	0.001228	-0.008964	6213.525403	41974.214652	3731.136752	21840.553217
93.535500	-0.000823	0.004990	0.004352	-0.009358	6188.242208	42093.228824	3739.294116	21857.884202
94.035500	-0.001722	0.004106	-0.003589	-0.003432	6134.777372	41481.646306	3707.521078	21598.898960
94.538500	0.005691	0.005188	-0.001137	-0.007878	6228.218587	41977.334242	3723.197038	21792.860894
95.036000	0.001603	0.004728	-0.000966	-0.006899	6187.985235	41847.650089	3721.348107	21749.971993
95.595000	0.000176	0.005233	-0.003488	-0.008307	6187.838541	42020.154130	3718.805840	21811.698976
96.036500	-0.000605	0.005127	-0.000274	-0.002347	6135.028169	41475.978052	3712.561803	21551.879268
96.534000	0.000612	0.004692	0.002108	-0.007693	6186.427831	41915.916894	3730.231480	21784.737409
97.034500	0.000791	0.004597	-0.000368	-0.007407	6185.578253	41881.625534	3723.881044	21772.211326
97.534000	0.003673	0.005224	0.001656	-0.006716	6202.909058	41875.830388	3726.940827	21741.963356
98.035000	0.001455	0.005551	-0.003905	-0.001089	6141.268703	41401.639463	3701.542701	21497.461278
98.570000	0.002059	0.004749	-0.000303	-0.006824	6190.990356	41842.889697	3722.694551	21746.709090
99.036000	0.001350	0.005118	-0.002902	-0.006369	6181.805720	41835.112822	3715.725556	21726.798722
