sample name	sample
index	1312
start time	 04-29-2021  04:24:23 PM


Wavelength (nm)	Absorbance
494.344910	-0.115534
494.563924	-0.115534
494.782919	-0.115534
495.001897	-0.152269
495.220856	-0.139758
495.439797	-0.098184
495.658719	-0.075267
495.877624	-0.089936
496.096510	-0.099748
496.315378	-0.078230
496.534227	-0.011920
496.753059	-0.043875
496.971872	0.044828
497.190667	0.050575
497.409444	0.035721
497.628203	0.039429
497.846943	0.038775
498.065665	0.039546
498.284369	0.041951
498.503055	0.041831
498.721723	0.040887
498.940372	0.040351
499.159003	0.040334
499.377616	0.041081
499.596210	0.040958
499.814787	0.042176
500.033345	0.042622
500.251885	0.041421
500.470406	0.040936
500.688910	0.041883
500.907395	0.042382
501.125862	0.043086
501.344311	0.043531
501.562742	0.043681
501.781154	0.043104
501.999548	0.041892
502.217924	0.042594
502.436282	0.042542
502.654621	0.042611
502.872942	0.042461
503.091245	0.041344
503.309530	0.041006
503.527797	0.040194
503.746045	0.039854
503.964275	0.040324
504.182487	0.038887
504.400681	0.039085
504.618856	0.038984
504.837013	0.039200
505.055152	0.039779
505.273273	0.039305
505.491376	0.038918
505.709460	0.039845
505.927526	0.040159
506.145574	0.041171
506.363604	0.041813
506.581615	0.041375
506.799608	0.040008
507.017583	0.039201
507.235540	0.040170
507.453478	0.041342
507.671399	0.039997
507.889301	0.039712
508.107185	0.038886
508.325050	0.038055
508.542898	0.037953
508.760727	0.039167
508.978538	0.039706
509.196330	0.039511
509.414105	0.039448
509.631861	0.039551
509.849599	0.040241
510.067319	0.040404
510.285021	0.040559
510.502704	0.041412
510.720369	0.041686
510.938016	0.041859
511.155645	0.041871
511.373255	0.041842
511.590848	0.042516
511.808422	0.042038
512.025977	0.042818
512.243515	0.042376
512.461034	0.042024
512.678536	0.041549
512.896018	0.040704
513.113483	0.040523
513.330930	0.040152
513.548358	0.040718
513.765768	0.041554
513.983160	0.041225
514.200533	0.041145
514.417889	0.041547
514.635226	0.041909
514.852545	0.042650
515.069845	0.043336
515.287128	0.042522
515.504392	0.042013
515.721638	0.040848
515.938866	0.041134
516.156075	0.041347
516.373267	0.040756
516.590440	0.040134
516.807594	0.039906
517.024731	0.039499
517.241850	0.040902
517.458950	0.041506
517.676032	0.041938
517.893095	0.042016
518.110141	0.042035
518.327168	0.042566
518.544177	0.042936
518.761168	0.043635
518.978141	0.044036
519.195095	0.043611
519.412031	0.043097
519.628949	0.043248
519.845849	0.043230
520.062731	0.042834
520.279594	0.042052
520.496439	0.042640
520.713266	0.042419
520.930074	0.042004
521.146865	0.041311
521.363637	0.041864
521.580391	0.042606
521.797127	0.042932
522.013844	0.044021
522.230543	0.044707
522.447224	0.044939
522.663887	0.044708
522.880532	0.045150
523.097158	0.046391
523.313766	0.045927
523.530356	0.045357
523.746928	0.045587
523.963481	0.046032
524.180017	0.045736
524.396534	0.045762
524.613032	0.046535
524.829513	0.046790
525.045975	0.046478
525.262420	0.046800
525.478845	0.046993
525.695253	0.047099
525.911643	0.046738
526.128014	0.047029
526.344367	0.046502
526.560702	0.045943
526.777018	0.045612
526.993316	0.046057
527.209597	0.046189
527.425858	0.046255
527.642102	0.046583
527.858328	0.046455
528.074535	0.046672
528.290724	0.047189
528.506894	0.047164
528.723047	0.047716
528.939181	0.047748
529.155297	0.048132
529.371395	0.048945
529.587475	0.048845
529.803536	0.049180
530.019579	0.049885
530.235604	0.050052
530.451611	0.050884
530.667600	0.050712
530.883570	0.051227
531.099522	0.050642
531.315456	0.050422
531.531372	0.050408
531.747269	0.051017
531.963148	0.050779
532.179009	0.051018
532.394852	0.051079
532.610676	0.051349
532.826482	0.050774
533.042271	0.051516
533.258040	0.051354
533.473792	0.051129
533.689525	0.050688
533.905240	0.050368
534.120937	0.050596
534.336616	0.050569
534.552277	0.050768
534.767919	0.051278
534.983543	0.050969
535.199149	0.051536
535.414736	0.051903
535.630306	0.052229
535.845857	0.052766
536.061390	0.052520
536.276904	0.052599
536.492401	0.052870
536.707879	0.052782
536.923339	0.053091
537.138781	0.052972
537.354204	0.052394
537.569610	0.052716
537.784997	0.052485
538.000366	0.052942
538.215716	0.052352
538.431049	0.051984
538.646363	0.052146
538.861659	0.052513
539.076937	0.052352
539.292196	0.052718
539.507438	0.052432
539.722661	0.052615
539.937866	0.052893
540.153052	0.053725
540.368221	0.054151
540.583371	0.054567
540.798503	0.054544
541.013617	0.054578
541.228712	0.055384
541.443789	0.055243
541.658848	0.055517
541.873889	0.055591
542.088912	0.055721
542.303916	0.055421
542.518902	0.055475
542.733870	0.055324
542.948820	0.055700
543.163752	0.055578
543.378665	0.055992
543.593560	0.055736
543.808437	0.055529
544.023295	0.055566
544.238136	0.056232
544.452958	0.055972
544.667762	0.056120
544.882548	0.055957
545.097315	0.056005
545.312064	0.056129
545.526795	0.056718
545.741508	0.056841
545.956203	0.057101
546.170879	0.057273
546.385537	0.057585
546.600177	0.057963
546.814799	0.058279
547.029402	0.058591
547.243988	0.058956
547.458555	0.059227
547.673103	0.059408
547.887634	0.059423
548.102146	0.059305
548.316640	0.059392
548.531116	0.059553
548.745574	0.059733
548.960013	0.059629
549.174435	0.059603
549.388838	0.058954
549.603222	0.059009
549.817589	0.058898
550.031937	0.058651
550.246267	0.058604
550.460579	0.058473
550.674873	0.058574
550.889148	0.058657
551.103405	0.058624
551.317644	0.059461
551.531865	0.059912
551.746068	0.060211
551.960252	0.060612
552.174418	0.060914
552.388566	0.061158
552.602696	0.061290
552.816807	0.061538
553.030900	0.061301
553.244975	0.061182
553.459032	0.060603
553.673070	0.060628
553.887091	0.060703
554.101093	0.060620
554.315077	0.060568
554.529042	0.060394
554.742990	0.060395
554.956919	0.061011
555.170830	0.060902
555.384722	0.061033
555.598597	0.061008
555.812453	0.060897
556.026291	0.060913
556.240111	0.061060
556.453913	0.061193
556.667696	0.061156
556.881461	0.060976
557.095208	0.061128
557.308937	0.060875
557.522647	0.060893
557.736339	0.060984
557.950013	0.061035
558.163669	0.060937
558.377307	0.060808
558.590926	0.060834
558.804527	0.060807
559.018110	0.060587
559.231675	0.061141
559.445221	0.061183
559.658749	0.061325
559.872259	0.061377
560.085751	0.061846
560.299225	0.062151
560.512680	0.061951
560.726117	0.061934
560.939536	0.062074
561.152937	0.062070
561.366319	0.061925
561.579683	0.061911
561.793029	0.061763
562.006357	0.061393
562.219667	0.061320
562.432958	0.061559
562.646231	0.062046
562.859486	0.062606
563.072723	0.062613
563.285941	0.063009
563.499141	0.062997
563.712323	0.062924
563.925487	0.062873
564.138632	0.063313
564.351760	0.063345
564.564869	0.063131
564.777960	0.062758
564.991032	0.062548
565.204087	0.062587
565.417123	0.062959
565.630141	0.063429
565.843140	0.063936
566.056122	0.063937
566.269085	0.063941
566.482030	0.063930
566.694957	0.064360
566.907866	0.064891
567.120756	0.064989
567.333628	0.064701
567.546482	0.064805
567.759318	0.064537
567.972135	0.064422
568.184935	0.064778
568.397716	0.064949
568.610478	0.064607
568.823223	0.064463
569.035949	0.064226
569.248657	0.064143
569.461347	0.063909
569.674019	0.063891
569.886672	0.063629
570.099308	0.063165
570.311925	0.062954
570.524523	0.063147
570.737104	0.062994
570.949666	0.063203
571.162210	0.062846
571.374736	0.063173
571.587244	0.063552
571.799733	0.063968
572.012205	0.063990
572.224658	0.064459
572.437092	0.064401
572.649509	0.064705
572.861907	0.064796
573.074287	0.065507
573.286649	0.065353
573.498993	0.065001
573.711318	0.065080
573.923625	0.065424
574.135914	0.065027
574.348185	0.064912
574.560438	0.065056
574.772672	0.064734
574.984888	0.064452
575.197086	0.064567
575.409266	0.064681
575.621427	0.064312
575.833570	0.064236
576.045695	0.064102
576.257802	0.064333
576.469890	0.064056
576.681961	0.064214
576.894013	0.064377
577.106046	0.064301
577.318062	0.064199
577.530059	0.063964
577.742039	0.063650
577.954000	0.063896
578.165942	0.063612
578.377867	0.063684
578.589773	0.063525
578.801661	0.063484
579.013531	0.063200
579.225382	0.063353
579.437216	0.063482
579.649031	0.063892
579.860828	0.063965
580.072606	0.064285
580.284367	0.064282
580.496109	0.064699
580.707833	0.064747
580.919539	0.065217
581.131227	0.065055
581.342896	0.065434
581.554547	0.065563
581.766180	0.065615
581.977795	0.065542
582.189391	0.065708
582.400969	0.065511
582.612529	0.065806
582.824071	0.065782
583.035595	0.065752
583.247100	0.065917
583.458587	0.065904
583.670056	0.065813
583.881506	0.066174
584.092939	0.066504
584.304353	0.066845
584.515749	0.066877
584.727127	0.066743
584.938486	0.067215
585.149828	0.067109
585.361151	0.067157
585.572456	0.067378
585.783742	0.067000
585.995011	0.066738
586.206261	0.067029
586.417493	0.067182
586.628706	0.067390
586.839902	0.067426
587.051079	0.067637
587.262238	0.067603
587.473379	0.067927
587.684502	0.068195
587.895606	0.068569
588.106692	0.068233
588.317760	0.068195
588.528810	0.068343
588.739841	0.068277
588.950855	0.068456
589.161850	0.068546
589.372827	0.068511
589.583785	0.068362
589.794726	0.068238
590.005648	0.068213
590.216552	0.068517
590.427437	0.068591
590.638305	0.068540
590.849154	0.068596
591.059985	0.068851
591.270798	0.068537
591.481592	0.068697
591.692369	0.068753
591.903127	0.068877
592.113867	0.068787
592.324588	0.068732
592.535292	0.068952
592.745977	0.068901
592.956644	0.068497
593.167293	0.068518
593.377923	0.068691
593.588536	0.068788
593.799130	0.068891
594.009706	0.068730
594.220263	0.068891
594.430803	0.068990
594.641324	0.068778
594.851827	0.069072
595.062312	0.069417
595.272778	0.069489
595.483227	0.069678
595.693657	0.069496
595.904069	0.069499
596.114462	0.069460
596.324838	0.069469
596.535195	0.069720
596.745534	0.069895
596.955855	0.069982
597.166157	0.070161
597.376441	0.069995
597.586707	0.070231
597.796955	0.070666
598.007185	0.070711
598.217396	0.070802
598.427589	0.070809
598.637764	0.071133
598.847921	0.071015
599.058060	0.070911
599.268180	0.070694
599.478282	0.071032
599.688366	0.070806
599.898431	0.070860
600.108479	0.070906
600.318508	0.070847
600.528519	0.070843
600.738511	0.070900
600.948486	0.070737
601.158442	0.071019
601.368380	0.070935
601.578300	0.070903
601.788202	0.070765
601.998085	0.070905
602.207950	0.070982
602.417797	0.070969
602.627626	0.070838
602.837436	0.071056
603.047228	0.070780
603.257002	0.070846
603.466758	0.071054
603.676496	0.071388
603.886215	0.071477
604.095916	0.071558
604.305599	0.071479
604.515264	0.071807
604.724910	0.072114
604.934538	0.072485
605.144148	0.072764
605.353740	0.072969
605.563314	0.073405
605.772869	0.073459
605.982406	0.073587
606.191925	0.073401
606.401425	0.073419
606.610908	0.073289
606.820372	0.073495
607.029818	0.073276
607.239246	0.073243
607.448655	0.072995
607.658047	0.072917
607.867420	0.072925
608.076775	0.073444
608.286111	0.073761
608.495430	0.073687
608.704730	0.073859
608.914012	0.073703
609.123275	0.073762
609.332521	0.073618
609.541748	0.073728
609.750957	0.073893
609.960148	0.073969
610.169321	0.073848
610.378475	0.074143
610.587611	0.074146
610.796729	0.074262
611.005829	0.074152
611.214910	0.074393
611.423974	0.074324
611.633019	0.074361
611.842045	0.074330
612.051054	0.074477
612.260044	0.074405
612.469017	0.074411
612.677970	0.074806
612.886906	0.075041
613.095824	0.075144
613.304723	0.075160
613.513604	0.075407
613.722467	0.075422
613.931311	0.075455
614.140138	0.075396
614.348946	0.075402
614.557736	0.075175
614.766507	0.075093
614.975261	0.075097
615.183996	0.075270
615.392713	0.075011
615.601412	0.074721
615.810092	0.074640
616.018754	0.074917
616.227399	0.074810
616.436024	0.074889
616.644632	0.075161
616.853222	0.075188
617.061793	0.075284
617.270346	0.075367
617.478880	0.075452
617.687397	0.075657
617.895895	0.075678
618.104375	0.075872
618.312837	0.075896
618.521281	0.075746
618.729706	0.075741
618.938113	0.075546
619.146502	0.075376
619.354873	0.075426
619.563226	0.075112
619.771560	0.074794
619.979876	0.074541
620.188174	0.074538
620.396453	0.074566
620.604715	0.074674
620.812958	0.074611
621.021183	0.074882
621.229390	0.075068
621.437578	0.075153
621.645748	0.075458
621.853900	0.075866
622.062034	0.075754
622.270150	0.075741
622.478247	0.075740
622.686326	0.076006
622.894387	0.076178
623.102430	0.076128
623.310454	0.076385
623.518461	0.076507
623.726449	0.076171
623.934418	0.076397
624.142370	0.076323
624.350303	0.076204
624.558218	0.076228
624.766115	0.076046
624.973994	0.076032
625.181855	0.075966
625.389697	0.075896
625.597521	0.076034
625.805327	0.076055
626.013114	0.076221
626.220883	0.076340
626.428634	0.076463
626.636367	0.076739
626.844082	0.076924
627.051778	0.077101
627.259457	0.077179
627.467117	0.077466
627.674758	0.077684
627.882382	0.077791
628.089987	0.077707
628.297574	0.077715
628.505143	0.077572
628.712694	0.077511
628.920226	0.077580
629.127740	0.077528
629.335236	0.077529
629.542714	0.077365
629.750174	0.077332
629.957615	0.077488
630.165038	0.077469
630.372443	0.077329
630.579829	0.077483
630.787198	0.077395
630.994548	0.077581
631.201880	0.077581
631.409194	0.077628
631.616489	0.077844
631.823766	0.077806
632.031025	0.077960
632.238266	0.078234
632.445489	0.078411
632.652693	0.078527
632.859879	0.078645
633.067047	0.078841
633.274197	0.078977
633.481329	0.078837
633.688442	0.079034
633.895537	0.079011
634.102614	0.079176
634.309672	0.079214
634.516713	0.079476
634.723735	0.079502
634.930739	0.079523
635.137724	0.079552
635.344692	0.079774
635.551641	0.079674
635.758572	0.079721
635.965485	0.079654
636.172379	0.079782
636.379256	0.079676
636.586114	0.079751
636.792954	0.079620
636.999775	0.080080
637.206579	0.080188
637.413364	0.080426
637.620131	0.080738
637.826880	0.081050
638.033610	0.080933
638.240323	0.081066
638.447017	0.081099
638.653692	0.081186
638.860350	0.080962
639.066990	0.080890
639.273611	0.080958
639.480214	0.080866
639.686798	0.080798
639.893365	0.080824
640.099913	0.080839
640.306443	0.080982
640.512955	0.081069
640.719449	0.081295
640.925924	0.081508
641.132381	0.081674
641.338820	0.081458
641.545241	0.081488
641.751644	0.081705
641.958028	0.081725
642.164394	0.081796
642.370742	0.081964
642.577071	0.081711
642.783383	0.081893
642.989676	0.081841
643.195951	0.082251
643.402207	0.082407
643.608446	0.082373
643.814666	0.082635
644.020868	0.082608
644.227052	0.082553
644.433218	0.082823
644.639365	0.082685
644.845494	0.082723
645.051605	0.082607
645.257698	0.082546
645.463772	0.082667
645.669828	0.082538
645.875866	0.082514
646.081886	0.082654
646.287888	0.082676
646.493871	0.082612
646.699836	0.082639
646.905783	0.082793
647.111712	0.082895
647.317622	0.082831
647.523514	0.082822
647.729388	0.083052
647.935244	0.083145
648.141082	0.083134
648.346901	0.083161
648.552702	0.083376
648.758485	0.083416
648.964250	0.083844
649.169996	0.084105
649.375724	0.084348
649.581434	0.084311
649.787126	0.084560
649.992800	0.084705
650.198455	0.084836
650.404092	0.084833
650.609711	0.084961
650.815311	0.084682
651.020894	0.084682
651.226458	0.084729
651.432004	0.084796
651.637532	0.084473
651.843041	0.084536
652.048532	0.084797
652.254006	0.084914
652.459460	0.085085
652.664897	0.085206
652.870315	0.085335
653.075716	0.085396
653.281097	0.085449
653.486461	0.085660
653.691807	0.085678
653.897134	0.085743
654.102443	0.085594
654.307734	0.085463
654.513006	0.085291
654.718261	0.085120
654.923497	0.085153
655.128715	0.085383
655.333915	0.085336
655.539096	0.085188
655.744259	0.085112
655.949404	0.085167
656.154531	0.085167
656.359640	0.085266
656.564730	0.085531
656.769802	0.085496
656.974856	0.085446
657.179892	0.085691
657.384909	0.086138
657.589908	0.086264
657.794889	0.086709
657.999852	0.087083
658.204797	0.087408
658.409723	0.087665
658.614631	0.087940
658.819521	0.088192
659.024393	0.088485
659.229246	0.088662
659.434081	0.088740
659.638898	0.088911
659.843697	0.088921
660.048478	0.089135
660.253240	0.089008
660.457984	0.089097
660.662710	0.089111
660.867417	0.089066
661.072107	0.089104
661.276778	0.089244
661.481431	0.089342
661.686066	0.089485
661.890682	0.089373
662.095281	0.089607
662.299861	0.089698
662.504422	0.089741
662.708966	0.089786
662.913491	0.089763
663.117999	0.090151
663.322488	0.090076
663.526958	0.090090
663.731411	0.090270
663.935845	0.090565
664.140261	0.090760
664.344659	0.091020
664.549038	0.091217
664.753400	0.091400
664.957743	0.091311
665.162068	0.091525
665.366375	0.091839
665.570663	0.092050
665.774933	0.091811
665.979185	0.091752
666.183419	0.091682
666.387635	0.091808
666.591832	0.091676
666.796011	0.091717
667.000172	0.091551
667.204315	0.091499
667.408439	0.091398
667.612545	0.091507
667.816634	0.091457
668.020703	0.091301
668.224755	0.091162
668.428788	0.091169
668.632803	0.091047
668.836800	0.091064
669.040779	0.091044
669.244739	0.091094
669.448681	0.091074
669.652605	0.091218
669.856511	0.091410
670.060399	0.091419
670.264268	0.091664
670.468119	0.091816
670.671952	0.092082
670.875767	0.092245
671.079563	0.092538
671.283341	0.092644
671.487101	0.092855
671.690843	0.093203
671.894567	0.093260
672.098272	0.093421
672.301959	0.093672
672.505628	0.093590
672.709278	0.093615
672.912911	0.093605
673.116525	0.093782
673.320121	0.093799
673.523699	0.093791
673.727258	0.093845
673.930799	0.093709
674.134322	0.093566
674.337827	0.093626
674.541314	0.093598
674.744782	0.093440
674.948232	0.093408
675.151664	0.093539
675.355078	0.093609
675.558474	0.093780
675.761851	0.093936
675.965210	0.094142
676.168551	0.094309
676.371873	0.094408
676.575178	0.094617
676.778464	0.094704
676.981732	0.094584
677.184981	0.094578
677.388213	0.094635
677.591426	0.094717
677.794621	0.094693
677.997798	0.094817
678.200956	0.094968
678.404097	0.095016
678.607219	0.095095
678.810323	0.095207
679.013408	0.095601
679.216476	0.095752
679.419525	0.095775
679.622556	0.095871
679.825569	0.095907
680.028563	0.096299
680.231540	0.096511
680.434498	0.096715
680.637438	0.096756
680.840359	0.096583
681.043263	0.096678
681.246148	0.096838
681.449015	0.096846
681.651864	0.096858
681.854694	0.096519
682.057506	0.096459
682.260301	0.096642
682.463076	0.096711
682.665834	0.096660
682.868573	0.096625
683.071295	0.096571
683.273998	0.096784
683.476682	0.096834
683.679349	0.096927
683.881997	0.096989
684.084627	0.097052
684.287239	0.097482
684.489833	0.097540
684.692408	0.097737
684.894965	0.097814
685.097504	0.097783
685.300025	0.097901
685.502527	0.097976
685.705012	0.097914
685.907478	0.097929
686.109925	0.097708
686.312355	0.097946
686.514766	0.098267
686.717159	0.098455
686.919534	0.098585
687.121891	0.098726
687.324230	0.098906
687.526550	0.099100
687.728852	0.099131
687.931136	0.099156
688.133401	0.098990
688.335649	0.098870
688.537878	0.098917
688.740089	0.098994
688.942281	0.099093
689.144456	0.099298
689.346612	0.099474
689.548750	0.099391
689.750870	0.099534
689.952971	0.099678
690.155055	0.099759
690.357120	0.100008
690.559167	0.100136
690.761195	0.100268
690.963206	0.100081
691.165198	0.100027
691.367172	0.100201
691.569128	0.100342
691.771065	0.100513
691.972984	0.100378
692.174885	0.100346
692.376768	0.100374
692.578633	0.100203
692.780479	0.100396
692.982308	0.100417
693.184118	0.100416
693.385909	0.100438
693.587683	0.100346
693.789438	0.100550
693.991175	0.100563
694.192894	0.100607
694.394595	0.100788
694.596277	0.100835
694.797941	0.100911
694.999587	0.101117
695.201215	0.101071
695.402824	0.101184
695.604416	0.101192
695.805989	0.101440
696.007543	0.101564
696.209080	0.101474
696.410598	0.101370
696.612099	0.101423
696.813580	0.101281
697.015044	0.101371
697.216490	0.101367
697.417917	0.101387
697.619326	0.101274
697.820717	0.101189
698.022089	0.101490
698.223444	0.101684
698.424780	0.101745
698.626098	0.101843
698.827397	0.102012
699.028679	0.102144
699.229942	0.102259
699.431187	0.102260
699.632414	0.102360
699.833622	0.102330
700.034813	0.102284
700.235985	0.102405
700.437139	0.102383
700.638274	0.102455
700.839392	0.102516
701.040491	0.102620
701.241572	0.102750
701.442635	0.102810
701.643679	0.102943
701.844706	0.103161
702.045714	0.103301
702.246704	0.103525
702.447675	0.103501
702.648629	0.103483
702.849564	0.103506
703.050481	0.103524
703.251380	0.103887
703.452260	0.103916
703.653122	0.103748
703.853966	0.103888
704.054792	0.103689
704.255600	0.103629
704.456389	0.103597
704.657160	0.103582
704.857913	0.103653
705.058648	0.103374
705.259365	0.103213
705.460063	0.103273
705.660743	0.102954
705.861405	0.103226
706.062048	0.103425
706.262674	0.103483
706.463281	0.103449
706.663870	0.103371
706.864441	0.103279
707.064993	0.103465
707.265527	0.103526
707.466043	0.103766
707.666541	0.103757
707.867021	0.103769
708.067482	0.103905
708.267925	0.103929
708.468350	0.104137
708.668757	0.104342
708.869145	0.104514
709.069516	0.104743
709.269868	0.104819
709.470201	0.104969
709.670517	0.104919
709.870814	0.105185
710.071093	0.105295
710.271354	0.105232
710.471597	0.105379
710.671821	0.105269
710.872028	0.105246
711.072216	0.105366
711.272385	0.105219
711.472537	0.105307
711.672670	0.105263
711.872785	0.105263
712.072882	0.105222
712.272961	0.105139
712.473021	0.105102
712.673063	0.104794
712.873087	0.104488
713.073093	0.104742
713.273081	0.104589
713.473050	0.104525
713.673001	0.104471
713.872934	0.104371
714.072849	0.104288
714.272745	0.104308
714.472623	0.104327
714.672483	0.104330
714.872325	0.103902
715.072148	0.103936
715.271954	0.103642
715.471741	0.103714
715.671509	0.103675
715.871260	0.103611
716.070992	0.103607
716.270707	0.103800
716.470403	0.103794
716.670080	0.103818
716.869740	0.103848
717.069381	0.103902
717.269004	0.103855
717.468609	0.103988
717.668195	0.104057
717.867764	0.103805
718.067314	0.103771
718.266846	0.103727
718.466360	0.103753
718.665855	0.103625
718.865332	0.103612
719.064791	0.103484
719.264232	0.103570
719.463655	0.103298
719.663059	0.103333
719.862445	0.103289
720.061813	0.103052
720.261163	0.103037
720.460494	0.102877
720.659807	0.102935
720.859102	0.102835
721.058379	0.102518
721.257638	0.102451
721.456878	0.102391
721.656100	0.102186
721.855304	0.102463
722.054490	0.102507
722.253657	0.102504
722.452806	0.102368
722.651937	0.102391
722.851050	0.102201
723.050145	0.102287
723.249221	0.102368
723.448279	0.102352
723.647319	0.102346
723.846340	0.102272
724.045344	0.102454
724.244329	0.102630
724.443296	0.102605
724.642245	0.102879
724.841175	0.102837
725.040088	0.102865
725.238982	0.102875
725.437857	0.102908
725.636715	0.103018
725.835554	0.102793
726.034376	0.102765
726.233179	0.102804
726.431963	0.102738
726.630730	0.102757
726.829478	0.102532
727.028208	0.102647
727.226920	0.102412
727.425614	0.102164
727.624289	0.102128
727.822946	0.101900
728.021585	0.101774
728.220206	0.101642
728.418808	0.101174
728.617392	0.101163
728.815958	0.100856
729.014506	0.100634
729.213036	0.100532
729.411547	0.100561
729.610040	0.100487
729.808515	0.100620
730.006972	0.100485
730.205410	0.100893
730.403831	0.100636
730.602233	0.100602
730.800616	0.100720
730.998982	0.100663
731.197329	0.100474
731.395658	0.100560
731.593969	0.100373
731.792262	0.100398
731.990536	0.100318
732.188793	0.100472
732.387031	0.100620
732.585250	0.100806
732.783452	0.100730
732.981635	0.100759
733.179800	0.100571
733.377947	0.100490
733.576076	0.100388
733.774186	0.100285
733.972278	0.100320
734.170352	0.100167
734.368408	0.099906
734.566446	0.100089
734.764465	0.100074
734.962466	0.099931
735.160449	0.099786
735.358413	0.099631
735.556360	0.099827
735.754288	0.099711
735.952198	0.099778
736.150090	0.099666
736.347963	0.099443
736.545818	0.099383
736.743655	0.099444
736.941474	0.099409
737.139275	0.099411
737.337057	0.099042
737.534821	0.098840
737.732567	0.098475
737.930295	0.098353
738.128005	0.098337
738.325696	0.098213
738.523369	0.098119
738.721024	0.098011
738.918660	0.097877
739.116279	0.097735
739.313879	0.097779
739.511461	0.098050
739.709024	0.098197
739.906570	0.097946
740.104097	0.097833
740.301606	0.097766
740.499097	0.097717
740.696569	0.097780
740.894024	0.097818
741.091460	0.097631
741.288878	0.097386
741.486277	0.097192
741.683659	0.097151
741.881022	0.097096
742.078367	0.096887
742.275694	0.096780
742.473002	0.096647
742.670293	0.096400
742.867565	0.096186
743.064819	0.096069
743.262054	0.095924
743.459272	0.095906
743.656471	0.095785
743.853652	0.095743
744.050815	0.095685
744.247959	0.095574
744.445085	0.095631
744.642194	0.095726
744.839283	0.095591
745.036355	0.095621
745.233408	0.095543
745.430444	0.095475
745.627461	0.095482
745.824459	0.095443
746.021440	0.095631
746.218402	0.095451
746.415346	0.095383
746.612272	0.095462
746.809180	0.095242
747.006069	0.094970
747.202940	0.094967
747.399793	0.095038
747.596628	0.095071
747.793444	0.094758
747.990243	0.094694
748.187023	0.094566
748.383784	0.094401
748.580528	0.094574
748.777253	0.094856
748.973960	0.094813
749.170649	0.094587
749.367320	0.094496
749.563973	0.094565
749.760607	0.094656
749.957223	0.094705
750.153821	0.094682
750.350400	0.094468
750.546962	0.094420
750.743505	0.094405
750.940030	0.094412
751.136536	0.094279
751.333025	0.094322
751.529495	0.094140
751.725947	0.094110
751.922381	0.094057
752.118796	0.094119
752.315194	0.093967
752.511573	0.093741
752.707934	0.093518
752.904276	0.093581
753.100601	0.093392
753.296907	0.093509
753.493195	0.093401
753.689465	0.093193
753.885716	0.093129
754.081949	0.093077
754.278164	0.093033
754.474361	0.093121
754.670540	0.092946
754.866700	0.093093
755.062843	0.092937
755.258967	0.092648
755.455072	0.092662
755.651160	0.092623
755.847229	0.092742
756.043280	0.092925
756.239313	0.092737
756.435328	0.092584
756.631324	0.092204
756.827302	0.092189
757.023262	0.092314
757.219204	0.092329
757.415127	0.092255
757.611033	0.091866
757.806920	0.091594
758.002788	0.091604
758.198639	0.091402
758.394471	0.091331
758.590286	0.091227
758.786081	0.091211
758.981859	0.091099
759.177619	0.090807
759.373360	0.090664
759.569083	0.090687
759.764788	0.090753
759.960474	0.090757
760.156143	0.090732
760.351793	0.090614
760.547425	0.090455
760.743038	0.090310
760.938634	0.090204
761.134211	0.090376
761.329770	0.090253
761.525311	0.090017
761.720833	0.090032
761.916338	0.090016
762.111824	0.090002
762.307292	0.089945
762.502741	0.089930
762.698173	0.089962
762.893586	0.089828
763.088981	0.089685
763.284358	0.089783
763.479716	0.090024
763.675057	0.090329
763.870379	0.090415
764.065683	0.090448
764.260968	0.090558
764.456236	0.090631
764.651485	0.090527
764.846716	0.090546
765.041929	0.090412
765.237123	0.090330
765.432299	0.090138
765.627457	0.089997
765.822597	0.090039
766.017719	0.089955
766.212822	0.089791
766.407907	0.089751
766.602974	0.089712
766.798023	0.089527
766.993054	0.089240
767.188066	0.089105
767.383060	0.088939
767.578036	0.088487
767.772993	0.088235
767.967933	0.088239
768.162854	0.088130
768.357757	0.088001
768.552642	0.088063
768.747508	0.087942
768.942356	0.087676
769.137186	0.087775
769.331998	0.088116
769.526792	0.088327
769.721567	0.088303
769.916324	0.088323
770.111063	0.088330
770.305784	0.088297
770.500486	0.088336
770.695171	0.088328
770.889837	0.088310
771.084484	0.088346
771.279114	0.088063
771.473725	0.087874
771.668318	0.087888
771.862893	0.087922
772.057450	0.087909
772.251988	0.087935
772.446509	0.088120
772.641011	0.087901
772.835494	0.087641
773.029960	0.087709
773.224407	0.087840
773.418836	0.087791
773.613247	0.087637
773.807640	0.087491
774.002014	0.087365
774.196370	0.087149
774.390708	0.087109
774.585028	0.086906
774.779330	0.086838
774.973613	0.086632
775.167878	0.086561
775.362125	0.086462
775.556354	0.086574
775.750564	0.086457
775.944756	0.086604
776.138930	0.086749
776.333086	0.086939
776.527223	0.086933
776.721343	0.086944
776.915444	0.086866
777.109526	0.086888
777.303591	0.086882
777.497637	0.086925
777.691666	0.086940
777.885676	0.086904
778.079667	0.086858
778.273641	0.086989
778.467596	0.087170
778.661533	0.087331
778.855452	0.087374
779.049352	0.087262
779.243235	0.087542
779.437099	0.087400
779.630945	0.087593
779.824773	0.087704
780.018582	0.087738
780.212373	0.087485
780.406146	0.087325
780.599901	0.087365
780.793638	0.087457
780.987356	0.087331
781.181056	0.087483
781.374738	0.087493
781.568402	0.087399
781.762047	0.087368
781.955674	0.087735
782.149283	0.087987
782.342874	0.088106
782.536447	0.088087
782.730001	0.088179
782.923537	0.088062
783.117055	0.088111
783.310555	0.088227
783.504036	0.087996
783.697499	0.087955
783.890944	0.087960
784.084371	0.088145
784.277780	0.088430
784.471170	0.088633
784.664542	0.088527
784.857896	0.088411
785.051231	0.088637
785.244549	0.088841
785.437848	0.088682
785.631129	0.088483
785.824392	0.088488
786.017636	0.088285
786.210863	0.088298
786.404071	0.088540
786.597260	0.088413
786.790432	0.088089
786.983585	0.088161
787.176721	0.088411
787.369838	0.088893
787.562936	0.088841
787.756017	0.088833
787.949079	0.088603
788.142123	0.088709
788.335149	0.088892
788.528156	0.089075
788.721146	0.089063
788.914117	0.088845
789.107070	0.088788
789.300005	0.088803
789.492921	0.088703
789.685819	0.089028
789.878699	0.089058
790.071561	0.089153
790.264405	0.089071
790.457230	0.089096
790.650037	0.089302
790.842826	0.089176
791.035597	0.089245
791.228349	0.089559
791.421084	0.089353
791.613800	0.089310
791.806497	0.089237
791.999177	0.089363
792.191838	0.089398
792.384481	0.089401
792.577106	0.089379
792.769713	0.089450
792.962301	0.089370
793.154871	0.089429
793.347423	0.089250
793.539957	0.089312
793.732473	0.089586
793.924970	0.089613
794.117449	0.089667
794.309910	0.089703
794.502353	0.089508
794.694777	0.089643
794.887183	0.089795
795.079571	0.089998
795.271941	0.090075
795.464293	0.089859
795.656626	0.090032
795.848941	0.090002
796.041238	0.090078
796.233516	0.090492
796.425777	0.090505
796.618019	0.090461
796.810243	0.090789
797.002449	0.090881
797.194636	0.091077
797.386805	0.091033
797.578956	0.091325
797.771089	0.091568
797.963204	0.091424
798.155300	0.091492
798.347378	0.091762
798.539438	0.091535
798.731480	0.091499
798.923503	0.091500
799.115509	0.091560
799.307496	0.091601
799.499465	0.091614
799.691415	0.091677
799.883348	0.091862
800.075262	0.091595
800.267158	0.091771
800.459035	0.091800
800.650895	0.091914
800.842736	0.092168
801.034559	0.092143
801.226364	0.092150
801.418150	0.092259
801.609919	0.092352
801.801669	0.092477
801.993401	0.092321
802.185114	0.092576
802.376810	0.092744
802.568487	0.092803
802.760146	0.093143
802.951787	0.093448
803.143409	0.093803
803.335014	0.094021
803.526600	0.094242
803.718168	0.094732
803.909717	0.094887
804.101249	0.094895
804.292762	0.094925
804.484257	0.094844
804.675734	0.094736
804.867192	0.094637
805.058632	0.094646
805.250054	0.094851
805.441458	0.094592
805.632844	0.094752
805.824211	0.094997
806.015561	0.095251
806.206891	0.095258
806.398204	0.095367
806.589499	0.095406
806.780775	0.095345
806.972033	0.095374
807.163273	0.095871
807.354495	0.095898
807.545698	0.096025
807.736883	0.096075
807.928050	0.096263
808.119199	0.096308
808.310329	0.096186
808.501441	0.095888
808.692535	0.095807
808.883611	0.095462
809.074669	0.095465
809.265708	0.095341
809.456729	0.095182
809.647732	0.095253
809.838717	0.095298
810.029683	0.095492
810.220632	0.095690
810.411562	0.095738
810.602474	0.095908
810.793367	0.096018
810.984242	0.096162
811.175100	0.096248
811.365938	0.096258
811.556759	0.096441
811.747562	0.096604
811.938346	0.097077
812.129112	0.097348
812.319860	0.097433
812.510589	0.097504
812.701300	0.097662
812.891994	0.097812
813.082668	0.097900
813.273325	0.098004
813.463964	0.098084
813.654584	0.098008
813.845186	0.098078
814.035769	0.098217
814.226335	0.098311
814.416882	0.098360
814.607411	0.098400
814.797922	0.098589
814.988415	0.098575
815.178889	0.098633
815.369345	0.098709
815.559783	0.098634
815.750203	0.098882
815.940605	0.098951
816.130988	0.099115
816.321353	0.099458
816.511700	0.099562
816.702028	0.099843
816.892339	0.100083
817.082631	0.100408
817.272905	0.100924
817.463161	0.101023
817.653398	0.101168
817.843617	0.101428
818.033819	0.101496
818.224001	0.101464
818.414166	0.101413
818.604312	0.101488
818.794440	0.101434
818.984550	0.101379
819.174642	0.101442
819.364716	0.101520
819.554771	0.101161
819.744808	0.101074
819.934827	0.101135
820.124827	0.101186
820.314810	0.101351
820.504774	0.101487
820.694720	0.101418
820.884647	0.101562
821.074557	0.101600
821.264448	0.102122
821.454321	0.102157
821.644176	0.102436
821.834012	0.102906
822.023831	0.102974
822.213631	0.103029
822.403413	0.103118
822.593176	0.103268
822.782922	0.103247
822.972649	0.103127
823.162358	0.103316
823.352049	0.103177
823.541721	0.103092
823.731376	0.103089
823.921012	0.103259
824.110629	0.103446
824.300229	0.103519
824.489811	0.103996
824.679374	0.104148
824.868919	0.104235
825.058445	0.104573
825.247954	0.104580
825.437444	0.104873
825.626916	0.104985
825.816370	0.105214
826.005806	0.105497
826.195223	0.105668
826.384622	0.106014
826.574003	0.106207
826.763366	0.106444
826.952711	0.106459
827.142037	0.106516
827.331345	0.106502
827.520635	0.106569
827.709906	0.106380
827.899160	0.106393
828.088395	0.106366
828.277612	0.106837
828.466810	0.106934
828.655991	0.107170
828.845153	0.107667
829.034297	0.107922
829.223423	0.108153
829.412531	0.108387
829.601620	0.108418
829.790691	0.108539
829.979744	0.108419
830.168779	0.108557
830.357795	0.108665
830.546793	0.108503
830.735773	0.108818
830.924735	0.109076
831.113679	0.109406
831.302604	0.109854
831.491511	0.110230
831.680400	0.110435
831.869271	0.110730
832.058123	0.110930
832.246957	0.111055
832.435773	0.111238
832.624571	0.111018
832.813351	0.111134
833.002112	0.111041
833.190855	0.111022
833.379580	0.111264
833.568287	0.111228
833.756975	0.111496
833.945645	0.111738
834.134297	0.111939
834.322931	0.112301
834.511547	0.112245
834.700144	0.112577
834.888723	0.112782
835.077284	0.113258
835.265826	0.113518
835.454351	0.113661
835.642857	0.113853
835.831345	0.113994
836.019815	0.114066
836.208266	0.114726
836.396699	0.114949
836.585114	0.115180
836.773511	0.115176
836.961890	0.115339
837.150250	0.115641
837.338592	0.115930
837.526916	0.116198
837.715222	0.116663
837.903510	0.116564
838.091779	0.116759
838.280030	0.117012
838.468263	0.117249
838.656477	0.117556
838.844674	0.117678
839.032852	0.117826
839.221012	0.117843
839.409153	0.117980
839.597277	0.118238
839.785382	0.118517
839.973469	0.118814
840.161538	0.118611
840.349589	0.118644
840.537621	0.118886
840.725635	0.118832
840.913631	0.119051
841.101609	0.119237
841.289568	0.119386
841.477509	0.119403
841.665432	0.119446
841.853337	0.119686
842.041224	0.119908
842.229092	0.120205
842.416942	0.120269
842.604774	0.120223
842.792588	0.120194
842.980383	0.120385
843.168160	0.120437
843.355919	0.120590
843.543660	0.120780
843.731382	0.120908
843.919087	0.120960
844.106773	0.121257
844.294441	0.121628
844.482090	0.121910
844.669722	0.121994
844.857335	0.122270
845.044930	0.122339
845.232507	0.122537
845.420065	0.122838
845.607605	0.122967
845.795127	0.123134
845.982631	0.123073
846.170117	0.123080
846.357584	0.123257
846.545033	0.123222
846.732464	0.123554
846.919877	0.123815
847.107272	0.123929
847.294648	0.124304
847.482006	0.124563
847.669346	0.125091
847.856667	0.125151
848.043971	0.125138
848.231256	0.125332
848.418523	0.125177
848.605771	0.125523
848.793002	0.125722
848.980214	0.125651
849.167408	0.125971
849.354584	0.126080
849.541742	0.126504
849.728881	0.126905
849.916002	0.127323
850.103105	0.127731
850.290190	0.127600
850.477256	0.127988
850.664304	0.128426
850.851334	0.128539
851.038346	0.129052
851.225340	0.129447
851.412315	0.129670
851.599272	0.129549
851.786211	0.129704
851.973132	0.130231
852.160034	0.130274
852.346918	0.130364
852.533784	0.130437
852.720632	0.130268
852.907462	0.130383
853.094273	0.130748
853.281066	0.130865
853.467841	0.131053
853.654598	0.130622
853.841336	0.130507
854.028056	0.130501
854.214758	0.130947
854.401442	0.131021
854.588107	0.130816
854.774755	0.130823
854.961384	0.131164
855.147995	0.131095
855.334587	0.131638
855.521162	0.131935
855.707718	0.132068
855.894256	0.132140
856.080775	0.132428
856.267277	0.133132
856.453760	0.133606
856.640225	0.134240
856.826672	0.134845
857.013101	0.135002
857.199511	0.135238
857.385903	0.135568
857.572277	0.135917
857.758633	0.136210
857.944970	0.136143
858.131290	0.136026
858.317591	0.136008
858.503873	0.136072
858.690138	0.136226
858.876384	0.136406
859.062612	0.136549
859.248822	0.136429
859.435014	0.136525
859.621188	0.136931
859.807343	0.137105
859.993480	0.137047
860.179599	0.137057
860.365699	0.137479
860.551781	0.137475
860.737846	0.137848
860.923891	0.138076
861.109919	0.138331
861.295929	0.138231
861.481920	0.137771
861.667893	0.138169
861.853848	0.138267
862.039784	0.138230
862.225702	0.138410
862.411603	0.138408
862.597484	0.138279
862.783348	0.138100
862.969193	0.138191
863.155021	0.138684
863.340830	0.138548
863.526620	0.138577
863.712393	0.138480
863.898147	0.138485
864.083883	0.138386
864.269601	0.138573
864.455301	0.138933
864.640982	0.139058
864.826645	0.139453
865.012290	0.139422
865.197917	0.139588
865.383526	0.139829
865.569116	0.140085
865.754688	0.140339
865.940242	0.140437
866.125777	0.140336
866.311295	0.140468
866.496794	0.140415
866.682275	0.140552
866.867737	0.140675
867.053182	0.140908
867.238608	0.141227
867.424016	0.141051
867.609406	0.141242
867.794778	0.141089
867.980131	0.141192
868.165466	0.141172
868.350783	0.141511
868.536082	0.141866
868.721362	0.142104
868.906625	0.142231
869.091869	0.142576
869.277094	0.142949
869.462302	0.143364
869.647491	0.143416
869.832662	0.143602
870.017815	0.143874
870.202950	0.143794
870.388066	0.143889
870.573165	0.143931
870.758245	0.144272
870.943306	0.144287
871.128350	0.144523
871.313375	0.144814
871.498382	0.144925
871.683371	0.144511
871.868342	0.144490
872.053294	0.144274
872.238229	0.144004
872.423144	0.143899
872.608042	0.143649
872.792922	0.143697
872.977783	0.143712
873.162626	0.143680
873.347451	0.144258
873.532258	0.144288
873.717046	0.144565
873.901816	0.144723
874.086568	0.144868
874.271302	0.145003
874.456017	0.145356
874.640715	0.145207
874.825394	0.145347
875.010055	0.145141
875.194697	0.145311
875.379322	0.145303
875.563928	0.145589
875.748516	0.145538
875.933085	0.145755
876.117637	0.145423
876.302170	0.145558
876.486685	0.145833
876.671182	0.146051
876.855661	0.146587
877.040121	0.146796
877.224563	0.146825
877.408987	0.146837
877.593393	0.146906
877.777780	0.147242
877.962150	0.147455
878.146501	0.147761
878.330833	0.147747
878.515148	0.147552
878.699444	0.147420
878.883722	0.147675
879.067982	0.147972
879.252224	0.148148
879.436447	0.148006
879.620653	0.148419
879.804840	0.148504
879.989008	0.148764
880.173159	0.148996
880.357291	0.149151
880.541405	0.149230
880.725501	0.149388
880.909579	0.149372
881.093638	0.149794
881.277680	0.149279
881.461703	0.149014
881.645707	0.149062
881.829694	0.149004
882.013662	0.149136
882.197612	0.148997
882.381544	0.148683
882.565458	0.148736
882.749353	0.148747
882.933230	0.148961
883.117089	0.149482
883.300930	0.149119
883.484753	0.149369
883.668557	0.149682
883.852343	0.149871
884.036111	0.150320
884.219861	0.150156
884.403592	0.149930
884.587305	0.150335
884.771000	0.149907
884.954677	0.150059
885.138335	0.149880
885.321976	0.149592
885.505598	0.149276
885.689201	0.148933
885.872787	0.149389
886.056354	0.149403
886.239904	0.149283
886.423434	0.149297
886.606947	0.149912
886.790442	0.149490
886.973918	0.149858
887.157376	0.150249
887.340816	0.150272
887.524237	0.150465
887.707641	0.150740
887.891026	0.150628
888.074393	0.151269
888.257741	0.150981
888.441072	0.151619
888.624384	0.151272
888.807678	0.150984
888.990954	0.151336
889.174211	0.151010
889.357451	0.151244
889.540672	0.151321
889.723875	0.150746
889.907059	0.150408
890.090226	0.150203
890.273374	0.150063
890.456504	0.150254
890.639616	0.150269
890.822709	0.149904
891.005785	0.149522
891.188842	0.149503
891.371881	0.149482
891.554901	0.149667
891.737904	0.149831
891.920888	0.149946
892.103854	0.149657
892.286802	0.149238
892.469731	0.149364
892.652643	0.148868
892.835536	0.149042
893.018410	0.148518
893.201267	0.148274
893.384106	0.147921
893.566926	0.147620
893.749728	0.147634
893.932511	0.147414
894.115277	0.147672
894.298024	0.147861
894.480753	0.147508
894.663464	0.147911
894.846157	0.147797
895.028831	0.147922
895.211487	0.148121
895.394125	0.148178
895.576745	0.148585
895.759346	0.148294
895.941930	0.148237
896.124495	0.148098
896.307041	0.148054
896.489570	0.148275
896.672080	0.148313
896.854573	0.148322
897.037046	0.148227
897.219502	0.147844
897.401940	0.148082
897.584359	0.148385
897.766760	0.148401
897.949143	0.148043
898.131507	0.148016
898.313854	0.147444
898.496182	0.146708
898.678492	0.146453
898.860783	0.146417
899.043057	0.146187
899.225312	0.145971
899.407549	0.145953
899.589768	0.145702
899.771968	0.145188
899.954151	0.145049
900.136315	0.145320
900.318461	0.145027
900.500588	0.144769
900.682698	0.144444
900.864789	0.143832
901.046862	0.143811
901.228917	0.144134
901.410953	0.144150
901.592971	0.144300
901.774972	0.144104
901.956953	0.144212
902.138917	0.144398
902.320862	0.144316
902.502790	0.144180
902.684699	0.143773
902.866589	0.143434
903.048462	0.142764
903.230316	0.142565
903.412152	0.142699
903.593970	0.142496
903.775770	0.142389
903.957551	0.141831
904.139314	0.141983
904.321059	0.141547
904.502786	0.141462
904.684494	0.141577
904.866185	0.141579
905.047857	0.141392
905.229510	0.141326
905.411146	0.140994
905.592763	0.141173
905.774363	0.140989
905.955943	0.141358
906.137506	0.141306
906.319051	0.140877
906.500577	0.140703
906.682085	0.140637
906.863575	0.140505
907.045046	0.140513
907.226500	0.140557
907.407935	0.140339
907.589352	0.139937
907.770750	0.140082
907.952131	0.140548
908.133493	0.140215
908.314837	0.139876
908.496163	0.140139
908.677470	0.139680
908.858760	0.139315
909.040031	0.139063
909.221284	0.139362
909.402518	0.138857
909.583735	0.138789
909.764933	0.138607
909.946113	0.138773
910.127275	0.137970
910.308418	0.138118
910.489544	0.138082
910.670651	0.138138
910.851740	0.137533
911.032810	0.137646
911.213863	0.136678
911.394897	0.136600
911.575913	0.135951
911.756911	0.135632
911.937890	0.134934
912.118851	0.134693
912.299794	0.134156
912.480719	0.134152
912.661626	0.133176
912.842514	0.133152
913.023384	0.132754
913.204236	0.132349
913.385070	0.132577
913.565886	0.132476
913.746683	0.131918
913.927462	0.131832
914.108223	0.130928
914.288965	0.130878
914.469690	0.130788
914.650396	0.130178
914.831084	0.130195
915.011754	0.129086
915.192405	0.128985
915.373038	0.128636
915.553653	0.128290
915.734250	0.127805
915.914829	0.127478
916.095389	0.127124
916.275931	0.126930
916.456455	0.126092
916.636961	0.126036
916.817448	0.125353
916.997917	0.125177
917.178368	0.124360
917.358801	0.124018
917.539216	0.123505
917.719612	0.123021
917.899990	0.122316
918.080350	0.122008
918.260692	0.121545
918.441015	0.120925
918.621320	0.120546
918.801607	0.120753
918.981876	0.120420
919.162127	0.120262
919.342359	0.119911
919.522573	0.119838
919.702769	0.119713
919.882947	0.119480
920.063106	0.119649
920.243247	0.118878
920.423370	0.118422
920.603475	0.117978
920.783562	0.117333
920.963630	0.117264
921.143680	0.117209
921.323712	0.117092
921.503725	0.116579
921.683721	0.116357
921.863698	0.116188
922.043657	0.115654
922.223598	0.115753
922.403520	0.115875
922.583424	0.116012
922.763311	0.115661
922.943178	0.114729
923.123028	0.114778
923.302859	0.114293
923.482673	0.114478
923.662467	0.114057
923.842244	0.113447
924.022003	0.113207
924.201743	0.112082
924.381465	0.111397
924.561169	0.111238
924.740854	0.110578
924.920522	0.110124
925.100171	0.109664
925.279802	0.109107
925.459414	0.108978
925.639009	0.107910
925.818585	0.107494
925.998143	0.106982
926.177683	0.106447
926.357205	0.106424
926.536708	0.105940
926.716193	0.104942
926.895660	0.104896
927.075109	0.104644
927.254539	0.104287
927.433951	0.104104
927.613345	0.103495
927.792721	0.103374
927.972079	0.102795
928.151418	0.102219
928.330739	0.101915
928.510042	0.101639
928.689327	0.100941
928.868593	0.100180
929.047841	0.099097
929.227071	0.098761
929.406283	0.098347
929.585476	0.097850
929.764652	0.097550
929.943809	0.097125
930.122948	0.096539
930.302068	0.095774
930.481171	0.095383
930.660255	0.095430
930.839321	0.094981
931.018369	0.094046
931.197398	0.093568
931.376409	0.092614
931.555402	0.092012
931.734377	0.091384
931.913334	0.090995
932.092272	0.090810
932.271192	0.089978
932.450094	0.089606
932.628978	0.089332
932.807844	0.088327
932.986691	0.088027
933.165520	0.087115
933.344331	0.085815
933.523123	0.085652
933.701898	0.085101
933.880654	0.084526
934.059392	0.083826
934.238111	0.083096
934.416813	0.082938
934.595496	0.082082
934.774161	0.082270
934.952808	0.082380
935.131437	0.081455
935.310047	0.081639
935.488639	0.081838
935.667213	0.081228
935.845769	0.081110
936.024306	0.080000
936.202825	0.079922
936.381326	0.079255
936.559809	0.078649
936.738274	0.077507
936.916720	0.076460
937.095148	0.075771
937.273558	0.076009
937.451950	0.075712
937.630323	0.074884
937.808678	0.074664
937.987015	0.074415
938.165334	0.073727
938.343635	0.073868
938.521917	0.073941
938.700181	0.073321
938.878427	0.072398
939.056655	0.071360
939.234864	0.072555
939.413055	0.071615
939.591228	0.071306
939.769383	0.070887
939.947519	0.070397
940.125638	0.069516
940.303738	0.068268
940.481820	0.067270
940.659883	0.066579
940.837929	0.065591
941.015956	0.064586
941.193965	0.062859
941.371955	0.062015
941.549928	0.060976
941.727882	0.060006
941.905818	0.060334
942.083736	0.059931
942.261636	0.060482
942.439517	0.059757
942.617380	0.059922
942.795225	0.060861
942.973052	0.061081
943.150860	0.061732
943.328651	0.060223
943.506423	0.060342
943.684176	0.060325
943.861912	0.058504
944.039629	0.057966
944.217328	0.057808
944.395009	0.056609
944.572672	0.056328
944.750317	0.055090
944.927943	0.055420
945.105551	0.053399
945.283141	0.052945
945.460712	0.052911
945.638265	0.052615
945.815801	0.051660
945.993317	0.051250
946.170816	0.048892
946.348297	0.048789
946.525759	0.049268
946.703203	0.048640
946.880629	0.047506
947.058036	0.046562
947.235425	0.046143
947.412797	0.045774
947.590149	0.045197
947.767484	0.044836
947.944800	0.044019
948.122099	0.042679
948.299379	0.043467
948.476640	0.043169
948.653884	0.043826
948.831109	0.042715
949.008316	0.041612
949.185505	0.039291
949.362676	0.040323
949.539828	0.040040
949.716962	0.040305
949.894078	0.039462
950.071176	0.038995
950.248256	0.039647
950.425317	0.038662
950.602360	0.039394
950.779385	0.039650
950.956391	0.039250
951.133380	0.039675
951.310350	0.037930
951.487302	0.037730
951.664235	0.037715
951.841151	0.035858
952.018048	0.037012
952.194927	0.034669
952.371788	0.035794
952.548631	0.034990
952.725455	0.032802
952.902261	0.032712
953.079049	0.031683
953.255819	0.031671
953.432570	0.032343
953.609303	0.031008
953.786018	0.033733
953.962715	0.033186
954.139394	0.031849
954.316054	0.034006
954.492696	0.032903
954.669320	0.034578
954.845926	0.034792
955.022513	0.031908
955.199083	0.033446
955.375634	0.033127
955.552166	0.031880
955.728681	0.034447
955.905177	0.034011
956.081655	0.036884
956.258115	0.035641
956.434557	0.034860
956.610980	0.036521
956.787385	0.033938
956.963772	0.031324
957.140141	0.032802
957.316492	0.031662
957.492824	0.031121
957.669138	0.030122
957.845434	0.030758
958.021712	0.029697
958.197971	0.027571
958.374212	0.028968
958.550435	0.028905
958.726640	0.027844
958.902826	0.028491
959.078995	0.027487
959.255145	0.027379
959.431277	0.025814
959.607390	0.026259
959.783486	0.028701
959.959563	0.029718
960.135622	0.029646
960.311662	0.030814
960.487685	0.029682
960.663689	0.029791
960.839675	0.028647
961.015643	0.029835
961.191593	0.030865
961.367524	0.031793
961.543437	0.032102
961.719332	0.033448
961.895209	0.033974
962.071067	0.034571
962.246907	0.034172
962.422730	0.037058
962.598533	0.038680
962.774319	0.038331
962.950086	0.036466
963.125835	0.035074
963.301566	0.034390
963.477279	0.033651
963.652973	0.033627
963.828650	0.034455
964.004308	0.029186
964.179947	0.027553
964.355569	0.029960
964.531172	0.029936
964.706757	0.032163
964.882324	0.034148
965.057873	0.033293
965.233403	0.032470
965.408916	0.033639
965.584410	0.036187
965.759885	0.033423
965.935343	0.029966
966.110782	0.030391
966.286203	0.026537
966.461606	0.023614
966.636991	0.026043
966.812357	0.026832
966.987705	0.025395
967.163035	0.025512
967.338347	0.028185
967.513641	0.030384
967.688916	0.029549
967.864173	0.032883
968.039412	0.034004
968.214632	0.032344
968.389835	0.032769
968.565019	0.032671
968.740185	0.033107
968.915333	0.032624
969.090462	0.029431
969.265573	0.030666
969.440667	0.027912
969.615741	0.027040
969.790798	0.026044
969.965836	0.026687
970.140856	0.025635
970.315858	0.024811
970.490842	0.024557
970.665808	0.027161
970.840755	0.027571
971.015684	0.027859
971.190595	0.029206
971.365487	0.029300
971.540362	0.028845
971.715218	0.032963
971.890056	0.032304
972.064875	0.033006
972.239677	0.032290
972.414460	0.029702
972.589225	0.029585
972.763972	0.029972
972.938700	0.030604
973.113411	0.029956
973.288103	0.026074
973.462777	0.028179
973.637432	0.027224
973.812070	0.025987
973.986689	0.028412
974.161290	0.028633
974.335873	0.027838
974.510437	0.027124
974.684984	0.028238
974.859512	0.029821
975.034022	0.030715
975.208513	0.032889
975.382987	0.034113
975.557442	0.033279
975.731879	0.033469
975.906298	0.032831
976.080698	0.034814
976.255080	0.033292
976.429445	0.031378
976.603790	0.031673
976.778118	0.031689
976.952427	0.032104
977.126719	0.032617
977.300992	0.032000
977.475246	0.032964
977.649483	0.031745
977.823701	0.030424
977.997901	0.029450
978.172083	0.027816
978.346247	0.027108
978.520392	0.025209
978.694519	0.025082
978.868628	0.026154
979.042719	0.025715
979.216791	0.026191
979.390845	0.026000
979.564882	0.027154
979.738899	0.027272
979.912899	0.027043
980.086880	0.028018
980.260843	0.028767
980.434788	0.028540
980.608715	0.029142
980.782623	0.029634
980.956514	0.032019
981.130386	0.032493
981.304240	0.032503
981.478075	0.032293
981.651892	0.032098
981.825692	0.031638
981.999472	0.030381
982.173235	0.030406
982.346980	0.029136
982.520706	0.028652
982.694414	0.029880
982.868104	0.028900
983.041775	0.026732
983.215428	0.027513
983.389064	0.027499
983.562680	0.028889
983.736279	0.028213
983.909860	0.028159
984.083422	0.027488
984.256966	0.026704
984.430491	0.026719
984.603999	0.029177
984.777488	0.029751
984.950959	0.030409
985.124412	0.030581
985.297847	0.032494
985.471263	0.031842
985.644661	0.031234
985.818041	0.030073
985.991403	0.030857
986.164747	0.029803
986.338072	0.029154
986.511379	0.028575
986.684668	0.030351
986.857938	0.029712
987.031191	0.031664
987.204425	0.032415
987.377641	0.032872
987.550839	0.033476
987.724018	0.033475
987.897179	0.034601
988.070322	0.033043
988.243447	0.032428
988.416554	0.031305
988.589642	0.031761
988.762712	0.031769
988.935764	0.030278
989.108798	0.027906
989.281813	0.027089
989.454811	0.027362
989.627790	0.027681
989.800751	0.026537
989.973693	0.027224
990.146617	0.026152
990.319524	0.025551
990.492412	0.028126
990.665281	0.028987
990.838133	0.028530
991.010966	0.027879
991.183781	0.030567
991.356578	0.030403
991.529356	0.030281
991.702117	0.029965
991.874859	0.032195
992.047583	0.032123
992.220288	0.031987
992.392976	0.033103
992.565645	0.032727
992.738296	0.031611
992.910929	0.032642
993.083543	0.033528
993.256139	0.032764
993.428718	0.029711
993.601277	0.031204
993.773819	0.032565
993.946342	0.030737
994.118848	0.031006
994.291335	0.030785
994.463803	0.030894
994.636254	0.028658
994.808686	0.028198
994.981100	0.029924
995.153496	0.027616
995.325874	0.027288
995.498233	0.030251
995.670574	0.029581
995.842897	0.026594
996.015202	0.025849
996.187488	0.025957
996.359757	0.026281
996.532007	0.025905
996.704239	0.025607
996.876452	0.024779
997.048648	0.024352
997.220825	0.023649
997.392984	0.024614
997.565124	0.024509
997.737247	0.024880
997.909351	0.024857
998.081437	0.026241
998.253505	0.025671
998.425554	0.025663
998.597586	0.025057
998.769599	0.025052
998.941594	0.024944
999.113571	0.023183
999.285529	0.022032
999.457469	0.020227
999.629391	0.018784
999.801295	0.019138
999.973181	0.018689
1000.145048	0.020039
1000.316897	0.021135
1000.488728	0.021857
1000.660541	0.023970
1000.832335	0.024598
1001.004111	0.026728
1001.175869	0.024644
1001.347609	0.025088
1001.519331	0.027418
1001.691034	0.025205
1001.862719	0.025486
1002.034386	0.025356
1002.206035	0.024797
1002.377665	0.026443
1002.549277	0.027643
1002.720871	0.029453
1002.892447	0.030274
1003.064004	0.026551
1003.235544	0.028958
1003.407065	0.026946
1003.578568	0.027506
1003.750052	0.027627
1003.921519	0.028447
1004.092967	0.027776
1004.264397	0.027416
1004.435809	0.026902
1004.607202	0.029174
1004.778577	0.027564
1004.949934	0.029117
1005.121273	0.027686
1005.292594	0.025198
1005.463896	0.023498
1005.635180	0.024349
1005.806446	0.025720
1005.977694	0.023799
1006.148923	0.024007
1006.320135	0.024183
1006.491328	0.024358
1006.662503	0.025264
1006.833659	0.028303
1007.004798	0.026973
1007.175918	0.024446
1007.347020	0.022833
1007.518103	0.025274
1007.689169	0.023908
1007.860216	0.023061
1008.031245	0.021091
1008.202256	0.022022
1008.373248	0.020129
1008.544223	0.022196
1008.715179	0.023565
1008.886117	0.023121
1009.057036	0.021954
1009.227938	0.024411
1009.398821	0.024941
1009.569686	0.025678
1009.740533	0.025235
1009.911361	0.025288
1010.082172	0.023308
1010.252964	0.023592
1010.423738	0.024744
1010.594493	0.025492
1010.765231	0.021481
1010.935950	0.020607
1011.106651	0.022319
1011.277334	0.022125
1011.447998	0.023274
1011.618645	0.024981
1011.789273	0.023853
1011.959882	0.025114
1012.130474	0.024322
1012.301048	0.027015
1012.471603	0.027537
1012.642140	0.025688
1012.812658	0.026393
1012.983159	0.026446
1013.153641	0.026443
1013.324105	0.026743
1013.494551	0.024777
1013.664979	0.025496
1013.835388	0.024735
1014.005779	0.024731
1014.176152	0.024028
1014.346507	0.023550
1014.516843	0.022478
1014.687162	0.022015
1014.857462	0.021106
1015.027744	0.021455
1015.198007	0.019722
1015.368252	0.020176
1015.538480	0.019790
1015.708689	0.020548
1015.878879	0.021121
1016.049052	0.021551
1016.219206	0.020715
1016.389342	0.020973
1016.559460	0.021065
1016.729559	0.023915
1016.899641	0.024721
1017.069704	0.024287
1017.239749	0.024639
1017.409775	0.022553
1017.579784	0.022258
1017.749774	0.022922
1017.919746	0.023340
1018.089700	0.022268
1018.259635	0.019347
1018.429553	0.015920
1018.599452	0.015560
1018.769333	0.015479
1018.939195	0.017237
1019.109040	0.016574
1019.278866	0.016466
1019.448674	0.019230
1019.618464	0.021618
1019.788235	0.023432
1019.957989	0.024857
1020.127724	0.025267
1020.297441	0.026012
1020.467139	0.023965
1020.636820	0.025018
1020.806482	0.025145
1020.976126	0.021606
1021.145752	0.019967
1021.315359	0.018157
1021.484948	0.018316
1021.654519	0.018893
1021.824072	0.016683
1021.993607	0.018845
1022.163123	0.016665
1022.332621	0.015163
1022.502101	0.016782
1022.671563	0.015325
1022.841007	0.016288
1023.010432	0.017980
1023.179839	0.018256
1023.349228	0.019008
1023.518598	0.018463
1023.687951	0.020470
1023.857285	0.021591
1024.026601	0.019658
1024.195899	0.022359
1024.365178	0.022013
1024.534439	0.021438
1024.703682	0.021919
1024.872907	0.022994
1025.042114	0.022085
1025.211302	0.021121
1025.380472	0.021851
1025.549624	0.023425
1025.718758	0.021342
1025.887873	0.020556
1026.056970	0.019053
1026.226049	0.017056
1026.395110	0.015631
1026.564153	0.016887
1026.733177	0.018138
1026.902183	0.016256
1027.071171	0.015368
1027.240141	0.015284
1027.409092	0.016332
1027.578026	0.017328
1027.746940	0.016840
1027.915837	0.017506
1028.084716	0.017301
1028.253576	0.016609
1028.422418	0.017323
1028.591242	0.017853
1028.760048	0.020323
1028.928835	0.018966
1029.097604	0.018775
1029.266355	0.021113
1029.435088	0.019940
1029.603803	0.019247
1029.772499	0.021208
1029.941177	0.021432
1030.109837	0.022573
1030.278478	0.020960
1030.447102	0.022139
1030.615707	0.023117
1030.784294	0.023040
1030.952863	0.024245
1031.121413	0.024107
1031.289945	0.021612
1031.458460	0.020659
1031.626955	0.020954
1031.795433	0.020985
1031.963892	0.021094
1032.132334	0.018492
1032.300756	0.017272
1032.469161	0.017420
1032.637548	0.017574
1032.805916	0.016957
1032.974266	0.017395
1033.142598	0.015055
1033.310911	0.013115
1033.479207	0.013510
1033.647484	0.013869
1033.815743	0.014792
1033.983983	0.013508
1034.152206	0.013986
1034.320410	0.016492
1034.488596	0.016628
1034.656764	0.016792
1034.824914	0.018247
1034.993045	0.016110
1035.161158	0.015405
1035.329253	0.014854
1035.497330	0.016890
1035.665388	0.014692
1035.833428	0.011802
1036.001450	0.012825
1036.169454	0.013079
1036.337440	0.013069
1036.505407	0.013423
1036.673356	0.014863
1036.841287	0.013473
1037.009200	0.012461
1037.177094	0.013525
1037.344970	0.014298
1037.512828	0.014181
1037.680668	0.015018
1037.848489	0.014049
1038.016293	0.016308
1038.184078	0.015562
1038.351845	0.014382
1038.519593	0.013893
1038.687324	0.013971
1038.855036	0.014591
1039.022730	0.012987
1039.190406	0.013514
1039.358063	0.013390
1039.525702	0.011368
1039.693323	0.010304
1039.860926	0.012457
1040.028511	0.012827
1040.196077	0.011663
1040.363625	0.009726
1040.531155	0.011103
1040.698667	0.011011
1040.866161	0.011347
1041.033636	0.012018
1041.201093	0.013286
1041.368532	0.013759
1041.535952	0.014281
1041.703355	0.014343
1041.870739	0.015944
1042.038105	0.015822
1042.205452	0.015589
1042.372782	0.015204
1042.540093	0.014232
1042.707386	0.014164
1042.874661	0.013791
1043.041918	0.012164
1043.209156	0.014169
1043.376376	0.013569
1043.543578	0.013636
1043.710762	0.011814
1043.877927	0.012613
1044.045074	0.013656
1044.212203	0.013502
1044.379314	0.013468
1044.546407	0.012831
1044.713481	0.011702
1044.880537	0.011694
1045.047575	0.010323
1045.214595	0.011025
1045.381596	0.012133
1045.548579	0.010222
1045.715544	0.011926
1045.882491	0.011581
1046.049420	0.014153
1046.216330	0.014478
1046.383222	0.015260
1046.550096	0.015000
1046.716951	0.015144
1046.883789	0.014241
1047.050608	0.015199
1047.217409	0.012951
1047.384192	0.012534
1047.550956	0.011784
1047.717703	0.011328
1047.884431	0.011508
1048.051140	0.014249
1048.217832	0.011737
1048.384505	0.011798
1048.551161	0.011809
1048.717798	0.012763
1048.884416	0.013185
1049.051017	0.012495
1049.217599	0.012659
1049.384163	0.010600
1049.550709	0.007306
1049.717237	0.010445
1049.883746	0.009934
1050.050237	0.012161
1050.216710	0.011343
1050.383165	0.011893
1050.549601	0.015426
1050.716019	0.016270
1050.882420	0.017657
1051.048801	0.018631
1051.215165	0.015939
1051.381510	0.016998
1051.547837	0.015382
1051.714146	0.014392
1051.880437	0.013925
1052.046709	0.010420
1052.212964	0.008292
1052.379200	0.009467
1052.545417	0.010863
1052.711617	0.012883
1052.877798	0.012329
1053.043961	0.012756
1053.210106	0.016017
1053.376233	0.016654
1053.542341	0.015744
1053.708432	0.016569
1053.874504	0.016844
1054.040557	0.016567
1054.206593	0.016711
1054.372610	0.017744
1054.538609	0.016609
1054.704590	0.014341
1054.870553	0.014513
1055.036497	0.014267
1055.202424	0.013987
1055.368331	0.010691
1055.534221	0.009880
1055.700093	0.009525
1055.865946	0.007942
1056.031781	0.008535
1056.197598	0.009364
1056.363397	0.009636
1056.529177	0.013109
1056.694939	0.012997
1056.860683	0.015286
1057.026409	0.013656
1057.192116	0.011810
1057.357806	0.012122
1057.523477	0.012090
1057.689130	0.010715
1057.854764	0.010771
1058.020381	0.008649
1058.185979	0.008282
1058.351559	0.009096
1058.517120	0.010383
1058.682664	0.010217
1058.848189	0.010150
1059.013696	0.009027
1059.179185	0.010760
1059.344656	0.008541
1059.510108	0.007628
1059.675542	0.008975
1059.840958	0.009638
1060.006356	0.010901
1060.171735	0.014360
1060.337096	0.014690
1060.502439	0.015630
1060.667764	0.014946
1060.833071	0.016404
1060.998359	0.016227
1061.163629	0.016514
1061.328881	0.013559
1061.494115	0.011970
1061.659330	0.010694
1061.824527	0.009903
1061.989706	0.011148
1062.154867	0.011031
1062.320010	0.011531
1062.485134	0.014137
1062.650240	0.012859
1062.815328	0.013525
1062.980398	0.014314
1063.145449	0.012812
1063.310482	0.013242
1063.475497	0.012756
1063.640494	0.015572
1063.805473	0.015501
1063.970433	0.013251
1064.135375	0.014277
1064.300299	0.013795
1064.465204	0.012546
1064.630092	0.013685
1064.794961	0.012176
1064.959812	0.012684
1065.124645	0.010546
1065.289459	0.012139
1065.454256	0.013683
1065.619034	0.012802
1065.783793	0.012817
1065.948535	0.014376
1066.113258	0.013196
1066.277964	0.015176
1066.442651	0.015214
1066.607319	0.013632
1066.771970	0.012687
1066.936602	0.010849
1067.101216	0.011671
1067.265812	0.012299
1067.430389	0.010723
1067.594949	0.012227
1067.759490	0.010097
1067.924013	0.009150
1068.088518	0.011063
1068.253004	0.009713
1068.417472	0.010137
1068.581922	0.010611
1068.746354	0.011925
1068.910768	0.015262
1069.075163	0.014133
1069.239540	0.013839
1069.403899	0.014393
1069.568240	0.014822
1069.732562	0.015128
1069.896866	0.016092
1070.061152	0.016143
1070.225420	0.015556
1070.389670	0.012588
1070.553901	0.013497
1070.718114	0.015683
1070.882309	0.014853
1071.046486	0.015632
1071.210644	0.015395
1071.374784	0.016291
1071.538906	0.015471
1071.703010	0.016811
1071.867096	0.017611
1072.031163	0.019849
1072.195212	0.018875
1072.359243	0.020745
1072.523256	0.020176
1072.687250	0.020497
1072.851226	0.019318
1073.015184	0.019148
1073.179124	0.017836
1073.343045	0.018887
1073.506949	0.017055
1073.670834	0.016986
1073.834701	0.017564
1073.998549	0.017095
1074.162380	0.018472
1074.326192	0.018698
1074.489986	0.020751
1074.653761	0.019035
1074.817519	0.018804
1074.981258	0.019147
1075.144979	0.020801
1075.308682	0.019995
1075.472367	0.021528
1075.636033	0.017321
1075.799681	0.016957
1075.963311	0.018142
1076.126923	0.022776
1076.290516	0.021292
1076.454092	0.022096
1076.617649	0.022336
1076.781187	0.021892
1076.944708	0.020375
1077.108210	0.023836
1077.271695	0.026451
1077.435160	0.022397
1077.598608	0.019387
1077.762038	0.022255
1077.925449	0.020287
1078.088842	0.021230
1078.252217	0.022432
1078.415573	0.023659
1078.578912	0.023070
1078.742232	0.021943
1078.905534	0.025506
1079.068817	0.024762
1079.232083	0.023912
1079.395330	0.024852
1079.558559	0.025544
1079.721770	0.025060
1079.884962	0.024748
1080.048136	0.024387
1080.211293	0.022138
1080.374430	0.022218
1080.537550	0.024367
1080.700651	0.023729
1080.863735	0.023082
1081.026800	0.021427
1081.189846	0.020064
1081.352875	0.018855
1081.515885	0.018037
1081.678877	0.018270
1081.841851	0.016721
1082.004807	0.016836
1082.167744	0.017904
1082.330663	0.019893
1082.493564	0.020311
1082.656447	0.020165
1082.819312	0.020222
1082.982158	0.021159
1083.144986	0.023362
1083.307796	0.023110
1083.470587	0.023774
1083.633361	0.025362
1083.796116	0.023843
1083.958853	0.022929
1084.121571	0.024976
1084.284272	0.025280
1084.446954	0.027366
1084.609618	0.028090
1084.772264	0.028396
1084.934892	0.025346
1085.097501	0.022312
1085.260092	0.021867
1085.422665	0.022286
1085.585220	0.022440
1085.747756	0.022267
1085.910274	0.022073
1086.072774	0.019014
1086.235256	0.018773
1086.397720	0.020666
1086.560165	0.021211
1086.722592	0.022133
1086.885001	0.021669
1087.047392	0.020409
1087.209764	0.021637
1087.372119	0.021652
1087.534455	0.022989
1087.696772	0.022912
1087.859072	0.022056
1088.021353	0.021385
1088.183616	0.022819
1088.345861	0.025683
1088.508088	0.024571
1088.670296	0.022517
1088.832486	0.022735
1088.994658	0.023253
1089.156812	0.023042
1089.318948	0.024381
1089.481065	0.021782
1089.643164	0.021414
1089.805245	0.020751
1089.967308	0.022472
1090.129352	0.022787
1090.291378	0.025366
1090.453386	0.024448
1090.615376	0.025691
1090.777347	0.027429
1090.939301	0.029760
1091.101236	0.028288
1091.263153	0.026098
1091.425051	0.026966
1091.586932	0.031767
1091.748794	0.028084
1091.910638	0.031597
1092.072463	0.027560
1092.234271	0.025720
1092.396060	0.026512
1092.557831	0.024414
1092.719584	0.025581
1092.881319	0.026245
1093.043035	0.021141
1093.204733	0.021565
1093.366413	0.022166
1093.528075	0.025877
1093.689718	0.025556
1093.851343	0.027123
1094.012950	0.028128
1094.174539	0.028018
1094.336110	0.026327
1094.497662	0.029506
1094.659196	0.029214
1094.820712	0.027609
1094.982210	0.026778
1095.143689	0.028631
1095.305151	0.029714
1095.466594	0.029357
1095.628018	0.031265
1095.789425	0.032219
1095.950813	0.030790
1096.112183	0.028779
1096.273535	0.026122
1096.434869	0.028462
1096.596184	0.028397
1096.757482	0.024454
1096.918761	0.025945
1097.080021	0.028260
1097.241264	0.025262
1097.402488	0.025022
1097.563694	0.028389
1097.724882	0.032598
1097.886052	0.033623
1098.047203	0.029885
1098.208336	0.033639
1098.369451	0.034814
1098.530548	0.029764
1098.691627	0.033005
1098.852687	0.032499
1099.013729	0.031788
1099.174753	0.030736
1099.335758	0.026919
1099.496746	0.029877
1099.657715	0.028743
1099.818666	0.027620
1099.979599	0.026213
1100.140513	0.023033
1100.301409	0.022443
1100.462287	0.019996
1100.623147	0.018092
1100.783989	0.019190
1100.944812	0.022190
1101.105617	0.022245
1101.266404	0.024032
1101.427173	0.024629
1101.587923	0.027382
1101.748656	0.028719
1101.909370	0.031219
1102.070066	0.037586
1102.230743	0.040836
1102.391403	0.036601
1102.552044	0.037086
1102.712667	0.037247
1102.873271	0.039697
1103.033858	0.036475
1103.194426	0.040813
1103.354976	0.039731
1103.515508	0.035718
1103.676021	0.034271
1103.836517	0.034352
1103.996994	0.030463
1104.157453	0.029418
1104.317893	0.033288
1104.478316	0.034237
1104.638720	0.033715
1104.799106	0.036034
1104.959474	0.033137
1105.119823	0.029580
1105.280155	0.030121
1105.440468	0.032982
1105.600763	0.031631
1105.761039	0.026734
1105.921298	0.027512
1106.081538	0.025738
1106.241760	0.023758
1106.401964	0.025674
1106.562149	0.024918
1106.722316	0.025738
1106.882465	0.026681
1107.042596	0.029286
1107.202709	0.030822
1107.362803	0.032423
1107.522879	0.029673
1107.682937	0.029078
1107.842977	0.026700
1108.002999	0.028137
1108.163002	0.024558
1108.322987	0.023187
1108.482954	0.022617
1108.642902	0.019684
1108.802833	0.021779
1108.962745	0.019589
1109.122639	0.018418
1109.282515	0.015907
1109.442372	0.017390
1109.602211	0.018821
1109.762032	0.022333
1109.921835	0.025457
1110.081620	0.028603
1110.241386	0.028053
1110.401134	0.029599
1110.560864	0.032123
1110.720576	0.042426
1110.880269	0.041501
1111.039945	0.046142
1111.199602	0.041396
1111.359240	0.036695
1111.518861	0.033213
1111.678463	0.028977
1111.838047	0.031154
1111.997613	0.031287
1112.157161	0.024864
1112.316690	0.027470
1112.476202	0.022748
1112.635695	0.027678
1112.795169	0.031135
1112.954626	0.034318
1113.114064	0.034675
1113.273484	0.037710
1113.432886	0.036235
1113.592270	0.034567
1113.751635	0.036085
1113.910983	0.033479
1114.070312	0.029785
1114.229622	0.023776
1114.388915	0.026042
1114.548189	0.026828
1114.707445	0.021488
1114.866683	0.023430
1115.025903	0.028597
1115.185104	0.023577
1115.344287	0.027448
1115.503452	0.027997
1115.662599	0.034702
1115.821727	0.031581
1115.980838	0.030002
1116.139930	0.030877
1116.299004	0.033999
1116.458059	0.033551
1116.617097	0.035405
1116.776116	0.032208
1116.935117	0.033398
1117.094099	0.027474
1117.253064	0.025682
1117.412010	0.025769
1117.570938	0.025425
1117.729848	0.019795
1117.888740	0.017301
1118.047613	0.019084
1118.206468	0.021781
1118.365305	0.020520
1118.524124	0.023664
1118.682924	0.026781
1118.841707	0.027855
1119.000471	0.028406
1119.159216	0.029913
1119.317944	0.024831
1119.476653	0.025625
1119.635344	0.025497
1119.794017	0.028556
1119.952672	0.022386
1120.111308	0.021135
1120.269927	0.016553
1120.428527	0.012878
1120.587108	0.007310
1120.745672	0.016227
1120.904217	0.016894
1121.062744	0.015115
1121.221253	0.012501
1121.379744	0.019123
1121.538216	0.018558
1121.696671	0.026735
1121.855107	0.030301
1122.013524	0.032452
1122.171924	0.027660
1122.330305	0.027123
1122.488668	0.028952
1122.647013	0.032504
1122.805340	0.027184
1122.963648	0.020951
1123.121938	0.021814
1123.280210	0.022896
1123.438464	0.024684
1123.596700	0.023792
1123.754917	0.019962
1123.913116	0.020851
1124.071297	0.017576
1124.229459	0.024128
1124.387604	0.030422
1124.545730	0.026097
1124.703838	0.025222
1124.861928	0.024360
1125.019999	0.028114
1125.178052	0.031527
1125.336088	0.025566
1125.494104	0.020758
1125.652103	0.014249
1125.810083	0.016478
1125.968045	0.022658
1126.125989	0.025717
1126.283915	0.027465
1126.441823	0.029745
1126.599712	0.021912
1126.757583	0.028044
1126.915436	0.030106
1127.073270	0.037637
1127.231087	0.032008
1127.388885	0.023273
1127.546665	0.017952
1127.704426	0.023963
1127.862170	0.024540
1128.019895	0.029519
1128.177602	0.029823
1128.335291	0.028701
1128.492961	0.023059
1128.650614	0.033987
1128.808248	0.032710
1128.965864	0.041390
1129.123461	0.036782
1129.281041	0.030295
1129.438602	0.029370
1129.596145	0.028051
1129.753670	0.032771
1129.911176	0.034281
1130.068665	0.032724
1130.226135	0.039205
1130.383587	0.037468
1130.541020	0.035335
1130.698436	0.035554
1130.855833	0.036716
1131.013212	0.032554
1131.170573	0.032068
1131.327915	0.033305
1131.485239	0.032177
1131.642545	0.026203
1131.799833	0.021024
1131.957103	0.023961
1132.114354	0.023750
1132.271588	0.017707
1132.428803	0.024335
1132.585999	0.023637
1132.743178	0.019373
1132.900338	0.012940
1133.057480	0.011192
1133.214604	0.011726
1133.371710	0.012488
1133.528797	0.006218
1133.685866	0.015778
1133.842917	0.013546
1133.999950	0.005655
1134.156964	0.008285
1134.313960	0.013575
1134.470938	0.015201
1134.627898	0.018565
1134.784840	0.018405
1134.941763	0.022618
1135.098668	0.020615
1135.255555	0.018920
1135.412424	0.030777
1135.569274	0.038715
1135.726107	0.035550
1135.882921	0.038265
1136.039716	0.037140
1136.196494	0.034214
1136.353253	0.035944
1136.509995	0.038696
1136.666717	0.040034
1136.823422	0.037984
1136.980109	0.029832
1137.136777	0.025173
1137.293427	0.028768
1137.450059	0.028033
1137.606672	0.030347
1137.763267	0.037229
1137.919844	0.037021
1138.076403	0.042304
1138.232944	0.045272
1138.389466	0.043395
1138.545971	0.046770
1138.702457	0.047012
1138.858924	0.045949
1139.015374	0.044056
1139.171805	0.035370
1139.328218	0.030051
1139.484613	0.025671
1139.640990	0.023783
1139.797348	0.031952
1139.953688	0.024008
1140.110010	0.019293
1140.266314	0.018086
1140.422600	0.024344
1140.578867	0.033379
1140.735116	0.036991
1140.891347	0.039298
1141.047559	0.038865
1141.203754	0.026835
1141.359930	0.029703
1141.516088	0.029985
1141.672228	0.034490
1141.828349	0.024849
1141.984452	0.020640
1142.140537	0.019792
1142.296604	0.019784
1142.452653	0.011906
1142.608683	0.012955
1142.764695	0.016507
1142.920689	0.014744
1143.076665	0.009403
1143.232622	0.014770
1143.388562	0.021757
1143.544483	0.019649
1143.700385	0.014281
1143.856270	0.019782
1144.012136	0.024449
1144.167985	0.015595
1144.323814	0.016327
1144.479626	0.022307
1144.635420	0.023306
1144.791195	0.012008
1144.946952	0.012879
1145.102691	0.011298
1145.258411	0.014427
1145.414113	0.018806
1145.569798	0.032819
1145.725463	0.028436
1145.881111	0.019801
1146.036741	0.010874
1146.192352	0.017801
1146.347945	0.020906
1146.503519	0.027284
1146.659076	0.013488
1146.814614	0.008874
1146.970134	0.005074
1147.125636	0.013542
1147.281120	0.018184
1147.436585	0.021845
1147.592032	0.016491
1147.747461	0.014794
1147.902872	0.011058
1148.058265	0.017476
1148.213639	0.017707
1148.368995	0.028187
1148.524333	0.029397
1148.679653	0.032229
1148.834954	0.035729
1148.990237	0.035732
1149.145502	0.032232
1149.300749	0.026108
1149.455977	0.032322
1149.611188	0.045493
1149.766380	0.040437
1149.921553	0.037594
1150.076709	0.047520
1150.231846	0.047003
1150.386966	0.048508
1150.542066	0.041471
1150.697149	0.055095
1150.852214	0.043022
1151.007260	0.033800
1151.162288	0.022877
1151.317298	0.023116
1151.472289	0.012165
1151.627263	0.017039
1151.782218	0.019456
1151.937155	0.023944
1152.092073	0.021363
1152.246974	0.031613
1152.401856	0.026757
1152.556720	0.039236
1152.711566	0.042728
1152.866393	0.038663
1153.021203	0.037066
1153.175994	0.032675
1153.330767	0.027604
1153.485521	0.027433
1153.640258	0.024244
1153.794976	0.024769
1153.949676	0.022403
1154.104358	0.015992
1154.259021	0.020323
1154.413667	0.017053
1154.568294	0.029212
1154.722903	0.042221
1154.877493	0.048222
1155.032066	0.048825
1155.186620	0.062924
1155.341156	0.066307
1155.495674	0.060475
1155.650173	0.046037
1155.804654	0.047203
1155.959118	0.033460
1156.113562	0.035514
1156.267989	0.023745
1156.422397	0.029509
1156.576788	0.013080
1156.731160	0.010320
1156.885513	0.023798
1157.039849	0.040027
1157.194166	0.048407
1157.348465	0.053752
1157.502746	0.048928
1157.657009	0.054886
1157.811253	0.064502
1157.965479	0.070150
1158.119687	0.067128
1158.273877	0.049715
1158.428048	0.037058
1158.582201	0.027445
1158.736337	0.027402
1158.890453	0.020262
1159.044552	0.008707
1159.198632	-0.009399
1159.352694	-0.016539
1159.506738	-0.029589
1159.660764	-0.017663
1159.814771	-0.014065
1159.968761	-0.026086
1160.122732	-0.027160
1160.276685	-0.030543
1160.430619	-0.022982
1160.584535	-0.025143
1160.738434	-0.014954
1160.892313	0.000810
1161.046175	-0.004260
1161.200019	0.004966
1161.353844	0.005006
1161.507651	0.001068
1161.661440	0.016866
1161.815210	0.012846
1161.968962	0.030785
1162.122697	0.035258
1162.276412	0.029171
1162.430110	0.039711
1162.583789	0.026892
1162.737451	0.038275
1162.891094	0.043361
1163.044718	0.031982
1163.198325	0.023253
1163.351913	0.009886
1163.505483	0.002009
1163.659035	-0.011320
1163.812569	-0.020493
1163.966084	-0.016112
1164.119581	-0.016379
1164.273060	-0.024268
1164.426521	-0.020662
1164.579964	-0.006671
1164.733388	-0.008209
1164.886794	0.002046
1165.040182	0.022585
1165.193551	0.034719
1165.346903	0.040791
1165.500236	0.040667
1165.653551	0.043534
1165.806848	0.054553
1165.960126	0.058137
1166.113386	0.075577
1166.266628	0.056694
1166.419852	0.065049
1166.573058	0.061978
1166.726245	0.061769
1166.879414	0.056876
1167.032565	0.055983
1167.185698	0.047300
1167.338812	0.033796
1167.491909	0.022848
1167.644987	0.037056
1167.798046	0.028188
1167.951088	0.024001
1168.104111	0.022528
1168.257117	0.026109
1168.410103	0.026915
1168.563072	0.021209
1168.716023	0.042066
1168.868955	0.024051
1169.021869	0.021978
1169.174765	0.019107
1169.327642	0.019297
1169.480501	0.036603
1169.633343	0.041420
1169.786165	0.034942
1169.938970	0.048521
1170.091757	0.027573
1170.244525	0.045436
1170.397275	0.033757
1170.550007	0.045222
1170.702720	0.031140
1170.855415	0.006485
1171.008092	0.002257
1171.160751	0.012159
1171.313392	0.006062
1171.466014	-0.032061
1171.618619	0.028371
1171.771205	0.028371
1171.923772	0.028371
