sample name	sample
index	942
start time	 04-12-2021  02:16:11 PM
880	-0.044593
Peak Time (s)	121.535
Peak Height 	-0.04459
calc peak height	120,123
Baseline Time (s)	9.537
Baseline Value 	-0.0022
subtract baseline	10,4
Abs	0.007114
Peak Time (s)	120.535
Peak Height 	0.007114
calc peak height	120,123
Baseline Time (s)	10.037
Baseline Value 	6.3615E-4
subtract baseline	10,3
PK_550	-0.004078
Peak Time (s)	120.038
Peak Height 	-0.004078
calc peak height	120,123
Baseline Time (s)	9.037
Baseline Value 	6.1323E-4
subtract baseline	10,2
PK_880	-0.004722
Peak Time (s)	120.535
Peak Height 	-0.004722
calc peak height	120,123
Baseline Time (s)	10.538
Baseline Value 	6.3067E-4
subtract baseline	10,1


Time (s)	A880-A510	A880-A775	A880-A975	A880	I510	I775	I975	I880	
0.034000	-0.003486	-0.000291	0.000086	0.005833	7093.008645	43018.086177	3932.765457	23102.071008
0.537000	-0.004142	-0.001114	-0.002888	0.004164	7102.813802	43096.148462	3929.511780	23179.885952
1.034500	-0.001354	-0.001117	-0.004628	0.002797	7143.307388	43222.403593	3928.581410	23243.850089
1.534500	-0.000885	-0.000685	0.001876	0.000818	7167.337090	43446.379885	3949.899527	23336.773423
2.035000	-0.002135	-0.000950	0.001901	0.005251	7111.749123	43011.003954	3938.770137	23129.165110
2.536000	-0.001242	-0.000843	0.000248	0.000408	7167.862895	43469.904913	3946.814268	23356.085214
3.035500	-0.001356	-0.001984	0.004073	-0.002482	7195.293875	43633.302047	3963.939921	23492.726827
3.536000	0.000348	-0.000544	-0.001989	0.000315	7184.467791	43506.491077	3941.400452	23360.467901
4.036500	-0.002444	0.000383	0.001886	0.005031	7110.877657	43154.422782	3939.286378	23139.409337
4.536000	-0.000281	-0.000807	-0.003311	-0.000038	7181.748745	43514.944971	3938.964428	23377.135368
5.037500	0.000104	-0.000426	0.002908	-0.000125	7186.403120	43558.571077	3954.922815	23381.199802
5.536500	-0.000162	-0.000488	0.001453	0.000114	7181.415090	43530.480483	3950.615534	23369.952985
6.038000	-0.000897	-0.000480	0.002036	0.000089	7174.412875	43533.562994	3952.161021	23371.143997
6.535000	-0.001347	-0.000296	0.002169	0.000308	7167.807656	43530.217688	3951.940805	23360.792202
7.035500	0.000804	0.000382	0.004733	0.000870	7183.483575	43541.027085	3957.041934	23334.308194
7.536000	0.001733	-0.000694	0.001209	-0.000204	7203.329665	43540.908689	3950.802544	23384.940356
8.035500	0.000126	0.000289	-0.001657	-0.000204	7187.405964	43632.790061	3943.546992	23384.935873
8.536500	0.000443	-0.000479	-0.000458	-0.000478	7193.262397	43586.580611	3947.269435	23397.879299
9.036500	-0.000231	0.000000	-0.004396	0.000004	7181.816583	43586.341180	3936.134863	23375.131032
9.537000	0.000864	0.000026	0.002360	0.000000	7192.697905	43589.117537	3953.210768	23375.322316
10.037000	-0.000591	0.000191	0.000000	0.000016	7178.152452	43603.131432	3947.178753	23374.573309
10.538000	0.000000	0.000277	-0.005087	0.000461	7179.587076	43569.466297	3933.262247	23353.582476
11.035000	0.001170	-0.000301	0.005250	-0.000022	7195.938408	43560.639946	3960.648442	23376.357422
11.535500	-0.001406	-0.000487	0.003016	-0.000637	7176.542725	43600.734656	3956.505173	23405.365346
12.035500	0.000429	-0.000496	0.003072	-0.000209	7190.455601	43559.866174	3955.555955	23385.172761
12.536000	0.001415	-0.000361	0.000055	0.000101	7197.149162	43543.554032	3947.103012	23370.550805
13.036000	0.001645	0.000030	0.003624	-0.000008	7200.518621	43590.269279	3956.454393	23375.718656
13.539500	-0.000634	-0.000936	0.001046	-0.000927	7187.043009	43585.930691	3952.224884	23419.102896
14.037000	-0.003153	-0.000818	-0.000870	0.001690	7136.536306	43352.832789	3940.757466	23295.763418
14.537000	-0.000108	0.000015	0.003223	0.002234	7161.048333	43379.702227	3949.724463	23270.220030
15.034500	-0.001486	-0.001465	-0.000382	0.002634	7143.605025	43205.240793	3939.608241	23251.459286
15.540500	-0.000506	-0.000233	0.000506	-0.000268	7181.788074	43589.926723	3949.180508	23387.949835
16.041000	0.000530	-0.001038	0.002485	-0.001213	7201.414347	43603.061631	3956.622090	23432.615325
16.535500	0.002071	-0.000895	0.001461	-0.000582	7210.441518	43557.460388	3952.403545	23402.772546
17.036000	0.000342	-0.000321	0.003822	0.000919	7178.437934	43470.890303	3954.592758	23332.009038
17.536000	-0.000126	-0.000832	0.000213	-0.000189	7184.767997	43526.623869	3948.237142	23384.247301
18.036000	-0.001319	-0.000894	-0.003156	0.000941	7161.862337	43415.457067	3936.894679	23330.986420
18.537000	0.000324	-0.000311	0.005432	0.000684	7180.584534	43493.730365	3959.303943	23343.078411
19.036500	-0.000628	0.000017	0.002626	0.001415	7163.993176	43456.200066	3950.288111	23308.675408
19.534000	-0.002328	-0.001180	-0.000375	0.000354	7157.714942	43443.547662	3945.374217	23358.634037
20.039500	0.000179	-0.000087	0.003288	0.001149	7174.564608	43471.354240	3952.648101	23321.205401
20.535000	0.000427	-0.000970	-0.000690	0.000252	7185.878155	43472.624855	3944.836045	23363.450756
21.035500	-0.001727	-0.000172	-0.002249	0.000967	7157.597350	43480.334254	3939.108232	23329.766170
21.535500	0.001240	-0.000417	0.002509	0.000517	7191.298411	43499.460509	3952.272359	23350.944797
22.036000	-0.000038	-0.000176	-0.000640	0.000504	7178.782113	43523.199699	3944.324762	23351.552936
22.536500	-0.000518	-0.000913	0.001662	0.000325	7175.823486	43471.109444	3950.609303	23360.011820
23.036500	0.000022	-0.000012	0.003568	0.001340	7171.128547	43460.431847	3952.874325	23312.201909
23.537000	-0.000344	0.000174	0.001018	0.001262	7168.292156	43485.112353	3946.601507	23315.886577
24.037000	-0.000337	-0.000912	-0.002169	0.000598	7174.916100	43445.793027	3940.237025	23347.158548
24.540500	0.000128	-0.000164	0.000506	0.001178	7173.769527	43461.413116	3945.518089	23319.817666
25.035000	0.000519	0.000116	0.004664	0.001791	7171.582462	43430.429892	3954.516949	23291.022167
25.535500	0.000526	-0.000036	0.006383	0.001551	7174.021609	43438.592426	3959.520854	23302.287124
26.035500	0.000466	-0.001078	0.002512	0.000910	7179.748691	43401.173896	3951.282568	23332.431375
26.535500	-0.000088	-0.000240	0.001233	0.000743	7175.937866	43494.859805	3948.459613	23340.306210
27.036000	-0.000478	-0.000284	0.001891	0.001818	7161.507387	43390.649266	3947.404529	23289.748584
27.536500	0.002601	0.000081	0.003108	-0.001212	7222.001860	43707.836359	3958.210766	23432.566414
28.036500	0.002758	-0.000363	0.003449	-0.000298	7214.462081	43580.636708	3956.747629	23389.391056
28.536500	0.001591	0.000098	0.003251	-0.000140	7201.294976	43609.050066	3955.838002	23381.948657
29.040000	-0.001120	-0.000890	-0.002313	0.001447	7158.843827	43368.793219	3937.741269	23307.188704
29.537500	-0.001813	0.000317	0.000217	-0.000189	7168.121202	43634.037092	3948.247591	23384.232890
30.035000	-0.002615	-0.000323	-0.001373	0.003624	7122.905947	43219.225097	3934.638143	23205.087771
30.535500	-0.000774	0.000311	0.002891	0.002866	7148.307277	43348.512458	3947.281537	23240.585529
31.035500	0.000108	-0.000246	-0.000883	0.002117	7164.323669	43366.350025	3939.649416	23275.710952
31.535500	0.002192	-0.000378	-0.000745	-0.000264	7208.497641	43576.132794	3946.003225	23387.797807
32.036000	-0.001112	-0.000012	0.002049	0.002327	7150.285245	43368.602623	3946.514353	23265.862944
32.536500	0.001174	-0.000223	0.001926	-0.000058	7196.342421	43571.304104	3952.253511	23378.059262
33.037000	-0.001153	-0.000245	0.007804	0.002649	7146.726058	43317.001502	3960.348664	23250.775344
33.537000	0.002035	0.000294	0.005402	-0.001589	7220.116039	43763.217042	3965.060451	23450.408617
34.037500	-0.001224	0.000087	-0.002209	0.002626	7146.255146	43350.020635	3935.047693	23251.858727
34.537500	0.001759	0.000376	0.005860	0.002019	7181.575420	43433.333746	3956.985128	23280.308502
35.035000	-0.000695	-0.000609	-0.000962	0.001575	7161.763471	43383.025981	3940.814496	23301.185121
35.537000	0.002245	0.000228	0.005281	0.001695	7189.578058	43449.736525	3956.335153	23295.525963
36.036000	-0.002056	0.000032	0.002150	0.002476	7139.570034	43358.795570	3946.392411	23258.856081
36.536000	0.000737	0.000230	0.003506	0.001357	7178.021717	43481.473527	3952.671771	23311.417378
37.036000	-0.001038	0.000269	0.002825	0.001607	7158.070140	43461.748513	3950.306065	23299.658886
37.536500	-0.000426	0.000080	0.000454	0.001527	7164.883170	43451.713767	3944.508089	23303.451878
38.037000	-0.000091	-0.000349	0.002527	0.001588	7167.574103	43405.981676	3949.599973	23300.564617
38.537000	0.000363	0.000198	0.007951	0.001708	7170.868214	43445.833952	3963.140135	23294.938516
39.037000	0.000004	0.000540	0.003563	0.001834	7166.086414	43465.857814	3951.604878	23288.994887
39.537500	-0.000437	-0.000132	0.002571	0.001368	7166.337211	43446.706547	3950.269331	23310.897554
40.035000	0.001147	0.000565	0.000807	0.002248	7173.274405	43429.621256	3943.576669	23269.557717
40.538500	0.000229	-0.000229	0.004952	0.001610	7170.515388	43415.155417	3955.713736	23299.545635
41.035500	-0.000338	0.000022	-0.000965	0.002045	7160.656919	43397.994375	3939.624542	23279.112410
41.536000	0.001132	-0.000163	-0.000122	0.001307	7182.422825	43449.499951	3943.607482	23313.791491
42.036500	0.000243	-0.001425	0.001543	0.000807	7178.571238	43378.538455	3949.084490	23337.305247
42.537000	0.000929	-0.000064	-0.003665	0.001688	7176.645000	43423.201788	3933.749328	23295.840787
43.039500	-0.000119	-0.000043	0.001696	0.002027	7162.987763	43393.680782	3946.382496	23279.956919
43.537500	0.000001	-0.000579	-0.000539	0.001366	7170.672951	43405.206658	3942.406408	23310.996071
44.037500	0.003738	-0.000106	0.005229	-0.003483	7256.127488	43903.798723	3969.499814	23540.274012
44.535000	0.001418	-0.000045	0.001566	-0.000549	7203.635158	43633.865631	3952.585736	23401.238856
45.035000	-0.002340	-0.000797	0.001108	0.005019	7112.001996	43046.480747	3937.361706	23139.949798
45.535000	0.000398	0.000131	0.004950	-0.000095	7189.023349	43607.895632	3960.066617	23379.804964
46.035500	0.001872	0.000050	0.002766	0.001839	7184.464925	43419.747332	3949.569023	23288.767507
46.536000	0.000634	-0.000179	0.002748	-0.000078	7191.190947	43577.264394	3954.397709	23378.998683
47.036500	-0.002447	-0.000436	0.002947	0.005611	7105.221081	43025.179660	3940.496988	23112.400844
47.539500	-0.000595	0.000621	0.004107	0.002579	7152.879979	43404.099081	3951.094283	23254.060297
48.036500	0.000170	0.000277	0.000798	0.000992	7176.025122	43519.962518	3946.726978	23328.590075
48.534500	0.000725	0.000208	0.005330	0.000179	7189.546387	43589.496055	3960.338370	23366.897817
49.036500	-0.003398	0.000192	-0.000663	0.006131	7090.968225	43035.138783	3930.152579	23088.179683
49.535500	0.004645	0.000513	0.003664	-0.000839	7238.699842	43713.318484	3958.678395	23414.934834
50.035500	0.003376	0.000211	0.001325	-0.000093	7218.571530	43615.176489	3950.814559	23379.698596
50.536000	-0.008653	-0.002897	0.003889	0.008637	7016.579205	42522.318333	3935.263020	22971.980322
51.036000	-0.048758	-0.009031	0.016849	0.351138	4600.498984	20696.149291	3356.941881	12017.771548
51.536500	-0.058224	-0.017765	-0.005635	-0.032657	6938.695872	45003.431262	4017.804647	24974.957825
52.037000	-0.054382	-0.051083	-0.006936	-0.220560	9185.416568	62971.495024	4645.837346	36929.540318
52.539000	-0.036694	-0.034562	0.005949	-0.190752	9012.186088	61163.772730	4577.123110	34671.776145
53.037000	-0.030269	-0.020509	-0.000582	-0.150394	8552.119534	57743.921379	4400.130596	31851.602194
53.537500	-0.009144	-0.015838	-0.001446	-0.155998	8911.485191	59055.241145	4417.167202	32227.746581
54.035000	0.000105	-0.011680	-0.000527	-0.144358	8878.437903	58097.345799	4378.898806	31451.915662
54.536000	0.003230	-0.008456	-0.000963	-0.137224	8823.412797	57603.284932	4352.437489	30986.580108
55.035500	0.002571	-0.008204	-0.001986	-0.121527	8604.149302	55694.749206	4295.610807	29989.327012
55.536500	0.004742	-0.006255	-0.002582	-0.109229	8472.459770	54453.226102	4253.253693	29232.753015
56.036000	0.001858	-0.003523	-0.003641	-0.080474	8080.291002	51459.303617	4160.001694	27545.194904
56.537500	0.005698	-0.003804	-0.003247	-0.093515	8285.988862	52905.013124	4201.235867	28296.741973
57.036500	0.002147	-0.002947	-0.002777	-0.041440	7637.380841	47350.558054	4049.591439	25426.072727
57.537500	0.000329	0.000551	-0.000651	-0.024438	7436.096440	45992.017667	4009.122245	24560.984796
58.037500	0.003116	0.000428	0.001306	-0.013127	7347.756253	44874.291723	3984.373286	24003.911781
58.538000	-0.003249	-0.001553	-0.004230	-0.005058	7202.062684	43915.821990	3949.316721	23615.269348
59.035000	-0.005164	-0.001686	-0.003087	0.000835	7125.251811	43351.655980	3937.334801	23335.997188
59.535500	-0.003107	-0.001217	0.001510	0.001747	7136.435216	43310.524612	3946.621492	23293.113404
60.036000	-0.003377	-0.001525	0.001454	0.005632	7096.001859	42922.903260	3936.692572	23111.404363
60.536000	-0.005999	-0.001807	-0.000516	0.007340	7054.280621	42740.337391	3927.507615	23032.045562
61.036000	-0.008696	-0.003299	-0.001115	0.006151	7039.860418	42712.577103	3928.978635	23087.275219
61.539500	-0.009253	-0.003337	0.004597	0.001352	7080.578171	43150.558735	3955.465049	23311.637625
62.036500	-0.006964	-0.003109	0.004361	-0.003938	7154.333675	43664.274284	3968.429100	23561.876565
62.537000	-0.003012	-0.001748	-0.006770	-0.016825	7322.886261	45021.384919	3972.971694	24184.437448
63.037500	-0.004102	-0.002475	-0.002310	-0.030247	7450.532404	46268.546686	4020.269900	24852.733915
63.535000	-0.005015	-0.006058	-0.003048	-0.040553	7550.232435	46944.020435	4046.390418	25380.129864
64.035500	-0.004035	-0.005194	-0.001956	-0.047563	7636.747376	47748.363768	4068.963247	25746.033447
64.535500	-0.001705	-0.005816	-0.004522	-0.064930	7856.932782	49508.363070	4111.300084	26678.436983
65.036000	-0.002607	-0.006264	-0.004826	-0.078410	8002.865339	50925.808030	4150.222293	27428.324051
65.536000	-0.000838	-0.007231	-0.003028	-0.089732	8159.300601	52082.930497	4190.173731	28076.399658
66.039000	-0.000817	-0.008102	-0.007739	-0.088461	8144.163531	51841.359969	4171.809910	28002.818206
66.536500	-0.003092	-0.006997	-0.003816	-0.084896	8073.992659	51565.245266	4172.897217	27797.494936
67.037000	-0.004389	-0.007347	-0.004424	-0.081463	8017.857000	51143.884164	4160.628223	27601.430277
67.540000	-0.003230	-0.007149	0.000679	-0.079348	8006.572949	50931.666092	4169.690326	27481.377860
68.037500	-0.005101	-0.007411	-0.002239	-0.075347	7937.871238	50463.175648	4148.794394	27255.860050
68.535000	-0.007899	-0.007515	-0.002303	-0.072314	7870.569317	50121.544111	4139.549704	27086.329395
69.035500	-0.009793	-0.008422	-0.005650	-0.068547	7806.082097	49616.824524	4118.562693	26877.391401
69.535500	-0.012408	-0.008625	-0.000079	-0.067446	7764.199738	49476.925832	4131.710674	26816.635116
70.036000	-0.013461	-0.008597	0.002808	-0.064585	7720.473456	49174.556985	4131.786776	26659.539489
70.539500	-0.015357	-0.008400	0.000807	-0.062170	7672.771967	48939.335007	4118.796284	26527.762215
71.036000	-0.016212	-0.009214	-0.001730	-0.058761	7626.053657	48494.470080	4101.512937	26342.946987
71.537000	-0.017878	-0.009277	0.001959	-0.059444	7615.347389	48559.502744	4114.196438	26379.854841
72.037000	-0.016906	-0.009556	-0.002423	-0.057796	7607.998277	48357.671185	4096.734807	26290.897218
72.534500	-0.018687	-0.009582	-0.001196	-0.056939	7579.434065	48265.524399	4097.798532	26244.776393
73.034500	-0.018065	-0.009416	-0.004140	-0.053779	7552.120480	47954.449410	4080.354856	26075.513301
73.535000	-0.016352	-0.009020	-0.001929	-0.054459	7577.868163	48066.001432	4088.584569	26111.820861
74.035500	-0.017890	-0.008673	0.002700	-0.052703	7542.457570	47919.928892	4096.821427	26018.141997
74.535500	-0.017312	-0.008566	0.000992	-0.052353	7544.894444	47894.816547	4090.916760	25999.478832
75.036000	-0.018418	-0.009208	-0.002164	-0.049305	7500.591862	47514.683605	4073.281941	25837.859199
75.536500	-0.017806	-0.008493	0.000215	-0.051119	7526.412274	47774.879700	4085.173179	25933.913741
76.037000	-0.017823	-0.008686	0.005443	-0.050582	7520.512658	47699.670346	4098.610712	25905.451815
76.537000	-0.016497	-0.008084	-0.002743	-0.050641	7535.296606	47767.716873	4075.419840	25908.571925
77.037000	-0.013865	-0.007688	-0.002369	-0.046981	7524.324866	47432.437457	4066.167714	25715.452101
77.537500	-0.014293	-0.007756	0.000330	-0.049359	7545.164610	47669.503393	4080.495802	25840.739687
78.035000	-0.013397	-0.006588	0.004812	-0.048332	7543.759038	47683.991296	4090.341923	25786.526393
78.535000	-0.012700	-0.006833	-0.000240	-0.049359	7562.266357	47764.534313	4078.877742	25840.721578
79.035500	-0.013329	-0.006861	-0.000375	-0.049795	7560.185422	47806.655978	4079.729445	25863.766620
79.536000	-0.013876	-0.007242	0.000066	-0.049492	7551.070501	47736.126614	4080.123967	25847.782042
80.036500	-0.013177	-0.007355	-0.000705	-0.050714	7571.723481	47850.481653	4081.402192	25912.433283
80.536500	-0.011093	-0.006601	0.001324	-0.051275	7600.310915	47986.554951	4088.781719	25942.181134
81.036500	-0.010282	-0.006026	-0.002593	-0.051246	7608.805463	48043.215752	4077.555707	25940.652042
81.537000	-0.011860	-0.006507	-0.001528	-0.050941	7588.393547	47961.753320	4079.710888	25924.480968
82.037500	-0.008907	-0.006235	0.005169	-0.051641	7628.070164	48062.488529	4100.875132	25961.619442
82.534500	-0.010702	-0.007253	0.000036	-0.053516	7628.946028	48151.571883	4091.508810	26061.452023
83.035000	-0.007964	-0.005584	-0.001473	-0.052868	7651.804650	48257.948520	4085.347554	26026.907670
83.535500	-0.010545	-0.006608	-0.002997	-0.054098	7637.008993	48279.390435	4084.508332	26092.511263
84.035500	-0.008871	-0.006419	-0.000885	-0.054191	7656.361691	48308.837705	4090.802632	26097.467949
84.539000	-0.008318	-0.005799	-0.000401	-0.054215	7662.694323	48376.063017	4092.259829	26098.753171
85.035500	-0.009810	-0.006173	-0.004620	-0.052888	7631.832766	48198.660338	4076.467866	26027.974991
85.537000	-0.010109	-0.006169	0.001895	-0.053612	7636.470787	48274.524793	4097.120844	26066.585191
86.037000	-0.008227	-0.006144	-0.001357	-0.056281	7686.458553	48556.416827	4095.443878	26209.416768
86.537000	-0.006405	-0.006476	0.003353	-0.056531	7709.394302	48547.869878	4109.776166	26222.884312
87.034500	-0.006937	-0.006078	0.000550	-0.057019	7708.903479	48640.869374	4103.065102	26249.082070
87.535500	-0.007036	-0.005914	-0.000230	-0.057250	7710.377629	48682.419746	4101.481452	26261.534129
88.035500	-0.006685	-0.005378	-0.000547	-0.057753	7719.848933	48791.910169	4102.018126	26288.584857
88.535500	-0.005656	-0.005659	0.003386	-0.057907	7733.019695	48778.458046	4113.875917	26296.885336
89.038500	-0.009430	-0.006437	-0.001079	-0.056074	7670.914407	48503.946644	4095.650029	26198.340897
89.536000	-0.006316	-0.006438	-0.000927	-0.059256	7740.708045	48838.608679	4105.264678	26369.689963
90.036500	-0.005298	-0.006120	0.003446	-0.059342	7753.064210	48881.365689	4118.245030	26374.380463
90.536500	-0.005983	-0.005675	0.003286	-0.059269	7744.580087	48920.671629	4117.562229	26370.432258
91.037000	-0.004984	-0.005538	0.002999	-0.058364	7745.624977	48839.415009	4114.080968	26321.522122
91.537000	-0.007684	-0.006104	0.001057	-0.060090	7734.751066	48962.090090	4113.449550	26414.812948
92.034500	-0.004415	-0.006432	-0.001000	-0.060523	7776.224718	48973.255209	4108.727090	26438.300385
92.535000	-0.005271	-0.006011	0.002570	-0.060253	7763.569336	48989.278518	4118.345404	26423.659961
93.035500	-0.005855	-0.005259	0.002523	-0.060498	7759.766269	49094.990807	4118.925576	26436.938000
93.536000	-0.009482	-0.006967	0.000325	-0.057823	7689.619311	48631.874089	4104.739882	26292.347704
94.036000	-0.005254	-0.006864	-0.001719	-0.061325	7775.801584	49012.532494	4108.969391	26481.827289
94.536500	-0.007626	-0.006316	0.000004	-0.061095	7746.622780	49046.257632	4113.312735	26469.339500
95.036500	-0.006664	-0.006663	-0.003702	-0.059599	7740.657451	48851.058347	4098.243164	26388.236532
95.536000	-0.006606	-0.006104	-0.001312	-0.058090	7724.484483	48750.853288	4100.781592	26306.769769
96.033500	-0.006308	-0.006252	-0.002241	-0.061148	7761.980607	49058.609704	4106.941264	26472.214579
96.537000	-0.006046	-0.006868	-0.000810	-0.061971	7774.162656	49080.641644	4113.492739	26516.957646
97.035000	-0.008130	-0.005808	-0.003027	-0.059134	7719.139823	48892.349788	4098.848590	26363.102032
97.535500	-0.009551	-0.005540	-0.003119	-0.056733	7676.846979	48667.456150	4091.688901	26233.736471
98.035500	-0.007286	-0.006543	0.001570	-0.060862	7747.825975	48997.448578	4117.202272	26456.705696
98.535500	-0.006674	-0.006380	0.005548	-0.061024	7756.480013	49031.834915	4129.361270	26465.456933
99.036000	-0.007099	-0.006149	0.000464	-0.058991	7729.030703	48841.264057	4108.529940	26355.401421
99.536500	-0.009683	-0.006128	0.000688	-0.055925	7666.488645	48520.748413	4100.306234	26190.317610
100.039000	-0.007047	-0.005741	0.001028	-0.060018	7741.058005	48992.942521	4113.156606	26410.931855
100.537000	-0.007460	-0.006234	-0.002039	-0.060509	7741.935796	48992.787577	4105.674899	26437.540517
101.037500	-0.008511	-0.006362	-0.000194	-0.058052	7702.909245	48719.646234	4103.902449	26304.712045
101.534500	-0.006878	-0.005230	0.000978	-0.055822	7696.300568	48604.225111	4100.847263	26184.804225
102.035000	-0.006151	-0.005738	0.001221	-0.059263	7742.645993	48913.373102	4111.522021	26370.113195
102.535500	-0.005677	-0.005842	0.003614	-0.058959	7744.532309	48870.166859	4117.614525	26353.641947
103.038500	-0.008481	-0.006306	-0.001462	-0.057292	7694.830815	48645.652691	4098.050524	26263.799802
103.536000	-0.010501	-0.006197	0.000734	-0.054058	7637.060131	48318.217972	4095.065812	26090.395333
104.035500	-0.004981	-0.005576	0.002178	-0.058145	7743.214091	48812.347047	4111.050639	26309.706118
104.536500	-0.006634	-0.005539	0.001869	-0.058025	7723.453379	48803.622045	4109.805618	26303.260865
105.036500	-0.007435	-0.005443	-0.000021	-0.056134	7693.581819	48614.537923	4098.864288	26201.534076
105.537000	-0.009720	-0.005811	0.003095	-0.052460	7628.138694	48191.737730	4097.258175	26005.161903
106.034000	-0.006785	-0.006031	0.002009	-0.057335	7714.098629	48679.082002	4108.209730	26266.098927
106.535000	-0.006651	-0.005742	0.001668	-0.056940	7711.204924	48667.901759	4106.072950	26244.849370
107.035500	-0.005794	-0.005840	0.001844	-0.055643	7706.313636	48521.310367	4102.829480	26175.187690
107.538500	-0.010742	-0.006178	-0.001005	-0.051760	7609.384826	48080.771906	4083.522808	25967.937039
108.035500	-0.005621	-0.005399	0.002466	-0.055855	7710.588851	48589.875215	4105.242816	26186.577599
108.536000	-0.006424	-0.005722	0.003817	-0.056334	7707.001698	48606.306925	4110.554159	26212.301739
109.037000	-0.006123	-0.005159	0.000676	-0.054155	7686.210424	48436.746600	4095.178132	26095.564865
109.536500	-0.006041	-0.005169	0.000185	-0.054961	7696.030996	48520.197609	4096.082956	26138.659309
110.036500	-0.006747	-0.006025	0.000704	-0.055375	7692.805859	48473.907903	4098.767444	26160.853878
110.537500	-0.006813	-0.005389	-0.000065	-0.054907	7686.903377	48491.507871	4095.209616	26135.776501
111.037500	-0.005554	-0.004978	-0.003021	-0.054577	7697.162153	48499.953708	4085.803616	26118.106388
111.535000	-0.010337	-0.005709	0.001434	-0.048959	7583.435211	47839.286467	4082.494252	25819.598661
112.038000	-0.007041	-0.005001	0.002101	-0.054091	7675.381277	48446.635850	4099.091940	26092.138264
112.535500	-0.004676	-0.004487	0.000379	-0.053233	7692.018140	48410.609718	4091.680483	26046.348361
113.036000	-0.006116	-0.005188	-0.002139	-0.051469	7656.731958	48153.564726	4079.478279	25952.524413
113.536500	-0.008640	-0.005193	-0.004616	-0.047924	7590.590642	47785.716307	4062.514539	25765.027169
114.036500	-0.006082	-0.004946	-0.001311	-0.052881	7672.617319	48325.861948	4085.843052	26027.574137
114.537000	-0.006639	-0.004973	0.003162	-0.052772	7665.287377	48311.675841	4098.349855	26021.782383
115.034500	-0.007105	-0.004934	0.004075	-0.051497	7646.198965	48182.811000	4097.307613	25954.002906
115.534500	-0.009438	-0.004166	-0.001112	-0.047278	7574.985476	47825.025067	4070.534572	25731.016327
116.038000	-0.007584	-0.005970	0.001346	-0.053124	7658.774849	48244.429655	4094.140244	26040.543493
116.535000	-0.007549	-0.004451	-0.000887	-0.052063	7647.523359	48292.133403	4084.721248	25984.056491
117.035500	-0.005096	-0.004217	-0.002020	-0.050566	7658.016182	48160.615857	4077.255103	25904.628502
117.535500	-0.008752	-0.003870	0.001136	-0.046043	7569.071433	47728.189026	4073.390216	25666.184540
118.036500	-0.005781	-0.005023	0.002711	-0.051631	7662.190604	48187.603710	4093.774659	25961.130274
118.536500	-0.006640	-0.004575	0.004795	-0.051376	7649.956923	48207.583260	4099.031451	25947.543936
119.036500	-0.004708	-0.004262	-0.001581	-0.050792	7664.759794	48179.481239	4079.139804	25916.608265
119.537000	-0.003929	-0.004389	0.003967	-0.050412	7669.151069	48126.719110	4093.880213	25896.468112
120.037500	-0.005793	-0.004078	0.002655	-0.049870	7642.750799	48102.670617	4088.570454	25867.763791
120.534500	-0.004722	-0.004495	0.007114	-0.050082	7656.800487	48081.356419	4101.988897	25878.980439
121.035500	-0.005640	-0.004611	0.000155	-0.050655	7653.017826	48128.831889	4083.681571	25909.315548
121.535000	-0.009735	-0.004567	-0.003223	-0.044593	7542.935794	47507.493330	4057.104475	25590.266783
122.036000	-0.005090	-0.004296	0.003234	-0.049970	7651.539624	48090.353225	4090.513975	25873.049437
122.536000	-0.006806	-0.004393	0.001061	-0.049909	7632.094631	48073.903113	4084.134776	25869.803351
123.036500	-0.007683	-0.004573	-0.004283	-0.047977	7601.538073	47855.230894	4063.595322	25767.827315
123.536500	-0.009384	-0.004836	0.002540	-0.044338	7543.965368	47453.810944	4072.540837	25576.958782
124.037000	-0.005236	-0.003727	0.001997	-0.048716	7636.210750	48019.218619	4083.403655	25806.769363
124.537000	-0.006137	-0.004270	0.005846	-0.049058	7630.109300	47998.415198	4095.385196	25824.815782
125.035000	-0.005108	-0.004666	0.004615	-0.048800	7638.541100	47930.736349	4091.116835	25811.244641
125.535000	-0.009267	-0.003687	-0.000178	-0.043144	7532.441439	47449.175083	4061.558934	25514.671847
126.038000	-0.005939	-0.003978	0.000200	-0.048513	7626.319277	47972.147651	4077.724987	25796.058737
126.535500	-0.003982	-0.003539	0.001518	-0.048212	7644.423571	47986.510676	4080.611134	25780.228775
127.036000	-0.005024	-0.004026	0.004635	-0.048300	7633.981194	47945.163882	4089.742057	25784.824193
127.562500	-0.008109	-0.004504	0.001631	-0.044443	7558.777281	47498.510112	4070.274988	25582.434812
128.036500	-0.005653	-0.004101	0.003918	-0.047716	7620.755292	47876.991212	4086.026155	25754.066059
128.536500	-0.004743	-0.003888	0.003547	-0.047707	7630.579175	47898.076178	4084.943719	25753.608893
129.033500	-0.006898	-0.004206	0.001811	-0.047957	7609.831578	47891.101000	4080.718341	25766.767815
129.537500	-0.007569	-0.003581	-0.000694	-0.041789	7536.104582	47321.396797	4056.340373	25444.194651
130.035000	-0.006378	-0.004157	-0.000630	-0.047428	7609.733354	47841.371413	4072.313340	25738.905062
