sample name	sample
index	1389
start time	 05-10-2021  10:34:34 AM


Wavelength (nm)	Absorbance
494.344910	-0.268466
494.563924	-0.268466
494.782919	-0.268466
495.001897	0.068667
495.220856	-0.128815
495.439797	-0.085330
495.658719	-0.048214
495.877624	0.037305
496.096510	-0.002541
496.315378	-0.049929
496.534227	-0.005243
496.753059	0.002538
496.971872	0.007695
497.190667	0.009439
497.409444	0.015034
497.628203	0.015994
497.846943	0.017616
498.065665	0.019494
498.284369	0.019908
498.503055	0.020054
498.721723	0.019311
498.940372	0.018982
499.159003	0.020192
499.377616	0.020908
499.596210	0.021611
499.814787	0.019774
500.033345	0.019969
500.251885	0.018922
500.470406	0.017458
500.688910	0.017052
500.907395	0.017182
501.125862	0.016565
501.344311	0.015778
501.562742	0.014991
501.781154	0.016227
501.999548	0.015445
502.217924	0.016450
502.436282	0.017188
502.654621	0.017335
502.872942	0.017275
503.091245	0.017001
503.309530	0.016753
503.527797	0.016441
503.746045	0.015125
503.964275	0.015438
504.182487	0.015839
504.400681	0.015547
504.618856	0.015926
504.837013	0.015824
505.055152	0.016346
505.273273	0.016091
505.491376	0.016663
505.709460	0.016821
505.927526	0.016533
506.145574	0.016668
506.363604	0.016380
506.581615	0.016689
506.799608	0.016705
507.017583	0.016100
507.235540	0.016627
507.453478	0.016466
507.671399	0.016932
507.889301	0.016795
508.107185	0.015151
508.325050	0.015308
508.542898	0.014249
508.760727	0.013517
508.978538	0.013623
509.196330	0.013669
509.414105	0.013437
509.631861	0.013678
509.849599	0.013822
510.067319	0.015052
510.285021	0.015522
510.502704	0.015953
510.720369	0.015885
510.938016	0.016380
511.155645	0.015624
511.373255	0.015596
511.590848	0.015048
511.808422	0.015027
512.025977	0.014658
512.243515	0.013899
512.461034	0.014253
512.678536	0.014550
512.896018	0.014063
513.113483	0.013740
513.330930	0.013495
513.548358	0.013258
513.765768	0.012768
513.983160	0.012644
514.200533	0.012616
514.417889	0.012057
514.635226	0.011760
514.852545	0.011692
515.069845	0.012068
515.287128	0.011525
515.504392	0.011359
515.721638	0.012053
515.938866	0.011736
516.156075	0.012002
516.373267	0.012264
516.590440	0.012672
516.807594	0.012866
517.024731	0.013257
517.241850	0.014298
517.458950	0.014251
517.676032	0.014053
517.893095	0.014521
518.110141	0.014627
518.327168	0.014941
518.544177	0.014866
518.761168	0.014519
518.978141	0.014353
519.195095	0.014220
519.412031	0.014443
519.628949	0.013699
519.845849	0.013601
520.062731	0.013547
520.279594	0.012768
520.496439	0.012831
520.713266	0.013327
520.930074	0.013498
521.146865	0.013537
521.363637	0.014129
521.580391	0.014389
521.797127	0.013927
522.013844	0.013851
522.230543	0.013975
522.447224	0.013381
522.663887	0.012900
522.880532	0.013125
523.097158	0.012640
523.313766	0.012017
523.530356	0.011980
523.746928	0.012088
523.963481	0.012182
524.180017	0.012276
524.396534	0.012294
524.613032	0.012246
524.829513	0.011349
525.045975	0.011515
525.262420	0.011604
525.478845	0.011931
525.695253	0.012330
525.911643	0.012055
526.128014	0.012040
526.344367	0.012302
526.560702	0.011971
526.777018	0.011984
526.993316	0.011664
527.209597	0.011484
527.425858	0.011475
527.642102	0.011429
527.858328	0.010857
528.074535	0.011218
528.290724	0.011473
528.506894	0.011652
528.723047	0.011866
528.939181	0.012228
529.155297	0.012723
529.371395	0.013036
529.587475	0.012889
529.803536	0.013154
530.019579	0.012754
530.235604	0.013035
530.451611	0.013143
530.667600	0.013375
530.883570	0.013526
531.099522	0.013311
531.315456	0.012852
531.531372	0.012912
531.747269	0.013097
531.963148	0.013465
532.179009	0.013549
532.394852	0.013525
532.610676	0.013619
532.826482	0.013775
533.042271	0.013445
533.258040	0.013433
533.473792	0.013436
533.689525	0.013182
533.905240	0.013086
534.120937	0.012236
534.336616	0.012539
534.552277	0.012273
534.767919	0.011834
534.983543	0.011957
535.199149	0.011735
535.414736	0.011538
535.630306	0.011868
535.845857	0.011428
536.061390	0.011428
536.276904	0.011271
536.492401	0.011462
536.707879	0.011556
536.923339	0.011646
537.138781	0.011721
537.354204	0.011738
537.569610	0.011253
537.784997	0.011480
538.000366	0.011958
538.215716	0.011865
538.431049	0.011556
538.646363	0.011777
538.861659	0.011615
539.076937	0.011624
539.292196	0.011166
539.507438	0.011301
539.722661	0.010910
539.937866	0.010340
540.153052	0.010503
540.368221	0.010532
540.583371	0.010204
540.798503	0.010295
541.013617	0.010162
541.228712	0.010262
541.443789	0.010355
541.658848	0.010669
541.873889	0.011214
542.088912	0.011208
542.303916	0.011245
542.518902	0.011249
542.733870	0.011288
542.948820	0.011400
543.163752	0.011069
543.378665	0.011247
543.593560	0.011124
543.808437	0.010610
544.023295	0.010409
544.238136	0.010358
544.452958	0.010641
544.667762	0.010592
544.882548	0.010296
545.097315	0.010702
545.312064	0.010484
545.526795	0.009957
545.741508	0.010145
545.956203	0.009892
546.170879	0.009965
546.385537	0.009317
546.600177	0.009027
546.814799	0.008929
547.029402	0.008608
547.243988	0.008539
547.458555	0.008820
547.673103	0.008736
547.887634	0.008612
548.102146	0.008605
548.316640	0.008620
548.531116	0.008465
548.745574	0.008955
548.960013	0.009403
549.174435	0.009597
549.388838	0.009754
549.603222	0.009837
549.817589	0.009882
550.031937	0.009531
550.246267	0.009555
550.460579	0.009790
550.674873	0.009404
550.889148	0.009471
551.103405	0.009285
551.317644	0.008981
551.531865	0.008921
551.746068	0.008963
551.960252	0.009441
552.174418	0.009500
552.388566	0.009402
552.602696	0.009397
552.816807	0.009340
553.030900	0.009277
553.244975	0.009161
553.459032	0.008979
553.673070	0.008863
553.887091	0.008487
554.101093	0.008491
554.315077	0.008846
554.529042	0.008876
554.742990	0.008809
554.956919	0.009000
555.170830	0.009038
555.384722	0.008965
555.598597	0.008650
555.812453	0.008724
556.026291	0.008719
556.240111	0.008225
556.453913	0.008346
556.667696	0.008343
556.881461	0.008242
557.095208	0.008618
557.308937	0.008916
557.522647	0.009324
557.736339	0.009069
557.950013	0.009210
558.163669	0.009326
558.377307	0.009269
558.590926	0.009311
558.804527	0.009391
559.018110	0.009459
559.231675	0.009609
559.445221	0.009698
559.658749	0.009782
559.872259	0.010114
560.085751	0.010424
560.299225	0.010592
560.512680	0.010735
560.726117	0.010586
560.939536	0.010693
561.152937	0.010519
561.366319	0.010142
561.579683	0.010289
561.793029	0.010008
562.006357	0.009830
562.219667	0.009534
562.432958	0.009354
562.646231	0.009289
562.859486	0.008918
563.072723	0.008778
563.285941	0.009261
563.499141	0.009214
563.712323	0.008677
563.925487	0.008917
564.138632	0.008965
564.351760	0.008940
564.564869	0.009333
564.777960	0.009440
564.991032	0.009527
565.204087	0.009256
565.417123	0.009037
565.630141	0.009760
565.843140	0.009711
566.056122	0.009976
566.269085	0.009842
566.482030	0.009588
566.694957	0.009911
566.907866	0.009904
567.120756	0.010200
567.333628	0.010574
567.546482	0.010375
567.759318	0.010206
567.972135	0.009927
568.184935	0.010022
568.397716	0.010035
568.610478	0.009635
568.823223	0.009425
569.035949	0.009244
569.248657	0.008981
569.461347	0.009374
569.674019	0.009374
569.886672	0.009350
570.099308	0.009373
570.311925	0.009623
570.524523	0.009764
570.737104	0.010289
570.949666	0.010502
571.162210	0.010452
571.374736	0.010060
571.587244	0.010102
571.799733	0.010202
572.012205	0.010411
572.224658	0.010215
572.437092	0.010229
572.649509	0.009981
572.861907	0.009781
573.074287	0.009987
573.286649	0.010214
573.498993	0.010133
573.711318	0.010384
573.923625	0.009978
574.135914	0.009832
574.348185	0.009835
574.560438	0.009891
574.772672	0.010064
574.984888	0.009628
575.197086	0.009331
575.409266	0.009740
575.621427	0.009419
575.833570	0.009600
576.045695	0.010036
576.257802	0.010187
576.469890	0.010047
576.681961	0.009746
576.894013	0.010357
577.106046	0.010169
577.318062	0.009818
577.530059	0.010088
577.742039	0.010033
577.954000	0.009784
578.165942	0.009706
578.377867	0.009852
578.589773	0.010031
578.801661	0.010011
579.013531	0.010138
579.225382	0.010339
579.437216	0.010272
579.649031	0.010431
579.860828	0.010392
580.072606	0.010078
580.284367	0.010004
580.496109	0.010110
580.707833	0.010070
580.919539	0.010095
581.131227	0.009880
581.342896	0.009710
581.554547	0.009630
581.766180	0.009814
581.977795	0.010024
582.189391	0.010215
582.400969	0.010060
582.612529	0.010134
582.824071	0.010228
583.035595	0.010311
583.247100	0.010755
583.458587	0.011019
583.670056	0.011304
583.881506	0.011282
584.092939	0.010926
584.304353	0.011121
584.515749	0.011168
584.727127	0.011361
584.938486	0.011600
585.149828	0.011081
585.361151	0.010820
585.572456	0.010269
585.783742	0.010408
585.995011	0.010620
586.206261	0.010873
586.417493	0.010675
586.628706	0.010642
586.839902	0.010512
587.051079	0.010633
587.262238	0.010960
587.473379	0.011291
587.684502	0.011434
587.895606	0.011459
588.106692	0.011307
588.317760	0.011708
588.528810	0.011553
588.739841	0.011518
588.950855	0.011946
589.161850	0.011685
589.372827	0.011579
589.583785	0.011317
589.794726	0.011030
590.005648	0.010836
590.216552	0.010686
590.427437	0.010582
590.638305	0.010434
590.849154	0.010152
591.059985	0.010395
591.270798	0.010463
591.481592	0.010652
591.692369	0.011319
591.903127	0.011716
592.113867	0.011786
592.324588	0.011960
592.535292	0.012068
592.745977	0.012105
592.956644	0.011864
593.167293	0.011868
593.377923	0.011935
593.588536	0.011636
593.799130	0.011537
594.009706	0.011532
594.220263	0.011601
594.430803	0.011582
594.641324	0.011406
594.851827	0.011467
595.062312	0.011348
595.272778	0.011394
595.483227	0.011223
595.693657	0.011017
595.904069	0.010972
596.114462	0.010923
596.324838	0.011024
596.535195	0.011254
596.745534	0.011214
596.955855	0.011412
597.166157	0.011321
597.376441	0.011544
597.586707	0.011572
597.796955	0.011297
598.007185	0.011425
598.217396	0.011289
598.427589	0.011222
598.637764	0.010911
598.847921	0.010579
599.058060	0.010636
599.268180	0.010350
599.478282	0.010384
599.688366	0.010385
599.898431	0.010042
600.108479	0.010024
600.318508	0.010192
600.528519	0.010609
600.738511	0.010640
600.948486	0.010630
601.158442	0.010862
601.368380	0.010911
601.578300	0.011017
601.788202	0.011333
601.998085	0.011549
602.207950	0.011446
602.417797	0.011591
602.627626	0.011509
602.837436	0.011520
603.047228	0.011468
603.257002	0.011202
603.466758	0.011218
603.676496	0.011132
603.886215	0.011188
604.095916	0.011293
604.305599	0.011056
604.515264	0.011185
604.724910	0.011071
604.934538	0.010977
605.144148	0.011019
605.353740	0.010950
605.563314	0.010784
605.772869	0.010643
605.982406	0.010442
606.191925	0.010641
606.401425	0.010789
606.610908	0.010703
606.820372	0.010792
607.029818	0.011190
607.239246	0.011659
607.448655	0.011966
607.658047	0.011920
607.867420	0.012006
608.076775	0.011982
608.286111	0.012012
608.495430	0.012035
608.704730	0.011906
608.914012	0.011606
609.123275	0.011195
609.332521	0.011083
609.541748	0.011258
609.750957	0.011508
609.960148	0.011456
610.169321	0.011153
610.378475	0.011469
610.587611	0.011778
610.796729	0.011865
611.005829	0.011947
611.214910	0.012113
611.423974	0.011958
611.633019	0.011701
611.842045	0.011765
612.051054	0.011916
612.260044	0.011655
612.469017	0.011599
612.677970	0.011446
612.886906	0.011534
613.095824	0.011453
613.304723	0.011567
613.513604	0.011614
613.722467	0.011756
613.931311	0.011926
614.140138	0.012197
614.348946	0.012206
614.557736	0.012462
614.766507	0.012320
614.975261	0.012273
615.183996	0.012344
615.392713	0.012443
615.601412	0.012276
615.810092	0.012016
616.018754	0.012044
616.227399	0.012025
616.436024	0.011996
616.644632	0.011894
616.853222	0.011779
617.061793	0.011483
617.270346	0.011321
617.478880	0.011317
617.687397	0.011546
617.895895	0.011242
618.104375	0.011166
618.312837	0.010843
618.521281	0.010883
618.729706	0.010990
618.938113	0.011052
619.146502	0.011392
619.354873	0.011299
619.563226	0.011164
619.771560	0.011201
619.979876	0.011219
620.188174	0.011643
620.396453	0.011744
620.604715	0.011840
620.812958	0.011966
621.021183	0.011673
621.229390	0.011675
621.437578	0.011704
621.645748	0.011667
621.853900	0.011372
622.062034	0.011032
622.270150	0.010859
622.478247	0.010469
622.686326	0.010497
622.894387	0.010622
623.102430	0.010626
623.310454	0.010792
623.518461	0.010912
623.726449	0.011458
623.934418	0.011766
624.142370	0.011839
624.350303	0.011970
624.558218	0.011945
624.766115	0.011742
624.973994	0.011893
625.181855	0.011784
625.389697	0.011774
625.597521	0.011579
625.805327	0.011413
626.013114	0.011775
626.220883	0.011961
626.428634	0.012079
626.636367	0.012045
626.844082	0.012049
627.051778	0.012332
627.259457	0.012361
627.467117	0.012453
627.674758	0.012621
627.882382	0.012518
628.089987	0.012610
628.297574	0.012697
628.505143	0.012935
628.712694	0.012808
628.920226	0.012652
629.127740	0.012734
629.335236	0.012655
629.542714	0.012427
629.750174	0.012227
629.957615	0.012053
630.165038	0.011914
630.372443	0.011974
630.579829	0.012051
630.787198	0.012126
630.994548	0.012116
631.201880	0.011949
631.409194	0.012113
631.616489	0.012186
631.823766	0.012207
632.031025	0.012128
632.238266	0.011977
632.445489	0.012088
632.652693	0.011975
632.859879	0.012078
633.067047	0.012251
633.274197	0.012327
633.481329	0.012532
633.688442	0.012564
633.895537	0.012655
634.102614	0.012710
634.309672	0.012504
634.516713	0.012620
634.723735	0.012503
634.930739	0.012741
635.137724	0.012549
635.344692	0.012475
635.551641	0.012609
635.758572	0.012763
635.965485	0.012813
636.172379	0.012936
636.379256	0.012707
636.586114	0.012717
636.792954	0.012502
636.999775	0.012651
637.206579	0.012829
637.413364	0.012762
637.620131	0.012817
637.826880	0.012861
638.033610	0.012853
638.240323	0.013063
638.447017	0.013103
638.653692	0.013360
638.860350	0.013321
639.066990	0.013187
639.273611	0.013215
639.480214	0.012987
639.686798	0.013020
639.893365	0.013138
640.099913	0.013250
640.306443	0.013168
640.512955	0.013092
640.719449	0.013094
640.925924	0.013116
641.132381	0.012952
641.338820	0.013031
641.545241	0.013028
641.751644	0.013048
641.958028	0.012959
642.164394	0.013253
642.370742	0.013257
642.577071	0.013412
642.783383	0.013354
642.989676	0.013572
643.195951	0.013593
643.402207	0.013807
643.608446	0.013946
643.814666	0.014058
644.020868	0.014213
644.227052	0.014095
644.433218	0.014197
644.639365	0.014316
644.845494	0.014335
645.051605	0.014431
645.257698	0.014279
645.463772	0.014186
645.669828	0.014258
645.875866	0.014048
646.081886	0.014519
646.287888	0.014436
646.493871	0.014490
646.699836	0.014596
646.905783	0.014647
647.111712	0.014688
647.317622	0.014727
647.523514	0.014592
647.729388	0.014781
647.935244	0.014459
648.141082	0.014368
648.346901	0.014242
648.552702	0.014250
648.758485	0.014175
648.964250	0.014103
649.169996	0.014148
649.375724	0.014207
649.581434	0.014166
649.787126	0.014150
649.992800	0.014386
650.198455	0.014557
650.404092	0.014402
650.609711	0.014327
650.815311	0.014416
651.020894	0.014405
651.226458	0.014278
651.432004	0.014103
651.637532	0.014121
651.843041	0.013903
652.048532	0.013746
652.254006	0.013868
652.459460	0.013987
652.664897	0.013880
652.870315	0.014015
653.075716	0.014138
653.281097	0.014146
653.486461	0.014131
653.691807	0.014454
653.897134	0.014378
654.102443	0.014265
654.307734	0.014326
654.513006	0.014419
654.718261	0.014235
654.923497	0.014167
655.128715	0.014272
655.333915	0.014443
655.539096	0.014252
655.744259	0.014403
655.949404	0.014489
656.154531	0.014442
656.359640	0.014483
656.564730	0.014527
656.769802	0.014608
656.974856	0.014614
657.179892	0.014435
657.384909	0.014280
657.589908	0.014174
657.794889	0.014367
657.999852	0.014434
658.204797	0.014241
658.409723	0.014027
658.614631	0.013874
658.819521	0.013832
659.024393	0.013797
659.229246	0.013987
659.434081	0.014025
659.638898	0.013690
659.843697	0.013550
660.048478	0.013791
660.253240	0.014015
660.457984	0.014276
660.662710	0.014160
660.867417	0.014284
661.072107	0.014324
661.276778	0.014428
661.481431	0.014559
661.686066	0.014777
661.890682	0.014706
662.095281	0.014700
662.299861	0.014566
662.504422	0.014816
662.708966	0.014634
662.913491	0.014572
663.117999	0.014612
663.322488	0.014685
663.526958	0.014552
663.731411	0.014604
663.935845	0.014631
664.140261	0.014908
664.344659	0.014918
664.549038	0.015221
664.753400	0.015220
664.957743	0.015392
665.162068	0.015502
665.366375	0.015588
665.570663	0.015835
665.774933	0.015888
665.979185	0.015826
666.183419	0.015824
666.387635	0.015783
666.591832	0.016025
666.796011	0.016025
667.000172	0.015917
667.204315	0.015958
667.408439	0.015821
667.612545	0.015860
667.816634	0.015903
668.020703	0.015787
668.224755	0.015945
668.428788	0.015814
668.632803	0.015809
668.836800	0.015912
669.040779	0.015930
669.244739	0.015860
669.448681	0.016081
669.652605	0.016081
669.856511	0.016204
670.060399	0.016080
670.264268	0.016151
670.468119	0.016135
670.671952	0.016248
670.875767	0.016396
671.079563	0.016688
671.283341	0.016649
671.487101	0.016663
671.690843	0.016807
671.894567	0.016746
672.098272	0.016807
672.301959	0.016818
672.505628	0.016863
672.709278	0.016909
672.912911	0.016913
673.116525	0.016933
673.320121	0.017175
673.523699	0.016995
673.727258	0.017394
673.930799	0.017392
674.134322	0.017463
674.337827	0.017433
674.541314	0.017306
674.744782	0.017276
674.948232	0.017075
675.151664	0.016812
675.355078	0.016928
675.558474	0.016762
675.761851	0.016831
675.965210	0.016934
676.168551	0.017186
676.371873	0.017196
676.575178	0.017065
676.778464	0.017025
676.981732	0.017086
677.184981	0.017024
677.388213	0.016953
677.591426	0.016855
677.794621	0.016817
677.997798	0.016563
678.200956	0.016594
678.404097	0.016696
678.607219	0.016852
678.810323	0.016834
679.013408	0.016909
679.216476	0.016894
679.419525	0.016931
679.622556	0.016775
679.825569	0.016765
680.028563	0.016923
680.231540	0.017007
680.434498	0.017104
680.637438	0.017183
680.840359	0.017413
681.043263	0.017511
681.246148	0.017672
681.449015	0.017816
681.651864	0.018077
681.854694	0.018077
682.057506	0.018103
682.260301	0.018118
682.463076	0.018326
682.665834	0.018216
682.868573	0.018350
683.071295	0.018496
683.273998	0.018485
683.476682	0.018361
683.679349	0.018333
683.881997	0.018373
684.084627	0.018373
684.287239	0.018031
684.489833	0.017874
684.692408	0.017631
684.894965	0.017520
685.097504	0.017502
685.300025	0.017480
685.502527	0.017412
685.705012	0.017393
685.907478	0.017317
686.109925	0.017494
686.312355	0.017710
686.514766	0.017848
686.717159	0.017799
686.919534	0.017868
687.121891	0.017791
687.324230	0.017694
687.526550	0.017554
687.728852	0.017440
687.931136	0.017394
688.133401	0.017122
688.335649	0.016893
688.537878	0.016621
688.740089	0.016590
688.942281	0.016458
689.144456	0.016521
689.346612	0.016620
689.548750	0.016633
689.750870	0.016577
689.952971	0.016697
690.155055	0.016875
690.357120	0.017111
690.559167	0.017360
690.761195	0.017329
690.963206	0.017321
691.165198	0.017263
691.367172	0.017497
691.569128	0.017571
691.771065	0.017646
691.972984	0.017618
692.174885	0.017754
692.376768	0.017442
692.578633	0.017548
692.780479	0.017555
692.982308	0.017546
693.184118	0.017387
693.385909	0.017340
693.587683	0.017222
693.789438	0.017267
693.991175	0.017138
694.192894	0.017131
694.394595	0.017273
694.596277	0.017339
694.797941	0.017391
694.999587	0.017519
695.201215	0.017540
695.402824	0.017750
695.604416	0.017800
695.805989	0.017889
696.007543	0.018049
696.209080	0.018170
696.410598	0.018343
696.612099	0.018333
696.813580	0.018348
697.015044	0.018480
697.216490	0.018526
697.417917	0.018759
697.619326	0.018810
697.820717	0.018798
698.022089	0.018783
698.223444	0.018704
698.424780	0.018823
698.626098	0.018948
698.827397	0.018909
699.028679	0.018894
699.229942	0.018841
699.431187	0.018757
699.632414	0.018992
699.833622	0.019027
700.034813	0.019105
700.235985	0.019096
700.437139	0.019108
700.638274	0.019205
700.839392	0.019221
701.040491	0.019260
701.241572	0.019226
701.442635	0.018954
701.643679	0.018866
701.844706	0.018934
702.045714	0.018819
702.246704	0.018760
702.447675	0.018682
702.648629	0.018720
702.849564	0.018697
703.050481	0.018670
703.251380	0.018761
703.452260	0.018856
703.653122	0.018670
703.853966	0.018787
704.054792	0.018885
704.255600	0.018878
704.456389	0.018924
704.657160	0.018918
704.857913	0.019033
705.058648	0.019205
705.259365	0.019224
705.460063	0.019385
705.660743	0.019419
705.861405	0.019365
706.062048	0.019425
706.262674	0.019380
706.463281	0.019256
706.663870	0.019330
706.864441	0.019221
707.064993	0.019289
707.265527	0.019315
707.466043	0.019265
707.666541	0.019240
707.867021	0.019312
708.067482	0.019245
708.267925	0.019258
708.468350	0.019199
708.668757	0.019211
708.869145	0.019047
709.069516	0.018997
709.269868	0.019054
709.470201	0.018930
709.670517	0.018827
709.870814	0.018779
710.071093	0.018702
710.271354	0.018696
710.471597	0.018627
710.671821	0.018559
710.872028	0.018523
711.072216	0.018264
711.272385	0.018381
711.472537	0.018348
711.672670	0.018323
711.872785	0.018417
712.072882	0.018489
712.272961	0.018505
712.473021	0.018460
712.673063	0.018437
712.873087	0.018630
713.073093	0.018649
713.273081	0.018707
713.473050	0.018831
713.673001	0.018804
713.872934	0.018731
714.072849	0.018792
714.272745	0.018846
714.472623	0.018911
714.672483	0.018934
714.872325	0.019013
715.072148	0.019081
715.271954	0.019058
715.471741	0.019204
715.671509	0.019256
715.871260	0.019206
716.070992	0.019264
716.270707	0.019268
716.470403	0.019208
716.670080	0.019087
716.869740	0.019019
717.069381	0.018934
717.269004	0.018710
717.468609	0.018674
717.668195	0.018525
717.867764	0.018531
718.067314	0.018400
718.266846	0.018484
718.466360	0.018515
718.665855	0.018585
718.865332	0.018623
719.064791	0.018557
719.264232	0.018429
719.463655	0.018480
719.663059	0.018345
719.862445	0.018358
720.061813	0.018323
720.261163	0.018231
720.460494	0.018036
720.659807	0.018028
720.859102	0.018250
721.058379	0.018146
721.257638	0.017984
721.456878	0.018055
721.656100	0.018160
721.855304	0.018169
722.054490	0.018278
722.253657	0.018533
722.452806	0.018479
722.651937	0.018395
722.851050	0.018774
723.050145	0.018970
723.249221	0.019042
723.448279	0.018937
723.647319	0.018833
723.846340	0.018758
724.045344	0.018589
724.244329	0.018649
724.443296	0.018676
724.642245	0.018683
724.841175	0.018674
725.040088	0.018715
725.238982	0.018641
725.437857	0.018671
725.636715	0.018625
725.835554	0.018584
726.034376	0.018469
726.233179	0.018336
726.431963	0.018076
726.630730	0.018083
726.829478	0.018054
727.028208	0.018135
727.226920	0.018242
727.425614	0.018290
727.624289	0.018032
727.822946	0.017990
728.021585	0.017882
728.220206	0.017734
728.418808	0.017552
728.617392	0.017448
728.815958	0.017359
729.014506	0.017153
729.213036	0.016841
729.411547	0.016786
729.610040	0.016693
729.808515	0.016691
730.006972	0.016586
730.205410	0.016537
730.403831	0.016452
730.602233	0.016451
730.800616	0.016416
730.998982	0.016488
731.197329	0.016769
731.395658	0.016860
731.593969	0.016935
731.792262	0.017114
731.990536	0.017294
732.188793	0.017519
732.387031	0.017622
732.585250	0.017627
732.783452	0.017655
732.981635	0.017559
733.179800	0.017622
733.377947	0.017543
733.576076	0.017599
733.774186	0.017336
733.972278	0.017113
734.170352	0.016921
734.368408	0.016788
734.566446	0.016699
734.764465	0.016677
734.962466	0.016658
735.160449	0.016714
735.358413	0.016702
735.556360	0.016948
735.754288	0.016952
735.952198	0.016897
736.150090	0.016965
736.347963	0.017111
736.545818	0.017039
736.743655	0.016969
736.941474	0.016957
737.139275	0.016924
737.337057	0.016915
737.534821	0.016846
737.732567	0.017063
737.930295	0.017105
738.128005	0.017137
738.325696	0.017300
738.523369	0.017455
738.721024	0.017491
738.918660	0.017419
739.116279	0.017458
739.313879	0.017484
739.511461	0.017361
739.709024	0.017449
739.906570	0.017398
740.104097	0.017407
740.301606	0.017220
740.499097	0.017238
740.696569	0.017152
740.894024	0.017031
741.091460	0.017027
741.288878	0.017072
741.486277	0.017081
741.683659	0.016927
741.881022	0.016732
742.078367	0.016745
742.275694	0.016613
742.473002	0.016605
742.670293	0.016522
742.867565	0.016530
743.064819	0.016216
743.262054	0.015914
743.459272	0.016000
743.656471	0.015943
743.853652	0.015869
744.050815	0.015727
744.247959	0.015868
744.445085	0.015933
744.642194	0.015887
744.839283	0.015943
745.036355	0.015975
745.233408	0.015969
745.430444	0.016000
745.627461	0.016162
745.824459	0.016129
746.021440	0.015754
746.218402	0.015543
746.415346	0.015522
746.612272	0.015489
746.809180	0.015506
747.006069	0.015445
747.202940	0.015556
747.399793	0.015345
747.596628	0.015441
747.793444	0.015798
747.990243	0.015722
748.187023	0.015737
748.383784	0.015722
748.580528	0.015771
748.777253	0.015713
748.973960	0.015563
749.170649	0.015492
749.367320	0.015570
749.563973	0.015372
749.760607	0.015567
749.957223	0.015447
750.153821	0.015640
750.350400	0.015591
750.546962	0.015624
750.743505	0.015682
750.940030	0.015622
751.136536	0.015394
751.333025	0.015316
751.529495	0.015206
751.725947	0.015279
751.922381	0.015026
752.118796	0.014897
752.315194	0.014822
752.511573	0.014711
752.707934	0.014714
752.904276	0.014895
753.100601	0.014966
753.296907	0.014977
753.493195	0.014966
753.689465	0.014977
753.885716	0.015157
754.081949	0.015120
754.278164	0.015118
754.474361	0.015193
754.670540	0.015158
754.866700	0.015180
755.062843	0.015216
755.258967	0.015205
755.455072	0.015422
755.651160	0.015503
755.847229	0.015469
756.043280	0.015512
756.239313	0.015708
756.435328	0.015735
756.631324	0.015714
756.827302	0.015732
757.023262	0.015702
757.219204	0.015506
757.415127	0.015451
757.611033	0.015623
757.806920	0.015698
758.002788	0.015429
758.198639	0.015408
758.394471	0.015504
758.590286	0.015431
758.786081	0.015432
758.981859	0.015528
759.177619	0.015413
759.373360	0.015412
759.569083	0.015388
759.764788	0.015455
759.960474	0.015518
760.156143	0.015232
760.351793	0.015204
760.547425	0.014968
760.743038	0.014919
760.938634	0.014731
761.134211	0.014589
761.329770	0.014381
761.525311	0.014326
761.720833	0.014015
761.916338	0.014021
762.111824	0.014009
762.307292	0.014038
762.502741	0.013926
762.698173	0.013928
762.893586	0.013823
763.088981	0.013969
763.284358	0.013932
763.479716	0.013973
763.675057	0.014058
763.870379	0.013971
764.065683	0.014060
764.260968	0.014015
764.456236	0.014203
764.651485	0.014249
764.846716	0.014073
765.041929	0.013868
765.237123	0.014026
765.432299	0.014046
765.627457	0.014231
765.822597	0.014467
766.017719	0.014653
766.212822	0.014622
766.407907	0.014608
766.602974	0.014839
766.798023	0.015262
766.993054	0.015298
767.188066	0.015174
767.383060	0.015348
767.578036	0.015306
767.772993	0.015189
767.967933	0.015100
768.162854	0.015286
768.357757	0.015297
768.552642	0.015073
768.747508	0.015037
768.942356	0.015278
769.137186	0.015001
769.331998	0.014902
769.526792	0.014939
769.721567	0.015167
769.916324	0.015221
770.111063	0.015114
770.305784	0.015169
770.500486	0.015180
770.695171	0.015123
770.889837	0.015173
771.084484	0.015166
771.279114	0.015223
771.473725	0.015182
771.668318	0.015015
771.862893	0.014941
772.057450	0.015069
772.251988	0.015062
772.446509	0.014839
772.641011	0.014823
772.835494	0.014817
773.029960	0.014817
773.224407	0.014548
773.418836	0.014455
773.613247	0.014590
773.807640	0.014447
774.002014	0.014435
774.196370	0.014661
774.390708	0.014655
774.585028	0.014673
774.779330	0.014383
774.973613	0.014628
775.167878	0.014592
775.362125	0.014495
775.556354	0.014434
775.750564	0.014298
775.944756	0.014130
776.138930	0.014013
776.333086	0.013965
776.527223	0.014118
776.721343	0.014155
776.915444	0.014387
777.109526	0.014353
777.303591	0.014463
777.497637	0.014534
777.691666	0.014649
777.885676	0.014734
778.079667	0.014751
778.273641	0.014789
778.467596	0.014552
778.661533	0.014470
778.855452	0.014438
779.049352	0.014244
779.243235	0.014305
779.437099	0.014167
779.630945	0.014088
779.824773	0.014002
780.018582	0.013930
780.212373	0.013871
780.406146	0.013822
780.599901	0.013797
780.793638	0.013913
780.987356	0.013829
781.181056	0.014015
781.374738	0.014077
781.568402	0.014072
781.762047	0.014376
781.955674	0.014779
782.149283	0.014939
782.342874	0.014872
782.536447	0.014889
782.730001	0.015060
782.923537	0.014962
783.117055	0.015021
783.310555	0.014992
783.504036	0.014819
783.697499	0.014555
783.890944	0.014536
784.084371	0.014602
784.277780	0.014738
784.471170	0.014735
784.664542	0.014897
784.857896	0.015165
785.051231	0.015288
785.244549	0.015289
785.437848	0.015316
785.631129	0.015408
785.824392	0.015599
786.017636	0.015463
786.210863	0.015495
786.404071	0.015616
786.597260	0.015415
786.790432	0.015635
786.983585	0.015681
787.176721	0.015869
787.369838	0.015812
787.562936	0.015796
787.756017	0.015951
787.949079	0.015879
788.142123	0.015780
788.335149	0.015794
788.528156	0.015729
788.721146	0.015785
788.914117	0.015749
789.107070	0.015836
789.300005	0.015840
789.492921	0.015677
789.685819	0.015668
789.878699	0.015711
790.071561	0.015679
790.264405	0.015614
790.457230	0.015675
790.650037	0.015834
790.842826	0.015842
791.035597	0.015985
791.228349	0.016073
791.421084	0.016213
791.613800	0.016282
791.806497	0.016232
791.999177	0.016279
792.191838	0.016193
792.384481	0.016101
792.577106	0.016012
792.769713	0.015968
792.962301	0.016061
793.154871	0.015927
793.347423	0.015758
793.539957	0.015806
793.732473	0.015708
793.924970	0.015771
794.117449	0.015617
794.309910	0.015736
794.502353	0.015689
794.694777	0.015761
794.887183	0.015785
795.079571	0.015827
795.271941	0.016008
795.464293	0.016194
795.656626	0.016185
795.848941	0.016312
796.041238	0.016430
796.233516	0.016607
796.425777	0.016799
796.618019	0.016931
796.810243	0.017024
797.002449	0.017078
797.194636	0.016999
797.386805	0.017019
797.578956	0.017203
797.771089	0.017126
797.963204	0.017084
798.155300	0.017159
798.347378	0.017231
798.539438	0.017406
798.731480	0.017431
798.923503	0.017633
799.115509	0.017803
799.307496	0.017760
799.499465	0.017715
799.691415	0.017697
799.883348	0.017573
800.075262	0.017471
800.267158	0.017447
800.459035	0.017444
800.650895	0.017384
800.842736	0.017472
801.034559	0.017525
801.226364	0.017609
801.418150	0.017754
801.609919	0.017661
801.801669	0.017646
801.993401	0.017688
802.185114	0.017738
802.376810	0.017797
802.568487	0.017623
802.760146	0.017447
802.951787	0.017487
803.143409	0.017448
803.335014	0.017562
803.526600	0.017525
803.718168	0.017427
803.909717	0.017261
804.101249	0.017271
804.292762	0.017503
804.484257	0.017572
804.675734	0.017575
804.867192	0.017464
805.058632	0.017369
805.250054	0.017652
805.441458	0.017719
805.632844	0.017776
805.824211	0.017965
806.015561	0.017819
806.206891	0.017869
806.398204	0.017918
806.589499	0.017828
806.780775	0.018085
806.972033	0.017945
807.163273	0.017923
807.354495	0.018057
807.545698	0.017860
807.736883	0.017846
807.928050	0.018012
808.119199	0.017925
808.310329	0.018255
808.501441	0.018000
808.692535	0.018087
808.883611	0.017887
809.074669	0.017899
809.265708	0.017756
809.456729	0.017805
809.647732	0.017840
809.838717	0.017802
810.029683	0.017832
810.220632	0.018028
810.411562	0.018093
810.602474	0.018324
810.793367	0.018326
810.984242	0.018499
811.175100	0.018599
811.365938	0.018581
811.556759	0.018728
811.747562	0.018753
811.938346	0.018809
812.129112	0.019023
812.319860	0.019309
812.510589	0.019458
812.701300	0.019661
812.891994	0.019825
813.082668	0.020011
813.273325	0.020395
813.463964	0.020419
813.654584	0.020663
813.845186	0.020671
814.035769	0.020646
814.226335	0.020921
814.416882	0.021106
814.607411	0.021192
814.797922	0.021051
814.988415	0.021082
815.178889	0.021217
815.369345	0.021213
815.559783	0.021521
815.750203	0.021736
815.940605	0.021753
816.130988	0.021728
816.321353	0.021815
816.511700	0.022128
816.702028	0.022188
816.892339	0.022503
817.082631	0.022457
817.272905	0.022451
817.463161	0.022646
817.653398	0.022590
817.843617	0.022570
818.033819	0.022587
818.224001	0.022580
818.414166	0.022406
818.604312	0.022324
818.794440	0.022347
818.984550	0.022492
819.174642	0.022442
819.364716	0.022500
819.554771	0.022581
819.744808	0.022815
819.934827	0.022861
820.124827	0.022841
820.314810	0.022761
820.504774	0.022868
820.694720	0.022789
820.884647	0.022679
821.074557	0.022616
821.264448	0.022752
821.454321	0.022628
821.644176	0.022516
821.834012	0.022520
822.023831	0.022606
822.213631	0.022568
822.403413	0.022212
822.593176	0.022079
822.782922	0.022098
822.972649	0.021983
823.162358	0.021888
823.352049	0.021985
823.541721	0.022189
823.731376	0.022026
823.921012	0.021801
824.110629	0.021833
824.300229	0.021833
824.489811	0.021934
824.679374	0.021870
824.868919	0.021906
825.058445	0.022009
825.247954	0.022039
825.437444	0.022309
825.626916	0.022812
825.816370	0.022990
826.005806	0.023212
826.195223	0.023208
826.384622	0.023406
826.574003	0.023536
826.763366	0.023410
826.952711	0.023539
827.142037	0.023572
827.331345	0.023600
827.520635	0.023692
827.709906	0.023517
827.899160	0.023597
828.088395	0.023773
828.277612	0.024050
828.466810	0.024356
828.655991	0.024411
828.845153	0.024493
829.034297	0.024409
829.223423	0.024432
829.412531	0.024716
829.601620	0.024877
829.790691	0.024891
829.979744	0.024894
830.168779	0.024710
830.357795	0.024760
830.546793	0.024709
830.735773	0.024634
830.924735	0.024619
831.113679	0.024617
831.302604	0.024382
831.491511	0.024396
831.680400	0.024416
831.869271	0.024721
832.058123	0.024770
832.246957	0.024629
832.435773	0.024743
832.624571	0.024692
832.813351	0.024893
833.002112	0.025231
833.190855	0.025327
833.379580	0.025137
833.568287	0.025029
833.756975	0.025037
833.945645	0.025356
834.134297	0.025258
834.322931	0.025647
834.511547	0.025821
834.700144	0.026060
834.888723	0.026127
835.077284	0.026367
835.265826	0.026570
835.454351	0.026712
835.642857	0.026785
835.831345	0.027194
836.019815	0.027305
836.208266	0.027049
836.396699	0.026888
836.585114	0.026664
836.773511	0.026458
836.961890	0.026247
837.150250	0.026109
837.338592	0.025955
837.526916	0.025876
837.715222	0.025706
837.903510	0.025864
838.091779	0.025754
838.280030	0.025903
838.468263	0.026288
838.656477	0.026546
838.844674	0.026817
839.032852	0.027122
839.221012	0.027350
839.409153	0.027633
839.597277	0.027784
839.785382	0.028136
839.973469	0.028530
840.161538	0.028586
840.349589	0.028480
840.537621	0.028439
840.725635	0.028563
840.913631	0.028509
841.101609	0.028618
841.289568	0.028675
841.477509	0.028573
841.665432	0.028510
841.853337	0.028410
842.041224	0.028466
842.229092	0.028425
842.416942	0.028435
842.604774	0.028481
842.792588	0.028394
842.980383	0.028224
843.168160	0.028359
843.355919	0.028283
843.543660	0.028549
843.731382	0.028807
843.919087	0.028972
844.106773	0.029078
844.294441	0.029243
844.482090	0.029304
844.669722	0.029400
844.857335	0.029608
845.044930	0.029755
845.232507	0.029786
845.420065	0.029795
845.607605	0.029915
845.795127	0.029690
845.982631	0.029702
846.170117	0.030007
846.357584	0.030581
846.545033	0.030679
846.732464	0.030861
846.919877	0.030938
847.107272	0.031161
847.294648	0.031286
847.482006	0.031461
847.669346	0.031652
847.856667	0.031638
848.043971	0.031687
848.231256	0.031689
848.418523	0.031813
848.605771	0.031973
848.793002	0.032228
848.980214	0.032311
849.167408	0.032639
849.354584	0.032572
849.541742	0.032553
849.728881	0.032357
849.916002	0.032569
850.103105	0.032436
850.290190	0.032431
850.477256	0.032340
850.664304	0.032479
850.851334	0.032325
851.038346	0.032293
851.225340	0.032463
851.412315	0.032622
851.599272	0.032600
851.786211	0.032733
851.973132	0.032632
852.160034	0.032603
852.346918	0.032630
852.533784	0.032730
852.720632	0.032882
852.907462	0.032937
853.094273	0.032921
853.281066	0.033028
853.467841	0.033114
853.654598	0.033289
853.841336	0.033375
854.028056	0.033238
854.214758	0.033487
854.401442	0.033500
854.588107	0.033430
854.774755	0.033480
854.961384	0.033456
855.147995	0.033580
855.334587	0.033768
855.521162	0.033906
855.707718	0.033960
855.894256	0.033831
856.080775	0.034007
856.267277	0.034054
856.453760	0.034171
856.640225	0.034178
856.826672	0.034471
857.013101	0.034579
857.199511	0.034663
857.385903	0.035054
857.572277	0.035261
857.758633	0.035321
857.944970	0.035467
858.131290	0.035423
858.317591	0.035531
858.503873	0.035526
858.690138	0.035567
858.876384	0.035518
859.062612	0.035229
859.248822	0.035236
859.435014	0.035312
859.621188	0.035519
859.807343	0.035808
859.993480	0.035854
860.179599	0.035672
860.365699	0.035532
860.551781	0.035771
860.737846	0.036058
860.923891	0.036192
861.109919	0.036574
861.295929	0.036564
861.481920	0.036601
861.667893	0.036773
861.853848	0.036756
862.039784	0.036933
862.225702	0.036871
862.411603	0.036945
862.597484	0.037053
862.783348	0.036995
862.969193	0.037069
863.155021	0.037016
863.340830	0.036998
863.526620	0.037507
863.712393	0.037551
863.898147	0.037678
864.083883	0.037684
864.269601	0.037612
864.455301	0.037416
864.640982	0.037503
864.826645	0.037452
865.012290	0.037727
865.197917	0.037771
865.383526	0.037969
865.569116	0.037978
865.754688	0.038177
865.940242	0.038245
866.125777	0.038477
866.311295	0.038397
866.496794	0.038592
866.682275	0.038555
866.867737	0.038225
867.053182	0.038251
867.238608	0.038235
867.424016	0.038068
867.609406	0.038239
867.794778	0.038227
867.980131	0.038336
868.165466	0.038523
868.350783	0.038594
868.536082	0.038612
868.721362	0.038399
868.906625	0.038497
869.091869	0.038499
869.277094	0.038414
869.462302	0.038316
869.647491	0.038305
869.832662	0.038105
870.017815	0.037842
870.202950	0.038037
870.388066	0.038063
870.573165	0.038032
870.758245	0.038307
870.943306	0.038832
871.128350	0.038861
871.313375	0.039035
871.498382	0.039593
871.683371	0.039779
871.868342	0.039857
872.053294	0.040464
872.238229	0.040815
872.423144	0.040647
872.608042	0.040422
872.792922	0.040561
872.977783	0.040659
873.162626	0.040489
873.347451	0.040580
873.532258	0.040565
873.717046	0.040316
873.901816	0.040014
874.086568	0.040150
874.271302	0.040113
874.456017	0.040091
874.640715	0.040088
874.825394	0.040161
875.010055	0.039980
875.194697	0.040004
875.379322	0.040142
875.563928	0.040193
875.748516	0.040410
875.933085	0.040332
876.117637	0.040784
876.302170	0.040915
876.486685	0.040795
876.671182	0.041211
876.855661	0.041308
877.040121	0.041304
877.224563	0.041661
877.408987	0.041843
877.593393	0.042240
877.777780	0.042327
877.962150	0.042436
878.146501	0.042553
878.330833	0.042504
878.515148	0.042803
878.699444	0.042964
878.883722	0.043122
879.067982	0.043288
879.252224	0.043260
879.436447	0.043356
879.620653	0.043646
879.804840	0.043758
879.989008	0.044010
880.173159	0.044162
880.357291	0.044276
880.541405	0.044324
880.725501	0.044247
880.909579	0.044429
881.093638	0.044252
881.277680	0.043833
881.461703	0.043877
881.645707	0.043989
881.829694	0.043673
882.013662	0.043631
882.197612	0.043514
882.381544	0.043227
882.565458	0.043090
882.749353	0.042962
882.933230	0.043023
883.117089	0.042802
883.300930	0.042637
883.484753	0.042889
883.668557	0.043058
883.852343	0.043417
884.036111	0.043808
884.219861	0.044050
884.403592	0.044222
884.587305	0.044712
884.771000	0.045234
884.954677	0.045106
885.138335	0.045319
885.321976	0.045099
885.505598	0.045134
885.689201	0.044901
885.872787	0.045024
886.056354	0.045025
886.239904	0.044961
886.423434	0.044754
886.606947	0.045012
886.790442	0.045091
886.973918	0.045236
887.157376	0.044861
887.340816	0.045155
887.524237	0.044875
887.707641	0.045036
887.891026	0.045027
888.074393	0.044922
888.257741	0.045086
888.441072	0.044970
888.624384	0.045014
888.807678	0.045189
888.990954	0.045230
889.174211	0.045325
889.357451	0.045319
889.540672	0.045269
889.723875	0.045567
889.907059	0.045405
890.090226	0.045451
890.273374	0.045464
890.456504	0.045455
890.639616	0.045211
890.822709	0.045194
891.005785	0.045522
891.188842	0.045328
891.371881	0.045022
891.554901	0.045083
891.737904	0.044890
891.920888	0.044889
892.103854	0.044692
892.286802	0.044565
892.469731	0.044563
892.652643	0.044125
892.835536	0.044089
893.018410	0.044257
893.201267	0.043831
893.384106	0.044072
893.566926	0.043782
893.749728	0.043965
893.932511	0.044248
894.115277	0.044074
894.298024	0.044100
894.480753	0.044155
894.663464	0.043913
894.846157	0.044080
895.028831	0.043782
895.211487	0.043905
895.394125	0.043666
895.576745	0.043280
895.759346	0.043467
895.941930	0.043461
896.124495	0.043410
896.307041	0.043570
896.489570	0.043712
896.672080	0.043653
896.854573	0.043845
897.037046	0.043858
897.219502	0.044073
897.401940	0.043979
897.584359	0.043867
897.766760	0.043918
897.949143	0.043987
898.131507	0.044203
898.313854	0.044261
898.496182	0.043959
898.678492	0.044207
898.860783	0.044287
899.043057	0.044243
899.225312	0.044377
899.407549	0.044280
899.589768	0.044397
899.771968	0.043976
899.954151	0.044111
900.136315	0.044088
900.318461	0.044119
900.500588	0.044118
900.682698	0.044075
900.864789	0.044184
901.046862	0.044247
901.228917	0.043774
901.410953	0.043960
901.592971	0.043594
901.774972	0.043606
901.956953	0.043559
902.138917	0.043469
902.320862	0.043403
902.502790	0.042993
902.684699	0.042836
902.866589	0.042808
903.048462	0.042661
903.230316	0.042910
903.412152	0.042807
903.593970	0.042395
903.775770	0.042433
903.957551	0.042428
904.139314	0.042771
904.321059	0.042539
904.502786	0.042406
904.684494	0.042348
904.866185	0.042161
905.047857	0.042184
905.229510	0.042387
905.411146	0.042476
905.592763	0.042552
905.774363	0.042076
905.955943	0.042395
906.137506	0.042603
906.319051	0.042531
906.500577	0.042307
906.682085	0.042573
906.863575	0.042662
907.045046	0.042506
907.226500	0.042586
907.407935	0.042813
907.589352	0.042698
907.770750	0.042719
907.952131	0.042842
908.133493	0.043180
908.314837	0.042727
908.496163	0.042625
908.677470	0.042635
908.858760	0.042458
909.040031	0.042426
909.221284	0.042507
909.402518	0.042303
909.583735	0.042135
909.764933	0.042004
909.946113	0.042289
910.127275	0.041828
910.308418	0.041476
910.489544	0.041053
910.670651	0.040635
910.851740	0.040579
911.032810	0.040655
911.213863	0.040342
911.394897	0.040062
911.575913	0.039651
911.756911	0.039575
911.937890	0.039439
912.118851	0.039557
912.299794	0.039760
912.480719	0.039168
912.661626	0.039127
912.842514	0.039218
913.023384	0.039310
913.204236	0.039317
913.385070	0.039467
913.565886	0.039646
913.746683	0.039442
913.927462	0.039582
914.108223	0.039542
914.288965	0.039494
914.469690	0.039055
914.650396	0.038878
914.831084	0.038676
915.011754	0.038434
915.192405	0.038042
915.373038	0.037963
915.553653	0.037267
915.734250	0.037008
915.914829	0.036396
916.095389	0.036701
916.275931	0.036482
916.456455	0.036304
916.636961	0.036246
916.817448	0.036089
916.997917	0.035814
917.178368	0.035771
917.358801	0.035969
917.539216	0.035877
917.719612	0.035481
917.899990	0.034984
918.080350	0.034775
918.260692	0.034046
918.441015	0.033650
918.621320	0.033423
918.801607	0.033369
918.981876	0.033094
919.162127	0.033064
919.342359	0.032986
919.522573	0.033099
919.702769	0.033089
919.882947	0.033270
920.063106	0.033595
920.243247	0.033332
920.423370	0.032788
920.603475	0.032322
920.783562	0.032037
920.963630	0.032272
921.143680	0.032260
921.323712	0.031880
921.503725	0.031715
921.683721	0.031234
921.863698	0.030901
922.043657	0.031054
922.223598	0.031354
922.403520	0.031214
922.583424	0.030739
922.763311	0.030772
922.943178	0.030719
923.123028	0.030375
923.302859	0.030050
923.482673	0.030250
923.662467	0.029815
923.842244	0.029461
924.022003	0.029096
924.201743	0.028774
924.381465	0.027999
924.561169	0.027849
924.740854	0.027646
924.920522	0.027304
925.100171	0.027081
925.279802	0.027329
925.459414	0.026882
925.639009	0.026954
925.818585	0.026764
925.998143	0.026513
926.177683	0.026588
926.357205	0.026683
926.536708	0.026637
926.716193	0.026659
926.895660	0.026361
927.075109	0.026359
927.254539	0.025725
927.433951	0.025429
927.613345	0.025555
927.792721	0.024936
927.972079	0.024666
928.151418	0.024654
928.330739	0.023858
928.510042	0.023421
928.689327	0.023311
928.868593	0.023837
929.047841	0.023805
929.227071	0.023438
929.406283	0.023232
929.585476	0.023749
929.764652	0.024233
929.943809	0.025080
930.122948	0.025197
930.302068	0.025323
930.481171	0.024791
930.660255	0.024624
930.839321	0.024997
931.018369	0.024821
931.197398	0.024014
931.376409	0.023367
931.555402	0.022527
931.734377	0.022096
931.913334	0.021869
932.092272	0.021871
932.271192	0.021663
932.450094	0.019908
932.628978	0.020008
932.807844	0.019886
932.986691	0.019279
933.165520	0.019059
933.344331	0.019232
933.523123	0.018516
933.701898	0.017962
933.880654	0.017461
934.059392	0.018401
934.238111	0.018075
934.416813	0.017622
934.595496	0.017558
934.774161	0.017333
934.952808	0.017124
935.131437	0.016839
935.310047	0.016970
935.488639	0.017491
935.667213	0.017476
935.845769	0.017119
936.024306	0.016769
936.202825	0.016672
936.381326	0.016238
936.559809	0.015853
936.738274	0.015658
936.916720	0.015623
937.095148	0.014627
937.273558	0.014181
937.451950	0.014033
937.630323	0.014006
937.808678	0.013806
937.987015	0.014053
938.165334	0.013770
938.343635	0.014151
938.521917	0.013809
938.700181	0.013635
938.878427	0.013296
939.056655	0.013064
939.234864	0.013048
939.413055	0.012438
939.591228	0.011843
939.769383	0.012008
939.947519	0.010662
940.125638	0.010376
940.303738	0.010273
940.481820	0.010077
940.659883	0.009509
940.837929	0.008755
941.015956	0.008344
941.193965	0.008408
941.371955	0.008179
941.549928	0.008401
941.727882	0.008180
941.905818	0.007845
942.083736	0.007636
942.261636	0.007613
942.439517	0.007505
942.617380	0.008034
942.795225	0.007877
942.973052	0.006798
943.150860	0.007199
943.328651	0.007117
943.506423	0.007391
943.684176	0.007159
943.861912	0.006764
944.039629	0.006673
944.217328	0.006196
944.395009	0.005960
944.572672	0.006836
944.750317	0.006781
944.927943	0.006417
945.105551	0.006443
945.283141	0.005771
945.460712	0.006316
945.638265	0.005991
945.815801	0.006187
945.993317	0.006326
946.170816	0.005405
946.348297	0.005401
946.525759	0.004633
946.703203	0.003581
946.880629	0.004659
947.058036	0.005243
947.235425	0.007140
947.412797	0.008001
947.590149	0.007763
947.767484	0.007932
947.944800	0.007756
948.122099	0.008081
948.299379	0.008365
948.476640	0.007821
948.653884	0.006220
948.831109	0.005128
949.008316	0.003363
949.185505	0.003618
949.362676	0.003008
949.539828	0.002555
949.716962	0.002798
949.894078	0.003903
950.071176	0.003726
950.248256	0.003584
950.425317	0.002406
950.602360	0.004376
950.779385	0.003540
950.956391	0.004388
951.133380	0.004435
951.310350	0.004495
951.487302	0.003613
951.664235	0.005230
951.841151	0.005386
952.018048	0.005936
952.194927	0.004338
952.371788	0.004646
952.548631	0.003877
952.725455	0.004355
952.902261	0.004537
953.079049	0.004186
953.255819	0.003561
953.432570	0.003224
953.609303	0.003212
953.786018	0.003525
953.962715	0.003524
954.139394	0.002942
954.316054	0.003249
954.492696	0.002848
954.669320	0.003457
954.845926	0.003259
955.022513	0.004582
955.199083	0.004407
955.375634	0.003964
955.552166	0.004155
955.728681	0.005477
955.905177	0.005739
956.081655	0.005190
956.258115	0.005035
956.434557	0.005878
956.610980	0.005314
956.787385	0.006491
956.963772	0.006446
957.140141	0.006498
957.316492	0.007104
957.492824	0.008003
957.669138	0.008593
957.845434	0.008581
958.021712	0.007646
958.197971	0.007476
958.374212	0.006882
958.550435	0.007766
958.726640	0.008922
958.902826	0.010892
959.078995	0.005978
959.255145	0.005930
959.431277	0.006251
959.607390	0.006014
959.783486	0.006567
959.959563	0.006727
960.135622	0.004771
960.311662	0.003908
960.487685	0.000802
960.663689	0.004737
960.839675	0.006348
961.015643	0.006710
961.191593	0.004915
961.367524	0.005355
961.543437	0.005387
961.719332	0.007616
961.895209	0.008038
962.071067	0.009923
962.246907	0.011322
962.422730	0.010813
962.598533	0.008577
962.774319	0.011361
962.950086	0.013108
963.125835	0.014424
963.301566	0.014362
963.477279	0.014292
963.652973	0.013447
963.828650	0.011491
964.004308	0.011244
964.179947	0.013679
964.355569	0.011987
964.531172	0.011258
964.706757	0.011298
964.882324	0.010712
965.057873	0.011344
965.233403	0.013793
965.408916	0.013915
965.584410	0.015604
965.759885	0.014314
965.935343	0.016240
966.110782	0.015903
966.286203	0.015308
966.461606	0.014350
966.636991	0.013882
966.812357	0.011486
966.987705	0.011733
967.163035	0.010825
967.338347	0.013590
967.513641	0.011731
967.688916	0.011296
967.864173	0.011556
968.039412	0.012121
968.214632	0.010932
968.389835	0.010525
968.565019	0.010976
968.740185	0.009875
968.915333	0.008559
969.090462	0.008980
969.265573	0.009604
969.440667	0.009912
969.615741	0.012783
969.790798	0.014649
969.965836	0.014684
970.140856	0.014892
970.315858	0.014540
970.490842	0.013785
970.665808	0.014733
970.840755	0.014385
971.015684	0.013851
971.190595	0.011719
971.365487	0.009318
971.540362	0.009226
971.715218	0.008421
971.890056	0.010850
972.064875	0.011159
972.239677	0.011472
972.414460	0.011712
972.589225	0.012978
972.763972	0.015993
972.938700	0.017379
973.113411	0.016974
973.288103	0.015957
973.462777	0.015523
973.637432	0.015648
973.812070	0.013959
973.986689	0.013165
974.161290	0.012333
974.335873	0.011727
974.510437	0.013487
974.684984	0.016082
974.859512	0.017020
975.034022	0.015545
975.208513	0.016227
975.382987	0.016340
975.557442	0.017479
975.731879	0.016490
975.906298	0.016531
976.080698	0.016713
976.255080	0.015778
976.429445	0.015607
976.603790	0.016687
976.778118	0.016950
976.952427	0.018607
977.126719	0.017033
977.300992	0.017677
977.475246	0.015321
977.649483	0.013361
977.823701	0.014338
977.997901	0.014736
978.172083	0.015303
978.346247	0.014685
978.520392	0.014816
978.694519	0.014609
978.868628	0.013525
979.042719	0.014867
979.216791	0.014755
979.390845	0.011525
979.564882	0.011207
979.738899	0.010873
979.912899	0.009903
980.086880	0.009142
980.260843	0.010626
980.434788	0.011361
980.608715	0.011246
980.782623	0.010751
980.956514	0.012023
981.130386	0.013069
981.304240	0.012706
981.478075	0.012521
981.651892	0.011514
981.825692	0.010641
981.999472	0.011895
982.173235	0.010676
982.346980	0.011695
982.520706	0.011305
982.694414	0.010957
982.868104	0.010425
983.041775	0.010459
983.215428	0.012061
983.389064	0.011086
983.562680	0.010932
983.736279	0.013453
983.909860	0.013308
984.083422	0.013331
984.256966	0.012568
984.430491	0.013559
984.603999	0.016110
984.777488	0.015843
984.950959	0.017166
985.124412	0.015686
985.297847	0.013584
985.471263	0.013221
985.644661	0.014541
985.818041	0.015180
985.991403	0.013608
986.164747	0.012364
986.338072	0.012726
986.511379	0.011900
986.684668	0.013908
986.857938	0.013983
987.031191	0.014287
987.204425	0.014634
987.377641	0.014003
987.550839	0.014740
987.724018	0.015207
987.897179	0.013388
988.070322	0.014903
988.243447	0.013347
988.416554	0.013017
988.589642	0.014014
988.762712	0.013393
988.935764	0.013516
989.108798	0.013615
989.281813	0.012802
989.454811	0.014431
989.627790	0.012022
989.800751	0.013384
989.973693	0.011549
990.146617	0.011904
990.319524	0.012299
990.492412	0.012435
990.665281	0.013979
990.838133	0.012533
991.010966	0.011867
991.183781	0.014455
991.356578	0.013723
991.529356	0.015350
991.702117	0.013195
991.874859	0.013311
992.047583	0.013317
992.220288	0.011194
992.392976	0.012759
992.565645	0.013734
992.738296	0.013033
992.910929	0.012549
993.083543	0.013902
993.256139	0.014544
993.428718	0.013762
993.601277	0.013583
993.773819	0.013864
993.946342	0.013459
994.118848	0.011838
994.291335	0.012291
994.463803	0.013045
994.636254	0.012197
994.808686	0.012104
994.981100	0.012041
995.153496	0.011783
995.325874	0.014008
995.498233	0.013442
995.670574	0.014157
995.842897	0.012451
996.015202	0.012213
996.187488	0.011688
996.359757	0.010434
996.532007	0.011118
996.704239	0.013704
996.876452	0.012975
997.048648	0.013556
997.220825	0.012707
997.392984	0.014091
997.565124	0.014252
997.737247	0.015635
997.909351	0.017845
998.081437	0.015930
998.253505	0.015035
998.425554	0.012727
998.597586	0.013665
998.769599	0.015154
998.941594	0.015051
999.113571	0.013823
999.285529	0.013051
999.457469	0.012251
999.629391	0.012746
999.801295	0.012093
999.973181	0.012980
1000.145048	0.012801
1000.316897	0.012608
1000.488728	0.011982
1000.660541	0.012620
1000.832335	0.013204
1001.004111	0.014028
1001.175869	0.014952
1001.347609	0.015691
1001.519331	0.014748
1001.691034	0.013615
1001.862719	0.012659
1002.034386	0.013103
1002.206035	0.012846
1002.377665	0.012105
1002.549277	0.010513
1002.720871	0.009670
1002.892447	0.009576
1003.064004	0.011163
1003.235544	0.011291
1003.407065	0.012105
1003.578568	0.011739
1003.750052	0.012506
1003.921519	0.009989
1004.092967	0.010769
1004.264397	0.012353
1004.435809	0.011879
1004.607202	0.011260
1004.778577	0.012118
1004.949934	0.011362
1005.121273	0.010860
1005.292594	0.008974
1005.463896	0.011186
1005.635180	0.012688
1005.806446	0.010317
1005.977694	0.009400
1006.148923	0.010298
1006.320135	0.009763
1006.491328	0.009213
1006.662503	0.010297
1006.833659	0.012446
1007.004798	0.011640
1007.175918	0.011138
1007.347020	0.012285
1007.518103	0.011776
1007.689169	0.011291
1007.860216	0.011372
1008.031245	0.012875
1008.202256	0.012584
1008.373248	0.010880
1008.544223	0.011193
1008.715179	0.009779
1008.886117	0.010637
1009.057036	0.010957
1009.227938	0.010676
1009.398821	0.010159
1009.569686	0.009532
1009.740533	0.008487
1009.911361	0.009644
1010.082172	0.009304
1010.252964	0.007824
1010.423738	0.006692
1010.594493	0.006438
1010.765231	0.007274
1010.935950	0.006776
1011.106651	0.005514
1011.277334	0.007237
1011.447998	0.007217
1011.618645	0.009699
1011.789273	0.011390
1011.959882	0.011446
1012.130474	0.011455
1012.301048	0.010453
1012.471603	0.011011
1012.642140	0.011434
1012.812658	0.010143
1012.983159	0.010036
1013.153641	0.006627
1013.324105	0.005991
1013.494551	0.006360
1013.664979	0.007424
1013.835388	0.007145
1014.005779	0.008140
1014.176152	0.007952
1014.346507	0.007028
1014.516843	0.005830
1014.687162	0.007803
1014.857462	0.008094
1015.027744	0.007309
1015.198007	0.006747
1015.368252	0.007306
1015.538480	0.007463
1015.708689	0.009143
1015.878879	0.009924
1016.049052	0.010332
1016.219206	0.010851
1016.389342	0.010587
1016.559460	0.011130
1016.729559	0.010815
1016.899641	0.010300
1017.069704	0.008462
1017.239749	0.008180
1017.409775	0.008488
1017.579784	0.008951
1017.749774	0.008126
1017.919746	0.008897
1018.089700	0.008451
1018.259635	0.008219
1018.429553	0.008113
1018.599452	0.009464
1018.769333	0.008993
1018.939195	0.008722
1019.109040	0.008194
1019.278866	0.008765
1019.448674	0.008826
1019.618464	0.008574
1019.788235	0.009345
1019.957989	0.007889
1020.127724	0.008554
1020.297441	0.009151
1020.467139	0.007042
1020.636820	0.007586
1020.806482	0.007204
1020.976126	0.008167
1021.145752	0.009557
1021.315359	0.009292
1021.484948	0.011584
1021.654519	0.009615
1021.824072	0.008239
1021.993607	0.010655
1022.163123	0.010370
1022.332621	0.009782
1022.502101	0.007594
1022.671563	0.006856
1022.841007	0.006069
1023.010432	0.006415
1023.179839	0.007092
1023.349228	0.005919
1023.518598	0.005663
1023.687951	0.005227
1023.857285	0.005977
1024.026601	0.007753
1024.195899	0.007977
1024.365178	0.008124
1024.534439	0.006362
1024.703682	0.005497
1024.872907	0.006823
1025.042114	0.007226
1025.211302	0.007996
1025.380472	0.008516
1025.549624	0.006843
1025.718758	0.006841
1025.887873	0.007474
1026.056970	0.007718
1026.226049	0.008262
1026.395110	0.009717
1026.564153	0.009953
1026.733177	0.009047
1026.902183	0.009236
1027.071171	0.009734
1027.240141	0.009982
1027.409092	0.009936
1027.578026	0.009904
1027.746940	0.011309
1027.915837	0.010145
1028.084716	0.009153
1028.253576	0.009888
1028.422418	0.009661
1028.591242	0.009446
1028.760048	0.009750
1028.928835	0.009224
1029.097604	0.008611
1029.266355	0.007596
1029.435088	0.007720
1029.603803	0.007889
1029.772499	0.008915
1029.941177	0.005968
1030.109837	0.006538
1030.278478	0.006408
1030.447102	0.007183
1030.615707	0.008916
1030.784294	0.007428
1030.952863	0.007773
1031.121413	0.008629
1031.289945	0.006448
1031.458460	0.008969
1031.626955	0.008943
1031.795433	0.008811
1031.963892	0.007233
1032.132334	0.006894
1032.300756	0.008262
1032.469161	0.007481
1032.637548	0.007423
1032.805916	0.008821
1032.974266	0.009145
1033.142598	0.007512
1033.310911	0.007221
1033.479207	0.008358
1033.647484	0.008855
1033.815743	0.008475
1033.983983	0.010777
1034.152206	0.010424
1034.320410	0.009659
1034.488596	0.008505
1034.656764	0.009127
1034.824914	0.008511
1034.993045	0.008926
1035.161158	0.007519
1035.329253	0.007290
1035.497330	0.006271
1035.665388	0.005378
1035.833428	0.005764
1036.001450	0.005834
1036.169454	0.006476
1036.337440	0.008073
1036.505407	0.008114
1036.673356	0.009980
1036.841287	0.009824
1037.009200	0.009442
1037.177094	0.011399
1037.344970	0.010583
1037.512828	0.011735
1037.680668	0.012958
1037.848489	0.012962
1038.016293	0.013534
1038.184078	0.012926
1038.351845	0.014255
1038.519593	0.014577
1038.687324	0.015347
1038.855036	0.016672
1039.022730	0.014351
1039.190406	0.012770
1039.358063	0.012579
1039.525702	0.012094
1039.693323	0.011259
1039.860926	0.011627
1040.028511	0.011217
1040.196077	0.008409
1040.363625	0.007291
1040.531155	0.009574
1040.698667	0.010700
1040.866161	0.009312
1041.033636	0.009676
1041.201093	0.009883
1041.368532	0.008779
1041.535952	0.007826
1041.703355	0.008638
1041.870739	0.008406
1042.038105	0.006846
1042.205452	0.006231
1042.372782	0.006581
1042.540093	0.004340
1042.707386	0.003332
1042.874661	0.003798
1043.041918	0.005166
1043.209156	0.003018
1043.376376	0.003639
1043.543578	0.003965
1043.710762	0.003997
1043.877927	0.003032
1044.045074	0.004936
1044.212203	0.006214
1044.379314	0.005253
1044.546407	0.002918
1044.713481	0.004838
1044.880537	0.005340
1045.047575	0.005284
1045.214595	0.004168
1045.381596	0.003929
1045.548579	0.002564
1045.715544	0.001692
1045.882491	0.003184
1046.049420	0.005472
1046.216330	0.006034
1046.383222	0.006337
1046.550096	0.007192
1046.716951	0.008654
1046.883789	0.010989
1047.050608	0.012259
1047.217409	0.013152
1047.384192	0.011638
1047.550956	0.011855
1047.717703	0.009976
1047.884431	0.009082
1048.051140	0.007737
1048.217832	0.006440
1048.384505	0.004701
1048.551161	0.004015
1048.717798	0.003566
1048.884416	0.004115
1049.051017	0.003071
1049.217599	0.004956
1049.384163	0.004567
1049.550709	0.005942
1049.717237	0.006467
1049.883746	0.007997
1050.050237	0.009237
1050.216710	0.008367
1050.383165	0.007579
1050.549601	0.007367
1050.716019	0.006831
1050.882420	0.007806
1051.048801	0.007709
1051.215165	0.008272
1051.381510	0.006099
1051.547837	0.004979
1051.714146	0.006412
1051.880437	0.006896
1052.046709	0.007227
1052.212964	0.007637
1052.379200	0.006947
1052.545417	0.007793
1052.711617	0.008150
1052.877798	0.007765
1053.043961	0.009027
1053.210106	0.007920
1053.376233	0.007849
1053.542341	0.007050
1053.708432	0.005403
1053.874504	0.005033
1054.040557	0.002658
1054.206593	0.000577
1054.372610	0.002510
1054.538609	0.001135
1054.704590	0.001692
1054.870553	0.003621
1055.036497	0.007155
1055.202424	0.007972
1055.368331	0.009938
1055.534221	0.011610
1055.700093	0.012478
1055.865946	0.011310
1056.031781	0.010966
1056.197598	0.010648
1056.363397	0.010524
1056.529177	0.007957
1056.694939	0.008689
1056.860683	0.008425
1057.026409	0.007277
1057.192116	0.009181
1057.357806	0.010180
1057.523477	0.011153
1057.689130	0.010760
1057.854764	0.009136
1058.020381	0.009928
1058.185979	0.011258
1058.351559	0.009796
1058.517120	0.010295
1058.682664	0.008767
1058.848189	0.007722
1059.013696	0.005621
1059.179185	0.004778
1059.344656	0.005118
1059.510108	0.003618
1059.675542	0.000182
1059.840958	0.000179
1060.006356	0.000363
1060.171735	-0.000167
1060.337096	0.000572
1060.502439	0.001356
1060.667764	0.001664
1060.833071	0.001446
1060.998359	0.000907
1061.163629	0.001204
1061.328881	0.000763
1061.494115	-0.000028
1061.659330	0.000388
1061.824527	0.001018
1061.989706	0.000895
1062.154867	0.003219
1062.320010	0.002374
1062.485134	0.001406
1062.650240	0.001241
1062.815328	0.003217
1062.980398	0.001975
1063.145449	0.003263
1063.310482	0.003072
1063.475497	0.003769
1063.640494	0.001877
1063.805473	0.001182
1063.970433	0.003544
1064.135375	0.005105
1064.300299	0.005492
1064.465204	0.007831
1064.630092	0.007978
1064.794961	0.007201
1064.959812	0.008567
1065.124645	0.010126
1065.289459	0.012951
1065.454256	0.011956
1065.619034	0.011683
1065.783793	0.010057
1065.948535	0.008965
1066.113258	0.008832
1066.277964	0.009063
1066.442651	0.008500
1066.607319	0.007180
1066.771970	0.005641
1066.936602	0.005993
1067.101216	0.006763
1067.265812	0.006718
1067.430389	0.008215
1067.594949	0.005571
1067.759490	0.005017
1067.924013	0.002723
1068.088518	0.004027
1068.253004	0.003517
1068.417472	0.002327
1068.581922	0.002128
1068.746354	0.002332
1068.910768	0.001171
1069.075163	0.001578
1069.239540	0.002491
1069.403899	0.005375
1069.568240	0.004157
1069.732562	0.003678
1069.896866	0.003368
1070.061152	0.002179
1070.225420	0.001439
1070.389670	0.000988
1070.553901	0.002492
1070.718114	0.002397
1070.882309	0.001108
1071.046486	0.001771
1071.210644	0.001045
1071.374784	0.001963
1071.538906	0.002385
1071.703010	0.002735
1071.867096	0.002171
1072.031163	0.001490
1072.195212	0.001091
1072.359243	0.001103
1072.523256	0.000995
1072.687250	0.003371
1072.851226	0.003517
1073.015184	0.002455
1073.179124	0.001498
1073.343045	0.003537
1073.506949	0.003767
1073.670834	0.000247
1073.834701	-0.001206
1073.998549	-0.001675
1074.162380	-0.004161
1074.326192	-0.003644
1074.489986	-0.003026
1074.653761	-0.000761
1074.817519	-0.004631
1074.981258	-0.004492
1075.144979	-0.002326
1075.308682	-0.000314
1075.472367	0.001139
1075.636033	0.005136
1075.799681	0.005402
1075.963311	0.004750
1076.126923	0.002515
1076.290516	0.007742
1076.454092	0.007270
1076.617649	0.008731
1076.781187	0.008454
1076.944708	0.006992
1077.108210	0.005956
1077.271695	0.004092
1077.435160	0.004025
1077.598608	0.004887
1077.762038	0.001381
1077.925449	0.002172
1078.088842	0.001741
1078.252217	0.000119
1078.415573	0.000384
1078.578912	-0.002633
1078.742232	0.000516
1078.905534	0.002041
1079.068817	0.003806
1079.232083	0.002171
1079.395330	0.001310
1079.558559	0.001330
1079.721770	0.002218
1079.884962	0.002924
1080.048136	0.005572
1080.211293	0.003603
1080.374430	0.003787
1080.537550	0.001960
1080.700651	0.007001
1080.863735	0.006534
1081.026800	0.008610
1081.189846	0.008312
1081.352875	0.006036
1081.515885	0.005342
1081.678877	0.004068
1081.841851	0.004576
1082.004807	0.003697
1082.167744	-0.000406
1082.330663	-0.000347
1082.493564	-0.002421
1082.656447	0.000054
1082.819312	0.001443
1082.982158	0.003095
1083.144986	0.003790
1083.307796	0.003987
1083.470587	0.003853
1083.633361	0.004987
1083.796116	0.004187
1083.958853	0.003393
1084.121571	-0.000468
1084.284272	0.000203
1084.446954	-0.002786
1084.609618	-0.003119
1084.772264	-0.005590
1084.934892	-0.003338
1085.097501	-0.003152
1085.260092	-0.000787
1085.422665	0.001006
1085.585220	0.000628
1085.747756	-0.000199
1085.910274	0.000850
1086.072774	0.001402
1086.235256	0.001479
1086.397720	0.000080
1086.560165	-0.000175
1086.722592	-0.003464
1086.885001	-0.004982
1087.047392	-0.002582
1087.209764	-0.003364
1087.372119	-0.003564
1087.534455	-0.002158
1087.696772	-0.001369
1087.859072	-0.001663
1088.021353	-0.001403
1088.183616	0.001706
1088.345861	0.002476
1088.508088	0.001491
1088.670296	0.003283
1088.832486	0.002219
1088.994658	0.000859
1089.156812	0.002123
1089.318948	0.001891
1089.481065	0.002438
1089.643164	-0.000050
1089.805245	0.000194
1089.967308	0.000301
1090.129352	-0.000200
1090.291378	0.001213
1090.453386	0.001517
1090.615376	-0.000200
1090.777347	0.001581
1090.939301	0.002812
1091.101236	0.002913
1091.263153	0.002942
1091.425051	0.003130
1091.586932	0.002297
1091.748794	0.002607
1091.910638	0.003854
1092.072463	0.004924
1092.234271	0.001436
1092.396060	-0.001549
1092.557831	-0.001123
1092.719584	-0.001872
1092.881319	-0.002857
1093.043035	-0.003683
1093.204733	-0.006916
1093.366413	-0.009631
1093.528075	-0.013432
1093.689718	-0.011074
1093.851343	-0.010300
1094.012950	-0.011315
1094.174539	-0.010785
1094.336110	-0.010579
1094.497662	-0.010094
1094.659196	-0.007262
1094.820712	-0.008534
1094.982210	-0.005775
1095.143689	-0.007901
1095.305151	-0.008273
1095.466594	-0.008112
1095.628018	-0.008633
1095.789425	-0.007413
1095.950813	-0.005983
1096.112183	-0.007158
1096.273535	-0.006302
1096.434869	-0.006269
1096.596184	-0.004993
1096.757482	-0.003476
1096.918761	-0.004597
1097.080021	-0.004307
1097.241264	-0.003654
1097.402488	-0.004962
1097.563694	-0.005048
1097.724882	-0.002763
1097.886052	-0.002905
1098.047203	-0.006149
1098.208336	-0.007346
1098.369451	-0.005041
1098.530548	-0.005533
1098.691627	-0.004155
1098.852687	-0.003545
1099.013729	-0.003714
1099.174753	-0.003899
1099.335758	-0.003864
1099.496746	-0.001146
1099.657715	-0.000072
1099.818666	0.000817
1099.979599	-0.000836
1100.140513	-0.000004
1100.301409	-0.000488
1100.462287	-0.001206
1100.623147	-0.002756
1100.783989	-0.000768
1100.944812	-0.000339
1101.105617	-0.001638
1101.266404	-0.004139
1101.427173	-0.002425
1101.587923	-0.008696
1101.748656	-0.010428
1101.909370	-0.011176
1102.070066	-0.011929
1102.230743	-0.014063
1102.391403	-0.015521
1102.552044	-0.016561
1102.712667	-0.015787
1102.873271	-0.017430
1103.033858	-0.015480
1103.194426	-0.013369
1103.354976	-0.012137
1103.515508	-0.013562
1103.676021	-0.014113
1103.836517	-0.014787
1103.996994	-0.010945
1104.157453	-0.006772
1104.317893	-0.004748
1104.478316	-0.004805
1104.638720	-0.004571
1104.799106	-0.004336
1104.959474	-0.001951
1105.119823	-0.002910
1105.280155	-0.000934
1105.440468	-0.005021
1105.600763	-0.010738
1105.761039	-0.011312
1105.921298	-0.013966
1106.081538	-0.015202
1106.241760	-0.015137
1106.401964	-0.016893
1106.562149	-0.015463
1106.722316	-0.018190
1106.882465	-0.014592
1107.042596	-0.011735
1107.202709	-0.011818
1107.362803	-0.006484
1107.522879	-0.006535
1107.682937	-0.006676
1107.842977	-0.006999
1108.002999	-0.005750
1108.163002	-0.001838
1108.322987	-0.003983
1108.482954	-0.003660
1108.642902	-0.006386
1108.802833	-0.009660
1108.962745	-0.007790
1109.122639	-0.003069
1109.282515	-0.000899
1109.442372	-0.000005
1109.602211	-0.000482
1109.762032	-0.004655
1109.921835	-0.006745
1110.081620	-0.007243
1110.241386	-0.007005
1110.401134	-0.005723
1110.560864	-0.009066
1110.720576	-0.006176
1110.880269	-0.004351
1111.039945	-0.008266
1111.199602	-0.001601
1111.359240	0.003083
1111.518861	0.002650
1111.678463	0.004438
1111.838047	0.003017
1111.997613	0.000178
1112.157161	-0.006003
1112.316690	-0.006168
1112.476202	-0.002596
1112.635695	-0.006155
1112.795169	-0.008746
1112.954626	-0.005726
1113.114064	-0.003099
1113.273484	-0.004128
1113.432886	-0.002282
1113.592270	-0.001841
1113.751635	-0.005624
1113.910983	-0.005536
1114.070312	-0.005552
1114.229622	-0.005576
1114.388915	-0.004984
1114.548189	-0.012709
1114.707445	-0.013263
1114.866683	-0.014564
1115.025903	-0.012308
1115.185104	-0.012099
1115.344287	-0.013480
1115.503452	-0.010573
1115.662599	-0.009476
1115.821727	-0.008848
1115.980838	-0.006896
1116.139930	-0.007757
1116.299004	-0.008805
1116.458059	-0.003696
1116.617097	-0.005167
1116.776116	-0.002421
1116.935117	-0.000237
1117.094099	-0.001034
1117.253064	-0.002893
1117.412010	-0.001903
1117.570938	-0.000421
1117.729848	0.006018
1117.888740	0.003426
1118.047613	0.004841
1118.206468	0.006015
1118.365305	0.002816
1118.524124	-0.000189
1118.682924	0.000951
1118.841707	0.000681
1119.000471	0.000441
1119.159216	-0.003309
1119.317944	-0.007413
1119.476653	-0.006185
1119.635344	-0.005362
1119.794017	-0.009571
1119.952672	-0.008758
1120.111308	-0.008317
1120.269927	-0.003403
1120.428527	-0.004367
1120.587108	-0.001889
1120.745672	0.001408
1120.904217	-0.002175
1121.062744	-0.007473
1121.221253	-0.005783
1121.379744	-0.007153
1121.538216	-0.006795
1121.696671	-0.007566
1121.855107	-0.010877
1122.013524	-0.016012
1122.171924	-0.019587
1122.330305	-0.018116
1122.488668	-0.014842
1122.647013	-0.012587
1122.805340	-0.010130
1122.963648	-0.011010
1123.121938	-0.012365
1123.280210	-0.005162
1123.438464	-0.008281
1123.596700	-0.006511
1123.754917	-0.004189
1123.913116	-0.004452
1124.071297	-0.005079
1124.229459	-0.001576
1124.387604	-0.000708
1124.545730	-0.004600
1124.703838	-0.010228
1124.861928	-0.005387
1125.019999	-0.005453
1125.178052	-0.002556
1125.336088	-0.003859
1125.494104	-0.003494
1125.652103	-0.007031
1125.810083	-0.006963
1125.968045	-0.003998
1126.125989	-0.002697
1126.283915	-0.002281
1126.441823	0.000677
1126.599712	-0.003672
1126.757583	-0.004852
1126.915436	-0.008067
1127.073270	-0.008340
1127.231087	-0.008443
1127.388885	-0.007712
1127.546665	-0.005053
1127.704426	-0.003885
1127.862170	-0.004183
1128.019895	-0.006611
1128.177602	-0.005258
1128.335291	0.000486
1128.492961	0.000167
1128.650614	-0.004245
1128.808248	-0.001448
1128.965864	-0.001719
1129.123461	-0.004320
1129.281041	-0.004652
1129.438602	-0.000291
1129.596145	-0.001376
1129.753670	-0.002228
1129.911176	0.000390
1130.068665	0.000687
1130.226135	-0.005619
1130.383587	-0.010430
1130.541020	-0.008218
1130.698436	-0.013542
1130.855833	-0.018467
1131.013212	-0.023422
1131.170573	-0.024012
1131.327915	-0.025674
1131.485239	-0.023154
1131.642545	-0.024869
1131.799833	-0.025642
1131.957103	-0.027221
1132.114354	-0.018834
1132.271588	-0.017591
1132.428803	-0.012406
1132.585999	-0.013330
1132.743178	-0.014431
1132.900338	-0.009102
1133.057480	-0.004100
1133.214604	-0.004905
1133.371710	-0.001931
1133.528797	-0.004202
1133.685866	-0.001929
1133.842917	-0.003247
1133.999950	-0.004703
1134.156964	-0.008766
1134.313960	-0.020170
1134.470938	-0.020587
1134.627898	-0.016753
1134.784840	-0.014104
1134.941763	-0.014250
1135.098668	-0.015230
1135.255555	-0.019538
1135.412424	-0.020431
1135.569274	-0.017766
1135.726107	-0.009647
1135.882921	-0.015849
1136.039716	-0.011688
1136.196494	-0.014049
1136.353253	-0.016009
1136.509995	-0.016549
1136.666717	-0.007639
1136.823422	-0.009246
1136.980109	-0.007644
1137.136777	-0.007883
1137.293427	0.001558
1137.450059	-0.003601
1137.606672	-0.009428
1137.763267	-0.014596
1137.919844	-0.010631
1138.076403	-0.014609
1138.232944	-0.010986
1138.389466	-0.009813
1138.545971	-0.008546
1138.702457	-0.013239
1138.858924	-0.013878
1139.015374	-0.013514
1139.171805	-0.011877
1139.328218	-0.015245
1139.484613	-0.017807
1139.640990	-0.023516
1139.797348	-0.023767
1139.953688	-0.026769
1140.110010	-0.029496
1140.266314	-0.028599
1140.422600	-0.024916
1140.578867	-0.018172
1140.735116	-0.015039
1140.891347	-0.009535
1141.047559	-0.001301
1141.203754	-0.002388
1141.359930	-0.000759
1141.516088	-0.001217
1141.672228	0.001998
1141.828349	0.005092
1141.984452	-0.001188
1142.140537	-0.005357
1142.296604	-0.012388
1142.452653	-0.019076
1142.608683	-0.019593
1142.764695	-0.018429
1142.920689	-0.010714
1143.076665	-0.011311
1143.232622	-0.016786
1143.388562	-0.015860
1143.544483	-0.011659
1143.700385	-0.003977
1143.856270	0.003744
1144.012136	-0.000519
1144.167985	-0.001627
1144.323814	-0.005081
1144.479626	-0.003412
1144.635420	0.004527
1144.791195	0.012548
1144.946952	0.012470
1145.102691	0.011604
1145.258411	0.004516
1145.414113	0.009958
1145.569798	0.012789
1145.725463	0.009579
1145.881111	0.009186
1146.036741	0.004531
1146.192352	0.000440
1146.347945	-0.000755
1146.503519	-0.005626
1146.659076	0.003693
1146.814614	-0.000722
1146.970134	-0.005106
1147.125636	0.000330
1147.281120	0.000072
1147.436585	0.005977
1147.592032	0.000088
1147.747461	-0.000820
1147.902872	-0.001811
1148.058265	-0.006457
1148.213639	0.000345
1148.368995	0.004999
1148.524333	0.002330
1148.679653	0.000991
1148.834954	-0.011205
1148.990237	-0.007098
1149.145502	-0.005109
1149.300749	0.006847
1149.455977	0.013965
1149.611188	0.010611
1149.766380	0.009886
1149.921553	0.003711
1150.076709	0.000731
1150.231846	0.008305
1150.386966	0.010932
1150.542066	0.005386
1150.697149	0.000161
1150.852214	-0.010963
1151.007260	-0.008800
1151.162288	-0.019283
1151.317298	-0.012862
1151.472289	-0.013056
1151.627263	-0.015087
1151.782218	-0.009475
1151.937155	-0.007311
1152.092073	-0.010204
1152.246974	-0.002536
1152.401856	-0.005338
1152.556720	0.005687
1152.711566	0.008359
1152.866393	-0.000773
1153.021203	0.002052
1153.175994	-0.009985
1153.330767	-0.010069
1153.485521	-0.009174
1153.640258	-0.011826
1153.794976	-0.010200
1153.949676	-0.014530
1154.104358	-0.013358
1154.259021	-0.005018
1154.413667	-0.012684
1154.568294	-0.016388
1154.722903	-0.014365
1154.877493	-0.024096
1155.032066	-0.029981
1155.186620	-0.040729
1155.341156	-0.040468
1155.495674	-0.048185
1155.650173	-0.048540
1155.804654	-0.047240
1155.959118	-0.042991
1156.113562	-0.050887
1156.267989	-0.037787
1156.422397	-0.038077
1156.576788	-0.022316
1156.731160	-0.025139
1156.885513	-0.024906
1157.039849	-0.012168
1157.194166	-0.006006
1157.348465	-0.001222
1157.502746	0.011898
1157.657009	0.004553
1157.811253	0.010900
1157.965479	0.006746
1158.119687	0.015461
1158.273877	0.020412
1158.428048	0.010063
1158.582201	0.002860
1158.736337	-0.001467
1158.890453	-0.007870
1159.044552	-0.001645
1159.198632	-0.010457
1159.352694	-0.014570
1159.506738	-0.017510
1159.660764	-0.013662
1159.814771	-0.013076
1159.968761	-0.009523
1160.122732	-0.009308
1160.276685	-0.004120
1160.430619	-0.006297
1160.584535	-0.003057
1160.738434	-0.000066
1160.892313	-0.005042
1161.046175	-0.009787
1161.200019	-0.020104
1161.353844	-0.014953
1161.507651	-0.014217
1161.661440	-0.013933
1161.815210	-0.013326
1161.968962	-0.002963
1162.122697	0.001812
1162.276412	0.017086
1162.430110	0.017978
1162.583789	0.026239
1162.737451	0.022835
1162.891094	0.024006
1163.044718	0.007623
1163.198325	0.004097
1163.351913	-0.004557
1163.505483	0.000214
1163.659035	-0.015631
1163.812569	-0.013352
1163.966084	-0.009696
1164.119581	-0.006512
1164.273060	-0.006022
1164.426521	0.008753
1164.579964	0.019500
1164.733388	0.017180
1164.886794	0.001553
1165.040182	0.000403
1165.193551	0.001908
1165.346903	0.003005
1165.500236	-0.000676
1165.653551	-0.015417
1165.806848	-0.018312
1165.960126	-0.029826
1166.113386	-0.033072
1166.266628	-0.028596
1166.419852	-0.030402
1166.573058	-0.044550
1166.726245	-0.042921
1166.879414	-0.046190
1167.032565	-0.041183
1167.185698	-0.038690
1167.338812	-0.040364
1167.491909	-0.042471
1167.644987	-0.034999
1167.798046	-0.024140
1167.951088	-0.018577
1168.104111	-0.034469
1168.257117	-0.038403
1168.410103	-0.030156
1168.563072	-0.032065
1168.716023	-0.024369
1168.868955	-0.023466
1169.021869	-0.031203
1169.174765	-0.042692
1169.327642	-0.044118
1169.480501	-0.028786
1169.633343	-0.022140
1169.786165	-0.030928
1169.938970	-0.033303
1170.091757	-0.033736
1170.244525	-0.014935
1170.397275	-0.015796
1170.550007	-0.012805
1170.702720	-0.004939
1170.855415	-0.011040
1171.008092	-0.011458
1171.160751	-0.000322
1171.313392	0.002359
1171.466014	-0.040437
1171.618619	0.003978
1171.771205	0.003978
1171.923772	0.003978
