sample name	sample
index	165
start time	 02-18-2021  10:07:08 AM
880	-0.008789
Peak Time (s)	92.035
Peak Height 	-0.008789
calc peak height	90,93
Baseline Time (s)	9.535
Baseline Value 	-0.00423
subtract baseline	10,4
Abs	-0.014026
Peak Time (s)	91.035
Peak Height 	-0.01403
calc peak height	90,93
Baseline Time (s)	9.034
Baseline Value 	0.005766
subtract baseline	10,3
PK_550	0.000926
Peak Time (s)	91.535
Peak Height 	9.255E-4
calc peak height	90,93
Baseline Time (s)	11.036
Baseline Value 	3.3094E-4
subtract baseline	10,2
PK_880	-0.010017
Peak Time (s)	91.535
Peak Height 	-0.01002
calc peak height	90,93
Baseline Time (s)	10.035
Baseline Value 	0.002765
subtract baseline	10,1


Time (s)	A880-A510	A880-A775	A880-A975	A880	I510	I775	I975	I880	
0.035000	-0.001848	0.000039	-0.004494	0.000523	6653.939201	44010.407758	3756.283848	23022.627529
0.536000	-0.001714	-0.000582	-0.013724	0.005350	6611.330835	43495.591865	3721.005433	22797.704323
1.060500	-0.003018	-0.000592	-0.005094	0.002547	6624.882832	43758.689965	3749.610500	22927.984758
1.563000	0.000169	-0.000152	0.003424	-0.001034	6686.687074	44140.497804	3780.712684	23095.690874
2.036500	0.000272	0.000216	-0.000571	-0.000745	6684.970723	44147.977003	3769.600868	23082.083393
2.565500	-0.002525	-0.000291	-0.005153	0.003700	6618.910140	43678.253737	3746.542008	22874.299262
3.036000	0.000026	-0.000488	-0.000097	-0.002389	6697.855558	44237.754277	3775.081044	23159.481117
3.534000	-0.001870	-0.000471	-0.003857	-0.000120	6659.606351	44023.051721	3759.551521	23052.760554
4.034500	0.000305	-0.000229	-0.006895	-0.000354	6681.675674	44068.240095	3752.402729	23063.718868
4.537500	0.001350	0.000646	-0.001408	0.000395	6684.404750	44080.238094	3764.508467	23028.589748
5.035500	-0.001545	0.000045	-0.003902	0.000224	6659.428974	44039.366572	3758.555412	23036.597752
5.535000	0.002085	0.000181	-0.002919	0.000975	6685.831517	43980.851394	3759.149184	23001.436172
6.036500	-0.000832	0.000147	-0.001341	0.000265	6665.574842	44045.151264	3765.017943	23034.702702
6.539000	-0.000106	0.000154	0.001939	0.000090	6673.838801	44062.499698	3773.933763	23042.915555
7.036000	-0.000038	0.000286	-0.000901	0.000419	6671.443726	44043.796182	3765.752575	23027.490784
7.536500	-0.000165	-0.000961	-0.000309	-0.000623	6679.838025	44024.256015	3769.962272	23076.360974
8.034500	0.000862	0.000700	-0.002658	0.000319	6680.617246	44092.763880	3761.498949	23032.187630
8.534000	-0.001278	0.000106	0.001138	0.000276	6661.393800	44040.176692	3771.377312	23034.168801
9.034500	-0.000101	0.000600	0.000000	0.000475	6670.345624	44068.316085	3767.927225	23024.850485
9.535000	0.000364	-0.000044	0.002138	0.000000	6678.976094	44052.241378	3774.681117	23047.124890
10.035000	0.000000	-0.000852	-0.003096	-0.000607	6681.201451	44033.095696	3762.747877	23075.599602
10.535500	0.000070	0.000279	-0.001724	0.000182	6674.605966	44065.726918	3764.247679	23038.608403
11.036000	-0.001707	0.000000	-0.002520	-0.000147	6661.341922	44070.452501	3763.047294	23054.042470
11.536000	0.001673	-0.000240	0.000584	-0.000188	6692.742179	44051.409322	3771.144255	23055.934961
12.036500	-0.000240	0.000650	0.000776	0.000353	6670.197398	44084.696085	3770.244680	23030.582169
12.537000	-0.000236	0.000397	-0.003338	-0.000288	6676.105908	44121.644434	3761.312025	23060.647845
13.049500	0.001457	0.000282	0.001284	-0.002029	6707.754294	44276.969177	3777.734271	23142.533273
13.534500	0.002652	0.000765	0.002133	-0.001329	6712.333223	44256.212411	3778.120755	23109.577777
14.035000	0.001401	0.000456	-0.001347	-0.001268	6700.205869	44220.912774	3768.949104	23106.713108
14.539000	-0.002208	-0.000294	-0.004274	0.001982	6637.362913	43840.311388	3753.125948	22954.342425
15.041000	0.000640	-0.000016	0.002300	-0.001319	6693.653863	44180.632797	3778.528652	23109.099493
15.578000	0.001806	0.000442	-0.000198	-0.001566	6706.701005	44248.014281	3772.688003	23120.729056
16.036000	0.000354	-0.000193	-0.005821	-0.000108	6679.874982	44048.353637	3754.508093	23052.188243
16.536000	0.000412	0.000579	-0.000702	-0.001455	6692.805520	44250.478715	3771.098949	23115.508773
17.036500	0.001160	0.000532	0.001628	-0.001471	6699.850375	44247.485414	3777.176270	23116.234920
17.533500	0.001737	0.001195	0.001740	-0.002413	6713.900261	44401.336074	3779.918681	23160.653869
18.034500	-0.001687	0.000233	0.003768	-0.000916	6668.564993	44165.938112	3781.303374	23090.138201
18.535000	0.000677	-0.000657	-0.000969	0.000304	6679.056630	43965.033440	3765.873846	23032.868899
19.035000	-0.001317	0.000244	-0.005087	0.000937	6655.007313	43990.561492	3753.719651	23003.241134
19.535000	-0.000982	0.000596	0.000786	0.001230	6655.389191	43996.135372	3768.009266	22989.527766
20.035500	0.000589	0.000423	-0.000224	0.001056	6671.347232	43996.199441	3765.855961	22997.663074
20.560500	-0.003023	0.000856	0.001467	0.001111	6637.869152	44032.100383	3770.070081	22995.055923
21.038500	-0.000274	-0.000077	-0.000922	0.000414	6669.321535	44009.781588	3765.711710	23027.732630
21.539500	-0.002606	-0.000425	-0.002439	0.000404	6648.101642	43977.578909	3761.841108	23028.174665
22.039000	0.000680	0.000150	-0.004579	0.000983	6672.854684	43977.193799	3754.892390	23001.060767
22.534000	-0.000354	0.000379	-0.005177	0.001112	6662.197429	43986.728883	3753.042478	22995.024158
23.037500	-0.000165	0.000569	0.000271	0.001150	6663.584472	44001.177694	3766.887686	22993.262966
23.542000	-0.000536	0.000137	-0.002477	0.001035	6661.238411	43971.034691	3760.128389	22998.644303
24.037500	-0.002857	0.000148	-0.001096	0.000988	6640.508650	43976.525569	3763.788622	23000.849090
24.541500	0.000386	0.000188	-0.001421	0.000776	6672.058615	44000.505929	3763.498691	23010.773322
25.038500	-0.000666	-0.000211	-0.002687	0.000263	6667.115003	44011.276545	3761.565067	23034.777635
25.539000	0.000972	0.000817	0.000156	0.000663	6678.462790	44071.025204	3767.842998	23016.032679
26.036500	-0.001891	-0.000013	-0.001354	0.000530	6653.482519	44004.752195	3764.302521	23022.296729
26.542500	-0.000450	0.000571	0.000233	0.001125	6661.201947	44003.696364	3766.853120	22994.415446
27.036500	-0.000561	0.000541	-0.000353	0.000942	6661.858388	44018.272891	3765.815630	23002.973565
27.537000	-0.002213	0.000907	-0.000230	0.000988	6646.356684	44048.629890	3766.013140	23000.814200
28.042000	-0.001077	-0.000022	-0.001770	-0.000208	6667.660867	44074.068421	3765.128455	23056.866652
28.538000	0.001095	0.000415	0.000520	-0.001419	6698.769170	44231.382143	3774.165254	23113.793818
29.056000	-0.001439	0.000512	0.000165	-0.001615	6677.243142	44259.334290	3773.754275	23123.006223
29.548500	0.001436	0.000945	-0.001166	-0.001371	6701.480953	44277.468490	3769.681343	23111.553984
30.039000	0.000618	0.000076	0.003062	-0.000347	6684.491066	44096.634556	3777.981324	23063.400104
30.536000	0.000657	0.000830	0.001225	-0.000916	6690.099765	44223.029360	3774.690361	23090.158296
31.036000	0.001419	0.001296	0.005422	-0.001046	6698.315897	44279.864424	3785.964071	23096.228052
31.588000	0.002021	0.001935	0.004286	-0.000274	6696.743967	44267.139107	3780.978654	23059.962307
32.037500	-0.003414	-0.000142	0.001203	0.002620	6620.648626	43794.396575	3765.502993	22924.615516
32.537000	0.000533	0.000947	-0.001474	-0.000093	6681.375369	44155.537390	3765.595035	23051.488537
33.106000	0.000975	0.000620	0.001336	-0.000927	6693.124649	44203.894061	3775.004856	23090.640398
33.543000	0.000939	0.000773	0.000343	-0.001209	6695.386469	44245.529760	3773.163585	23103.910135
34.035000	0.000279	0.000458	-0.002345	0.000271	6675.703328	44074.178267	3762.423604	23034.415130
34.535500	-0.000686	0.000127	0.003054	-0.001334	6681.582143	44195.741652	3780.531078	23109.803652
35.035500	0.001365	0.001269	0.002799	-0.000911	6696.570889	44264.444581	3778.765548	23089.895149
35.536500	-0.001710	0.000237	-0.003759	0.001157	6649.402665	43968.930867	3756.538027	22992.902210
36.037500	-0.001901	0.000846	0.006690	0.002260	6637.623888	43921.980915	3780.639956	22941.362934
36.533500	0.002348	0.000956	-0.002867	0.002013	6678.704496	43955.925635	3756.632014	22952.913477
37.034000	-0.001426	0.000136	0.001129	0.001418	6649.619470	43934.547423	3768.407920	22980.718475
37.534500	-0.001419	0.000039	-0.000152	0.001408	6649.772883	43926.301869	3765.134842	22981.196576
38.034500	-0.001086	0.000378	-0.001902	0.001639	6650.705715	43936.612520	3760.053630	22970.398110
38.536000	-0.001262	0.000193	0.000094	0.001382	6651.436861	43943.417501	3765.834926	22982.394867
39.035500	0.000886	-0.000187	-0.000748	0.001267	6672.138162	43918.265586	3763.966010	22987.798431
39.538500	-0.000664	0.000191	-0.004689	0.001612	6654.794363	43921.331820	3753.012733	22971.632588
40.036000	0.001066	0.001208	0.001701	0.002457	6662.882823	43937.664322	3767.202801	22932.194179
40.552500	-0.001362	0.000604	0.000921	0.001836	6646.390380	43939.348319	3766.793991	22961.184025
41.036500	-0.001207	0.000689	-0.001090	0.001765	6648.454468	43954.093835	3761.810450	22964.501797
41.539500	-0.001001	-0.000094	0.002938	0.001324	6654.350675	43921.650682	3773.322640	22985.092288
42.037500	-0.000731	0.000406	-0.003132	0.001203	6657.921276	43980.616413	3758.024298	22990.778459
42.536500	-0.000358	0.000201	0.002610	0.001477	6658.823128	43935.123020	3772.079496	22977.960771
43.035000	-0.000843	0.000588	0.000266	0.001829	6651.184384	43938.471530	3765.127250	22961.502728
43.535500	-0.000041	-0.000065	0.003125	0.001121	6664.990439	43943.701664	3774.335051	22994.630315
44.035500	-0.003280	0.000060	0.000571	0.001853	6628.798896	43886.097094	3765.850332	22960.386137
44.536000	-0.000007	-0.000014	-0.001041	0.001516	6661.677454	43911.019630	3762.573502	22976.136896
45.036000	-0.000968	0.000495	-0.001356	0.002219	6646.491569	43892.666471	3759.967079	22943.321696
45.536500	0.001272	0.000383	0.000057	-0.002729	6712.518010	44353.680610	3776.362127	23175.534457
46.036500	-0.001959	0.000599	-0.005922	0.005100	6611.376191	43630.171415	3741.072436	22809.271257
46.544000	-0.000121	0.000718	-0.000350	-0.000995	6683.662140	44219.826237	3770.818622	23093.871391
47.034500	0.002748	0.000976	0.004044	-0.000461	6705.192318	44193.502915	3780.838000	23068.782610
47.534500	0.001374	0.000941	0.000973	-0.001027	6697.726800	44244.180867	3774.324310	23095.347082
48.036000	-0.001743	-0.000052	-0.005177	0.004343	6620.170204	43640.153481	3744.858295	22844.407931
48.538500	0.001731	0.000606	0.001702	-0.001030	6701.050506	44212.417132	3776.222610	23095.486927
49.037000	0.001690	0.000476	0.000940	-0.000750	6698.086147	44173.275420	3773.522802	23082.346473
49.536500	-0.002389	0.000700	0.001776	0.002791	6628.377986	43857.925621	3766.537644	22916.642975
50.036500	-0.002618	0.000531	-0.000351	0.004508	6610.776324	43679.626726	3756.686186	22836.760439
50.536500	0.001545	0.001085	0.000443	-0.000425	6693.745565	44200.320384	3771.392787	23067.049303
51.034000	0.001136	0.000203	0.003240	-0.001499	6699.890495	44218.756600	3781.447247	23117.581328
51.534500	0.001228	0.000987	0.002017	-0.000743	6693.758510	44221.443180	3776.296388	23082.008248
52.037000	-0.001356	0.000406	0.002033	0.003903	6627.660575	43724.881513	3764.338584	22864.849190
52.535000	0.001083	0.000496	0.001095	-0.001285	6697.413995	44226.301918	3775.309522	23107.474992
53.035000	-0.014853	-0.012402	-0.003462	0.120062	5611.388205	33188.905762	3491.767889	18126.575137
53.547000	-0.041940	-0.025168	-0.010745	-0.027781	6547.792454	44305.952802	3813.979653	24392.895691
54.035500	-0.035202	-0.018822	-0.018669	-0.091331	7225.490245	51568.057365	3973.221810	27815.186617
54.536000	-0.019582	-0.021906	0.000484	-0.117156	7679.612913	54194.117844	4117.753440	29355.442003
55.036000	-0.035580	-0.018793	-0.009448	-0.047462	6786.178898	46877.414830	3871.650826	25399.731335
55.536500	-0.037898	-0.016043	-0.022808	-0.098627	7273.773568	52714.643043	3982.884088	28241.097684
56.034000	-0.034533	-0.015560	-0.019974	-0.068026	6995.151204	49364.671596	3900.247786	26501.626001
56.534500	-0.013996	-0.017695	-0.020573	-0.160040	8268.734196	60090.414970	4193.479033	32124.500598
57.035000	-0.013283	-0.033362	-0.023062	-0.198498	8795.264258	63181.558386	4326.868138	34851.241259
57.536000	-0.009743	-0.013982	-0.012193	-0.143701	8115.619626	58446.354563	4165.425356	31037.103654
58.038500	-0.014273	-0.009397	-0.019385	-0.108669	7643.230160	54673.030178	4024.895360	28839.096744
58.536000	-0.009208	-0.008086	-0.018452	-0.101934	7624.218084	54028.267245	4006.632962	28436.491155
59.036000	-0.007532	-0.006828	-0.017988	-0.093899	7552.510659	53233.884957	3983.168304	27964.286781
59.536000	-0.006162	-0.006122	-0.016633	-0.082593	7442.536634	52015.742594	3952.935709	27314.414399
60.036500	-0.005665	-0.005063	-0.019268	-0.070025	7312.260035	50726.488459	3908.068638	26611.570783
60.534000	-0.008368	-0.005116	-0.018370	-0.057346	7151.418033	49339.338772	3874.362734	25922.838412
61.034000	-0.008235	-0.004762	-0.015068	-0.053174	7110.110887	48931.320075	3871.909359	25700.564592
61.537500	-0.011346	-0.001013	-0.018856	-0.025337	6806.115158	46437.862343	3785.999531	24271.017018
62.039500	-0.007709	-0.000905	-0.018128	-0.034373	6927.987331	47368.140389	3811.859192	24725.042492
62.535000	-0.008024	0.000605	-0.017019	-0.024772	6832.333704	46543.974904	3789.336628	24242.952967
63.037000	-0.006046	-0.002192	-0.020378	-0.022123	6825.936298	45997.825833	3773.663817	24111.803201
63.538500	-0.012435	-0.005690	-0.019199	-0.075697	7300.581112	51287.305189	3924.823954	26926.214452
64.036500	-0.016217	-0.003692	-0.023268	-0.041819	6917.635964	47849.788118	3818.052517	25106.371486
64.550500	-0.007196	0.001036	-0.021340	-0.045242	7040.528223	48704.804642	3832.549799	25283.879525
65.037000	-0.012832	-0.002694	-0.019617	-0.055758	7089.675107	49428.975640	3866.387405	25837.995554
65.537000	-0.007413	-0.001517	-0.017305	-0.055549	7142.772987	49533.273869	3872.297117	25826.848721
66.097500	-0.012166	-0.002458	-0.017173	-0.048703	7025.429346	48701.258559	3853.526516	25464.757829
66.535000	-0.011049	-0.003144	-0.022874	-0.050466	7054.276322	48815.498571	3842.651528	25557.483287
67.035000	-0.013361	-0.002581	-0.017439	-0.046394	6990.587148	48444.450269	3846.402598	25343.898978
67.540500	-0.015106	-0.002697	-0.017507	-0.043369	6943.611518	48114.930201	3837.901957	25186.540296
68.037000	-0.020130	-0.003292	-0.023076	-0.034149	6806.380927	47100.481538	3798.089571	24713.698308
68.535500	-0.013780	-0.002393	-0.023585	-0.037881	6903.057160	47576.291859	3806.652131	24903.898839
69.036000	-0.014391	-0.002703	-0.020330	-0.036189	6880.765647	47369.964920	3810.824542	24817.426296
69.536500	-0.013077	-0.001762	-0.020936	-0.034558	6877.708697	47299.092468	3804.854204	24734.428851
70.036500	-0.014314	-0.002375	-0.023990	-0.027061	6794.345472	46474.302900	3777.104368	24356.931113
70.534000	-0.012750	-0.001468	-0.023391	-0.032672	6862.712738	47135.949725	3793.355388	24638.862698
71.044500	-0.012075	-0.000828	-0.017483	-0.031431	6857.268075	47074.533110	3805.721313	24576.168111
71.534500	-0.012136	-0.000961	-0.016346	-0.030932	6851.899155	47010.013658	3807.422911	24551.011531
72.035500	-0.015566	-0.001578	-0.021183	-0.024466	6758.153485	46293.564749	3777.656585	24227.758517
72.535500	-0.012857	-0.001242	-0.017890	-0.030065	6836.707143	46893.059803	3801.008166	24507.386231
73.036000	-0.011536	-0.001176	-0.020122	-0.029347	6842.480817	46826.885029	3793.208124	24471.365585
73.536000	-0.010998	-0.000845	-0.016209	-0.028805	6842.438227	46805.408050	3802.128093	24444.176456
74.037000	-0.016818	-0.000695	-0.020797	-0.021907	6722.598718	46125.632170	3772.018714	24101.102436
74.540500	-0.012600	-0.001820	-0.021238	-0.028768	6826.797833	46702.775709	3788.748708	24442.310071
75.036000	-0.013145	-0.000758	-0.018878	-0.027763	6812.064974	46708.548883	3792.310978	24391.988280
75.535000	-0.010938	-0.000783	-0.018067	-0.027180	6827.507190	46646.983566	3792.913459	24362.852272
76.034500	-0.015712	-0.000629	-0.016885	-0.020211	6717.130339	45963.046182	3777.768010	24017.620185
76.535000	-0.010497	-0.000028	-0.020983	-0.025632	6816.970294	46566.822217	3781.210885	24285.678468
77.040500	-0.009986	0.000048	-0.017237	-0.025354	6819.189228	46546.544239	3790.291338	24271.859517
77.538000	-0.011451	-0.000492	-0.019823	-0.024826	6800.272214	46438.788607	3782.134266	24245.594556
78.037000	-0.015929	-0.001406	-0.022234	-0.018834	6702.377469	45749.084751	3760.413742	23950.042852
78.538500	-0.011527	-0.000258	-0.018967	-0.023457	6786.623228	46324.676899	3780.796085	24177.723664
79.047000	-0.013142	-0.001160	-0.017028	-0.023822	6774.853047	46270.790477	3786.818098	24195.792376
79.537000	-0.014088	-0.001114	-0.021013	-0.023213	6760.257939	46214.454250	3774.842651	24165.657244
80.037000	-0.015575	-0.000994	-0.025673	-0.016748	6686.408756	45583.545048	3746.359663	23848.102041
80.534500	-0.011031	-0.000082	-0.023575	-0.021216	6770.200945	46117.896989	3763.082375	24067.051436
81.035000	-0.010990	-0.000110	-0.016891	-0.020932	6767.914421	46086.645202	3779.627166	24053.066626
81.534500	-0.012127	0.000603	-0.021273	-0.020080	6749.286347	46072.777884	3766.078208	24011.147826
82.038000	-0.012521	-0.000418	-0.022051	-0.019561	6740.763340	45919.369006	3762.747430	23985.689086
82.535500	-0.012406	-0.000886	-0.023741	-0.020212	6747.908642	45937.522286	3760.084133	24017.642838
83.035500	-0.011459	-0.000112	-0.017888	-0.018640	6742.076024	45858.251423	3771.094731	23940.556233
83.536000	-0.011245	-0.000337	-0.022948	-0.018511	6742.865225	45823.012394	3757.762236	23934.219718
84.036500	-0.014618	-0.000182	-0.018492	-0.013461	6665.025371	45339.961353	3756.247183	23688.465351
84.542500	-0.011677	-0.000194	-0.019774	-0.017523	6729.638187	45739.326112	3763.359981	23885.923617
85.034500	-0.010834	0.000298	-0.017383	-0.016455	6727.551866	45682.267639	3766.759736	23833.812719
85.540000	-0.011243	0.000044	-0.016286	-0.016814	6727.084610	45692.692659	3770.516968	23851.333722
86.035000	-0.014829	-0.000585	-0.017682	-0.011824	6648.149321	45140.182202	3754.138358	23609.373096
86.535000	-0.012550	0.000444	-0.017135	-0.015360	6701.502840	45588.538169	3764.583295	23780.563271
87.035500	-0.011727	-0.001402	-0.019712	-0.016749	6721.986943	45543.372757	3761.533670	23848.165693
87.535500	-0.010907	0.000141	-0.022150	-0.015058	6713.912514	45528.806941	3751.004506	23765.890059
88.036000	-0.015313	-0.000392	-0.024826	-0.009404	6621.773014	44923.205698	3730.060031	23493.068634
88.539000	-0.012178	0.000250	-0.018504	-0.013970	6692.112666	45432.334862	3757.513549	23713.088481
89.036500	-0.010990	-0.000156	-0.018954	-0.014524	6708.197834	45446.969159	3757.780569	23739.951835
89.540000	-0.012089	-0.000553	-0.015880	-0.014487	6697.693597	45404.297771	3765.564756	23738.151721
90.035000	-0.013841	0.000097	-0.020342	-0.009732	6638.100186	45002.695026	3742.108361	23508.777937
90.534500	-0.012566	0.000489	-0.019914	-0.013106	6680.591158	45370.949723	3751.723749	23671.290577
91.035000	-0.012255	0.000602	-0.014026	-0.012883	6681.395824	45360.093688	3766.207587	23660.491569
91.535500	-0.010017	0.000926	-0.015070	-0.012202	6695.736874	45325.070853	3761.777468	23627.623341
92.035500	-0.014170	-0.000682	-0.018270	-0.008789	6626.552986	44835.362306	3744.956258	23463.593317
92.535500	-0.011479	0.000820	-0.020415	-0.011803	6678.601776	45275.646779	3747.151410	23608.387292
93.048500	-0.013000	0.000015	-0.015333	-0.012345	6669.625693	45249.870142	3761.469565	23634.534878
93.536500	-0.012257	0.000180	-0.021488	-0.011766	6671.125487	45209.303401	3744.347614	23606.607151
94.058000	-0.013234	0.000085	-0.023431	-0.007942	6627.359529	44827.556592	3729.893986	23423.090893
94.538000	-0.011017	0.000764	-0.018073	-0.010897	6674.525974	45181.476206	3750.791434	23564.762108
95.034500	-0.013199	0.000695	-0.019503	-0.010760	6653.307761	45161.340447	3746.821577	23558.170809
95.535500	-0.011702	0.001108	-0.015407	-0.009915	6659.266223	45119.124555	3755.072705	23517.596798
96.042000	-0.013892	0.000101	-0.018980	-0.006189	6605.566301	44659.570436	3736.632850	23339.543425
96.535500	-0.012768	0.000245	-0.022316	-0.010214	6652.254571	45064.018166	3738.359322	23531.915539
97.059500	-0.012907	0.000235	-0.017579	-0.009913	6648.251893	45033.728605	3749.546637	23517.484655
97.536500	-0.013653	0.000888	-0.018058	-0.009172	6634.717732	45025.190134	3746.458160	23481.940513
98.036000	-0.012904	0.000524	-0.019842	-0.006299	6615.476549	44710.968913	3734.747770	23344.735463
98.536500	-0.013624	0.000199	-0.015934	-0.009011	6633.516070	44942.474281	3751.430512	23474.226489
99.034000	-0.013859	-0.000453	-0.020156	-0.009266	6633.710442	44903.935741	3741.405040	23486.463740
99.536500	-0.012223	0.000279	-0.018714	-0.008937	6645.594213	44943.086883	3744.209818	23470.706304
