sample name	sample
index	1270
start time	 04-29-2021  02:10:38 PM
880	-0.020345
Peak Time (s)	92.538
Peak Height 	-0.02035
calc peak height	90,93
Baseline Time (s)	10.04
Baseline Value 	-0.002954
subtract baseline	10,4
Abs	-0.010784
Peak Time (s)	90.537
Peak Height 	-0.01078
calc peak height	90,93
Baseline Time (s)	9.537
Baseline Value 	-0.001014
subtract baseline	10,3
PK_550	-0.000701
Peak Time (s)	92.538
Peak Height 	-7.0109E-4
calc peak height	90,93
Baseline Time (s)	10.04
Baseline Value 	7.6664E-4
subtract baseline	10,2
PK_880	-0.012553
Peak Time (s)	91.04
Peak Height 	-0.01255
calc peak height	90,93
Baseline Time (s)	11.537
Baseline Value 	0.001245
subtract baseline	10,1


Time (s)	A880-A510	A880-A775	A880-A975	A880	I510	I775	I975	I880	
0.036500	-0.004342	-0.001255	-0.000665	0.007505	6123.520941	43162.084574	3892.319950	22414.527273
0.536500	-0.003845	-0.001281	-0.004463	0.003606	6155.643450	43521.922090	3892.540166	22589.951269
1.039500	-0.003162	-0.000880	0.005542	0.003389	6162.260428	43579.691859	3915.159799	22599.782368
1.538000	0.000186	-0.000720	0.001700	0.001297	6202.543089	43790.702396	3911.247953	22694.597199
2.038000	-0.005717	-0.000970	0.000830	0.006616	6119.989323	43270.812394	3897.546016	22454.370447
2.535000	-0.000888	-0.000638	-0.000422	0.000459	6200.783951	43877.142256	3908.389606	22732.708181
3.037000	-0.001025	-0.000804	0.000221	-0.002375	6220.932965	44129.095800	3916.149298	22862.125121
3.535500	-0.001530	-0.000265	0.006236	0.000746	6193.868349	43885.245849	3922.658410	22719.621633
4.036000	-0.000749	-0.000258	0.002550	0.001550	6193.700607	43810.309617	3912.579592	22683.090847
4.536000	0.001529	-0.000415	0.000682	0.000463	6218.805239	43897.801536	3910.839298	22732.522044
5.037000	-0.000409	-0.000579	-0.001146	0.000199	6206.296946	43907.267625	3907.358639	22744.554019
5.539500	-0.002341	-0.000424	0.001144	-0.000330	6195.837078	43971.705137	3913.639428	22768.639551
6.037000	-0.000442	-0.001080	0.000495	0.000808	6201.505710	43802.817235	3909.653717	22716.832859
6.537500	-0.000470	-0.000420	0.004068	-0.000307	6209.614081	43969.913400	3920.147403	22767.620331
7.035000	-0.001918	-0.000343	0.005702	-0.000247	6198.370101	43971.528677	3923.693663	22764.871051
7.535000	-0.000641	-0.000044	-0.004179	0.000378	6203.227150	43940.765950	3900.252519	22736.400067
8.035500	-0.000869	-0.000354	0.002134	-0.000082	6204.957088	43954.893462	3915.300298	22757.335130
8.535500	-0.001425	-0.000305	-0.000805	0.000102	6199.440436	43942.214123	3908.331682	22748.960054
9.036500	0.000409	0.000050	-0.001948	-0.000219	6215.520269	44005.906792	3906.505352	22763.563596
9.536500	-0.000115	0.000245	0.000000	0.000353	6207.339069	43970.378949	3909.563998	22737.521921
10.039500	0.000927	0.000000	-0.000442	0.000000	6217.759361	43980.556409	3909.367004	22753.602245
10.534000	-0.002146	-0.000181	0.002209	-0.000476	6198.372720	44008.369927	3916.349597	22775.285535
11.037000	0.000396	0.000772	0.008698	0.000244	6211.967011	44030.434276	3929.366994	22742.478699
11.537500	0.000000	-0.000625	0.000767	-0.000349	6213.435726	43954.526534	3912.838952	22769.497601
12.035000	0.001388	0.000277	0.002626	0.000379	6218.383637	43971.019072	3915.370995	22736.359580
12.535000	-0.000936	-0.000209	0.006206	-0.000535	6207.840812	44011.391079	3925.485341	22778.017517
13.035000	0.000014	-0.000775	0.003697	-0.001773	6224.207905	44074.859607	3922.612053	22834.564046
13.536000	-0.004406	-0.000151	-0.002540	0.004584	6144.356930	43536.063976	3894.609312	22545.800547
14.036000	-0.001283	-0.000093	0.000160	0.001783	6187.999069	43803.890351	3906.740304	22672.493533
14.539500	-0.000534	-0.000166	0.002838	0.001516	6195.551300	43822.174808	3913.299593	22684.639186
15.040000	-0.001019	-0.001118	0.001818	-0.001327	6213.129937	44000.236470	3917.381769	22814.155179
15.537000	-0.005455	-0.000389	0.002400	0.004650	6136.205177	43507.710312	3905.348467	22542.804755
16.034500	-0.001076	-0.000158	0.003110	-0.000767	6208.517016	44038.088322	3919.024617	22788.575848
16.537500	0.000338	0.000590	0.005305	-0.000211	6214.935075	44056.234626	3922.715508	22763.205093
17.035000	0.001733	0.001265	0.008869	-0.002593	6243.309608	44346.278885	3936.224495	22872.116488
17.537000	-0.002609	0.000117	0.004017	0.001398	6181.027734	43859.800231	3916.201662	22689.986170
18.035500	-0.002851	-0.000237	0.002552	0.000476	6186.073523	43913.338183	3914.985492	22731.923377
18.536000	0.001967	-0.000012	0.003005	0.000877	6218.986716	43896.787197	3915.103906	22713.684169
19.039500	-0.000463	-0.000888	-0.000288	0.000035	6207.115447	43893.503818	3909.631321	22752.011073
19.537000	-0.003315	-0.001040	0.000516	0.001642	6174.005459	43728.171356	3907.843912	22678.896557
20.037000	-0.002421	0.000058	0.002735	0.000580	6188.492215	43931.369166	3915.163551	22727.210797
20.537000	-0.001893	-0.000462	0.002148	0.000118	6195.839894	43925.858640	3914.882261	22748.226597
21.037500	0.000898	0.000031	0.002233	0.000486	6213.911381	43937.642221	3914.250774	22731.474665
21.537500	-0.002428	0.000296	-0.003803	0.001957	6178.232056	43824.067473	3897.602150	22664.613430
22.035500	0.000784	-0.000079	0.005278	0.000711	6211.378457	43906.072762	3920.577696	22721.224360
22.535000	-0.001852	-0.000090	0.005014	0.000375	6194.234910	43936.684975	3920.739522	22736.528364
23.036000	-0.000145	-0.000128	0.004226	0.000586	6205.371131	43913.174614	3918.493348	22726.897929
23.539000	0.000150	-0.000294	0.003565	0.001082	6203.877019	43850.897177	3915.896703	22704.357100
24.036500	-0.000181	-0.000449	0.005234	0.000237	6207.710275	43915.895489	3921.545918	22742.803420
24.537000	-0.000248	0.000093	0.005967	0.000667	6204.004937	43926.476040	3922.229477	22723.235761
25.037500	-0.000757	0.000163	0.001525	0.001377	6194.924603	43866.129867	3910.679416	22690.938193
25.537500	-0.001589	-0.000653	0.003932	0.001302	6189.303551	43796.481026	3916.227363	22694.345394
26.034500	-0.001905	-0.000177	0.001502	0.000425	6193.469870	43923.808632	3912.753228	22734.245331
26.535000	-0.001533	-0.000370	0.005018	0.000460	6195.977744	43902.299847	3920.559500	22732.669016
27.035000	0.001173	0.000395	0.005037	-0.001542	6231.176226	44163.725101	3925.118171	22823.982703
27.536000	-0.000034	0.000294	0.008509	-0.001402	6221.060834	44140.886046	3932.682453	22817.582475
28.038500	-0.001625	-0.000137	0.001395	-0.000065	6199.196457	43973.761023	3913.607410	22756.554687
28.536000	-0.000503	0.000625	0.003979	-0.000276	6209.132299	44065.682661	3919.875494	22766.187168
29.037000	0.000389	0.000624	0.007849	-0.000129	6214.700830	44051.681804	3928.287416	22759.487430
29.536500	-0.001577	-0.000271	0.004363	-0.000775	6204.845672	44028.141522	3921.864631	22788.964221
30.037500	-0.000549	-0.000315	0.006468	-0.000355	6209.378107	43984.294772	3925.669718	22769.767423
30.537500	-0.000993	0.000754	0.003757	0.002008	6188.484853	43862.369476	3914.254148	22662.294454
31.037500	-0.001543	0.000327	0.002219	0.001355	6189.249251	43883.646173	3912.276062	22691.953563
31.535000	0.001452	0.000769	-0.001460	-0.000579	6226.041453	44107.982745	3908.389072	22780.019775
32.035500	-0.001400	0.000585	0.011234	0.000371	6197.628579	44000.764678	3934.855725	22736.713776
32.538000	-0.002555	-0.000158	0.009468	-0.000930	6198.710624	44053.455486	3933.793653	22796.027182
33.035500	-0.003153	-0.000496	0.001694	-0.000912	6194.130411	44019.774220	3916.171538	22795.194039
33.536500	0.001435	0.000323	0.001075	-0.001948	6236.198101	44195.411089	3917.107537	22842.567567
34.037000	-0.002973	0.000058	0.007728	0.000858	6182.335428	43905.173104	3925.776477	22714.553171
34.537000	-0.000507	0.000590	-0.000101	0.001277	6197.529070	43915.767241	3907.283656	22695.482683
35.037000	0.000500	-0.000368	0.006017	0.000855	6208.181533	43865.326119	3921.917753	22714.673822
35.537500	-0.001992	-0.000243	0.004788	0.002195	6179.701068	43751.100317	3916.142533	22653.812680
36.034500	-0.003777	-0.000078	-0.000450	0.000678	6177.721321	43909.216193	3907.840607	22722.723940
36.535000	-0.003676	-0.000513	0.001739	0.000805	6177.524181	43856.374285	3912.432346	22716.946652
37.038000	-0.001903	0.000479	0.007426	0.001340	6186.689004	43899.408444	3924.003580	22692.626858
37.535500	-0.005249	-0.001064	-0.003807	0.000967	6164.724576	43789.357843	3899.774149	22709.597478
38.036000	-0.001164	-0.000060	-0.000440	0.001180	6193.362554	43863.660470	3906.746156	22699.887237
38.537000	-0.002150	-0.000383	0.002170	0.000686	6189.707268	43879.788113	3913.660376	22722.344533
39.039500	0.000170	0.000045	0.005410	0.001157	6203.458381	43875.696555	3919.869486	22700.927368
39.537000	-0.002458	-0.000310	0.004182	0.002195	6176.256212	43744.812705	3914.786243	22653.818996
40.037500	-0.002032	-0.000056	0.007789	0.001075	6187.700543	43873.875741	3925.423285	22704.657213
40.535000	-0.002361	-0.000154	-0.002831	0.001016	6185.700885	43870.300160	3901.818284	22707.351144
41.034500	-0.003103	-0.000514	-0.000249	0.000396	6184.799971	43894.846723	3908.915762	22735.584582
41.538000	-0.003475	-0.000698	0.003877	0.001320	6175.209148	43790.591836	3916.062816	22693.546544
42.036000	-0.001930	-0.000689	0.001236	0.000567	6192.229026	43862.154746	3911.841569	22727.762898
42.535500	-0.001117	0.000498	-0.001441	0.001307	6192.770295	43904.325448	3904.248300	22694.131731
43.036500	-0.003489	-0.000123	0.000771	0.000877	6178.375439	43886.294410	3910.113445	22713.667985
43.537000	-0.002556	0.000114	0.006002	0.002215	6175.380694	43782.759938	3918.823560	22652.921361
44.037000	-0.000140	-0.000377	0.006985	-0.001596	6221.728836	44095.762620	3929.658286	22826.489290
44.537000	0.001099	-0.000150	0.008748	-0.000866	6225.543416	44048.162913	3932.006175	22793.115892
45.035000	-0.001758	-0.000083	0.003844	-0.001243	6206.984415	44090.237208	3921.751175	22810.348117
45.538000	-0.002722	-0.001248	0.000558	0.002638	6171.032059	43615.455580	3905.728185	22633.743518
46.038000	-0.000801	0.000165	0.003817	-0.000680	6209.925700	44060.421472	3920.421256	22784.629422
46.534500	-0.000432	-0.000039	-0.000179	-0.001317	6217.451843	44101.353309	3912.888545	22813.714289
47.038500	0.000739	0.000101	0.003749	-0.001129	6224.812220	44096.808471	3921.278743	22805.106204
47.541000	-0.002199	0.000052	0.003141	0.003540	6168.238801	43652.645630	3909.460922	22592.920497
48.037000	-0.000044	-0.000078	0.005298	-0.000209	6212.060393	43992.876566	3922.697020	22763.116566
48.536500	-0.001466	-0.000326	0.004395	-0.001167	6208.599676	44060.048648	3922.821596	22806.874316
49.037000	0.002372	0.000758	0.010532	-0.000347	6231.204043	44084.978784	3934.892546	22769.424745
49.537500	-0.005270	-0.000414	0.005227	0.003661	6144.791329	43597.841990	3913.846784	22587.488446
50.037000	0.002642	0.000276	0.002628	0.000188	6229.212537	43988.783452	3915.800461	22745.014499
50.540500	0.002310	0.000714	0.006573	0.002679	6208.078714	43795.553773	3919.064072	22631.905713
51.035500	0.024074	-0.023280	0.028207	0.497788	4056.380995	15340.953568	3270.993443	9252.719960
51.538500	-0.001611	-0.024015	-0.004479	-0.080790	6859.703615	49704.776041	4096.203470	26800.036960
52.036000	-0.013342	-0.033654	-0.007906	-0.162994	7545.616006	58199.490143	4325.587124	31767.378604
52.536000	-0.006626	-0.040823	0.001746	-0.198391	8011.902837	61907.090948	4476.722628	34213.496786
53.036500	-0.001931	-0.026029	0.007953	-0.157196	7605.185800	58432.382728	4357.995419	31385.412203
53.537000	-0.001709	-0.022101	0.000285	-0.108616	7116.376472	53015.655161	4186.084944	28377.358660
54.037000	-0.006696	-0.018623	0.005222	-0.081741	6822.819267	50392.071329	4124.841519	26852.286046
54.537000	-0.010375	-0.012582	-0.001305	-0.091089	6873.477753	52101.582651	4132.544044	27372.056645
55.037500	-0.009416	-0.011051	-0.001834	-0.116251	7115.687273	55214.707250	4201.973753	28828.088618
55.535000	-0.009611	-0.008018	-0.008751	-0.121132	7160.705488	56175.044160	4196.088400	29120.484414
56.035500	-0.002606	-0.008582	-0.004057	-0.132082	7337.750250	57462.231990	4242.052556	29788.387696
56.536000	-0.007981	-0.010412	-0.009344	-0.134035	7303.437069	57477.526661	4232.115374	29909.268115
57.036000	-0.004805	-0.008114	-0.001052	-0.120381	7200.049834	56071.445802	4216.296194	29075.246941
57.536000	-0.005424	-0.007475	-0.006276	-0.106356	7059.673850	54460.387335	4161.087659	28245.437868
58.036500	-0.007671	-0.007900	-0.008993	-0.100204	6981.270344	53686.809182	4136.459506	27889.811902
58.536500	-0.005372	-0.005253	-0.008025	-0.080234	6821.198719	51704.622506	4085.361308	26769.556018
59.037000	-0.007681	-0.005062	-0.011416	-0.078018	6781.242499	51478.046574	4070.706245	26648.389325
59.540000	-0.010470	-0.004575	-0.007071	-0.059544	6598.964047	49510.927022	4034.604064	25661.937550
60.035000	-0.006163	-0.005635	-0.008344	-0.050188	6556.970964	48408.526385	4008.207592	25178.145728
60.535000	-0.012981	-0.003956	-0.007940	-0.036585	6392.047231	47178.618623	3976.315537	24493.086622
61.035500	-0.008192	-0.003847	-0.012632	-0.037517	6437.474202	47284.630383	3967.407670	24539.342687
61.539000	-0.008248	-0.003270	-0.005897	-0.030231	6379.281619	46605.673924	3966.108030	24180.350848
62.036000	-0.014139	-0.003601	-0.012372	-0.035558	6374.855609	47110.226554	3963.405210	24442.202441
62.536500	-0.012447	-0.002111	-0.010927	-0.037363	6402.405268	47446.215583	3971.072791	24531.656664
63.037000	-0.014819	-0.002869	-0.007808	-0.039719	6402.283822	47610.171687	3984.118728	24649.020656
63.535500	-0.011607	-0.003073	-0.008423	-0.042693	6451.574485	47895.566645	3989.789065	24798.011060
64.040500	-0.008949	-0.003852	-0.011969	-0.043890	6482.646077	47938.909339	3984.140452	24858.300671
64.538000	-0.010428	-0.003469	-0.009764	-0.044078	6472.208640	47997.912387	3989.892898	24867.759282
65.035500	-0.010261	-0.002986	-0.007996	-0.044093	6473.677701	48049.593325	3994.202795	24868.530248
65.538000	-0.014291	-0.002973	-0.009499	-0.040576	6413.263369	47687.565797	3982.120812	24691.848311
66.036000	-0.009864	-0.003224	-0.012630	-0.046071	6492.919774	48230.575191	3987.793851	24968.555556
66.536500	-0.009263	-0.003081	-0.008114	-0.046909	6504.614952	48332.828923	4000.754064	25011.028138
67.036500	-0.010346	-0.003253	-0.011884	-0.048194	6506.268257	48449.192698	3994.717831	25076.376435
67.536500	-0.012920	-0.003020	-0.012258	-0.044498	6455.524839	48088.154314	3984.906276	24888.984445
68.039500	-0.009875	-0.002412	-0.007482	-0.049648	6521.986469	48690.003937	4008.997686	25150.532617
68.540000	-0.008820	-0.002820	-0.007518	-0.051297	6544.196013	48820.730792	4012.964531	25234.946438
69.035000	-0.010236	-0.003372	-0.013457	-0.052814	6545.031115	48922.715008	4002.125760	25312.894399
69.535000	-0.009317	-0.002760	-0.007096	-0.052854	6552.943730	48991.699318	4017.851761	25314.937382
70.035500	-0.009522	-0.001890	-0.007080	-0.053346	6555.308962	49136.136513	4019.108883	25340.253031
70.536000	-0.008867	-0.002428	-0.011182	-0.054022	6566.332581	49150.842862	4010.655183	25375.146347
71.035500	-0.009326	-0.002663	-0.010080	-0.054701	6568.152541	49198.071229	4015.043076	25410.223334
71.536500	-0.014393	-0.001700	-0.015858	-0.048122	6472.842452	48604.409005	3984.962100	25072.680852
72.036500	-0.012923	-0.003180	-0.009188	-0.055440	6544.525370	49221.739026	4019.077020	25448.449620
72.536500	-0.011948	-0.002595	-0.008721	-0.055684	6554.584684	49310.001586	4020.838505	25461.074550
73.039500	-0.012257	-0.002526	-0.010848	-0.055687	6552.053637	49317.666601	4015.580129	25461.213402
73.537000	-0.014526	-0.002812	-0.014199	-0.050865	6493.984130	48776.037411	3995.579673	25212.789079
74.037500	-0.013110	-0.002671	-0.012164	-0.055777	6545.764534	49311.847211	4012.554688	25465.888832
74.535500	-0.013661	-0.003528	-0.015459	-0.056607	6548.063361	49308.967069	4006.501328	25508.926331
75.035500	-0.013646	-0.002770	-0.016685	-0.055729	6540.949631	49296.077377	4001.359937	25463.377518
75.538500	-0.017542	-0.003458	-0.012804	-0.050622	6467.607478	48682.382301	3998.375138	25200.334584
76.035500	-0.014806	-0.003694	-0.013804	-0.054869	6524.367018	49106.346540	4006.298998	25418.894681
76.536500	-0.014291	-0.003312	-0.013792	-0.053868	6520.381584	49040.579930	4003.877467	25367.162647
77.037000	-0.013075	-0.003363	-0.011757	-0.053197	6524.849541	48964.145684	4007.217266	25332.601903
77.539000	-0.018409	-0.003623	-0.022089	-0.046522	6427.798940	48235.834696	3966.340037	24991.376044
78.037500	-0.015463	-0.003118	-0.013538	-0.050566	6483.962417	48712.296913	3996.457834	25197.491032
78.534500	-0.010927	-0.003129	-0.013311	-0.049070	6508.671781	48553.956073	3993.383782	25121.028995
79.035500	-0.014343	-0.002700	-0.012448	-0.047357	6467.083847	48419.464342	3991.330936	25033.804137
79.537000	-0.018036	-0.003396	-0.019889	-0.040158	6380.379474	47601.159372	3956.574907	24670.959541
80.036000	-0.014304	-0.003453	-0.012945	-0.044396	6443.605642	48032.665890	3983.014362	24883.823598
80.536000	-0.012979	-0.003283	-0.008934	-0.042369	6437.990915	47840.420192	3987.775363	24781.718280
81.036500	-0.015194	-0.003012	-0.013514	-0.040874	6408.455432	47714.177549	3973.261470	24706.749262
81.536500	-0.018633	-0.003231	-0.018497	-0.033786	6326.029930	46968.139773	3945.017633	24354.758780
82.039500	-0.013886	-0.003030	-0.011280	-0.037736	6393.990663	47390.397201	3971.118993	24550.207600
82.537000	-0.012769	-0.002942	-0.013437	-0.036389	6392.173173	47261.854444	3962.855764	24483.351451
83.034500	-0.012592	-0.002056	-0.010966	-0.034790	6380.969708	47189.251286	3964.905975	24404.259159
83.535000	-0.016749	-0.003246	-0.014921	-0.028513	6299.917069	46435.907019	3941.108266	24096.599341
84.035000	-0.013987	-0.002557	-0.010194	-0.033483	6359.801744	47005.681352	3963.649008	24339.854643
84.535500	-0.013257	-0.002233	-0.008423	-0.032282	6356.117553	46916.947017	3964.989376	24280.816444
85.038000	-0.010690	-0.002852	-0.007232	-0.031772	6372.208799	46802.808355	3966.594216	24255.770831
85.536000	-0.016904	-0.002188	-0.021769	-0.025134	6272.894846	46204.302279	3917.874721	23932.783071
86.036000	-0.015164	-0.002488	-0.013682	-0.030330	6326.128204	46694.209021	3948.158630	24185.182972
86.539500	-0.014853	-0.001376	-0.011657	-0.029265	6320.303145	46698.943265	3950.381650	24133.190441
87.037000	-0.011697	-0.002016	-0.008949	-0.028540	6339.129445	46561.808333	3954.995096	24097.919941
87.537500	-0.016401	-0.001762	-0.013721	-0.028040	6298.949059	46537.137055	3942.779585	24073.557521
88.037500	-0.013773	-0.001335	-0.011090	-0.026635	6308.357960	46439.286493	3945.607808	24005.412354
88.535500	-0.012750	-0.001613	-0.012300	-0.026237	6313.171035	46371.705459	3941.903318	23986.138133
89.035500	-0.015234	-0.001189	-0.007045	-0.025188	6286.052959	46309.193316	3951.623073	23935.384112
89.535500	-0.017523	-0.001420	-0.010669	-0.019972	6229.180965	45769.412515	3931.299102	23685.012729
90.035500	-0.014856	-0.002479	-0.012053	-0.024804	6286.004292	46142.557719	3939.175624	23916.841813
90.536500	-0.014985	-0.001359	-0.010784	-0.023632	6276.078183	46137.383543	3939.399747	23860.380565
91.039500	-0.012553	-0.001108	-0.011554	-0.022586	6286.655445	46058.514562	3935.241538	23810.126153
91.537000	-0.013782	-0.001097	-0.010946	-0.022161	6274.031339	46017.471799	3935.660021	23789.711183
92.037000	-0.014733	-0.001508	-0.010804	-0.021381	6260.877870	45899.656756	3934.202824	23752.354983
92.537500	-0.013867	-0.000701	-0.013315	-0.020345	6259.587025	45877.062404	3926.138999	23702.822838
93.035000	-0.013673	-0.000650	-0.019620	-0.019627	6255.615178	45811.206859	3910.365145	23668.530528
93.541500	-0.018510	-0.001042	-0.021449	-0.013228	6171.608606	45146.949993	3892.208680	23365.706293
94.035500	-0.013215	-0.000932	-0.011433	-0.018134	6247.785520	45636.587825	3925.393833	23597.467815
94.536000	-0.014018	-0.001129	-0.016423	-0.018175	6242.035660	45621.301905	3914.261739	23599.461771
95.035500	-0.014454	-0.000730	-0.008947	-0.016716	6227.777913	45517.388146	3927.812797	23530.237369
95.539500	-0.018209	-0.001240	-0.014965	-0.012356	6167.398759	45043.201689	3904.555291	23324.774680
96.036500	-0.015822	-0.001304	-0.012490	-0.016199	6213.644773	45410.651576	3918.648583	23505.756734
