sample name	sample
index	1089
start time	 04-22-2021  11:38:17 AM
880	0.014512
Peak Time (s)	100.54
Peak Height 	0.01451
calc peak height	100,103
Baseline Time (s)	9.039
Baseline Value 	-0.005445
subtract baseline	10,4
Abs	0.027319
Peak Time (s)	100.037
Peak Height 	0.02732
calc peak height	100,103
Baseline Time (s)	9.039
Baseline Value 	0.002901
subtract baseline	10,3
PK_550	0.016932
Peak Time (s)	102.535
Peak Height 	0.01693
calc peak height	100,103
Baseline Time (s)	11.035
Baseline Value 	9.5425E-4
subtract baseline	10,2
PK_880	0.030580
Peak Time (s)	100.037
Peak Height 	0.03058
calc peak height	100,103
Baseline Time (s)	11.535
Baseline Value 	0.004217
subtract baseline	10,1


Time (s)	A880-A510	A880-A775	A880-A975	A880	I510	I775	I975	I880	
0.039500	0.000663	-0.000594	0.002037	0.002579	6263.648350	43167.427484	3894.441839	22664.693387
0.537000	-0.004440	-0.001340	-0.004859	0.003529	6217.093137	43010.738779	3876.091909	22621.504190
1.034500	-0.004317	-0.000777	-0.003807	0.007059	6191.171833	42738.034970	3870.365232	22461.866088
1.539500	-0.000702	-0.000456	-0.000470	0.001598	6260.677618	43271.255695	3890.846675	22709.397891
2.035000	0.001217	-0.000590	-0.000500	0.001190	6278.727464	43296.583062	3891.735577	22727.980800
2.535500	-0.000137	0.000127	0.000367	0.001744	6263.926767	43311.827252	3892.474116	22702.739755
3.036000	-0.004207	-0.000837	-0.003972	0.005558	6203.401512	42870.140985	3873.447547	22529.569670
3.536000	-0.003707	-0.000502	-0.000003	0.000215	6248.152625	43395.501119	3895.207147	22772.569976
4.036500	0.000842	-0.000725	0.003726	0.000547	6280.818776	43343.818406	3903.259025	22757.364160
4.537500	-0.000910	-0.000171	-0.003812	0.000359	6268.668496	43412.912158	3885.913622	22765.972933
5.037000	-0.002458	-0.001191	0.003220	0.001531	6247.632106	43209.236494	3899.720579	22712.439701
5.537500	-0.000629	0.000333	0.005012	0.000688	6268.290818	43429.204908	3905.989266	22750.914960
6.035000	-0.000429	-0.000400	-0.001675	0.000270	6273.084278	43399.822073	3891.134351	22770.026629
6.538000	-0.000981	-0.000644	0.009204	-0.000537	6275.064618	43452.271840	3918.997575	22806.982877
7.035500	-0.002114	-0.001305	0.002986	-0.000708	6267.603843	43406.709122	3904.486470	22814.838732
7.535500	-0.000662	-0.000361	0.001459	-0.000034	6273.638542	43431.838698	3899.255963	22783.962175
8.036000	0.000440	-0.000056	0.002005	0.000233	6280.134271	43435.322853	3899.917281	22771.724047
8.535500	-0.001544	-0.000681	-0.002497	-0.000377	6269.452855	43433.974345	3890.724577	22799.659236
9.039000	0.000082	0.000123	0.000000	0.000000	6279.159738	43473.796207	3895.721425	22782.397256
9.537000	0.000198	-0.000290	0.002249	0.000200	6278.509079	43416.690987	3900.575364	22773.255484
10.037000	-0.000705	0.000902	-0.001884	0.000413	6269.834535	43507.884336	3890.307746	22763.485898
10.537000	0.000238	0.000800	0.002421	0.000263	6278.325279	43512.378051	3900.832761	22770.338863
11.035000	-0.001517	0.000000	0.001164	-0.000337	6269.361301	43493.796705	3899.275569	22797.847750
11.535000	0.000000	-0.000310	-0.001346	-0.000494	6282.367385	43479.437178	3893.710582	22805.022190
12.035500	0.002487	0.000633	0.001027	0.000069	6297.383651	43514.920416	3897.987274	22779.234459
12.536000	-0.001205	0.000255	0.003677	-0.000003	6269.182640	43486.318037	3904.453712	22782.515593
13.036000	-0.001677	-0.000767	-0.000587	-0.000757	6271.375239	43461.350604	3896.121955	22817.078262
13.539000	0.000397	0.000086	0.005649	0.000385	6278.612589	43434.360261	3908.234080	22764.759451
14.036500	-0.000338	0.000525	0.000584	0.002918	6253.285422	43239.687848	3890.221866	22649.261361
14.538500	-0.000683	-0.000132	0.001254	0.001848	6258.889378	43278.060694	3894.319157	22697.997993
15.034000	-0.000716	-0.000018	-0.003701	-0.000199	6274.504079	43479.199230	3887.478405	22791.497250
15.534500	-0.001679	-0.000673	-0.001074	0.000470	6261.844942	43355.829716	3892.080128	22760.898872
16.035000	-0.002463	0.000410	0.002815	0.000401	6256.319990	43463.162299	3901.443213	22764.064288
16.538500	-0.000689	-0.000766	0.002430	-0.000555	6277.478567	43442.644140	3902.798987	22807.824231
17.036000	0.001518	-0.000126	0.007237	-0.001916	6305.346268	43629.613324	3917.579298	22870.313366
17.538500	-0.001256	-0.000609	0.003044	0.000748	6262.965377	43335.967977	3901.160270	22748.173897
18.036000	-0.002017	-0.000445	0.003692	0.000859	6256.222754	43340.818274	3902.437222	22743.105221
18.536500	-0.003322	-0.000483	0.001684	0.000723	6247.200968	43350.048467	3897.995467	22749.341684
19.034000	-0.000606	-0.000383	0.001461	0.001385	6263.064293	43297.698055	3895.900087	22719.081209
19.537000	-0.003699	-0.000166	-0.000067	0.000763	6243.986899	43375.697223	3893.761517	22747.477017
20.037500	-0.000110	0.000460	-0.001944	0.001657	6264.802186	43350.826451	3887.248498	22706.690091
20.537000	-0.002449	-0.000627	0.000671	0.000987	6251.893190	43312.045057	3894.975432	22737.258507
21.035000	-0.001833	-0.001537	0.003482	-0.000139	6265.371519	43332.171935	3904.313058	22788.769508
21.535500	-0.000568	0.000167	0.000097	0.001491	6262.537055	43339.027508	3892.432941	22714.248751
22.035500	-0.003224	-0.001206	-0.002541	0.000044	6253.194263	43345.872882	3889.631176	22780.367326
22.535500	-0.000329	0.000383	-0.000391	0.001223	6266.465521	43384.030083	3891.914910	22726.475476
23.039000	-0.002948	-0.000157	0.000195	0.000553	6251.388730	43396.137397	3894.874232	22757.078032
23.536500	-0.002653	-0.000746	0.005782	0.001013	6250.125109	43298.592623	3907.051115	22736.074146
24.036500	-0.005994	-0.001316	-0.005482	0.000021	6232.049570	43337.806332	3882.799754	22781.428269
24.537000	-0.003061	-0.000282	-0.000754	0.000958	6247.401270	43346.824103	3891.685450	22738.609909
25.034500	-0.002723	-0.000925	-0.001419	0.000340	6254.781954	43344.500973	3891.572907	22766.847946
25.535000	-0.002860	-0.000995	-0.004091	0.000541	6252.170372	43319.293724	3884.834714	22757.656544
26.035500	-0.002519	-0.001131	-0.001463	0.000591	6254.415096	43302.030892	3890.880104	22755.360818
26.538000	-0.004680	-0.000569	0.003711	0.000584	6237.820971	43354.909202	3903.137616	22755.690381
27.035500	-0.001752	-0.000792	0.001870	-0.001973	6280.245489	43572.583343	3904.841917	22872.925329
27.535500	0.000615	-0.001186	0.003444	-0.000148	6284.464230	43365.667586	3904.243188	22789.177853
28.036000	-0.001137	-0.000203	0.000476	-0.000303	6272.042896	43471.613537	3897.564796	22796.276399
28.536500	-0.001038	-0.000048	0.001828	-0.000284	6272.660106	43484.370935	3900.723454	22795.406404
29.036500	-0.000688	-0.000354	0.000946	0.000427	6269.863637	43389.584774	3896.948715	22762.865303
29.537000	-0.000088	-0.000703	0.002902	-0.001036	6285.910218	43493.360416	3905.069793	22829.888762
30.034500	0.000900	-0.000557	-0.005080	-0.000781	6291.625046	43483.213938	3885.614894	22818.202741
30.536000	-0.003551	-0.002028	-0.004216	0.001183	6241.894748	43163.933971	3883.043329	22728.302573
31.035000	-0.002658	-0.000979	-0.001344	-0.000160	6259.140224	43386.004194	3892.927699	22789.712534
31.536500	0.000118	-0.000120	-0.002229	-0.000152	6280.628701	43465.364891	3890.827206	22789.374668
32.036000	-0.001900	0.000192	0.002710	-0.000021	6263.933832	43482.146041	3902.193337	22783.349851
32.539000	-0.000019	0.000488	-0.000192	-0.000001	6278.388670	43508.001012	3895.271681	22782.460091
33.036500	0.000592	-0.000225	0.006240	-0.002005	6298.789865	43628.718096	3915.390309	22874.395879
33.537000	0.000499	0.000621	-0.001983	0.001681	6269.341044	43363.618877	3887.101165	22705.599850
34.037000	-0.004646	-0.000663	-0.000034	0.001408	6231.750599	43269.659206	3892.319279	22718.051519
34.537500	-0.003085	-0.000816	-0.000392	0.001391	6243.877954	43256.967727	3891.517530	22718.819957
35.034500	-0.003065	0.000148	-0.004940	0.002070	6238.804496	43283.410507	3879.289178	22687.852308
35.535000	-0.000743	-0.000866	-0.000599	0.001135	6263.945740	43276.106762	3891.631812	22730.502097
36.035500	-0.001868	-0.000446	0.003607	0.001895	6249.372766	43244.519468	3899.774751	22695.819495
36.535500	-0.002888	-0.000038	0.000862	0.002283	6238.533886	43246.393896	3892.369835	22678.156242
37.036500	-0.000738	0.000057	0.003817	0.001955	6257.642209	43285.681159	3900.131782	22693.122373
37.536500	-0.003698	-0.000704	-0.000979	0.001542	6238.006500	43253.399049	3889.783621	22711.954742
38.036500	0.000042	-0.000326	0.002525	0.001198	6269.541247	43320.448926	3898.860614	22727.622779
38.536500	-0.002142	0.000625	-0.001834	0.002070	6245.913730	43327.703965	3886.538878	22687.854866
39.036500	-0.002141	-0.000661	-0.004917	0.001211	6252.543850	43288.048748	3881.343986	22727.029228
39.535000	-0.001296	-0.001762	-0.000571	0.000455	6264.930747	43256.113076	3893.301926	22761.594973
40.035000	-0.002297	0.000098	0.002598	0.001279	6250.817371	43352.360154	3898.842281	22723.935376
40.535500	-0.001411	0.000737	0.002455	0.002263	6250.065621	43320.301635	3896.176953	22679.088109
41.035500	-0.001045	-0.000959	0.000661	0.001081	6262.023553	43272.457645	3894.729826	22732.979210
41.536000	-0.001875	-0.000892	0.008191	0.001841	6249.733794	43208.143017	3910.835993	22698.284663
42.039000	-0.000028	-0.000025	0.000543	0.001326	6268.007016	43336.510358	3893.872718	22721.776942
42.536000	-0.002377	-0.000882	0.005226	0.000526	6256.011681	43331.193321	3906.886500	22758.332452
43.036500	-0.003437	-0.000831	0.001925	-0.000230	6253.665620	43406.315644	3900.825859	22792.933720
43.537000	-0.001620	0.000142	0.000650	-0.001183	6275.129046	43586.176604	3900.062962	22836.646768
44.037500	-0.001608	-0.001122	0.001139	-0.001383	6276.769654	43486.645304	3901.697547	22845.803372
44.534500	-0.002176	-0.000719	-0.001191	-0.001494	6273.216643	43534.603553	3896.436537	22850.889462
45.035500	-0.002087	-0.000579	0.000438	-0.000838	6268.822996	43486.535807	3898.742803	22820.818523
45.535500	0.000006	-0.000644	-0.001403	0.000318	6276.094834	43372.683890	3891.663141	22767.845001
46.035500	0.000793	-0.000194	0.006725	-0.000986	6292.388555	43536.206488	3914.103063	22827.565065
46.535500	-0.000951	0.000267	0.006194	-0.000248	6273.057548	43510.430656	3911.056432	22793.772516
47.036000	-0.002978	-0.000636	-0.004703	0.001434	6244.369222	43269.734865	3881.321969	22716.861706
47.536500	-0.002618	-0.000046	0.001757	0.001987	6242.880545	43273.152956	3895.177694	22691.629834
48.037000	-0.001446	0.000735	0.001615	0.000081	6266.668936	43523.383135	3899.353410	22778.710815
48.538500	0.000935	0.000616	-0.005531	0.000399	6282.690911	43482.503392	3881.804316	22764.131698
49.035000	0.001902	-0.000256	0.002228	-0.001877	6308.048762	43613.796120	3905.466570	22868.513733
49.535000	-0.000912	-0.000800	0.000063	-0.000301	6273.771796	43415.774208	3896.579738	22796.160559
50.035500	0.001422	0.000504	0.005414	0.021659	6124.696615	41536.402247	3858.043788	21815.186044
50.536000	0.043869	-0.021163	0.079126	0.690760	3661.692989	10818.056531	3120.487723	6953.281057
51.035500	0.016541	-0.014694	-0.011332	0.095134	5719.227092	34411.048459	3672.617268	18871.320222
51.536000	-0.010399	-0.029836	-0.037587	-0.147908	7537.035684	56117.714121	4192.499156	30849.238460
52.036500	-0.001725	-0.105013	-0.017515	-0.293914	9520.993636	65535.000000	4808.743917	42017.404391
52.536500	-0.001926	-0.092845	-0.011626	-0.280659	9319.009759	65378.657971	4776.134495	40841.635164
53.036500	-0.002757	-0.087889	-0.012403	-0.275846	9236.125006	65399.251588	4751.749780	40423.483633
53.537500	-0.008906	-0.062028	-0.010221	-0.241743	8675.247966	64225.325742	4618.370366	37589.767450
54.035000	-0.016763	-0.058785	-0.018347	-0.238493	8529.412645	64224.242280	4573.152805	37331.080548
54.534500	-0.016339	-0.057818	-0.014827	-0.237630	8523.728252	64239.004477	4583.607502	37262.770843
55.035000	-0.011554	-0.071871	-0.011829	-0.257295	8849.411821	65036.039726	4675.428073	38854.410224
55.535500	-0.006775	-0.054050	-0.005984	-0.230188	8551.270302	63722.630400	4589.144174	36678.945471
56.038500	-0.008436	-0.028098	-0.007684	-0.178114	7893.556847	60175.397007	4388.879866	32862.253476
56.536000	-0.009253	-0.019154	-0.008104	-0.147479	7544.697947	57387.753012	4284.029349	30821.628864
57.036500	-0.002909	-0.014773	-0.007812	-0.133968	7468.674792	56255.263883	4241.622418	29966.369084
57.536500	-0.003123	-0.010018	-0.006288	-0.103784	7159.817865	53223.963755	4153.997324	28149.161994
58.037000	-0.001872	-0.010353	-0.009526	-0.109187	7225.586345	53814.014015	4160.419283	28465.240775
58.537500	-0.001035	-0.009759	-0.005121	-0.100226	7145.414708	52843.521655	4146.945755	27943.156286
59.035000	-0.001585	-0.004957	-0.009926	-0.067985	6836.667616	49789.141466	4042.500278	26151.460454
59.535000	0.003048	-0.003035	-0.000363	-0.056720	6777.016545	48792.350724	4037.913515	25556.152132
60.035500	0.002325	-0.001749	-0.003305	-0.040937	6632.418016	47287.452077	3988.607684	24747.572375
60.536000	0.003257	0.000156	-0.004722	-0.036654	6603.730678	47045.351583	3974.015433	24533.201306
61.036000	0.000621	0.000008	-0.003917	-0.035368	6570.432050	46900.001363	3972.793169	24469.225254
61.536000	0.001361	0.001866	0.000223	-0.030616	6536.677233	46608.168571	3971.239954	24234.520226
62.037000	0.000432	0.000114	-0.000001	-0.035807	6572.544063	46955.219832	3983.913024	24491.047787
62.537000	-0.004865	-0.001033	0.001647	-0.036642	6535.001496	46923.646674	3990.302740	24532.596054
63.036500	-0.000695	0.000935	-0.003877	-0.038299	6584.111076	47292.169439	3980.368640	24615.312815
63.538000	-0.001736	0.001548	-0.000626	-0.034227	6540.982339	46940.406548	3978.268233	24412.632073
64.035000	-0.002207	0.002122	-0.006512	-0.035407	6546.930327	47118.438381	3966.320276	24471.170031
64.535500	-0.004725	0.001701	-0.000522	-0.030212	6482.735555	46550.993460	3968.327143	24214.669204
65.035000	-0.003959	0.000533	-0.002787	-0.030090	6488.046173	46421.677297	3962.306249	24208.686952
65.538500	-0.001735	0.001715	0.002039	-0.023850	6455.029716	45918.474768	3958.755478	23904.754092
66.036500	-0.001025	0.003100	-0.003619	-0.023426	6457.371084	46013.635766	3943.607998	23884.255284
66.537000	-0.000934	0.005095	0.001503	-0.024440	6466.434917	46312.970571	3958.890038	23933.320401
67.039500	0.003061	0.006004	0.003108	-0.028503	6533.224867	46812.229675	3973.200241	24130.990582
67.537000	-0.001160	0.005733	0.000564	-0.028373	6497.009311	46771.779134	3966.427122	24124.651874
68.037500	0.000659	0.005866	0.000379	-0.031295	6536.489629	47081.075387	3973.360122	24267.925724
68.535000	0.000935	0.005829	0.002685	-0.026812	6501.432208	46624.147678	3967.840131	24048.488537
69.035000	0.004698	0.005785	0.004976	-0.030168	6560.955113	46958.526979	3982.216452	24212.540458
69.535500	0.001400	0.005491	0.001494	-0.027197	6508.485264	46628.880915	3965.804413	24067.237159
70.036000	0.002062	0.005029	0.004448	-0.030185	6538.937274	46883.594464	3980.906897	24213.350742
70.536000	0.003152	0.004496	0.000987	-0.025497	6508.912450	46358.739943	3960.248291	23984.543075
71.036500	0.004441	0.005641	0.009108	-0.028617	6545.741115	46787.030593	3988.847953	24136.567894
71.537000	0.004428	0.006107	0.006362	-0.027799	6538.774918	46751.495828	3979.699437	24096.586464
72.037000	0.007975	0.006365	0.008187	-0.027983	6570.161390	46796.135431	3984.844823	24105.558673
72.534500	0.005484	0.006946	0.008662	-0.023205	6509.247142	46374.442704	3973.850060	23873.569717
73.037500	0.006803	0.007163	0.002924	-0.027497	6556.189273	46827.734425	3970.181858	24081.888651
73.535000	0.008175	0.006885	0.004411	-0.027922	6571.349663	46842.577080	3975.037983	24102.626356
74.035500	0.009268	0.008720	0.008840	-0.026605	6569.452725	46894.884096	3982.985735	24038.410231
74.535500	0.007373	0.008570	0.010421	-0.021976	6514.730838	46413.999171	3975.198243	23814.285761
75.038500	0.010342	0.008705	0.009532	-0.024971	6564.726312	46728.371419	3980.574654	23959.042495
75.536500	0.009821	0.008950	0.009371	-0.023309	6546.347603	46585.839505	3975.920946	23878.613785
76.036500	0.009032	0.008800	0.012452	-0.022535	6533.251695	46493.120162	3981.812841	23841.266880
76.537000	0.005626	0.008744	0.010247	-0.016731	6457.003139	45909.430465	3961.487527	23563.244212
77.037500	0.009679	0.009798	0.008904	-0.019488	6513.222250	46288.083228	3965.050760	23694.843323
77.537500	0.006062	0.009722	0.010166	-0.015299	6448.851239	45864.554452	3957.689722	23495.224783
78.037500	0.008455	0.010281	0.014948	-0.016669	6479.741601	46055.627481	3973.215045	23560.311110
78.535000	0.008812	0.010447	0.007384	-0.009636	6425.130538	45379.510789	3936.734798	23228.441922
79.035500	0.010857	0.010685	0.012845	-0.013957	6477.187974	45827.249357	3961.046648	23431.724128
79.538500	0.010571	0.011197	0.010197	-0.009572	6438.920189	45446.528806	3943.512203	23225.452027
80.036500	0.013866	0.012018	0.012764	-0.011584	6482.432089	45724.664111	3954.896667	23319.828916
80.539500	0.010964	0.012107	0.016524	-0.006026	6413.313518	45189.452465	3950.410724	23060.174526
81.037000	0.015123	0.012347	0.014015	-0.010741	6485.845175	45674.085238	3955.916669	23280.224457
81.537000	0.012213	0.011853	0.017867	-0.008408	6442.811253	45396.845490	3959.721756	23171.042490
82.037000	0.016796	0.012670	0.020940	-0.010016	6493.681652	45634.535124	3971.535979	23246.229227
82.535000	0.014568	0.012116	0.016901	-0.003963	6425.809706	44990.135091	3946.223286	22964.650395
83.035000	0.018290	0.012041	0.018977	-0.009070	6498.222190	45480.015557	3964.178091	23201.959748
83.535500	0.018245	0.012013	0.014498	-0.005544	6468.753951	45133.465607	3944.187499	23037.830007
84.035500	0.020004	0.012874	0.022280	-0.006844	6493.976225	45343.803556	3966.897299	23098.180382
84.536000	0.018760	0.011651	0.015975	-0.007160	6486.312579	45255.474546	3951.869953	23112.895129
85.036000	0.021143	0.012471	0.019203	-0.006244	6498.442897	45246.047806	3957.645397	23070.284749
85.536500	0.020160	0.012326	0.019493	-0.002586	6460.191269	44877.382547	3949.239259	22901.131211
86.037000	0.021025	0.012116	0.023466	-0.004957	6486.828255	45086.559050	3965.128893	23010.639616
86.537500	0.021716	0.012791	0.015880	-0.004043	6484.986703	45063.351016	3943.894108	22968.365415
87.037500	0.022958	0.013092	0.016751	-0.003460	6490.426771	45035.980635	3944.607343	22941.434498
87.535000	0.019913	0.013286	0.019468	0.000113	6436.120904	44709.806496	3942.488896	22777.224142
88.035000	0.024922	0.013518	0.022688	-0.002498	6498.719140	44984.029047	3956.993012	22897.069968
88.535000	0.022477	0.013507	0.020003	-0.002325	6477.083970	44966.209626	3949.859333	22889.111777
89.039000	0.024242	0.013715	0.022278	-0.001956	6488.605823	44950.642254	3954.609886	22872.120673
89.536000	0.021396	0.014151	0.022031	0.001869	6433.906368	44624.241795	3944.485848	22697.034062
90.036500	0.024064	0.014783	0.022834	-0.000370	6474.061308	44900.569909	3952.040955	22799.339661
90.537000	0.020437	0.013913	0.019537	0.004949	6401.189919	44307.082864	3930.776630	22557.140131
91.037000	0.025162	0.014410	0.022499	0.000431	6476.497343	44787.396531	3949.211011	22762.660698
91.537500	0.024830	0.015069	0.019381	0.000886	6470.029529	44807.006334	3940.365354	22741.872095
92.037500	0.028548	0.016011	0.024773	0.002062	6490.986174	44784.476088	3950.811341	22688.207381
92.535500	0.020695	0.015056	0.023366	0.006763	6388.664135	44243.323781	3935.712472	22475.212109
93.035000	0.024578	0.015192	0.024537	0.001614	6461.983709	44748.768141	3951.339442	22708.642805
93.535500	0.025972	0.015361	0.025236	0.002349	6467.388895	44694.380757	3951.251376	22675.155278
94.035500	0.027018	0.015374	0.023363	0.002786	6472.395108	44653.645394	3945.512460	22655.274989
94.536000	0.024327	0.015376	0.025869	0.008215	6406.225134	44135.803239	3938.296052	22409.884448
95.036500	0.026662	0.015789	0.026378	0.003161	6466.385459	44657.397911	3952.073265	22638.213862
95.537000	0.029567	0.015373	0.028607	0.003755	6485.411715	44560.579191	3956.154839	22611.219897
96.037000	0.025610	0.015454	0.025751	0.003713	6453.240340	44572.453538	3949.139711	22613.168006
96.537500	0.026108	0.016199	0.026526	0.009826	6407.594095	44061.137328	3935.951313	22337.644707
97.035000	0.027178	0.015187	0.024934	0.004872	6456.587713	44435.879590	3944.237385	22560.594922
97.537500	0.027446	0.015485	0.030930	0.005944	6450.014314	44362.090980	3956.492935	22512.166134
98.035500	0.027219	0.015483	0.026297	0.006029	6447.459452	44353.743050	3944.745811	22508.297734
98.538500	0.024911	0.015490	0.023082	0.010645	6391.351609	43916.787933	3925.534934	22301.031290
99.036000	0.029030	0.016670	0.029790	0.008124	6445.140763	44267.311612	3948.214678	22413.969336
99.536500	0.029968	0.017095	0.025629	0.008903	6446.435314	44233.625475	3936.013524	22378.967398
100.037000	0.030580	0.016518	0.027319	0.009126	6449.614748	44157.702097	3939.621684	22368.971906
100.539500	0.022743	0.015523	0.022283	0.014512	6343.169129	43556.725416	3914.250843	22129.059587
101.037000	0.028520	0.016585	0.025673	0.010270	6423.526838	44055.691055	3932.770277	22317.790981
101.535000	0.028143	0.016124	0.021910	0.014484	6386.473908	43615.614224	3913.420262	22130.289162
102.035000	0.029475	0.016586	0.022853	0.011713	6419.568826	43919.340991	3922.382748	22253.342877
102.535000	0.027335	0.016932	0.024044	0.012813	6393.409373	43848.340182	3922.604462	22204.398083
103.061500	0.028474	0.016885	0.029921	0.014192	6391.474735	43714.275455	3933.568858	22143.209935
103.536000	0.027860	0.016657	0.025425	0.017912	6356.804874	43345.454318	3913.628221	21979.099686
104.036500	0.028845	0.017999	0.026379	0.016512	6375.844717	43601.213443	3919.303446	22040.692689
104.536500	0.029269	0.017171	0.029458	0.017440	6371.806219	43437.173550	3924.514863	21999.821567
105.036500	0.030028	0.017345	0.025140	0.018178	6371.980927	43384.621610	3912.303329	21967.399796
105.537000	0.026061	0.017137	0.025332	0.021759	6312.154406	43033.513253	3904.199912	21810.850435
