sample name	sample
index	1203
start time	 04-26-2021  12:51:44 PM


Wavelength (nm)	Absorbance
494.344910	-1.543413
494.563924	-1.543413
494.782919	-1.543413
495.001897	NaN
495.220856	NaN
495.439797	NaN
495.658719	-0.226188
495.877624	-0.216124
496.096510	-0.014986
496.315378	-0.147509
496.534227	-0.000495
496.753059	0.150817
496.971872	-0.057187
497.190667	0.013159
497.409444	0.014151
497.628203	0.016546
497.846943	0.015622
498.065665	0.016885
498.284369	0.015822
498.503055	0.015393
498.721723	0.014873
498.940372	0.015379
499.159003	0.015270
499.377616	0.014380
499.596210	0.014346
499.814787	0.014386
500.033345	0.014055
500.251885	0.013695
500.470406	0.014220
500.688910	0.015126
500.907395	0.016138
501.125862	0.017375
501.344311	0.018375
501.562742	0.019288
501.781154	0.019343
501.999548	0.019444
502.217924	0.021142
502.436282	0.020467
502.654621	0.019483
502.872942	0.018428
503.091245	0.017210
503.309530	0.017339
503.527797	0.016370
503.746045	0.016524
503.964275	0.015859
504.182487	0.014834
504.400681	0.014741
504.618856	0.014835
504.837013	0.015776
505.055152	0.015592
505.273273	0.015146
505.491376	0.015098
505.709460	0.014409
505.927526	0.014074
506.145574	0.013666
506.363604	0.014290
506.581615	0.014698
506.799608	0.013735
507.017583	0.013031
507.235540	0.013941
507.453478	0.012370
507.671399	0.012007
507.889301	0.012194
508.107185	0.012668
508.325050	0.011639
508.542898	0.010421
508.760727	0.010916
508.978538	0.011239
509.196330	0.010639
509.414105	0.012006
509.631861	0.012572
509.849599	0.013074
510.067319	0.012080
510.285021	0.012088
510.502704	0.012197
510.720369	0.010939
510.938016	0.010507
511.155645	0.009324
511.373255	0.008526
511.590848	0.007608
511.808422	0.007053
512.025977	0.007552
512.243515	0.007428
512.461034	0.007567
512.678536	0.008345
512.896018	0.008718
513.113483	0.009035
513.330930	0.009253
513.548358	0.009593
513.765768	0.009831
513.983160	0.009350
514.200533	0.009585
514.417889	0.008633
514.635226	0.008572
514.852545	0.008457
515.069845	0.007885
515.287128	0.007732
515.504392	0.007210
515.721638	0.007327
515.938866	0.007411
516.156075	0.007554
516.373267	0.008339
516.590440	0.008034
516.807594	0.007963
517.024731	0.009053
517.241850	0.009290
517.458950	0.009657
517.676032	0.009375
517.893095	0.008859
518.110141	0.007800
518.327168	0.008436
518.544177	0.008604
518.761168	0.008604
518.978141	0.008673
519.195095	0.008376
519.412031	0.008914
519.628949	0.008430
519.845849	0.008698
520.062731	0.009512
520.279594	0.008826
520.496439	0.008578
520.713266	0.008507
520.930074	0.008222
521.146865	0.008311
521.363637	0.007842
521.580391	0.007475
521.797127	0.007678
522.013844	0.007256
522.230543	0.007290
522.447224	0.007473
522.663887	0.007226
522.880532	0.006983
523.097158	0.006990
523.313766	0.007097
523.530356	0.007276
523.746928	0.007476
523.963481	0.007554
524.180017	0.007469
524.396534	0.007376
524.613032	0.007658
524.829513	0.007161
525.045975	0.006261
525.262420	0.005462
525.478845	0.005775
525.695253	0.005519
525.911643	0.005587
526.128014	0.005419
526.344367	0.005486
526.560702	0.005493
526.777018	0.005443
526.993316	0.006326
527.209597	0.006349
527.425858	0.006154
527.642102	0.006327
527.858328	0.006676
528.074535	0.007015
528.290724	0.007177
528.506894	0.006909
528.723047	0.007234
528.939181	0.006639
529.155297	0.007056
529.371395	0.007394
529.587475	0.007198
529.803536	0.006530
530.019579	0.006717
530.235604	0.006421
530.451611	0.006700
530.667600	0.007141
530.883570	0.007831
531.099522	0.007954
531.315456	0.007783
531.531372	0.007662
531.747269	0.008204
531.963148	0.007871
532.179009	0.007739
532.394852	0.006916
532.610676	0.006395
532.826482	0.006100
533.042271	0.006017
533.258040	0.005635
533.473792	0.005724
533.689525	0.005619
533.905240	0.005676
534.120937	0.005838
534.336616	0.006783
534.552277	0.006732
534.767919	0.006888
534.983543	0.006730
535.199149	0.007283
535.414736	0.007577
535.630306	0.007784
535.845857	0.007799
536.061390	0.007785
536.276904	0.007576
536.492401	0.007615
536.707879	0.007839
536.923339	0.007567
537.138781	0.007646
537.354204	0.007448
537.569610	0.007200
537.784997	0.007303
538.000366	0.007593
538.215716	0.006957
538.431049	0.007343
538.646363	0.006562
538.861659	0.006820
539.076937	0.006421
539.292196	0.005941
539.507438	0.005913
539.722661	0.005837
539.937866	0.005470
540.153052	0.006083
540.368221	0.005744
540.583371	0.005833
540.798503	0.005736
541.013617	0.005675
541.228712	0.005815
541.443789	0.005811
541.658848	0.005446
541.873889	0.005475
542.088912	0.005241
542.303916	0.005246
542.518902	0.005530
542.733870	0.005670
542.948820	0.005635
543.163752	0.005896
543.378665	0.005943
543.593560	0.005575
543.808437	0.005158
544.023295	0.005094
544.238136	0.005465
544.452958	0.005231
544.667762	0.005293
544.882548	0.005134
545.097315	0.005091
545.312064	0.004927
545.526795	0.005265
545.741508	0.005689
545.956203	0.005774
546.170879	0.005354
546.385537	0.005727
546.600177	0.005519
546.814799	0.005548
547.029402	0.005384
547.243988	0.005585
547.458555	0.005561
547.673103	0.005200
547.887634	0.005002
548.102146	0.005061
548.316640	0.004664
548.531116	0.004663
548.745574	0.004944
548.960013	0.004929
549.174435	0.004416
549.388838	0.004509
549.603222	0.004548
549.817589	0.004404
550.031937	0.004320
550.246267	0.004635
550.460579	0.004503
550.674873	0.004092
550.889148	0.004016
551.103405	0.004408
551.317644	0.004155
551.531865	0.004259
551.746068	0.004353
551.960252	0.004166
552.174418	0.003388
552.388566	0.003402
552.602696	0.003103
552.816807	0.002839
553.030900	0.002464
553.244975	0.002471
553.459032	0.002241
553.673070	0.002378
553.887091	0.002663
554.101093	0.002888
554.315077	0.003237
554.529042	0.003767
554.742990	0.004113
554.956919	0.004152
555.170830	0.004306
555.384722	0.004369
555.598597	0.004566
555.812453	0.004679
556.026291	0.004897
556.240111	0.004538
556.453913	0.004327
556.667696	0.003942
556.881461	0.003736
557.095208	0.003752
557.308937	0.003498
557.522647	0.002969
557.736339	0.002466
557.950013	0.002162
558.163669	0.002111
558.377307	0.001832
558.590926	0.002085
558.804527	0.002094
559.018110	0.001655
559.231675	0.001875
559.445221	0.001945
559.658749	0.001998
559.872259	0.002419
560.085751	0.002080
560.299225	0.002087
560.512680	0.001862
560.726117	0.001960
560.939536	0.002330
561.152937	0.002234
561.366319	0.002279
561.579683	0.002278
561.793029	0.001957
562.006357	0.001928
562.219667	0.002138
562.432958	0.002107
562.646231	0.001955
562.859486	0.001965
563.072723	0.001925
563.285941	0.001532
563.499141	0.001261
563.712323	0.001336
563.925487	0.001490
564.138632	0.001293
564.351760	0.001437
564.564869	0.001537
564.777960	0.001209
564.991032	0.001039
565.204087	0.000978
565.417123	0.001181
565.630141	0.001038
565.843140	0.000866
566.056122	0.000702
566.269085	0.000592
566.482030	0.000387
566.694957	0.000406
566.907866	0.000486
567.120756	0.000563
567.333628	0.000051
567.546482	-0.000049
567.759318	0.000030
567.972135	-0.000022
568.184935	0.000053
568.397716	-0.000282
568.610478	-0.000461
568.823223	-0.000175
569.035949	-0.000062
569.248657	0.000459
569.461347	0.000740
569.674019	0.001090
569.886672	0.001317
570.099308	0.001393
570.311925	0.001646
570.524523	0.001966
570.737104	0.001749
570.949666	0.001612
571.162210	0.001398
571.374736	0.000899
571.587244	0.000581
571.799733	0.000624
572.012205	0.000250
572.224658	0.000281
572.437092	0.000382
572.649509	0.000665
572.861907	0.000701
573.074287	0.000588
573.286649	0.000839
573.498993	0.000911
573.711318	0.000923
573.923625	0.001218
574.135914	0.001469
574.348185	0.001306
574.560438	0.000816
574.772672	0.000959
574.984888	0.001159
575.197086	0.000998
575.409266	0.000556
575.621427	0.000473
575.833570	0.000328
576.045695	0.000322
576.257802	0.000235
576.469890	0.000212
576.681961	0.000079
576.894013	0.000044
577.106046	0.000060
577.318062	0.000399
577.530059	0.000252
577.742039	0.000336
577.954000	0.000236
578.165942	0.000268
578.377867	0.000624
578.589773	0.000973
578.801661	0.000784
579.013531	0.000687
579.225382	0.000459
579.437216	0.000587
579.649031	0.000469
579.860828	0.000434
580.072606	0.000302
580.284367	0.000032
580.496109	-0.000197
580.707833	-0.000246
580.919539	-0.000177
581.131227	0.000099
581.342896	-0.000086
581.554547	-0.000168
581.766180	-0.000048
581.977795	0.000136
582.189391	-0.000029
582.400969	-0.000199
582.612529	-0.000171
582.824071	-0.000165
583.035595	-0.000405
583.247100	-0.000386
583.458587	-0.000307
583.670056	-0.000595
583.881506	-0.000571
584.092939	-0.000721
584.304353	-0.000662
584.515749	-0.000216
584.727127	0.000122
584.938486	0.000550
585.149828	0.000846
585.361151	0.001104
585.572456	0.001315
585.783742	0.001302
585.995011	0.001523
586.206261	0.001413
586.417493	0.001690
586.628706	0.001813
586.839902	0.001621
587.051079	0.001713
587.262238	0.001379
587.473379	0.001229
587.684502	0.001182
587.895606	0.001321
588.106692	0.001343
588.317760	0.000839
588.528810	0.000672
588.739841	0.000710
588.950855	0.000808
589.161850	0.000829
589.372827	0.001008
589.583785	0.001041
589.794726	0.001276
590.005648	0.001188
590.216552	0.001500
590.427437	0.001471
590.638305	0.001346
590.849154	0.000979
591.059985	0.001117
591.270798	0.000803
591.481592	0.001038
591.692369	0.000663
591.903127	0.001167
592.113867	0.000952
592.324588	0.001147
592.535292	0.001535
592.745977	0.001747
592.956644	0.001987
593.167293	0.002307
593.377923	0.002112
593.588536	0.002218
593.799130	0.002031
594.009706	0.002130
594.220263	0.002037
594.430803	0.001954
594.641324	0.001910
594.851827	0.001750
595.062312	0.001846
595.272778	0.001833
595.483227	0.001960
595.693657	0.001895
595.904069	0.001672
596.114462	0.001383
596.324838	0.001276
596.535195	0.001382
596.745534	0.001259
596.955855	0.001421
597.166157	0.001191
597.376441	0.001124
597.586707	0.001152
597.796955	0.001132
598.007185	0.001140
598.217396	0.001092
598.427589	0.000761
598.637764	0.000629
598.847921	0.000178
599.058060	0.000248
599.268180	0.000205
599.478282	0.000268
599.688366	0.000393
599.898431	0.000670
600.108479	0.000630
600.318508	0.000825
600.528519	0.001037
600.738511	0.001165
600.948486	0.001341
601.158442	0.001798
601.368380	0.001819
601.578300	0.001977
601.788202	0.001866
601.998085	0.001877
602.207950	0.001809
602.417797	0.001597
602.627626	0.001644
602.837436	0.001554
603.047228	0.001320
603.257002	0.001492
603.466758	0.001271
603.676496	0.001229
603.886215	0.001098
604.095916	0.001211
604.305599	0.001293
604.515264	0.001359
604.724910	0.001404
604.934538	0.001258
605.144148	0.001129
605.353740	0.001315
605.563314	0.001328
605.772869	0.001528
605.982406	0.001551
606.191925	0.001996
606.401425	0.002054
606.610908	0.001979
606.820372	0.002156
607.029818	0.002318
607.239246	0.002122
607.448655	0.002116
607.658047	0.002068
607.867420	0.002200
608.076775	0.001811
608.286111	0.001550
608.495430	0.001681
608.704730	0.001576
608.914012	0.001406
609.123275	0.001452
609.332521	0.001837
609.541748	0.001763
609.750957	0.001736
609.960148	0.001782
610.169321	0.001900
610.378475	0.001745
610.587611	0.001761
610.796729	0.001817
611.005829	0.002046
611.214910	0.001916
611.423974	0.001986
611.633019	0.001884
611.842045	0.002192
612.051054	0.002300
612.260044	0.002490
612.469017	0.002396
612.677970	0.002172
612.886906	0.002046
613.095824	0.001984
613.304723	0.002032
613.513604	0.002124
613.722467	0.002131
613.931311	0.002159
614.140138	0.002222
614.348946	0.002308
614.557736	0.002685
614.766507	0.002861
614.975261	0.003003
615.183996	0.003020
615.392713	0.003163
615.601412	0.003152
615.810092	0.002962
616.018754	0.002770
616.227399	0.002882
616.436024	0.002900
616.644632	0.002782
616.853222	0.002635
617.061793	0.002753
617.270346	0.002623
617.478880	0.002447
617.687397	0.002800
617.895895	0.003024
618.104375	0.002827
618.312837	0.002706
618.521281	0.002535
618.729706	0.002719
618.938113	0.002560
619.146502	0.002739
619.354873	0.002901
619.563226	0.002813
619.771560	0.002726
619.979876	0.002661
620.188174	0.002885
620.396453	0.002926
620.604715	0.002863
620.812958	0.003188
621.021183	0.003003
621.229390	0.003056
621.437578	0.003124
621.645748	0.003353
621.853900	0.003572
622.062034	0.003525
622.270150	0.003665
622.478247	0.003938
622.686326	0.003943
622.894387	0.004174
623.102430	0.004118
623.310454	0.004219
623.518461	0.004100
623.726449	0.004113
623.934418	0.004051
624.142370	0.003980
624.350303	0.003774
624.558218	0.003843
624.766115	0.003671
624.973994	0.003799
625.181855	0.003701
625.389697	0.003684
625.597521	0.003889
625.805327	0.003815
626.013114	0.004161
626.220883	0.004111
626.428634	0.003970
626.636367	0.004027
626.844082	0.003895
627.051778	0.003918
627.259457	0.004086
627.467117	0.004001
627.674758	0.004140
627.882382	0.003911
628.089987	0.004077
628.297574	0.004168
628.505143	0.004068
628.712694	0.004018
628.920226	0.004050
629.127740	0.003955
629.335236	0.003817
629.542714	0.003784
629.750174	0.003935
629.957615	0.003830
630.165038	0.003786
630.372443	0.004039
630.579829	0.004030
630.787198	0.003909
630.994548	0.004016
631.201880	0.003999
631.409194	0.003889
631.616489	0.003727
631.823766	0.003637
632.031025	0.003697
632.238266	0.003654
632.445489	0.003698
632.652693	0.003637
632.859879	0.003685
633.067047	0.003797
633.274197	0.003889
633.481329	0.004057
633.688442	0.004168
633.895537	0.004159
634.102614	0.004233
634.309672	0.004239
634.516713	0.004429
634.723735	0.004161
634.930739	0.004043
635.137724	0.004064
635.344692	0.003882
635.551641	0.003783
635.758572	0.003666
635.965485	0.003611
636.172379	0.003679
636.379256	0.003815
636.586114	0.003947
636.792954	0.004019
636.999775	0.004081
637.206579	0.004153
637.413364	0.004386
637.620131	0.004469
637.826880	0.004525
638.033610	0.004630
638.240323	0.004798
638.447017	0.004763
638.653692	0.004988
638.860350	0.004955
639.066990	0.005017
639.273611	0.004945
639.480214	0.004997
639.686798	0.004858
639.893365	0.004681
640.099913	0.004372
640.306443	0.004440
640.512955	0.004304
640.719449	0.004419
640.925924	0.004516
641.132381	0.004559
641.338820	0.004546
641.545241	0.004699
641.751644	0.004838
641.958028	0.004710
642.164394	0.004657
642.370742	0.004727
642.577071	0.004474
642.783383	0.004498
642.989676	0.004267
643.195951	0.004281
643.402207	0.004352
643.608446	0.004423
643.814666	0.004488
644.020868	0.004482
644.227052	0.004581
644.433218	0.005022
644.639365	0.004939
644.845494	0.005165
645.051605	0.005156
645.257698	0.005137
645.463772	0.005077
645.669828	0.005244
645.875866	0.005411
646.081886	0.005363
646.287888	0.005175
646.493871	0.005225
646.699836	0.005149
646.905783	0.005243
647.111712	0.005017
647.317622	0.004980
647.523514	0.005066
647.729388	0.005063
647.935244	0.005098
648.141082	0.005272
648.346901	0.005223
648.552702	0.005259
648.758485	0.005266
648.964250	0.005544
649.169996	0.005629
649.375724	0.005590
649.581434	0.005604
649.787126	0.005563
649.992800	0.005391
650.198455	0.005640
650.404092	0.005528
650.609711	0.005586
650.815311	0.005436
651.020894	0.005554
651.226458	0.005499
651.432004	0.005435
651.637532	0.005482
651.843041	0.005552
652.048532	0.005347
652.254006	0.005494
652.459460	0.005229
652.664897	0.005232
652.870315	0.005065
653.075716	0.004953
653.281097	0.004730
653.486461	0.004586
653.691807	0.004414
653.897134	0.004415
654.102443	0.004337
654.307734	0.004363
654.513006	0.004203
654.718261	0.004534
654.923497	0.004743
655.128715	0.004966
655.333915	0.005102
655.539096	0.005171
655.744259	0.005238
655.949404	0.005534
656.154531	0.005774
656.359640	0.005953
656.564730	0.005794
656.769802	0.005924
656.974856	0.006183
657.179892	0.006218
657.384909	0.006304
657.589908	0.006480
657.794889	0.006420
657.999852	0.006492
658.204797	0.006525
658.409723	0.006588
658.614631	0.006591
658.819521	0.006592
659.024393	0.006633
659.229246	0.006640
659.434081	0.006618
659.638898	0.006497
659.843697	0.006481
660.048478	0.006611
660.253240	0.006626
660.457984	0.006427
660.662710	0.006463
660.867417	0.006636
661.072107	0.006786
661.276778	0.006729
661.481431	0.006849
661.686066	0.006917
661.890682	0.006947
662.095281	0.006846
662.299861	0.006927
662.504422	0.007045
662.708966	0.006923
662.913491	0.006879
663.117999	0.006965
663.322488	0.007127
663.526958	0.007146
663.731411	0.007247
663.935845	0.007522
664.140261	0.007732
664.344659	0.007624
664.549038	0.007577
664.753400	0.007790
664.957743	0.007878
665.162068	0.007804
665.366375	0.007670
665.570663	0.007793
665.774933	0.007554
665.979185	0.007521
666.183419	0.007512
666.387635	0.007646
666.591832	0.007452
666.796011	0.007475
667.000172	0.007585
667.204315	0.007677
667.408439	0.007534
667.612545	0.007562
667.816634	0.007325
668.020703	0.007388
668.224755	0.007442
668.428788	0.007392
668.632803	0.007258
668.836800	0.007035
669.040779	0.007147
669.244739	0.007037
669.448681	0.007257
669.652605	0.007511
669.856511	0.007688
670.060399	0.007679
670.264268	0.007928
670.468119	0.008117
670.671952	0.008406
670.875767	0.008332
671.079563	0.008521
671.283341	0.008550
671.487101	0.008544
671.690843	0.008350
671.894567	0.008444
672.098272	0.008341
672.301959	0.008294
672.505628	0.008209
672.709278	0.008391
672.912911	0.008563
673.116525	0.008526
673.320121	0.008586
673.523699	0.008657
673.727258	0.008692
673.930799	0.008822
674.134322	0.008875
674.337827	0.008989
674.541314	0.009004
674.744782	0.008902
674.948232	0.009024
675.151664	0.009050
675.355078	0.009211
675.558474	0.009278
675.761851	0.009180
675.965210	0.009129
676.168551	0.008991
676.371873	0.008975
676.575178	0.008933
676.778464	0.008914
676.981732	0.008915
677.184981	0.008905
677.388213	0.008836
677.591426	0.008967
677.794621	0.009049
677.997798	0.009183
678.200956	0.009237
678.404097	0.009206
678.607219	0.009155
678.810323	0.009133
679.013408	0.009037
679.216476	0.009054
679.419525	0.009036
679.622556	0.009056
679.825569	0.008909
680.028563	0.008904
680.231540	0.009028
680.434498	0.009052
680.637438	0.009209
680.840359	0.009335
681.043263	0.009359
681.246148	0.009351
681.449015	0.009306
681.651864	0.009359
681.854694	0.009254
682.057506	0.009351
682.260301	0.009535
682.463076	0.009549
682.665834	0.009765
682.868573	0.009949
683.071295	0.010038
683.273998	0.010207
683.476682	0.010492
683.679349	0.010668
683.881997	0.010712
684.084627	0.010502
684.287239	0.010517
684.489833	0.010393
684.692408	0.010237
684.894965	0.010225
685.097504	0.010067
685.300025	0.009991
685.502527	0.009841
685.705012	0.009687
685.907478	0.009734
686.109925	0.009702
686.312355	0.009551
686.514766	0.009591
686.717159	0.009572
686.919534	0.009966
687.121891	0.009976
687.324230	0.010249
687.526550	0.010416
687.728852	0.010648
687.931136	0.010824
688.133401	0.011130
688.335649	0.011350
688.537878	0.011494
688.740089	0.011511
688.942281	0.011758
689.144456	0.011741
689.346612	0.011874
689.548750	0.011982
689.750870	0.012083
689.952971	0.011980
690.155055	0.011962
690.357120	0.011988
690.559167	0.011878
690.761195	0.011841
690.963206	0.011954
691.165198	0.012015
691.367172	0.012174
691.569128	0.012103
691.771065	0.012194
691.972984	0.012119
692.174885	0.012236
692.376768	0.012204
692.578633	0.012250
692.780479	0.012197
692.982308	0.011995
693.184118	0.011665
693.385909	0.011713
693.587683	0.011637
693.789438	0.011751
693.991175	0.011820
694.192894	0.011968
694.394595	0.011808
694.596277	0.011744
694.797941	0.011899
694.999587	0.011972
695.201215	0.011832
695.402824	0.011889
695.604416	0.011855
695.805989	0.011677
696.007543	0.011563
696.209080	0.011568
696.410598	0.011516
696.612099	0.011343
696.813580	0.011389
697.015044	0.011491
697.216490	0.011545
697.417917	0.011511
697.619326	0.011616
697.820717	0.011608
698.022089	0.011663
698.223444	0.011918
698.424780	0.012210
698.626098	0.012137
698.827397	0.012191
699.028679	0.012117
699.229942	0.012168
699.431187	0.012094
699.632414	0.012086
699.833622	0.012051
700.034813	0.011919
700.235985	0.011696
700.437139	0.011755
700.638274	0.011632
700.839392	0.011692
701.040491	0.011755
701.241572	0.011795
701.442635	0.011814
701.643679	0.011913
701.844706	0.012073
702.045714	0.012306
702.246704	0.012300
702.447675	0.012436
702.648629	0.012459
702.849564	0.012381
703.050481	0.012403
703.251380	0.012416
703.452260	0.012365
703.653122	0.012191
703.853966	0.012067
704.054792	0.012106
704.255600	0.012028
704.456389	0.011933
704.657160	0.012185
704.857913	0.012314
705.058648	0.012348
705.259365	0.012407
705.460063	0.012533
705.660743	0.012675
705.861405	0.012715
706.062048	0.012806
706.262674	0.012913
706.463281	0.012764
706.663870	0.012801
706.864441	0.012917
707.064993	0.013155
707.265527	0.013198
707.466043	0.013133
707.666541	0.013171
707.867021	0.013250
708.067482	0.013267
708.267925	0.013173
708.468350	0.013177
708.668757	0.013263
708.869145	0.012954
709.069516	0.013110
709.269868	0.013228
709.470201	0.013127
709.670517	0.013199
709.870814	0.013191
710.071093	0.013360
710.271354	0.013424
710.471597	0.013424
710.671821	0.013677
710.872028	0.013511
711.072216	0.013596
711.272385	0.013888
711.472537	0.013948
711.672670	0.014123
711.872785	0.014073
712.072882	0.014011
712.272961	0.013817
712.473021	0.013777
712.673063	0.013843
712.873087	0.013551
713.073093	0.013335
713.273081	0.013296
713.473050	0.013159
713.673001	0.012954
713.872934	0.012783
714.072849	0.012789
714.272745	0.012656
714.472623	0.012589
714.672483	0.012612
714.872325	0.012673
715.072148	0.012524
715.271954	0.012579
715.471741	0.012869
715.671509	0.012994
715.871260	0.013133
716.070992	0.013221
716.270707	0.013242
716.470403	0.013342
716.670080	0.013233
716.869740	0.013378
717.069381	0.013406
717.269004	0.013406
717.468609	0.013526
717.668195	0.013512
717.867764	0.013510
718.067314	0.013496
718.266846	0.013686
718.466360	0.013620
718.665855	0.013479
718.865332	0.013526
719.064791	0.013324
719.264232	0.013328
719.463655	0.013365
719.663059	0.013396
719.862445	0.013398
720.061813	0.013273
720.261163	0.013414
720.460494	0.013494
720.659807	0.013348
720.859102	0.013569
721.058379	0.013663
721.257638	0.013627
721.456878	0.013696
721.656100	0.013616
721.855304	0.013484
722.054490	0.013591
722.253657	0.013492
722.452806	0.013664
722.651937	0.013630
722.851050	0.013550
723.050145	0.013548
723.249221	0.013325
723.448279	0.013481
723.647319	0.013368
723.846340	0.013265
724.045344	0.013179
724.244329	0.012976
724.443296	0.012937
724.642245	0.012734
724.841175	0.012645
725.040088	0.012710
725.238982	0.012692
725.437857	0.012789
725.636715	0.012606
725.835554	0.012715
726.034376	0.012790
726.233179	0.012816
726.431963	0.013018
726.630730	0.013116
726.829478	0.012999
727.028208	0.012946
727.226920	0.012989
727.425614	0.013031
727.624289	0.012816
727.822946	0.012780
728.021585	0.012680
728.220206	0.012444
728.418808	0.012334
728.617392	0.012555
728.815958	0.012425
729.014506	0.012344
729.213036	0.012572
729.411547	0.012865
729.610040	0.012874
729.808515	0.012946
730.006972	0.013039
730.205410	0.013052
730.403831	0.013135
730.602233	0.013393
730.800616	0.013585
730.998982	0.013600
731.197329	0.013694
731.395658	0.013793
731.593969	0.013778
731.792262	0.013843
731.990536	0.013835
732.188793	0.013864
732.387031	0.013889
732.585250	0.013924
732.783452	0.013928
732.981635	0.013860
733.179800	0.013817
733.377947	0.013896
733.576076	0.014096
733.774186	0.014439
733.972278	0.014414
734.170352	0.014535
734.368408	0.014562
734.566446	0.014741
734.764465	0.014942
734.962466	0.015104
735.160449	0.015205
735.358413	0.015164
735.556360	0.015111
735.754288	0.015339
735.952198	0.015228
736.150090	0.015433
736.347963	0.015460
736.545818	0.015635
736.743655	0.015673
736.941474	0.015797
737.139275	0.015830
737.337057	0.015821
737.534821	0.015798
737.732567	0.015879
737.930295	0.015851
738.128005	0.015840
738.325696	0.015819
738.523369	0.015994
738.721024	0.016002
738.918660	0.016120
739.116279	0.016379
739.313879	0.016293
739.511461	0.016482
739.709024	0.016440
739.906570	0.016687
740.104097	0.016637
740.301606	0.016767
740.499097	0.016871
740.696569	0.016884
740.894024	0.016934
741.091460	0.017059
741.288878	0.017182
741.486277	0.017329
741.683659	0.017467
741.881022	0.017695
742.078367	0.017665
742.275694	0.017863
742.473002	0.017948
742.670293	0.018108
742.867565	0.018280
743.064819	0.018416
743.262054	0.018583
743.459272	0.018427
743.656471	0.018493
743.853652	0.018527
744.050815	0.018532
744.247959	0.018816
744.445085	0.018744
744.642194	0.018866
744.839283	0.018925
745.036355	0.019077
745.233408	0.019303
745.430444	0.019380
745.627461	0.019494
745.824459	0.019548
746.021440	0.019673
746.218402	0.019945
746.415346	0.019930
746.612272	0.020071
746.809180	0.020092
747.006069	0.020190
747.202940	0.020339
747.399793	0.020498
747.596628	0.020770
747.793444	0.020721
747.990243	0.020710
748.187023	0.020856
748.383784	0.020873
748.580528	0.021022
748.777253	0.021094
748.973960	0.021023
749.170649	0.021214
749.367320	0.021096
749.563973	0.021289
749.760607	0.021505
749.957223	0.021480
750.153821	0.021435
750.350400	0.021376
750.546962	0.021325
750.743505	0.021293
750.940030	0.021273
751.136536	0.021608
751.333025	0.021517
751.529495	0.021392
751.725947	0.021513
751.922381	0.021419
752.118796	0.021366
752.315194	0.021383
752.511573	0.021470
752.707934	0.021495
752.904276	0.021165
753.100601	0.021072
753.296907	0.021137
753.493195	0.021260
753.689465	0.021370
753.885716	0.021454
754.081949	0.021427
754.278164	0.021501
754.474361	0.021260
754.670540	0.021485
754.866700	0.021548
755.062843	0.021646
755.258967	0.021677
755.455072	0.021792
755.651160	0.021849
755.847229	0.021859
756.043280	0.021903
756.239313	0.022124
756.435328	0.022055
756.631324	0.022161
756.827302	0.022223
757.023262	0.022129
757.219204	0.022223
757.415127	0.022532
757.611033	0.022780
757.806920	0.022973
758.002788	0.023021
758.198639	0.023296
758.394471	0.023392
758.590286	0.023248
758.786081	0.023571
758.981859	0.023652
759.177619	0.023504
759.373360	0.023661
759.569083	0.023912
759.764788	0.024252
759.960474	0.024145
760.156143	0.024413
760.351793	0.024559
760.547425	0.024469
760.743038	0.024684
760.938634	0.024996
761.134211	0.025201
761.329770	0.025151
761.525311	0.025243
761.720833	0.025402
761.916338	0.025475
762.111824	0.025671
762.307292	0.025813
762.502741	0.025732
762.698173	0.025570
762.893586	0.025610
763.088981	0.025656
763.284358	0.025577
763.479716	0.025679
763.675057	0.025558
763.870379	0.025663
764.065683	0.025868
764.260968	0.026134
764.456236	0.026337
764.651485	0.026327
764.846716	0.026519
765.041929	0.026579
765.237123	0.026655
765.432299	0.026861
765.627457	0.026924
765.822597	0.026932
766.017719	0.026904
766.212822	0.027130
766.407907	0.027301
766.602974	0.027209
766.798023	0.027359
766.993054	0.027628
767.188066	0.027716
767.383060	0.028008
767.578036	0.028044
767.772993	0.028131
767.967933	0.027959
768.162854	0.027936
768.357757	0.028043
768.552642	0.028070
768.747508	0.027966
768.942356	0.028008
769.137186	0.028048
769.331998	0.028094
769.526792	0.028172
769.721567	0.028367
769.916324	0.028284
770.111063	0.028394
770.305784	0.028406
770.500486	0.028468
770.695171	0.028638
770.889837	0.028482
771.084484	0.028581
771.279114	0.028666
771.473725	0.028739
771.668318	0.028972
771.862893	0.028948
772.057450	0.029097
772.251988	0.029196
772.446509	0.029192
772.641011	0.029302
772.835494	0.029503
773.029960	0.029522
773.224407	0.029540
773.418836	0.029624
773.613247	0.029659
773.807640	0.029673
774.002014	0.029673
774.196370	0.029697
774.390708	0.029880
774.585028	0.030005
774.779330	0.030145
774.973613	0.030366
775.167878	0.030427
775.362125	0.030687
775.556354	0.030863
775.750564	0.030946
775.944756	0.030973
776.138930	0.030822
776.333086	0.030700
776.527223	0.030657
776.721343	0.030855
776.915444	0.030880
777.109526	0.030704
777.303591	0.030637
777.497637	0.030683
777.691666	0.030923
777.885676	0.030969
778.079667	0.031152
778.273641	0.031236
778.467596	0.031132
778.661533	0.031311
778.855452	0.031655
779.049352	0.031760
779.243235	0.031945
779.437099	0.031788
779.630945	0.031935
779.824773	0.031929
780.018582	0.032105
780.212373	0.032258
780.406146	0.032282
780.599901	0.032266
780.793638	0.032463
780.987356	0.032526
781.181056	0.032780
781.374738	0.033052
781.568402	0.033150
781.762047	0.033279
781.955674	0.033301
782.149283	0.033328
782.342874	0.033505
782.536447	0.033601
782.730001	0.033873
782.923537	0.033824
783.117055	0.033759
783.310555	0.033921
783.504036	0.033938
783.697499	0.033923
783.890944	0.034072
784.084371	0.034004
784.277780	0.034005
784.471170	0.033938
784.664542	0.034223
784.857896	0.034089
785.051231	0.034098
785.244549	0.034322
785.437848	0.034499
785.631129	0.034460
785.824392	0.034515
786.017636	0.034631
786.210863	0.034557
786.404071	0.034591
786.597260	0.034958
786.790432	0.035089
786.983585	0.035030
787.176721	0.035133
787.369838	0.035493
787.562936	0.035592
787.756017	0.035604
787.949079	0.035660
788.142123	0.035608
788.335149	0.035445
788.528156	0.035370
788.721146	0.035265
788.914117	0.035125
789.107070	0.034938
789.300005	0.035003
789.492921	0.034989
789.685819	0.035057
789.878699	0.035266
790.071561	0.035607
790.264405	0.035573
790.457230	0.035785
790.650037	0.035936
790.842826	0.036063
791.035597	0.036101
791.228349	0.036291
791.421084	0.036411
791.613800	0.036388
791.806497	0.036352
791.999177	0.036715
792.191838	0.036970
792.384481	0.036991
792.577106	0.037121
792.769713	0.037264
792.962301	0.037269
793.154871	0.037317
793.347423	0.037276
793.539957	0.037332
793.732473	0.037130
793.924970	0.037005
794.117449	0.036984
794.309910	0.036797
794.502353	0.036863
794.694777	0.036883
794.887183	0.036780
795.079571	0.036821
795.271941	0.036837
795.464293	0.037288
795.656626	0.037146
795.848941	0.037381
796.041238	0.037557
796.233516	0.037699
796.425777	0.037729
796.618019	0.038185
796.810243	0.038531
797.002449	0.038800
797.194636	0.038530
797.386805	0.038523
797.578956	0.038602
797.771089	0.038731
797.963204	0.038511
798.155300	0.038494
798.347378	0.038165
798.539438	0.038178
798.731480	0.037882
798.923503	0.037852
799.115509	0.038075
799.307496	0.037993
799.499465	0.037958
799.691415	0.038038
799.883348	0.038121
800.075262	0.038380
800.267158	0.038252
800.459035	0.038365
800.650895	0.038396
800.842736	0.038541
801.034559	0.038528
801.226364	0.038562
801.418150	0.038833
801.609919	0.038765
801.801669	0.038734
801.993401	0.038753
802.185114	0.038958
802.376810	0.039036
802.568487	0.038923
802.760146	0.038928
802.951787	0.038993
803.143409	0.038753
803.335014	0.038950
803.526600	0.039001
803.718168	0.038943
803.909717	0.038941
804.101249	0.039075
804.292762	0.039248
804.484257	0.039452
804.675734	0.039517
804.867192	0.039738
805.058632	0.039798
805.250054	0.039963
805.441458	0.040199
805.632844	0.040080
805.824211	0.039963
806.015561	0.039946
806.206891	0.039892
806.398204	0.039916
806.589499	0.039655
806.780775	0.039605
806.972033	0.039401
807.163273	0.039088
807.354495	0.039060
807.545698	0.039104
807.736883	0.038878
807.928050	0.038781
808.119199	0.038506
808.310329	0.038735
808.501441	0.038762
808.692535	0.038721
808.883611	0.038891
809.074669	0.038802
809.265708	0.038812
809.456729	0.038752
809.647732	0.038814
809.838717	0.039094
810.029683	0.038922
810.220632	0.038683
810.411562	0.038832
810.602474	0.038687
810.793367	0.038876
810.984242	0.038767
811.175100	0.039065
811.365938	0.039051
811.556759	0.038938
811.747562	0.039150
811.938346	0.039387
812.129112	0.039255
812.319860	0.039269
812.510589	0.039295
812.701300	0.039229
812.891994	0.039063
813.082668	0.039184
813.273325	0.039019
813.463964	0.038864
813.654584	0.038795
813.845186	0.038826
814.035769	0.038985
814.226335	0.038834
814.416882	0.038923
814.607411	0.039035
814.797922	0.038818
814.988415	0.038948
815.178889	0.038914
815.369345	0.038921
815.559783	0.039069
815.750203	0.039023
815.940605	0.039116
816.130988	0.039276
816.321353	0.039348
816.511700	0.039575
816.702028	0.039810
816.892339	0.039958
817.082631	0.039972
817.272905	0.040026
817.463161	0.039871
817.653398	0.039774
817.843617	0.039636
818.033819	0.039537
818.224001	0.039267
818.414166	0.038908
818.604312	0.038566
818.794440	0.038523
818.984550	0.037979
819.174642	0.037904
819.364716	0.037715
819.554771	0.037424
819.744808	0.037297
819.934827	0.037054
820.124827	0.037142
820.314810	0.037236
820.504774	0.037095
820.694720	0.037379
820.884647	0.037578
821.074557	0.037519
821.264448	0.037484
821.454321	0.037364
821.644176	0.037624
821.834012	0.037486
822.023831	0.037434
822.213631	0.037466
822.403413	0.037252
822.593176	0.037037
822.782922	0.037149
822.972649	0.037317
823.162358	0.037287
823.352049	0.037215
823.541721	0.037148
823.731376	0.037193
823.921012	0.036928
824.110629	0.036948
824.300229	0.036786
824.489811	0.036665
824.679374	0.036491
824.868919	0.036462
825.058445	0.036307
825.247954	0.036166
825.437444	0.036019
825.626916	0.036257
825.816370	0.036352
826.005806	0.036641
826.195223	0.037080
826.384622	0.037169
826.574003	0.037198
826.763366	0.037093
826.952711	0.037228
827.142037	0.037235
827.331345	0.037157
827.520635	0.036888
827.709906	0.036780
827.899160	0.036165
828.088395	0.036079
828.277612	0.036140
828.466810	0.036203
828.655991	0.035959
828.845153	0.035618
829.034297	0.035434
829.223423	0.035476
829.412531	0.035237
829.601620	0.035387
829.790691	0.035452
829.979744	0.035292
830.168779	0.035363
830.357795	0.035524
830.546793	0.035668
830.735773	0.035655
830.924735	0.035651
831.113679	0.035511
831.302604	0.035387
831.491511	0.035208
831.680400	0.035247
831.869271	0.035253
832.058123	0.035027
832.246957	0.035062
832.435773	0.034937
832.624571	0.034606
832.813351	0.034632
833.002112	0.034326
833.190855	0.034042
833.379580	0.033601
833.568287	0.033142
833.756975	0.033238
833.945645	0.033208
834.134297	0.032934
834.322931	0.033141
834.511547	0.033121
834.700144	0.033332
834.888723	0.033538
835.077284	0.033818
835.265826	0.034070
835.454351	0.033878
835.642857	0.033778
835.831345	0.034170
836.019815	0.034111
836.208266	0.034349
836.396699	0.034288
836.585114	0.034181
836.773511	0.034218
836.961890	0.034019
837.150250	0.033888
837.338592	0.033983
837.526916	0.033682
837.715222	0.033725
837.903510	0.033442
838.091779	0.033372
838.280030	0.033258
838.468263	0.032877
838.656477	0.032950
838.844674	0.033034
839.032852	0.032542
839.221012	0.032510
839.409153	0.032299
839.597277	0.032146
839.785382	0.032067
839.973469	0.031906
840.161538	0.031714
840.349589	0.031573
840.537621	0.031582
840.725635	0.031724
840.913631	0.031682
841.101609	0.031586
841.289568	0.031209
841.477509	0.031093
841.665432	0.031447
841.853337	0.031746
842.041224	0.031685
842.229092	0.031515
842.416942	0.031661
842.604774	0.031703
842.792588	0.031852
842.980383	0.032160
843.168160	0.032458
843.355919	0.032239
843.543660	0.032193
843.731382	0.032341
843.919087	0.032619
844.106773	0.032519
844.294441	0.032621
844.482090	0.032397
844.669722	0.032475
844.857335	0.032142
845.044930	0.031783
845.232507	0.031702
845.420065	0.031535
845.607605	0.031191
845.795127	0.031155
845.982631	0.030900
846.170117	0.030855
846.357584	0.030696
846.545033	0.030663
846.732464	0.030675
846.919877	0.030559
847.107272	0.030304
847.294648	0.030023
847.482006	0.029624
847.669346	0.029328
847.856667	0.028981
848.043971	0.028993
848.231256	0.029103
848.418523	0.029071
848.605771	0.028943
848.793002	0.028842
848.980214	0.028839
849.167408	0.029041
849.354584	0.029328
849.541742	0.029370
849.728881	0.029328
849.916002	0.029226
850.103105	0.029480
850.290190	0.029491
850.477256	0.029649
850.664304	0.029875
850.851334	0.029817
851.038346	0.029849
851.225340	0.029878
851.412315	0.029498
851.599272	0.029081
851.786211	0.028604
851.973132	0.028380
852.160034	0.028234
852.346918	0.027818
852.533784	0.027601
852.720632	0.026981
852.907462	0.026578
853.094273	0.026648
853.281066	0.026594
853.467841	0.026443
853.654598	0.026311
853.841336	0.026252
854.028056	0.026248
854.214758	0.026214
854.401442	0.026494
854.588107	0.026472
854.774755	0.026443
854.961384	0.026372
855.147995	0.026556
855.334587	0.026531
855.521162	0.026353
855.707718	0.026073
855.894256	0.025993
856.080775	0.025582
856.267277	0.025522
856.453760	0.025464
856.640225	0.025486
856.826672	0.025249
857.013101	0.025230
857.199511	0.025205
857.385903	0.025425
857.572277	0.025225
857.758633	0.025394
857.944970	0.025699
858.131290	0.025470
858.317591	0.025320
858.503873	0.025322
858.690138	0.025317
858.876384	0.025129
859.062612	0.025162
859.248822	0.025187
859.435014	0.025160
859.621188	0.025064
859.807343	0.025099
859.993480	0.025400
860.179599	0.025597
860.365699	0.025512
860.551781	0.025696
860.737846	0.025780
860.923891	0.026009
861.109919	0.026106
861.295929	0.026161
861.481920	0.026375
861.667893	0.026002
861.853848	0.025800
862.039784	0.025475
862.225702	0.025293
862.411603	0.024997
862.597484	0.024651
862.783348	0.024548
862.969193	0.024313
863.155021	0.024119
863.340830	0.024064
863.526620	0.023972
863.712393	0.024005
863.898147	0.023879
864.083883	0.023864
864.269601	0.023726
864.455301	0.023534
864.640982	0.023475
864.826645	0.023077
865.012290	0.023021
865.197917	0.022738
865.383526	0.022339
865.569116	0.022398
865.754688	0.022075
865.940242	0.022125
866.125777	0.022097
866.311295	0.021762
866.496794	0.021893
866.682275	0.021950
866.867737	0.022111
867.053182	0.022659
867.238608	0.022398
867.424016	0.022300
867.609406	0.022114
867.794778	0.021701
867.980131	0.021803
868.165466	0.021413
868.350783	0.021265
868.536082	0.021064
868.721362	0.020568
868.906625	0.020395
869.091869	0.020269
869.277094	0.019959
869.462302	0.019824
869.647491	0.019546
869.832662	0.019406
870.017815	0.019194
870.202950	0.018786
870.388066	0.018624
870.573165	0.018617
870.758245	0.018606
870.943306	0.018535
871.128350	0.018405
871.313375	0.018269
871.498382	0.018280
871.683371	0.018131
871.868342	0.017927
872.053294	0.018101
872.238229	0.017899
872.423144	0.017614
872.608042	0.017651
872.792922	0.017813
872.977783	0.017698
873.162626	0.017496
873.347451	0.017293
873.532258	0.017574
873.717046	0.017278
873.901816	0.017163
874.086568	0.017156
874.271302	0.017006
874.456017	0.016243
874.640715	0.016148
874.825394	0.016213
875.010055	0.015827
875.194697	0.015673
875.379322	0.015595
875.563928	0.015545
875.748516	0.015417
875.933085	0.015313
876.117637	0.015931
876.302170	0.015945
876.486685	0.015876
876.671182	0.016240
876.855661	0.016042
877.040121	0.015980
877.224563	0.015690
877.408987	0.015621
877.593393	0.015594
877.777780	0.015235
877.962150	0.015231
878.146501	0.015213
878.330833	0.014882
878.515148	0.014746
878.699444	0.014802
878.883722	0.014819
879.067982	0.014914
879.252224	0.014837
879.436447	0.014840
879.620653	0.014632
879.804840	0.014417
879.989008	0.014401
880.173159	0.014477
880.357291	0.014280
880.541405	0.014205
880.725501	0.014044
880.909579	0.013731
881.093638	0.013774
881.277680	0.013714
881.461703	0.013727
881.645707	0.013697
881.829694	0.013336
882.013662	0.013235
882.197612	0.013123
882.381544	0.012893
882.565458	0.013112
882.749353	0.012717
882.933230	0.012671
883.117089	0.012427
883.300930	0.012264
883.484753	0.012521
883.668557	0.012500
883.852343	0.012484
884.036111	0.012577
884.219861	0.012338
884.403592	0.012542
884.587305	0.012235
884.771000	0.012122
884.954677	0.011938
885.138335	0.011595
885.321976	0.011418
885.505598	0.011588
885.689201	0.011405
885.872787	0.011557
886.056354	0.011406
886.239904	0.011560
886.423434	0.011389
886.606947	0.011407
886.790442	0.011356
886.973918	0.011514
887.157376	0.011419
887.340816	0.011397
887.524237	0.011194
887.707641	0.011195
887.891026	0.011045
888.074393	0.011118
888.257741	0.011124
888.441072	0.011203
888.624384	0.010669
888.807678	0.010605
888.990954	0.010536
889.174211	0.010319
889.357451	0.010102
889.540672	0.010011
889.723875	0.009733
889.907059	0.009418
890.090226	0.009143
890.273374	0.008969
890.456504	0.008742
890.639616	0.008656
890.822709	0.008468
891.005785	0.008500
891.188842	0.008026
891.371881	0.008019
891.554901	0.008042
891.737904	0.008163
891.920888	0.008299
892.103854	0.007988
892.286802	0.007847
892.469731	0.007891
892.652643	0.007522
892.835536	0.008151
893.018410	0.008086
893.201267	0.008011
893.384106	0.007759
893.566926	0.007715
893.749728	0.007877
893.932511	0.007775
894.115277	0.007776
894.298024	0.008031
894.480753	0.007892
894.663464	0.008141
894.846157	0.008017
895.028831	0.008305
895.211487	0.008366
895.394125	0.008285
895.576745	0.008390
895.759346	0.008232
895.941930	0.008493
896.124495	0.008516
896.307041	0.008298
896.489570	0.008134
896.672080	0.008047
896.854573	0.007879
897.037046	0.007687
897.219502	0.007291
897.401940	0.007087
897.584359	0.006430
897.766760	0.005961
897.949143	0.006105
898.131507	0.006073
898.313854	0.005456
898.496182	0.005208
898.678492	0.004967
898.860783	0.004702
899.043057	0.004803
899.225312	0.004569
899.407549	0.004679
899.589768	0.004348
899.771968	0.004204
899.954151	0.004670
900.136315	0.004967
900.318461	0.005189
900.500588	0.005702
900.682698	0.005603
900.864789	0.005917
901.046862	0.006222
901.228917	0.006235
901.410953	0.006543
901.592971	0.006280
901.774972	0.006094
901.956953	0.005993
902.138917	0.005770
902.320862	0.005999
902.502790	0.005884
902.684699	0.005348
902.866589	0.005757
903.048462	0.005605
903.230316	0.005450
903.412152	0.005799
903.593970	0.005549
903.775770	0.005535
903.957551	0.005146
904.139314	0.004895
904.321059	0.004603
904.502786	0.004043
904.684494	0.003822
904.866185	0.003773
905.047857	0.003299
905.229510	0.003199
905.411146	0.003054
905.592763	0.003417
905.774363	0.003594
905.955943	0.003479
906.137506	0.003187
906.319051	0.003220
906.500577	0.003186
906.682085	0.002791
906.863575	0.002622
907.045046	0.002048
907.226500	0.001441
907.407935	0.000930
907.589352	0.000871
907.770750	0.000723
907.952131	0.000465
908.133493	0.000318
908.314837	0.000381
908.496163	0.000532
908.677470	0.000635
908.858760	0.000455
909.040031	0.000477
909.221284	0.000679
909.402518	0.000651
909.583735	0.000759
909.764933	0.000375
909.946113	0.000603
910.127275	0.000547
910.308418	0.000500
910.489544	0.000550
910.670651	0.000771
910.851740	0.000427
911.032810	0.000665
911.213863	0.000344
911.394897	0.000683
911.575913	0.000186
911.756911	-0.000112
911.937890	-0.000025
912.118851	-0.000228
912.299794	-0.000620
912.480719	-0.000701
912.661626	-0.001065
912.842514	-0.001005
913.023384	-0.001194
913.204236	-0.001187
913.385070	-0.001150
913.565886	-0.000892
913.746683	-0.000796
913.927462	-0.000669
914.108223	-0.000524
914.288965	-0.000625
914.469690	-0.000831
914.650396	-0.001053
914.831084	-0.001204
915.011754	-0.001805
915.192405	-0.002283
915.373038	-0.002481
915.553653	-0.002708
915.734250	-0.003245
915.914829	-0.003434
916.095389	-0.003412
916.275931	-0.003291
916.456455	-0.003523
916.636961	-0.002788
916.817448	-0.003006
916.997917	-0.003019
917.178368	-0.003112
917.358801	-0.002999
917.539216	-0.003030
917.719612	-0.003428
917.899990	-0.004182
918.080350	-0.004105
918.260692	-0.005285
918.441015	-0.005210
918.621320	-0.005381
918.801607	-0.005339
918.981876	-0.005718
919.162127	-0.006152
919.342359	-0.006041
919.522573	-0.006031
919.702769	-0.006116
919.882947	-0.005625
920.063106	-0.005931
920.243247	-0.005627
920.423370	-0.006214
920.603475	-0.006028
920.783562	-0.006120
920.963630	-0.006283
921.143680	-0.006124
921.323712	-0.006616
921.503725	-0.006859
921.683721	-0.007312
921.863698	-0.008193
922.043657	-0.008043
922.223598	-0.008612
922.403520	-0.008467
922.583424	-0.008379
922.763311	-0.008498
922.943178	-0.008644
923.123028	-0.008723
923.302859	-0.008698
923.482673	-0.008888
923.662467	-0.009112
923.842244	-0.008695
924.022003	-0.008857
924.201743	-0.009538
924.381465	-0.009736
924.561169	-0.009700
924.740854	-0.009771
924.920522	-0.009916
925.100171	-0.009789
925.279802	-0.010082
925.459414	-0.010614
925.639009	-0.010900
925.818585	-0.011194
925.998143	-0.011092
926.177683	-0.011590
926.357205	-0.012044
926.536708	-0.012282
926.716193	-0.012469
926.895660	-0.012492
927.075109	-0.012746
927.254539	-0.013025
927.433951	-0.013037
927.613345	-0.013816
927.792721	-0.013963
927.972079	-0.014316
928.151418	-0.014320
928.330739	-0.014813
928.510042	-0.014857
928.689327	-0.015305
928.868593	-0.015307
929.047841	-0.015417
929.227071	-0.015789
929.406283	-0.015365
929.585476	-0.014899
929.764652	-0.014866
929.943809	-0.014863
930.122948	-0.015216
930.302068	-0.015000
930.481171	-0.015821
930.660255	-0.016014
930.839321	-0.015830
931.018369	-0.016253
931.197398	-0.016720
931.376409	-0.016886
931.555402	-0.017112
931.734377	-0.017742
931.913334	-0.018162
932.092272	-0.017804
932.271192	-0.017684
932.450094	-0.017963
932.628978	-0.018740
932.807844	-0.019134
932.986691	-0.019718
933.165520	-0.020487
933.344331	-0.020327
933.523123	-0.019843
933.701898	-0.020345
933.880654	-0.020810
934.059392	-0.020585
934.238111	-0.020353
934.416813	-0.020298
934.595496	-0.020441
934.774161	-0.020174
934.952808	-0.020506
935.131437	-0.021595
935.310047	-0.021513
935.488639	-0.022108
935.667213	-0.022710
935.845769	-0.023272
936.024306	-0.023605
936.202825	-0.024348
936.381326	-0.024564
936.559809	-0.025274
936.738274	-0.025262
936.916720	-0.026571
937.095148	-0.025941
937.273558	-0.026720
937.451950	-0.026406
937.630323	-0.026733
937.808678	-0.026067
937.987015	-0.025880
938.165334	-0.025508
938.343635	-0.025067
938.521917	-0.023895
938.700181	-0.024636
938.878427	-0.023832
939.056655	-0.023964
939.234864	-0.024145
939.413055	-0.025149
939.591228	-0.025583
939.769383	-0.026011
939.947519	-0.026840
940.125638	-0.026912
940.303738	-0.026745
940.481820	-0.026684
940.659883	-0.026769
940.837929	-0.027133
941.015956	-0.026712
941.193965	-0.026879
941.371955	-0.026419
941.549928	-0.026496
941.727882	-0.026447
941.905818	-0.026508
942.083736	-0.027593
942.261636	-0.027883
942.439517	-0.027955
942.617380	-0.028095
942.795225	-0.028404
942.973052	-0.029320
943.150860	-0.029328
943.328651	-0.030193
943.506423	-0.031480
943.684176	-0.031145
943.861912	-0.032191
944.039629	-0.032192
944.217328	-0.032152
944.395009	-0.032694
944.572672	-0.031810
944.750317	-0.032146
944.927943	-0.032301
945.105551	-0.032214
945.283141	-0.032864
945.460712	-0.032145
945.638265	-0.032090
945.815801	-0.033174
945.993317	-0.032751
946.170816	-0.033952
946.348297	-0.033152
946.525759	-0.031887
946.703203	-0.030149
946.880629	-0.029473
947.058036	-0.029728
947.235425	-0.028930
947.412797	-0.028006
947.590149	-0.027918
947.767484	-0.027205
947.944800	-0.026789
948.122099	-0.026689
948.299379	-0.027714
948.476640	-0.027062
948.653884	-0.026493
948.831109	-0.027934
949.008316	-0.027382
949.185505	-0.026839
949.362676	-0.026713
949.539828	-0.026844
949.716962	-0.027764
949.894078	-0.026469
950.071176	-0.026971
950.248256	-0.027696
950.425317	-0.026468
950.602360	-0.026845
950.779385	-0.027158
950.956391	-0.027516
951.133380	-0.027500
951.310350	-0.026919
951.487302	-0.026661
951.664235	-0.025628
951.841151	-0.023639
952.018048	-0.022584
952.194927	-0.022567
952.371788	-0.020970
952.548631	-0.019772
952.725455	-0.019848
952.902261	-0.019041
953.079049	-0.019642
953.255819	-0.020587
953.432570	-0.021433
953.609303	-0.021760
953.786018	-0.021179
953.962715	-0.022376
954.139394	-0.022367
954.316054	-0.022008
954.492696	-0.022237
954.669320	-0.021711
954.845926	-0.021226
955.022513	-0.019768
955.199083	-0.019536
955.375634	-0.019374
955.552166	-0.017241
955.728681	-0.016262
955.905177	-0.015882
956.081655	-0.014715
956.258115	-0.014295
956.434557	-0.011744
956.610980	-0.011769
956.787385	-0.012114
956.963772	-0.011032
957.140141	-0.010442
957.316492	-0.011179
957.492824	-0.010352
957.669138	-0.010190
957.845434	-0.009934
958.021712	-0.011603
958.197971	-0.012831
958.374212	-0.010363
958.550435	-0.010299
958.726640	-0.011964
958.902826	-0.009324
959.078995	-0.008156
959.255145	-0.008490
959.431277	-0.006079
959.607390	-0.005218
959.783486	-0.002931
959.959563	-0.003265
960.135622	0.000188
960.311662	0.001984
960.487685	0.001560
960.663689	0.000462
960.839675	-0.000853
961.015643	-0.000897
961.191593	-0.000132
961.367524	-0.000074
961.543437	0.000259
961.719332	-0.000104
961.895209	-0.000013
962.071067	-0.000113
962.246907	0.003522
962.422730	0.006413
962.598533	0.005985
962.774319	0.007478
962.950086	0.009929
963.125835	0.010049
963.301566	0.008271
963.477279	0.010393
963.652973	0.012377
963.828650	0.010711
964.004308	0.011067
964.179947	0.011446
964.355569	0.011232
964.531172	0.010391
964.706757	0.012398
964.882324	0.013690
965.057873	0.011952
965.233403	0.011111
965.408916	0.011620
965.584410	0.008976
965.759885	0.007641
965.935343	0.007128
966.110782	0.007728
966.286203	0.007268
966.461606	0.006969
966.636991	0.008085
966.812357	0.007339
966.987705	0.008248
967.163035	0.011238
967.338347	0.012910
967.513641	0.014091
967.688916	0.012493
967.864173	0.012234
968.039412	0.012579
968.214632	0.009993
968.389835	0.010426
968.565019	0.011589
968.740185	0.012346
968.915333	0.012330
969.090462	0.011980
969.265573	0.012755
969.440667	0.013574
969.615741	0.013222
969.790798	0.016024
969.965836	0.016764
970.140856	0.014905
970.315858	0.012481
970.490842	0.010628
970.665808	0.011202
970.840755	0.013045
971.015684	0.012873
971.190595	0.014299
971.365487	0.014802
971.540362	0.016407
971.715218	0.018665
971.890056	0.020105
972.064875	0.022224
972.239677	0.021728
972.414460	0.020856
972.589225	0.021064
972.763972	0.023102
972.938700	0.023951
973.113411	0.024405
973.288103	0.022287
973.462777	0.022812
973.637432	0.022777
973.812070	0.023814
973.986689	0.023195
974.161290	0.022190
974.335873	0.019599
974.510437	0.020211
974.684984	0.018654
974.859512	0.017248
975.034022	0.017916
975.208513	0.019721
975.382987	0.019660
975.557442	0.019473
975.731879	0.019072
975.906298	0.020463
976.080698	0.018233
976.255080	0.017089
976.429445	0.017526
976.603790	0.017663
976.778118	0.017152
976.952427	0.017858
977.126719	0.018606
977.300992	0.017286
977.475246	0.014826
977.649483	0.016396
977.823701	0.018605
977.997901	0.019644
978.172083	0.018203
978.346247	0.016185
978.520392	0.016783
978.694519	0.016845
978.868628	0.017814
979.042719	0.019631
979.216791	0.018887
979.390845	0.017600
979.564882	0.017170
979.738899	0.019031
979.912899	0.020083
980.086880	0.017165
980.260843	0.018947
980.434788	0.018953
980.608715	0.019155
980.782623	0.020014
980.956514	0.020926
981.130386	0.020028
981.304240	0.019058
981.478075	0.017590
981.651892	0.019574
981.825692	0.017117
981.999472	0.017830
982.173235	0.017742
982.346980	0.017080
982.520706	0.018949
982.694414	0.019462
982.868104	0.018099
983.041775	0.019689
983.215428	0.018712
983.389064	0.019722
983.562680	0.020529
983.736279	0.019907
983.909860	0.020008
984.083422	0.017525
984.256966	0.018726
984.430491	0.019301
984.603999	0.019624
984.777488	0.019218
984.950959	0.018173
985.124412	0.017874
985.297847	0.018585
985.471263	0.017915
985.644661	0.017599
985.818041	0.017279
985.991403	0.016753
986.164747	0.015708
986.338072	0.014882
986.511379	0.015333
986.684668	0.016619
986.857938	0.014845
987.031191	0.016036
987.204425	0.014773
987.377641	0.012303
987.550839	0.012442
987.724018	0.011215
987.897179	0.013014
988.070322	0.011636
988.243447	0.010533
988.416554	0.011807
988.589642	0.010812
988.762712	0.011682
988.935764	0.012993
989.108798	0.012998
989.281813	0.014022
989.454811	0.012984
989.627790	0.012128
989.800751	0.012536
989.973693	0.010986
990.146617	0.009448
990.319524	0.008680
990.492412	0.009467
990.665281	0.010722
990.838133	0.010407
991.010966	0.011737
991.183781	0.013061
991.356578	0.012408
991.529356	0.013487
991.702117	0.014731
991.874859	0.015402
992.047583	0.014405
992.220288	0.014002
992.392976	0.014180
992.565645	0.014048
992.738296	0.013978
992.910929	0.015157
993.083543	0.014892
993.256139	0.014726
993.428718	0.016580
993.601277	0.016897
993.773819	0.016592
993.946342	0.016826
994.118848	0.015187
994.291335	0.018313
994.463803	0.016789
994.636254	0.016466
994.808686	0.016452
994.981100	0.014504
995.153496	0.014874
995.325874	0.013602
995.498233	0.014573
995.670574	0.015236
995.842897	0.011899
996.015202	0.011916
996.187488	0.012863
996.359757	0.013921
996.532007	0.015452
996.704239	0.015238
996.876452	0.016689
997.048648	0.016114
997.220825	0.015446
997.392984	0.016259
997.565124	0.016347
997.737247	0.015006
997.909351	0.014766
998.081437	0.014376
998.253505	0.013406
998.425554	0.014414
998.597586	0.014421
998.769599	0.014984
998.941594	0.013524
999.113571	0.012154
999.285529	0.012764
999.457469	0.012059
999.629391	0.011130
999.801295	0.010606
999.973181	0.009482
1000.145048	0.008946
1000.316897	0.007239
1000.488728	0.007311
1000.660541	0.008324
1000.832335	0.007705
1001.004111	0.007395
1001.175869	0.007643
1001.347609	0.008714
1001.519331	0.008475
1001.691034	0.008777
1001.862719	0.010139
1002.034386	0.011419
1002.206035	0.010413
1002.377665	0.011163
1002.549277	0.012234
1002.720871	0.012602
1002.892447	0.012887
1003.064004	0.011590
1003.235544	0.009599
1003.407065	0.008792
1003.578568	0.009290
1003.750052	0.010952
1003.921519	0.011238
1004.092967	0.009703
1004.264397	0.009577
1004.435809	0.008664
1004.607202	0.010673
1004.778577	0.012870
1004.949934	0.014204
1005.121273	0.013005
1005.292594	0.012069
1005.463896	0.010600
1005.635180	0.012101
1005.806446	0.011396
1005.977694	0.013150
1006.148923	0.011317
1006.320135	0.009956
1006.491328	0.009291
1006.662503	0.009948
1006.833659	0.011006
1007.004798	0.012269
1007.175918	0.012566
1007.347020	0.013157
1007.518103	0.012501
1007.689169	0.011412
1007.860216	0.012386
1008.031245	0.012039
1008.202256	0.010978
1008.373248	0.009389
1008.544223	0.006543
1008.715179	0.005974
1008.886117	0.005387
1009.057036	0.004361
1009.227938	0.005999
1009.398821	0.006745
1009.569686	0.008028
1009.740533	0.007613
1009.911361	0.008463
1010.082172	0.010103
1010.252964	0.010224
1010.423738	0.010716
1010.594493	0.011437
1010.765231	0.012233
1010.935950	0.011626
1011.106651	0.010753
1011.277334	0.010804
1011.447998	0.010513
1011.618645	0.011358
1011.789273	0.010576
1011.959882	0.009293
1012.130474	0.008254
1012.301048	0.008101
1012.471603	0.006055
1012.642140	0.005270
1012.812658	0.006269
1012.983159	0.005955
1013.153641	0.004546
1013.324105	0.003161
1013.494551	0.003721
1013.664979	0.005327
1013.835388	0.004735
1014.005779	0.006523
1014.176152	0.007014
1014.346507	0.005659
1014.516843	0.007044
1014.687162	0.008111
1014.857462	0.008094
1015.027744	0.007860
1015.198007	0.008269
1015.368252	0.007403
1015.538480	0.006766
1015.708689	0.007310
1015.878879	0.008161
1016.049052	0.006566
1016.219206	0.004820
1016.389342	0.004433
1016.559460	0.004746
1016.729559	0.003582
1016.899641	0.003202
1017.069704	0.001989
1017.239749	0.001649
1017.409775	0.002571
1017.579784	0.003605
1017.749774	0.005020
1017.919746	0.005864
1018.089700	0.006429
1018.259635	0.004806
1018.429553	0.006664
1018.599452	0.007784
1018.769333	0.009045
1018.939195	0.006748
1019.109040	0.006970
1019.278866	0.005871
1019.448674	0.005808
1019.618464	0.006123
1019.788235	0.006996
1019.957989	0.006075
1020.127724	0.006162
1020.297441	0.003917
1020.467139	0.005650
1020.636820	0.003469
1020.806482	0.004739
1020.976126	0.005571
1021.145752	0.003944
1021.315359	0.004762
1021.484948	0.005235
1021.654519	0.003863
1021.824072	0.004380
1021.993607	0.002120
1022.163123	0.002501
1022.332621	0.001445
1022.502101	0.000954
1022.671563	0.001525
1022.841007	0.000515
1023.010432	-0.001116
1023.179839	-0.000963
1023.349228	-0.000816
1023.518598	0.000544
1023.687951	0.001284
1023.857285	0.002810
1024.026601	0.000427
1024.195899	-0.001298
1024.365178	-0.001538
1024.534439	0.000119
1024.703682	0.001305
1024.872907	0.000628
1025.042114	-0.000333
1025.211302	-0.000020
1025.380472	0.000739
1025.549624	0.002198
1025.718758	0.003155
1025.887873	0.003035
1026.056970	0.001149
1026.226049	0.001848
1026.395110	0.002122
1026.564153	0.004169
1026.733177	0.001574
1026.902183	0.000087
1027.071171	0.001482
1027.240141	0.001636
1027.409092	0.002240
1027.578026	0.003807
1027.746940	0.001884
1027.915837	0.001787
1028.084716	0.000406
1028.253576	0.001630
1028.422418	0.000787
1028.591242	-0.001017
1028.760048	-0.001844
1028.928835	-0.001288
1029.097604	-0.001629
1029.266355	-0.000258
1029.435088	-0.000295
1029.603803	0.000959
1029.772499	0.000730
1029.941177	0.001160
1030.109837	0.002971
1030.278478	0.005275
1030.447102	0.003969
1030.615707	0.002379
1030.784294	0.000423
1030.952863	-0.000087
1031.121413	-0.001032
1031.289945	0.000662
1031.458460	-0.000267
1031.626955	-0.000856
1031.795433	-0.002098
1031.963892	-0.000314
1032.132334	0.000044
1032.300756	0.001635
1032.469161	0.003822
1032.637548	0.004503
1032.805916	0.005012
1032.974266	0.005988
1033.142598	0.005349
1033.310911	0.004030
1033.479207	0.001136
1033.647484	0.001012
1033.815743	-0.000986
1033.983983	-0.002337
1034.152206	-0.003241
1034.320410	-0.005451
1034.488596	-0.004985
1034.656764	-0.004776
1034.824914	-0.002585
1034.993045	0.000027
1035.161158	0.002184
1035.329253	0.004186
1035.497330	0.003810
1035.665388	0.005285
1035.833428	0.007234
1036.001450	0.008000
1036.169454	0.008423
1036.337440	0.007530
1036.505407	0.006575
1036.673356	0.006272
1036.841287	0.005374
1037.009200	0.007346
1037.177094	0.005415
1037.344970	0.003077
1037.512828	0.002369
1037.680668	0.003331
1037.848489	0.002850
1038.016293	0.002635
1038.184078	0.001368
1038.351845	0.002605
1038.519593	0.001362
1038.687324	0.001738
1038.855036	0.002140
1039.022730	0.003557
1039.190406	0.001318
1039.358063	0.000366
1039.525702	0.001114
1039.693323	0.001793
1039.860926	0.001758
1040.028511	0.000980
1040.196077	0.000747
1040.363625	0.001989
1040.531155	0.000150
1040.698667	0.000232
1040.866161	0.001675
1041.033636	-0.000018
1041.201093	-0.000733
1041.368532	-0.001432
1041.535952	-0.000900
1041.703355	0.000722
1041.870739	0.000211
1042.038105	0.000984
1042.205452	0.000800
1042.372782	0.001832
1042.540093	0.002935
1042.707386	0.004497
1042.874661	0.004921
1043.041918	0.005037
1043.209156	0.002657
1043.376376	0.003518
1043.543578	0.003072
1043.710762	0.004006
1043.877927	0.002052
1044.045074	0.002507
1044.212203	0.000550
1044.379314	0.000454
1044.546407	0.000436
1044.713481	0.001516
1044.880537	0.001319
1045.047575	0.001574
1045.214595	0.000797
1045.381596	0.002664
1045.548579	0.003249
1045.715544	0.004884
1045.882491	0.004284
1046.049420	0.005281
1046.216330	0.004279
1046.383222	0.002289
1046.550096	0.000906
1046.716951	0.001820
1046.883789	0.001300
1047.050608	0.002076
1047.217409	0.001042
1047.384192	0.000230
1047.550956	-0.001435
1047.717703	0.000212
1047.884431	0.001378
1048.051140	0.001883
1048.217832	0.002533
1048.384505	0.003117
1048.551161	0.000981
1048.717798	0.000984
1048.884416	0.001547
1049.051017	0.001221
1049.217599	0.000618
1049.384163	0.002316
1049.550709	0.002027
1049.717237	0.001162
1049.883746	-0.001533
1050.050237	-0.002395
1050.216710	-0.003814
1050.383165	-0.006056
1050.549601	-0.005752
1050.716019	-0.006097
1050.882420	-0.009203
1051.048801	-0.008348
1051.215165	-0.008933
1051.381510	-0.008644
1051.547837	-0.005895
1051.714146	-0.004426
1051.880437	-0.002182
1052.046709	-0.001882
1052.212964	-0.001769
1052.379200	0.001058
1052.545417	0.000039
1052.711617	0.001524
1052.877798	0.000844
1053.043961	-0.001901
1053.210106	-0.001838
1053.376233	-0.000617
1053.542341	-0.001043
1053.708432	-0.002009
1053.874504	-0.002767
1054.040557	-0.001809
1054.206593	-0.002292
1054.372610	-0.002155
1054.538609	-0.000809
1054.704590	-0.001138
1054.870553	-0.002033
1055.036497	-0.000656
1055.202424	0.000468
1055.368331	-0.000612
1055.534221	-0.001268
1055.700093	-0.001022
1055.865946	0.000409
1056.031781	-0.000906
1056.197598	-0.001495
1056.363397	-0.001651
1056.529177	-0.001605
1056.694939	-0.001278
1056.860683	-0.000767
1057.026409	-0.000230
1057.192116	0.000087
1057.357806	-0.000324
1057.523477	0.002285
1057.689130	0.003497
1057.854764	0.002975
1058.020381	0.001734
1058.185979	0.000437
1058.351559	-0.000613
1058.517120	-0.000936
1058.682664	-0.001004
1058.848189	0.000197
1059.013696	-0.000315
1059.179185	-0.002087
1059.344656	-0.003055
1059.510108	-0.002826
1059.675542	0.000369
1059.840958	0.001156
1060.006356	0.001181
1060.171735	-0.000948
1060.337096	-0.001216
1060.502439	-0.001357
1060.667764	0.000240
1060.833071	0.001117
1060.998359	0.000610
1061.163629	-0.003263
1061.328881	-0.003894
1061.494115	-0.004718
1061.659330	-0.004727
1061.824527	-0.005886
1061.989706	-0.007467
1062.154867	-0.007986
1062.320010	-0.006047
1062.485134	-0.004967
1062.650240	-0.003631
1062.815328	-0.002810
1062.980398	-0.004173
1063.145449	-0.002995
1063.310482	-0.002066
1063.475497	-0.000457
1063.640494	-0.001511
1063.805473	-0.004053
1063.970433	-0.004872
1064.135375	-0.005373
1064.300299	-0.005284
1064.465204	-0.002738
1064.630092	-0.001358
1064.794961	-0.002509
1064.959812	-0.004141
1065.124645	-0.004148
1065.289459	-0.003688
1065.454256	-0.003378
1065.619034	-0.003805
1065.783793	-0.006486
1065.948535	-0.005647
1066.113258	-0.007098
1066.277964	-0.006328
1066.442651	-0.008200
1066.607319	-0.005222
1066.771970	-0.004033
1066.936602	-0.003134
1067.101216	-0.003043
1067.265812	-0.000854
1067.430389	-0.002744
1067.594949	-0.004200
1067.759490	-0.005301
1067.924013	-0.003598
1068.088518	-0.005191
1068.253004	-0.005842
1068.417472	-0.007945
1068.581922	-0.008196
1068.746354	-0.008463
1068.910768	-0.009918
1069.075163	-0.008145
1069.239540	-0.008186
1069.403899	-0.008128
1069.568240	-0.009635
1069.732562	-0.011777
1069.896866	-0.009871
1070.061152	-0.008201
1070.225420	-0.009044
1070.389670	-0.008007
1070.553901	-0.008220
1070.718114	-0.006125
1070.882309	-0.006137
1071.046486	-0.003743
1071.210644	-0.002362
1071.374784	-0.004987
1071.538906	-0.004475
1071.703010	-0.003995
1071.867096	-0.003764
1072.031163	-0.004146
1072.195212	-0.005164
1072.359243	-0.004868
1072.523256	-0.005805
1072.687250	-0.003768
1072.851226	-0.000636
1073.015184	-0.002140
1073.179124	-0.002901
1073.343045	-0.002364
1073.506949	-0.003187
1073.670834	-0.001221
1073.834701	-0.001439
1073.998549	-0.003218
1074.162380	-0.004145
1074.326192	-0.005321
1074.489986	-0.005128
1074.653761	-0.004776
1074.817519	-0.005078
1074.981258	-0.003329
1075.144979	-0.008057
1075.308682	-0.007919
1075.472367	-0.007529
1075.636033	-0.007490
1075.799681	-0.006738
1075.963311	-0.005116
1076.126923	-0.003611
1076.290516	-0.004473
1076.454092	-0.006544
1076.617649	-0.005165
1076.781187	-0.004492
1076.944708	-0.003570
1077.108210	-0.002850
1077.271695	-0.003271
1077.435160	-0.005187
1077.598608	-0.006663
1077.762038	-0.005740
1077.925449	-0.004260
1078.088842	-0.005491
1078.252217	-0.005730
1078.415573	-0.005730
1078.578912	-0.006565
1078.742232	-0.008140
1078.905534	-0.007937
1079.068817	-0.008750
1079.232083	-0.010056
1079.395330	-0.010208
1079.558559	-0.008373
1079.721770	-0.007628
1079.884962	-0.007345
1080.048136	-0.007819
1080.211293	-0.009002
1080.374430	-0.010585
1080.537550	-0.009417
1080.700651	-0.008870
1080.863735	-0.009077
1081.026800	-0.006536
1081.189846	-0.007336
1081.352875	-0.008401
1081.515885	-0.007397
1081.678877	-0.006210
1081.841851	-0.003560
1082.004807	-0.004380
1082.167744	-0.003403
1082.330663	-0.003549
1082.493564	-0.003519
1082.656447	-0.002890
1082.819312	-0.003654
1082.982158	-0.004628
1083.144986	-0.003509
1083.307796	-0.005227
1083.470587	-0.004974
1083.633361	-0.005726
1083.796116	-0.007057
1083.958853	-0.009757
1084.121571	-0.011508
1084.284272	-0.009529
1084.446954	-0.010396
1084.609618	-0.010698
1084.772264	-0.009926
1084.934892	-0.010465
1085.097501	-0.010643
1085.260092	-0.010551
1085.422665	-0.011166
1085.585220	-0.008601
1085.747756	-0.008587
1085.910274	-0.007955
1086.072774	-0.009605
1086.235256	-0.010871
1086.397720	-0.006534
1086.560165	-0.007029
1086.722592	-0.006389
1086.885001	-0.005190
1087.047392	-0.005495
1087.209764	-0.005492
1087.372119	-0.004659
1087.534455	-0.004738
1087.696772	-0.005009
1087.859072	-0.008196
1088.021353	-0.007326
1088.183616	-0.007971
1088.345861	-0.008127
1088.508088	-0.010565
1088.670296	-0.010481
1088.832486	-0.011444
1088.994658	-0.012858
1089.156812	-0.011128
1089.318948	-0.011077
1089.481065	-0.009468
1089.643164	-0.010173
1089.805245	-0.009626
1089.967308	-0.008259
1090.129352	-0.010414
1090.291378	-0.006849
1090.453386	-0.004608
1090.615376	-0.004511
1090.777347	-0.003931
1090.939301	-0.006738
1091.101236	-0.002733
1091.263153	-0.003227
1091.425051	-0.004954
1091.586932	-0.006477
1091.748794	-0.008719
1091.910638	-0.008421
1092.072463	-0.009606
1092.234271	-0.010920
1092.396060	-0.011574
1092.557831	-0.012921
1092.719584	-0.014769
1092.881319	-0.014944
1093.043035	-0.014370
1093.204733	-0.016525
1093.366413	-0.012139
1093.528075	-0.011974
1093.689718	-0.007365
1093.851343	-0.008512
1094.012950	-0.007668
1094.174539	-0.006888
1094.336110	-0.006686
1094.497662	-0.005045
1094.659196	-0.005792
1094.820712	-0.011530
1094.982210	-0.014066
1095.143689	-0.018161
1095.305151	-0.016874
1095.466594	-0.020718
1095.628018	-0.021306
1095.789425	-0.020977
1095.950813	-0.020560
1096.112183	-0.019480
1096.273535	-0.019398
1096.434869	-0.014639
1096.596184	-0.014118
1096.757482	-0.014428
1096.918761	-0.012386
1097.080021	-0.009607
1097.241264	-0.008000
1097.402488	-0.005296
1097.563694	-0.003763
1097.724882	-0.004617
1097.886052	-0.005395
1098.047203	-0.006093
1098.208336	-0.006185
1098.369451	-0.006343
1098.530548	-0.008937
1098.691627	-0.013032
1098.852687	-0.015184
1099.013729	-0.017902
1099.174753	-0.017596
1099.335758	-0.020172
1099.496746	-0.019449
1099.657715	-0.015713
1099.818666	-0.015821
1099.979599	-0.013143
1100.140513	-0.008601
1100.301409	-0.009272
1100.462287	-0.008763
1100.623147	-0.008165
1100.783989	-0.008082
1100.944812	-0.009129
1101.105617	-0.010029
1101.266404	-0.010263
1101.427173	-0.012108
1101.587923	-0.015074
1101.748656	-0.013328
1101.909370	-0.013112
1102.070066	-0.011544
1102.230743	-0.012006
1102.391403	-0.012042
1102.552044	-0.014558
1102.712667	-0.013326
1102.873271	-0.016110
1103.033858	-0.014092
1103.194426	-0.017116
1103.354976	-0.016522
1103.515508	-0.016024
1103.676021	-0.018539
1103.836517	-0.015808
1103.996994	-0.018266
1104.157453	-0.019497
1104.317893	-0.017493
1104.478316	-0.018774
1104.638720	-0.019804
1104.799106	-0.021032
1104.959474	-0.023131
1105.119823	-0.019458
1105.280155	-0.019783
1105.440468	-0.016273
1105.600763	-0.019120
1105.761039	-0.017743
1105.921298	-0.018168
1106.081538	-0.014542
1106.241760	-0.013872
1106.401964	-0.010973
1106.562149	-0.010004
1106.722316	-0.012734
1106.882465	-0.011457
1107.042596	-0.008041
1107.202709	-0.007526
1107.362803	-0.006288
1107.522879	-0.008191
1107.682937	-0.006368
1107.842977	-0.009524
1108.002999	-0.010200
1108.163002	-0.010379
1108.322987	-0.013453
1108.482954	-0.012600
1108.642902	-0.012324
1108.802833	-0.012688
1108.962745	-0.009828
1109.122639	-0.010677
1109.282515	-0.007302
1109.442372	-0.009858
1109.602211	-0.013188
1109.762032	-0.011259
1109.921835	-0.010720
1110.081620	-0.012867
1110.241386	-0.013926
1110.401134	-0.020072
1110.560864	-0.018954
1110.720576	-0.020426
1110.880269	-0.019340
1111.039945	-0.017397
1111.199602	-0.021633
1111.359240	-0.026348
1111.518861	-0.026004
1111.678463	-0.027204
1111.838047	-0.025808
1111.997613	-0.028409
1112.157161	-0.030804
1112.316690	-0.024336
1112.476202	-0.022645
1112.635695	-0.017188
1112.795169	-0.016826
1112.954626	-0.015940
1113.114064	-0.018096
1113.273484	-0.018336
1113.432886	-0.018557
1113.592270	-0.015214
1113.751635	-0.024281
1113.910983	-0.025927
1114.070312	-0.023554
1114.229622	-0.021768
1114.388915	-0.023619
1114.548189	-0.023315
1114.707445	-0.019531
1114.866683	-0.018068
1115.025903	-0.022034
1115.185104	-0.016357
1115.344287	-0.012034
1115.503452	-0.015636
1115.662599	-0.013928
1115.821727	-0.013215
1115.980838	-0.008860
1116.139930	-0.010239
1116.299004	-0.009926
1116.458059	-0.009157
1116.617097	-0.013293
1116.776116	-0.016032
1116.935117	-0.019619
1117.094099	-0.023820
1117.253064	-0.025160
1117.412010	-0.025614
1117.570938	-0.027804
1117.729848	-0.028511
1117.888740	-0.027096
1118.047613	-0.026774
1118.206468	-0.027183
1118.365305	-0.027248
1118.524124	-0.026648
1118.682924	-0.023571
1118.841707	-0.020242
1119.000471	-0.018424
1119.159216	-0.017403
1119.317944	-0.017220
1119.476653	-0.016740
1119.635344	-0.015238
1119.794017	-0.015097
1119.952672	-0.014154
1120.111308	-0.014093
1120.269927	-0.016623
1120.428527	-0.013585
1120.587108	-0.018347
1120.745672	-0.015736
1120.904217	-0.011703
1121.062744	-0.008063
1121.221253	-0.002816
1121.379744	-0.001827
1121.538216	-0.002530
1121.696671	-0.004460
1121.855107	-0.008767
1122.013524	-0.002231
1122.171924	-0.005982
1122.330305	-0.009438
1122.488668	-0.017678
1122.647013	-0.018717
1122.805340	-0.020684
1122.963648	-0.024345
1123.121938	-0.021063
1123.280210	-0.023505
1123.438464	-0.027647
1123.596700	-0.024687
1123.754917	-0.028793
1123.913116	-0.026065
1124.071297	-0.025747
1124.229459	-0.027201
1124.387604	-0.023620
1124.545730	-0.028352
1124.703838	-0.023862
1124.861928	-0.022199
1125.019999	-0.026543
1125.178052	-0.022083
1125.336088	-0.020783
1125.494104	-0.023152
1125.652103	-0.021390
1125.810083	-0.020096
1125.968045	-0.014296
1126.125989	-0.013830
1126.283915	-0.015267
1126.441823	-0.014482
1126.599712	-0.015317
1126.757583	-0.015415
1126.915436	-0.013265
1127.073270	-0.014274
1127.231087	-0.013162
1127.388885	-0.017946
1127.546665	-0.020192
1127.704426	-0.021099
1127.862170	-0.026102
1128.019895	-0.021004
1128.177602	-0.019342
1128.335291	-0.024467
1128.492961	-0.024819
1128.650614	-0.027617
1128.808248	-0.030384
1128.965864	-0.024057
1129.123461	-0.018261
1129.281041	-0.013907
1129.438602	-0.018320
1129.596145	-0.019794
1129.753670	-0.013730
1129.911176	-0.010598
1130.068665	-0.009850
1130.226135	-0.005777
1130.383587	-0.013929
1130.541020	-0.016787
1130.698436	-0.025238
1130.855833	-0.024817
1131.013212	-0.022333
1131.170573	-0.025332
1131.327915	-0.023918
1131.485239	-0.022513
1131.642545	-0.023077
1131.799833	-0.017018
1131.957103	-0.019017
1132.114354	-0.008449
1132.271588	-0.005970
1132.428803	-0.005377
1132.585999	-0.004709
1132.743178	-0.007690
1132.900338	-0.009261
1133.057480	-0.008847
1133.214604	-0.008804
1133.371710	-0.000608
1133.528797	0.000145
1133.685866	-0.008225
1133.842917	-0.014619
1133.999950	-0.013163
1134.156964	-0.013446
1134.313960	-0.012470
1134.470938	-0.013078
1134.627898	-0.017115
1134.784840	-0.027449
1134.941763	-0.032357
1135.098668	-0.027622
1135.255555	-0.022008
1135.412424	-0.026751
1135.569274	-0.023751
1135.726107	-0.026501
1135.882921	-0.022665
1136.039716	-0.017493
1136.196494	-0.010206
1136.353253	-0.011041
1136.509995	-0.009088
1136.666717	-0.013349
1136.823422	-0.006682
1136.980109	-0.007115
1137.136777	-0.000777
1137.293427	-0.002067
1137.450059	-0.005589
1137.606672	-0.008840
1137.763267	-0.002835
1137.919844	0.002152
1138.076403	-0.002182
1138.232944	-0.000399
1138.389466	0.004714
1138.545971	-0.006466
1138.702457	-0.003444
1138.858924	-0.006408
1139.015374	-0.005593
1139.171805	-0.007077
1139.328218	-0.011137
1139.484613	-0.000767
1139.640990	-0.009674
1139.797348	-0.013766
1139.953688	-0.002828
1140.110010	-0.003685
1140.266314	-0.004574
1140.422600	-0.011171
1140.578867	-0.015464
1140.735116	-0.014974
1140.891347	-0.021725
1141.047559	-0.011685
1141.203754	-0.016818
1141.359930	-0.018427
1141.516088	-0.026756
1141.672228	-0.019876
1141.828349	-0.019318
1141.984452	-0.007693
1142.140537	-0.012614
1142.296604	-0.009641
1142.452653	-0.011882
1142.608683	-0.008002
1142.764695	-0.011057
1142.920689	-0.009495
1143.076665	-0.006563
1143.232622	0.004725
1143.388562	-0.006636
1143.544483	-0.003704
1143.700385	-0.003944
1143.856270	-0.010755
1144.012136	-0.018285
1144.167985	-0.013836
1144.323814	-0.007111
1144.479626	-0.015855
1144.635420	-0.012913
1144.791195	-0.007479
1144.946952	-0.005913
1145.102691	-0.008973
1145.258411	-0.003235
1145.414113	0.004809
1145.569798	-0.000797
1145.725463	-0.004874
1145.881111	-0.001855
1146.036741	-0.010942
1146.192352	-0.010215
1146.347945	-0.008825
1146.503519	-0.003770
1146.659076	-0.002241
1146.814614	-0.004827
1146.970134	-0.006804
1147.125636	-0.014706
1147.281120	-0.015345
1147.436585	-0.020099
1147.592032	-0.023625
1147.747461	-0.030076
1147.902872	-0.030118
1148.058265	-0.029582
1148.213639	-0.031141
1148.368995	-0.026512
1148.524333	-0.024563
1148.679653	-0.022064
1148.834954	-0.018081
1148.990237	-0.012136
1149.145502	-0.011052
1149.300749	-0.011278
1149.455977	-0.010462
1149.611188	-0.003017
1149.766380	-0.001563
1149.921553	0.011433
1150.076709	0.005984
1150.231846	0.006684
1150.386966	0.001986
1150.542066	0.010132
1150.697149	0.008745
1150.852214	0.008686
1151.007260	0.003237
1151.162288	0.008655
1151.317298	0.005437
1151.472289	0.008542
1151.627263	0.010636
1151.782218	0.014938
1151.937155	0.016565
1152.092073	0.006607
1152.246974	-0.009461
1152.401856	-0.012160
1152.556720	-0.012936
1152.711566	-0.016071
1152.866393	-0.021362
1153.021203	-0.022025
1153.175994	-0.018800
1153.330767	-0.029096
1153.485521	-0.026270
1153.640258	-0.012960
1153.794976	-0.010659
1153.949676	-0.013899
1154.104358	-0.015728
1154.259021	-0.004553
1154.413667	-0.006441
1154.568294	-0.017998
1154.722903	-0.019047
1154.877493	-0.004806
1155.032066	-0.011652
1155.186620	-0.011428
1155.341156	-0.019183
1155.495674	-0.008642
1155.650173	-0.006775
1155.804654	-0.014744
1155.959118	-0.003694
1156.113562	0.002752
1156.267989	-0.001038
1156.422397	0.005917
1156.576788	0.011797
1156.731160	0.019184
1156.885513	0.016961
1157.039849	0.009306
1157.194166	0.018543
1157.348465	0.003174
1157.502746	-0.000033
1157.657009	-0.004686
1157.811253	0.007982
1157.965479	0.005409
1158.119687	0.006308
1158.273877	-0.011289
1158.428048	-0.015013
1158.582201	-0.012314
1158.736337	-0.017752
1158.890453	-0.012781
1159.044552	-0.015817
1159.198632	-0.036137
1159.352694	-0.031420
1159.506738	-0.041221
1159.660764	-0.029778
1159.814771	-0.029394
1159.968761	-0.029247
1160.122732	-0.014343
1160.276685	-0.016501
1160.430619	-0.009308
1160.584535	-0.006237
1160.738434	-0.018277
1160.892313	-0.017418
1161.046175	-0.017553
1161.200019	-0.019961
1161.353844	-0.032526
1161.507651	-0.026669
1161.661440	-0.035871
1161.815210	-0.043019
1161.968962	-0.035387
1162.122697	-0.025757
1162.276412	-0.018942
1162.430110	-0.026436
1162.583789	-0.031534
1162.737451	-0.025314
1162.891094	-0.027134
1163.044718	-0.028144
1163.198325	-0.024921
1163.351913	-0.029048
1163.505483	-0.028377
1163.659035	-0.038256
1163.812569	-0.023758
1163.966084	-0.017370
1164.119581	-0.024687
1164.273060	-0.026095
1164.426521	-0.017734
1164.579964	-0.018599
1164.733388	-0.025508
1164.886794	-0.008414
1165.040182	-0.011736
1165.193551	-0.027012
1165.346903	-0.018541
1165.500236	0.010138
1165.653551	0.012337
1165.806848	0.002629
1165.960126	-0.002001
1166.113386	0.005214
1166.266628	-0.018280
1166.419852	0.006614
1166.573058	0.037158
1166.726245	0.027577
1166.879414	0.018619
1167.032565	0.005006
1167.185698	0.018939
1167.338812	0.018663
1167.491909	0.020900
1167.644987	0.014202
1167.798046	0.000010
1167.951088	-0.013330
1168.104111	-0.005731
1168.257117	-0.002778
1168.410103	-0.001256
1168.563072	-0.012086
1168.716023	-0.005810
1168.868955	-0.007671
1169.021869	0.009225
1169.174765	0.021649
1169.327642	0.005764
1169.480501	-0.005858
1169.633343	-0.009374
1169.786165	-0.009181
1169.938970	-0.013685
1170.091757	-0.003928
1170.244525	-0.005854
1170.397275	-0.008164
1170.550007	-0.024267
1170.702720	-0.015000
1170.855415	-0.033484
1171.008092	-0.026763
1171.160751	-0.002898
1171.313392	0.031067
1171.466014	-0.240215
1171.618619	0.173017
1171.771205	0.173017
1171.923772	0.173017
