sample name	sample
index	1338
start time	 05-03-2021  12:32:15 PM
880	0.018670
Peak Time (s)	91.536
Peak Height 	0.01867
calc peak height	90,93
Baseline Time (s)	11.036
Baseline Value 	-0.002774
subtract baseline	10,4
Abs	-0.019071
Peak Time (s)	92.036
Peak Height 	-0.01907
calc peak height	90,93
Baseline Time (s)	9.035
Baseline Value 	-0.00172
subtract baseline	10,3
PK_550	0.001012
Peak Time (s)	90.535
Peak Height 	0.001012
calc peak height	90,93
Baseline Time (s)	8.534
Baseline Value 	3.2927E-4
subtract baseline	10,2
PK_880	-0.025305
Peak Time (s)	92.536
Peak Height 	-0.0253
calc peak height	90,93
Baseline Time (s)	8.534
Baseline Value 	1.4387E-4
subtract baseline	10,1


Time (s)	A880-A510	A880-A775	A880-A975	A880	I510	I775	I975	I880	
0.037500	-0.005188	-0.001921	-0.000224	0.006267	6047.869387	42101.675833	3877.012140	21893.420822
0.535000	-0.001017	0.000483	-0.001449	0.004503	6090.517923	42478.996659	3878.195776	21970.570444
1.036000	-0.002900	0.000331	0.001984	0.004025	6080.367500	42508.646500	3886.816191	21991.522355
1.536000	0.000015	0.000298	0.000778	0.001459	6120.132756	42739.814127	3889.832233	22104.399247
2.036500	-0.003182	-0.000200	-0.003219	0.007099	6056.262549	42181.820757	3868.661603	21857.145598
2.536000	-0.000113	0.000415	-0.000303	0.001069	6122.049853	42786.323836	3888.299829	22121.620137
3.037000	0.001747	0.000225	0.000859	-0.001108	6151.680349	42968.854823	3895.731943	22217.997116
3.537000	-0.000409	0.000579	-0.004306	0.001526	6116.555782	42759.478770	3878.458889	22101.451435
4.035000	-0.002871	-0.000076	0.005601	0.000718	6104.511483	42773.408693	3902.270438	22137.108712
4.535000	0.001940	0.000348	0.004110	0.001418	6134.524401	42748.195108	3897.355029	22106.210221
5.035000	0.000603	0.000310	0.006535	0.001125	6126.876269	42771.531555	3903.459771	22119.148080
5.535000	0.000806	-0.000318	0.001660	0.000369	6133.898692	42783.234312	3894.221779	22152.537966
6.036000	-0.000525	-0.000030	-0.000321	0.000442	6123.615854	42802.896831	3889.650266	22149.310257
6.536000	0.000115	-0.000412	-0.002447	-0.000186	6132.896738	42825.527621	3886.327372	22177.101782
7.036500	0.001469	0.000234	0.002033	-0.000097	6142.191209	42876.682805	3896.096565	22173.179446
7.536000	0.001587	-0.000443	0.000318	-0.000511	6146.104951	42852.546437	3893.192240	22191.512505
8.037000	0.000122	-0.000340	0.006082	-0.000512	6135.341962	42862.004544	3906.129473	22191.555099
8.534500	0.000000	0.000000	-0.001424	-0.000295	6132.855778	42873.334972	3888.836502	22181.933448
9.035000	0.001733	0.000584	0.000000	0.000153	6142.292496	42885.892124	3891.006780	22162.122767
9.537500	-0.002547	-0.000363	-0.000350	-0.000187	6113.454364	42830.143396	3890.984540	22177.160646
10.035500	0.001324	0.000047	0.004839	0.000425	6137.292806	42811.574793	3901.218573	22150.085584
10.535500	0.000130	0.000155	-0.002393	0.000270	6129.673874	42835.727274	3885.439003	22156.933591
11.036000	-0.000140	-0.000211	0.003094	0.000000	6129.671453	42826.881275	3898.255120	22168.886310
11.536000	-0.001620	-0.000592	0.003634	-0.000815	6124.807833	42866.797785	3901.295812	22205.002525
12.037000	-0.000136	-0.000272	0.003586	-0.000606	6134.138323	42876.921155	3900.717291	22195.717777
12.536500	-0.000961	0.000242	0.000670	-0.000731	6129.010911	42935.707240	3894.468968	22201.276468
13.037500	-0.001535	0.000341	-0.000991	-0.002048	6134.456711	43066.146434	3893.701027	22259.762682
13.534500	-0.001429	0.000628	0.001315	-0.000201	6121.712739	42922.410062	3894.724266	22177.778201
14.035500	0.001932	-0.000039	0.000740	0.000069	6144.373234	42836.358168	3892.839565	22165.825093
14.535000	-0.002459	-0.000466	0.006049	0.001340	6102.988270	42680.877455	3901.880116	22109.652349
15.036000	0.000629	-0.000046	0.001150	-0.000305	6137.543652	42870.009661	3894.587227	22182.373863
15.552000	0.001473	0.000137	0.001498	-0.000564	6145.656471	42910.686302	3895.946822	22193.881110
16.036000	0.001083	-0.000827	-0.000907	-0.000063	6139.102736	42776.191604	3889.469642	22171.664315
16.539000	-0.001143	0.000208	0.006493	-0.000595	6126.685503	42920.055528	3907.246009	22195.231466
17.037000	0.001466	-0.000879	0.001915	-0.001463	6152.228684	42899.935389	3898.893527	22233.784391
17.539500	0.000211	0.000137	-0.000032	-0.000874	6138.661271	42939.201503	3893.221762	22207.632231
18.034500	-0.000738	0.000753	0.000134	0.000445	6122.045752	42874.590919	3890.655309	22149.204705
18.534500	-0.000597	-0.000273	0.001280	0.000651	6121.566491	42761.521840	3892.746472	22140.072526
19.038000	0.002563	0.000769	0.002457	0.001428	6139.025510	42785.791014	3893.638301	22105.767887
19.535500	-0.003114	0.000041	0.002100	0.000973	6100.896267	42760.856814	3893.858585	22125.863399
20.036000	-0.001686	-0.000690	0.001671	0.000704	6113.232174	42718.504471	3893.500504	22137.730928
20.536500	0.000783	0.000114	0.006422	0.000533	6132.531115	42807.864244	3904.539437	22145.323368
21.036500	-0.001197	-0.000159	0.000821	0.000983	6114.764528	42741.514347	3890.986192	22125.404010
21.536000	0.000592	0.000752	0.004992	0.001402	6124.773741	42786.695342	3899.367835	22106.931466
22.037000	-0.001760	-0.000807	-0.002102	0.000481	6114.323903	42728.254047	3885.616391	22147.599572
22.537500	0.001304	-0.000523	0.003632	0.000252	6138.409387	42775.115193	3898.895024	22157.712378
23.035000	-0.000023	-0.000618	-0.002748	0.000239	6128.771429	42767.629000	3884.723289	22158.287881
23.537500	0.000597	0.000483	0.000092	0.000975	6127.929904	42801.140105	3889.384744	22125.773397
24.035500	0.000192	0.000211	0.002331	0.000710	6126.897613	42800.472571	3894.957857	22137.457408
24.535500	-0.001350	-0.000135	0.006676	0.000902	6114.240798	42751.162408	3904.277219	22128.978162
25.036000	-0.001042	0.000107	0.002023	0.000557	6118.999524	42804.906758	3894.612393	22144.220134
25.536500	-0.000445	0.000200	0.000769	0.000771	6121.796388	42793.878090	3891.342018	22134.768168
26.036500	0.001481	0.000337	0.007740	0.001575	6130.010296	42732.828658	3905.161233	22099.285028
26.536500	0.001142	-0.000156	0.003065	0.000103	6138.321440	42822.562445	3897.959852	22164.333907
27.037000	-0.001147	0.000301	0.000334	0.000500	6118.658606	42828.079068	3890.978153	22146.776053
27.537500	-0.001305	-0.000012	0.003452	0.000663	6116.311259	42784.389258	3897.571784	22139.550868
28.037500	-0.000076	0.000040	-0.003582	-0.000056	6130.549293	42855.040187	3883.533043	22171.346483
28.535000	0.000202	0.000044	0.004912	-0.000505	6135.881008	42896.763247	3903.475488	22191.265511
29.035500	0.001133	0.000480	0.001103	-0.000821	6145.048006	42965.932036	3895.638782	22205.290937
29.535500	0.001193	0.000387	0.006414	-0.000739	6144.877398	42949.756090	3907.392516	22201.621942
30.036500	-0.002829	-0.000615	0.001431	0.001494	6099.187525	42653.204930	3891.208061	22102.876746
30.536000	0.001625	-0.000032	-0.000322	-0.000484	6146.188896	42887.813372	3891.708224	22190.331451
31.036500	-0.000519	0.000290	0.002350	-0.000938	6133.766327	42959.160674	3898.689010	22210.438213
31.547500	-0.000129	0.000476	0.005722	-0.000992	6137.023431	42981.263805	3906.400693	22212.851911
32.037500	-0.002794	-0.000139	0.000866	0.002138	6094.770410	42637.819052	3888.521542	22074.472210
32.562000	0.000332	0.000002	0.007313	-0.000804	6139.033712	42920.307758	3909.576547	22204.516421
33.037500	0.002638	0.001335	0.004944	0.000505	6146.357280	42922.519615	3901.272298	22146.529029
33.535500	0.003917	0.001030	0.002145	0.000596	6155.115917	42886.160778	3894.798044	22142.505027
34.035500	-0.002204	-0.000574	-0.000683	0.002415	6097.038406	42572.846045	3884.479491	22062.275782
34.536000	0.000194	-0.000125	0.001187	-0.002118	6147.683057	43029.708092	3898.728464	22262.898617
35.036500	-0.001760	-0.000174	0.003058	0.001153	6109.425648	42724.658049	3895.595128	22117.921812
35.536500	0.000399	0.000665	0.004808	0.001419	6123.234322	42777.154215	3898.917488	22106.173675
36.037000	-0.001126	0.000018	-0.000572	0.001969	6108.108913	42667.619572	3885.710310	22081.929952
36.536500	-0.001741	-0.000044	0.002015	0.001420	6107.617892	42712.035693	3892.670439	22106.105211
37.037000	-0.000205	0.000011	0.008336	0.001082	6121.285159	42748.153561	3907.622131	22121.064034
37.535000	-0.000643	0.000034	0.002573	0.001258	6116.798081	42734.011675	3894.277000	22113.260191
38.035000	0.000029	0.000279	0.004934	0.001127	6122.661431	42768.528714	3899.854313	22119.056756
38.535500	-0.001847	-0.000200	0.004348	0.001004	6109.874820	42735.924189	3898.815307	22124.484233
39.035500	-0.000344	-0.000055	0.002562	0.001098	6120.149901	42740.537216	3894.608262	22120.327422
39.536000	-0.000327	0.000517	0.007185	0.001092	6120.321694	42793.612750	3904.998941	22120.618453
40.036500	0.002462	0.000552	0.004244	0.001659	6136.584684	42744.792142	3897.115964	22095.588391
40.537000	-0.001123	0.000945	0.001421	0.001621	6110.654634	42784.253723	3890.901518	22097.235935
41.036500	-0.001253	0.000441	-0.001466	0.001451	6110.943723	42753.694574	3884.877766	22104.746347
41.537000	-0.001414	0.000106	-0.002955	0.000922	6113.628973	42771.385619	3882.757529	22128.095413
42.034500	-0.000298	-0.000333	0.004029	0.001271	6119.221565	42699.248907	3897.502293	22112.686911
42.538000	-0.003486	-0.000334	0.001591	0.000541	6101.333384	42766.035788	3893.686757	22144.960358
43.035000	0.003197	0.000814	0.005470	0.001978	6139.645587	42739.607876	3899.147774	22081.534751
43.535500	-0.001704	0.000508	0.004431	0.001297	6108.785117	42773.884807	3898.343323	22111.531275
44.036000	-0.000089	0.000182	-0.001640	0.001792	6116.948925	42698.774184	3883.741158	22089.723331
44.536500	0.000171	0.000283	0.003847	0.001085	6124.008009	42772.787191	3897.512208	22120.921301
45.039000	0.003375	0.000182	0.002307	-0.003570	6181.983739	43192.214026	3904.510965	22327.577140
45.537000	0.000517	0.000302	0.001834	-0.000943	6141.415150	42960.752970	3897.544518	22210.690377
46.055500	-0.000327	0.000642	0.003259	0.003303	6104.213501	42602.811452	3891.248255	22023.216626
46.537000	-0.000685	0.000071	0.007043	-0.001346	6135.540485	42976.556899	3910.193162	22228.574335
47.038000	-0.002374	-0.000580	0.005939	-0.001292	6122.777887	42911.623003	3907.568251	22226.156818
47.535000	0.001780	0.000720	0.006855	0.000155	6142.628671	42898.255091	3906.369587	22162.042785
48.035500	-0.001865	-0.000158	0.002157	0.001707	6104.637179	42675.456964	3892.348869	22093.475135
48.535500	0.000535	-0.000187	0.002200	0.000503	6130.930924	42783.017202	3895.129685	22146.632961
49.036000	0.000166	0.000234	0.002878	0.001664	6119.738872	42715.213841	3894.052430	22095.358666
49.536500	0.000811	-0.000079	-0.002959	0.000375	6133.893109	42804.680603	3883.958895	22152.309868
50.036500	-0.001909	0.000064	0.000858	0.001911	6102.832535	42677.058946	3889.007125	22084.453838
50.536500	-0.001452	0.000271	0.001374	-0.001054	6127.779752	42968.099086	3896.764562	22215.611181
51.037000	0.003209	0.000292	0.003444	-0.002225	6170.755767	43077.993077	3904.041081	22267.626601
51.534500	0.002649	0.000972	0.002687	0.000226	6148.497506	42914.837425	3896.836464	22158.873940
52.037500	-0.000075	-0.000348	0.000331	0.005046	6093.400165	42354.174357	3880.914295	21946.782474
52.535000	0.026564	-0.022765	0.000047	0.537886	3929.217128	13942.047126	3205.155973	8513.713685
53.035500	0.009986	-0.016892	-0.018800	0.023119	6035.918174	39337.308501	3802.440730	21172.089922
53.538500	0.002981	-0.050068	-0.017398	-0.218216	8243.908820	61696.692793	4459.387053	34720.280944
54.036000	-0.023844	-0.031685	-0.025840	-0.160502	7307.316126	56612.635334	4242.601400	30765.745769
54.536500	-0.018763	-0.029287	-0.024277	-0.188229	7649.315354	60465.080161	4334.521139	32600.066905
55.036500	-0.006236	-0.060384	-0.015619	-0.249591	8521.071461	64614.065363	4581.100471	37101.076606
55.534000	-0.000883	-0.039719	-0.006275	-0.210971	8110.184252	62117.884210	4473.150220	34194.561332
56.037000	-0.004907	-0.026611	-0.013342	-0.163155	7529.459145	57575.504099	4289.373983	30936.245654
56.537500	-0.004060	-0.023214	-0.011349	-0.154737	7450.298949	56947.855260	4269.339875	30398.818507
57.034500	-0.006809	-0.016569	-0.017825	-0.133887	7212.220420	55211.107810	4187.362567	29111.739043
57.535500	-0.010649	-0.015631	-0.019304	-0.150784	7342.347756	57400.856518	4232.983602	30150.047955
58.038000	-0.007714	-0.011477	-0.019287	-0.133919	7203.664803	55831.055763	4183.216080	29113.697263
58.535500	-0.007830	-0.013849	-0.020856	-0.149074	7353.583732	57409.932554	4223.195852	30043.121703
59.036500	-0.009624	-0.011944	-0.016537	-0.135763	7203.017404	55998.833470	4196.592900	29225.040197
59.536500	-0.008722	-0.009271	-0.022734	-0.119053	7050.959928	54312.577295	4131.268435	28232.980760
60.036500	-0.007403	-0.008733	-0.013619	-0.100821	6894.286567	52263.128264	4106.212020	27193.196960
60.537000	-0.008314	-0.008846	-0.018873	-0.089949	6788.677532	51032.129442	4063.157077	26593.615237
61.034500	-0.011811	-0.008086	-0.021093	-0.076122	6638.521689	49607.828414	4021.874137	25852.405887
61.537500	-0.015477	-0.009171	-0.022343	-0.064472	6510.681124	48260.342770	3989.774863	25246.021280
62.035500	-0.009055	-0.008433	-0.019815	-0.055645	6491.007666	47424.714196	3974.442714	24797.224391
62.535500	-0.013612	-0.003016	-0.018367	0.005278	5995.268309	42092.144027	3840.146528	21936.628304
63.035500	-0.005958	-0.008927	-0.022536	0.000022	6087.184137	42033.112102	3842.439282	22167.899391
63.536000	-0.017857	-0.000725	-0.027231	0.008311	5944.643964	42025.278428	3815.419276	21804.422833
64.058000	-0.015049	0.003119	-0.024181	0.027016	5836.970842	40711.764511	3783.896198	21009.231479
64.536500	-0.020542	0.004066	-0.021553	0.013907	5888.062393	41952.984464	3815.586146	21562.919099
65.039000	-0.016825	0.005423	-0.028580	-0.000295	6011.869055	43374.711962	3830.422797	22181.962387
65.537000	-0.020047	0.004566	-0.028523	-0.007986	6043.546691	44015.311596	3846.717627	22525.710596
66.037500	-0.020840	0.004955	-0.023244	-0.021441	6135.105197	45344.597818	3887.344292	23141.971097
66.538000	-0.023258	0.004231	-0.024806	-0.028466	6169.076077	45963.731807	3899.524188	23471.359505
67.035500	-0.021008	0.005426	-0.026426	-0.031708	6210.063896	46405.164543	3903.170374	23625.208229
67.535500	-0.020103	0.004730	-0.022338	-0.035396	6244.725901	46705.340705	3920.839293	23801.580185
68.035500	-0.025562	0.004460	-0.031154	-0.035048	6200.956979	46643.212647	3900.049741	23784.896084
68.536000	-0.025427	0.004098	-0.023439	-0.040062	6239.737871	47113.476315	3929.046474	24026.917566
69.036500	-0.025012	0.003914	-0.031012	-0.041053	6250.414939	47195.563636	3913.945884	24075.092655
69.537000	-0.026288	0.003847	-0.032622	-0.041041	6240.642243	47187.523985	3910.260485	24074.527287
70.036500	-0.029001	0.003534	-0.031053	-0.036904	6189.128645	46736.851332	3904.451302	23874.159296
70.537500	-0.026582	0.003552	-0.029414	-0.037751	6213.586224	46824.121124	3910.075506	23915.040371
71.037500	-0.029593	0.002528	-0.027457	-0.036428	6181.162027	46587.715122	3911.512563	23851.214696
71.535500	-0.029364	0.002901	-0.034835	-0.028094	6121.403739	45795.596438	3876.464415	23453.787185
72.035000	-0.030200	0.002823	-0.026679	-0.027385	6110.139205	45718.153401	3892.919126	23420.349197
72.536000	-0.030884	0.001599	-0.031098	-0.027629	6106.941836	45621.805083	3883.660769	23431.864996
73.039000	-0.028561	0.001172	-0.031351	-0.025842	6110.841941	45404.985154	3879.167235	23347.719822
73.536500	-0.033302	0.000591	-0.029798	-0.019761	6033.022345	44759.103475	3869.272571	23063.982977
74.037000	-0.033539	0.000650	-0.033144	-0.018028	6019.063864	44598.338374	3858.292252	22983.816841
74.536500	-0.030149	0.001466	-0.032015	-0.018958	6049.760347	44765.964193	3862.729807	23026.806208
75.037500	-0.031051	0.001500	-0.035361	-0.016394	6025.106814	44523.338091	3850.055394	22908.580919
75.540000	-0.035153	0.000185	-0.033627	-0.008428	5940.809325	43644.813860	3836.876842	22545.664338
76.035000	-0.032282	0.000458	-0.031383	-0.008849	5963.573034	43709.941043	3842.491646	22564.695392
76.535500	-0.030424	0.000545	-0.030942	-0.009033	5977.780434	43735.287380	3843.811426	22573.000202
77.035500	-0.030101	0.000206	-0.032607	-0.006996	5965.846910	43512.917814	3836.012367	22481.121689
77.536000	-0.032332	0.000486	-0.034221	0.001554	5891.878406	42748.375377	3814.941352	22100.203392
78.036000	-0.028864	0.001446	-0.032897	-0.001519	5936.533172	43119.384914	3823.996415	22236.236561
78.536500	-0.029027	0.001379	-0.025842	0.000883	5918.943318	42891.843973	3833.679574	22129.822220
79.037000	-0.029106	0.002391	-0.024226	0.002726	5905.833082	42815.526970	3833.204284	22048.583050
79.537000	-0.032800	0.002415	-0.034034	0.009567	5834.968516	42195.114420	3799.050220	21749.966999
80.034500	-0.028662	0.002110	-0.032903	0.005588	5889.411788	42528.273478	3809.395592	21923.079328
80.537500	-0.029837	0.002850	-0.029261	0.007006	5871.911017	42466.547833	3813.934054	21861.193520
81.035000	-0.030234	0.002696	-0.028079	0.008331	5860.343412	42332.334625	3813.642539	21803.558498
81.535500	-0.027931	0.003316	-0.031984	0.009687	5866.696943	42265.671616	3802.941857	21744.751710
82.036000	-0.028620	0.002903	-0.031018	0.010455	5856.929288	42159.033136	3803.343971	21711.553437
82.536000	-0.027142	0.002412	-0.027817	0.011382	5860.616789	42031.208781	3807.953199	21671.506345
83.036000	-0.030361	0.001783	-0.026163	0.011407	5838.945550	41972.509397	3811.271273	21670.436016
83.536000	-0.028400	0.002390	-0.032875	0.012465	5844.966711	41932.072625	3795.557082	21624.866061
84.037000	-0.028894	0.002797	-0.026851	0.012807	5839.394031	41937.870537	3807.020729	21610.162168
84.537500	-0.026884	0.002191	-0.027862	0.012585	5854.288455	41903.465486	3805.421535	21619.714272
85.037500	-0.030280	0.001642	-0.028286	0.013131	5828.034780	41805.388237	3803.456067	21596.227317
85.535000	-0.034988	0.001606	-0.032424	0.019642	5754.614858	41224.513605	3782.182275	21318.662205
86.035500	-0.029051	0.001831	-0.025180	0.013671	5832.607088	41774.049456	3808.661924	21573.067160
86.535500	-0.029047	0.001218	-0.026347	0.013623	5832.951662	41723.567227	3806.387813	21575.112043
87.035500	-0.031651	0.001229	-0.025580	0.014072	5812.751708	41684.537576	3807.034483	21555.868289
87.536000	-0.031620	0.000523	-0.030628	0.020221	5772.686395	41078.382691	3784.585472	21294.157565
88.036500	-0.030279	0.000779	-0.027546	0.018480	5792.797562	41253.939158	3794.184404	21367.880159
88.537000	-0.028460	-0.000281	-0.028496	0.014644	5830.076535	41499.447233	3799.979075	21531.375892
89.037000	-0.028140	0.000922	-0.022521	0.014811	5831.084912	41591.415582	3811.756340	21524.202896
89.540000	-0.031255	-0.000060	-0.029511	0.020162	5775.450254	41032.429590	3786.917731	21296.670139
90.034500	-0.028357	0.000158	-0.024836	0.014565	5831.278890	41545.367302	3807.543425	21534.735626
90.535500	-0.025902	0.001012	-0.028615	0.015152	5843.701558	41569.082578	3798.716703	21509.616646
91.035500	-0.028082	0.000188	-0.026122	0.013923	5837.369865	41605.140864	3806.234697	21562.236844
91.536000	-0.029249	-0.001413	-0.028540	0.018670	5798.305171	41044.664492	3791.817803	21359.821739
92.036000	-0.025548	-0.000352	-0.019071	0.012961	5860.716693	41642.691121	3822.643499	21603.526746
92.536000	-0.025305	-0.000244	-0.028290	0.012824	5863.266465	41664.472900	3804.070048	21609.426488
93.036500	-0.023462	0.000580	-0.029798	0.012932	5874.933431	41728.350031	3800.806816	21604.806523
93.536500	-0.027719	-0.000392	-0.027401	0.017790	5814.159948	41211.596300	3795.855878	21397.184944
94.037000	-0.027088	0.000299	-0.019485	0.015966	5830.402829	41433.640944	3815.605150	21474.855896
94.537500	-0.023108	0.000976	-0.023776	0.011814	5884.868335	41863.659371	3815.321381	21652.906771
95.034500	-0.023072	-0.000129	-0.023019	0.010781	5892.100003	41857.188542	3818.996934	21697.458195
95.563000	-0.023653	0.000671	-0.019296	0.010335	5891.188565	41968.928853	3827.620206	21716.733653
96.062500	-0.029215	-0.000335	-0.027871	0.014613	5825.273095	41497.340205	3801.300215	21532.667676
96.535500	-0.023449	0.001051	-0.023697	0.009665	5897.116047	42063.317800	3819.900708	21745.735139
97.036500	-0.022393	0.001596	-0.021507	0.008928	5909.311684	42178.834853	3825.950161	21777.659257
97.537000	-0.023641	0.000845	-0.025005	0.008022	5906.983508	42192.841863	3820.589448	21816.992352
98.038000	-0.021828	0.002221	-0.020615	0.008644	5915.105665	42261.001331	3828.394223	21789.990932
98.537000	-0.022322	0.001347	-0.025221	0.006839	5924.072064	42345.234700	3822.586693	21868.466806
