sample name	sample
index	1141
start time	 04-22-2021  03:02:02 PM
880	0.025817
Peak Time (s)	101.535
Peak Height 	0.02582
calc peak height	100,103
Baseline Time (s)	10.537
Baseline Value 	-0.002789
subtract baseline	10,4
Abs	-0.010072
Peak Time (s)	101.535
Peak Height 	-0.01007
calc peak height	100,103
Baseline Time (s)	10.037
Baseline Value 	-2.9479E-4
subtract baseline	10,3
PK_550	0.004501
Peak Time (s)	100.537
Peak Height 	0.004501
calc peak height	100,103
Baseline Time (s)	9.036
Baseline Value 	7.4568E-4
subtract baseline	10,2
PK_880	-0.020523
Peak Time (s)	100.037
Peak Height 	-0.02052
calc peak height	100,103
Baseline Time (s)	10.037
Baseline Value 	7.4518E-4
subtract baseline	10,1


Time (s)	A880-A510	A880-A775	A880-A975	A880	I510	I775	I975	I880	
0.036500	-0.001691	-0.000418	0.001312	0.001133	6270.146204	43227.388291	3920.671751	22747.689656
0.537000	-0.001285	-0.000479	0.002714	0.003348	6256.343903	43017.139405	3918.804780	22646.950084
1.037500	-0.001707	-0.000156	-0.002182	0.003148	6254.653492	43065.346093	3908.098315	22656.020055
1.536500	-0.003207	-0.000052	-0.002546	0.007042	6213.871608	42717.273646	3898.488487	22480.122289
2.035000	0.000856	-0.000240	0.001718	0.000652	6293.371487	43288.470004	3922.709190	22769.617443
2.535500	-0.000269	-0.000060	0.002800	0.000652	6284.724316	43305.168281	3925.203672	22769.625349
3.035500	0.001149	0.000451	0.000716	-0.001152	6309.550334	43520.540805	3924.557984	22852.106587
3.536000	-0.002077	0.000825	0.008351	0.002270	6258.525830	43237.222462	3934.317933	22695.923963
4.036000	0.001895	-0.000198	0.002058	-0.000144	6307.527552	43366.267425	3925.328919	22805.982454
4.536500	0.002348	-0.000427	0.001091	-0.000582	6314.421760	43385.765973	3924.108618	22826.022829
5.036500	0.001926	0.000249	0.002798	0.000043	6306.319861	43390.396871	3926.604976	22797.412725
5.537000	0.000392	0.000056	0.002418	-0.000513	6298.773461	43424.206275	3927.010688	22822.850920
6.034500	0.001112	-0.000628	-0.001879	-0.000449	6303.830218	43354.667062	3916.982066	22819.928282
6.535000	0.000863	0.000312	0.004238	0.000614	6293.715666	43343.299078	3928.615596	22771.360343
7.035500	-0.000969	0.000131	0.001162	0.000324	6281.862875	43353.303282	3922.184997	22784.566160
7.535500	-0.000581	0.000040	0.004389	0.000347	6284.667595	43342.745931	3929.581116	22783.526212
8.035500	-0.002027	0.000601	0.004077	0.000623	6271.473809	43369.197647	3928.220024	22770.915091
8.538500	-0.000732	0.000192	0.004973	0.000156	6284.977930	43374.682171	3931.379938	22792.268574
9.035500	0.000524	0.000000	-0.001144	-0.000096	6296.569054	43380.192330	3917.857059	22803.766503
9.536500	-0.002419	-0.000649	0.003635	-0.000681	6278.457397	43374.305777	3930.217871	22830.556764
10.036500	0.000000	-0.000286	0.000000	-0.000600	6296.422903	43400.554848	3921.639010	22826.847220
10.537500	0.000276	-0.000220	0.003426	0.000000	6293.925553	43350.864703	3928.156006	22799.388749
11.035000	0.001057	0.000330	-0.001410	0.000239	6298.096121	43379.722350	3916.481231	22788.454891
11.535000	-0.000345	0.000068	-0.000604	0.002715	6268.342351	43126.070766	3912.668485	22675.688875
12.035000	0.001534	0.000379	0.002333	-0.000247	6305.533476	43429.540451	3926.202260	22810.701533
12.535500	0.001114	0.000083	0.003329	-0.000440	6303.770138	43419.859852	3928.949113	22819.486161
13.038500	0.003482	0.000403	0.001795	-0.002195	6335.758998	43613.445306	3929.460913	22899.948531
13.536500	-0.002156	-0.000567	-0.000060	0.003799	6246.296892	42967.483408	3911.438250	22626.501577
14.036500	-0.000428	-0.000415	-0.001629	-0.001119	6297.125640	43436.804334	3919.090735	22850.601080
14.536500	0.000409	-0.000325	0.002628	0.001494	6283.466031	43202.600668	3922.866748	22731.234171
15.037000	0.000808	-0.000853	0.000278	-0.000683	6303.290826	43355.495620	3922.467423	22830.608532
15.565000	-0.000784	-0.000425	-0.002969	0.004102	6254.418703	42952.765816	3904.157687	22612.796030
16.037000	0.000844	0.000278	0.006264	-0.000263	6300.332347	43421.641737	3935.356336	22811.416431
16.535000	0.000221	0.000769	0.002689	-0.000510	6297.428019	43490.276880	3927.631210	22822.699222
17.035500	-0.003578	-0.000926	-0.000413	-0.001402	6275.101477	43415.572058	3922.532939	22863.555031
17.535500	-0.001092	0.000263	0.001110	0.003640	6255.589239	43058.578173	3914.467891	22633.705193
18.036000	0.000297	0.000773	0.002221	0.000532	6289.988787	43393.692739	3924.143631	22775.084834
18.536000	-0.000445	0.000040	-0.002220	0.000590	6283.848205	43320.237108	3913.828607	22772.440449
19.037000	-0.000218	0.000286	0.002322	0.000954	6282.794422	43309.248651	3923.403422	22755.819518
19.536500	-0.001674	-0.001342	-0.001463	0.000924	6271.870954	43161.197111	3914.795332	22757.197423
20.037000	0.001233	-0.000212	-0.000367	0.000541	6297.124009	43301.279459	3918.175996	22774.656821
20.537500	0.000728	0.000993	-0.002324	0.000956	6290.040221	43374.667229	3912.756533	22755.724826
21.035000	-0.001708	-0.000403	-0.000948	0.000474	6275.057256	43289.900141	3917.002585	22777.755308
21.535000	0.000189	0.001286	0.005590	0.002494	6274.113703	43259.175720	3927.392059	22685.726870
22.035500	0.002059	0.000287	0.002933	0.000935	6300.464614	43311.107697	3924.858811	22756.719682
22.538500	0.001591	0.000258	0.003285	0.001007	6296.296121	43301.738654	3925.503897	22753.429612
23.036000	-0.000651	-0.000096	0.000477	0.000843	6280.323505	43284.066872	3919.419742	22760.892105
23.536500	-0.002165	0.000370	0.002536	0.001675	6262.393128	43250.212423	3922.238566	22722.997910
24.036500	0.000664	0.000526	0.001645	0.001752	6283.447947	43257.584138	3920.014943	22719.500829
24.537000	-0.000621	0.000194	0.002015	0.001143	6278.258084	43283.209950	3922.264335	22747.232941
25.037500	0.000279	0.000450	0.006018	0.001739	6280.583048	43251.622693	3930.131165	22720.048837
25.535000	0.000073	-0.000310	0.002055	0.000552	6288.120060	43291.280052	3923.714698	22774.168700
26.035000	0.001155	0.000030	0.009462	0.001275	6290.874334	43255.720934	3939.232119	22741.201595
26.535500	-0.000183	-0.000212	0.000845	0.001602	6278.094344	43203.003612	3918.521459	22726.285696
27.036000	0.000314	-0.000119	0.004519	0.001364	6283.732096	43233.665960	3927.527892	22737.142033
27.535500	0.000098	0.000336	0.003913	0.001850	6278.353837	43230.898961	3925.007728	22715.032830
28.036500	0.001983	0.000744	0.002458	-0.001492	6318.634868	43579.544422	3929.366994	22867.673609
28.536500	0.000985	-0.000132	0.001884	-0.000025	6299.578671	43361.353810	3924.653107	22800.543124
29.037000	0.001109	0.000570	0.006496	0.000207	6298.748658	43405.080589	3934.802087	22789.938050
29.537500	-0.001653	0.000484	0.001266	0.001059	6271.003935	43317.891419	3920.735907	22751.050176
30.037500	0.000231	0.001119	0.004727	0.000636	6288.684749	43416.141575	3929.693522	22770.321778
30.535000	-0.000032	0.000221	0.005742	0.000133	6290.531983	43379.443863	3933.217766	22793.291376
31.035500	-0.000323	0.000205	0.006244	-0.000205	6290.896371	43409.423039	3935.176091	22808.781096
31.538000	-0.000248	-0.000023	0.004778	0.000548	6285.682247	43318.254355	3930.016814	22774.355922
32.038500	-0.001440	-0.000344	0.004582	0.001921	6266.048959	43161.407629	3926.387463	22711.804250
32.553000	-0.001024	-0.001252	0.006552	-0.001055	6292.039682	43353.020510	3937.875761	22847.662685
33.036500	0.001755	0.000907	0.000485	0.000338	6302.722728	43424.235811	3920.598352	22783.959403
33.537000	-0.001453	-0.000152	-0.000278	0.004550	6245.935173	42936.662252	3909.236799	22592.526045
34.036500	0.000764	0.000810	0.005521	-0.000001	6297.693096	43446.761937	3933.018965	22799.442503
34.537000	0.001749	0.000123	0.003063	-0.000292	6307.546327	43409.942532	3927.991614	22812.757637
35.035000	0.002454	0.000478	0.000746	-0.001593	6323.078467	43564.228107	3925.644930	22872.326332
35.535000	-0.000758	0.000048	-0.000717	0.002387	6267.690011	43154.456840	3913.159249	22690.577284
36.038000	-0.001176	-0.000005	0.005483	0.001824	6268.806889	43201.668471	3928.695606	22716.216235
36.536000	0.000153	-0.000137	0.005526	0.001537	6281.163992	43215.991230	3929.457453	22729.245179
37.035500	0.000111	0.000169	0.002085	0.001634	6280.099833	43235.320275	3921.295802	22724.832378
37.536000	-0.000217	-0.000025	0.004314	0.002115	6273.911573	43172.920175	3925.320657	22702.959131
38.036500	-0.000623	0.000356	0.004533	0.001346	6276.683980	43279.410997	3927.601825	22737.963811
38.537000	-0.000582	0.000731	-0.001174	0.001386	6276.694306	43310.407551	3914.399759	22736.132681
39.037000	-0.000873	0.000072	-0.002066	0.000205	6283.514599	43358.930355	3915.058220	22790.005941
39.537500	-0.000345	0.000475	-0.000199	0.001032	6281.221108	43319.540863	3917.436544	22752.258213
40.034500	0.001227	0.001479	-0.001272	0.001275	6291.428845	43390.173774	3914.428765	22741.184991
40.535000	-0.001347	-0.000040	0.004514	-0.000193	6282.930394	43385.469870	3931.123075	22808.191066
41.035500	-0.002422	0.000508	0.006947	0.000258	6271.250186	43394.536312	3935.734626	22787.601988
41.538500	-0.001252	0.000052	-0.000361	0.000002	6282.166441	43375.927828	3919.426060	22799.288764
42.036500	-0.000453	0.000573	0.003083	0.000637	6283.423490	43365.324316	3925.888952	22770.276960
42.536000	-0.000977	-0.000047	-0.001231	0.000789	6278.240148	43293.651413	3915.632988	22763.360129
43.039500	-0.001381	0.000243	0.000143	0.000433	6277.873192	43353.615937	3919.594428	22779.592419
43.537000	-0.001232	0.000316	0.002990	0.001195	6273.181217	43289.681823	3924.387808	22744.832662
44.037000	0.000544	-0.000317	0.002546	0.000102	6295.197425	43332.302307	3925.885647	22794.712448
44.534500	-0.000699	0.000374	0.001280	0.000788	6280.377904	43332.772214	3921.388671	22763.398692
45.034500	0.000124	0.000411	-0.002610	0.000633	6287.885617	43350.685679	3912.842189	22770.480785
45.535000	-0.002083	0.000269	0.004684	0.003507	6249.070930	43071.454700	3922.966071	22639.758230
46.038500	-0.001689	0.000125	0.006706	-0.001040	6286.811971	43479.740073	3938.203115	22846.987404
46.566000	0.002552	0.000729	0.002327	-0.000272	6313.599258	43464.376865	3926.243591	22811.821913
47.036500	0.001531	0.000678	-0.000624	-0.000137	6304.661121	43447.139979	3919.142652	22805.657434
47.536500	-0.002097	-0.000935	-0.002269	0.004703	6239.895632	42850.644691	3904.382034	22585.592976
48.036500	0.000234	0.000637	0.003211	-0.000293	6295.859400	43457.867913	3928.335959	22812.797582
48.537000	0.002238	0.000487	0.008042	-0.000328	6311.601872	43447.107789	3939.660760	22814.391464
49.037000	-0.000773	0.000012	0.007013	0.001434	6274.858535	43239.284427	3933.149169	22733.938030
49.535000	-0.004075	-0.001174	0.001468	0.004132	6229.250680	42881.165735	3914.161297	22611.422431
50.035500	0.000522	0.000833	0.004106	-0.000225	6297.552529	43469.751085	3930.253331	22809.678671
50.536000	0.002066	0.001098	0.006762	0.000194	6306.236064	43455.403387	3935.452733	22790.545287
51.036000	-0.001921	-0.001574	0.004565	-0.001285	6286.913951	43344.444045	3933.780278	22858.224323
51.536000	-0.004408	0.000683	0.001455	0.005381	6217.333707	42937.011748	3911.287768	22554.974596
52.036000	0.003831	0.000690	-0.000116	0.000120	6320.474641	43424.374093	3919.718091	22793.920090
52.536500	0.002485	0.002482	0.008107	0.019531	6163.202647	41817.530158	3894.377529	21926.555267
53.036500	0.000398	-0.005557	0.009273	0.328061	4521.882577	21731.561026	3401.787693	12276.266385
53.537500	-0.003152	-0.012049	-0.022990	0.093927	5622.540335	34631.848782	3684.948851	18939.115433
54.035000	-0.017184	-0.037056	-0.031635	-0.180430	7816.293145	59158.701843	4327.657786	33022.560751
54.535000	-0.020047	-0.051579	-0.019325	-0.222763	8279.200932	62871.755642	4515.955717	36101.397202
55.035500	-0.004399	-0.059350	-0.005681	-0.240523	8705.283661	64264.724554	4635.393303	37485.216394
55.538000	-0.005252	-0.029276	-0.006689	-0.188572	8046.464790	61255.530853	4438.837461	33591.664724
56.036000	-0.001075	-0.018383	-0.000199	-0.145742	7612.532491	57125.951620	4317.180315	30714.116973
56.536000	-0.007197	-0.014210	-0.008619	-0.117059	7253.507604	54156.433497	4203.038683	28939.713977
57.036000	-0.003351	-0.011312	-0.011333	-0.111336	7234.942725	53824.793859	4178.416090	28599.482736
57.537000	-0.000653	-0.009955	-0.007993	-0.106066	7209.654935	53369.067679	4172.853494	28290.158678
58.036500	0.002048	-0.006580	-0.005687	-0.082533	7010.188568	51084.955622	4113.245567	26953.643655
58.536500	-0.003375	-0.006412	-0.008224	-0.078165	6919.684734	50622.234598	4094.472488	26713.420484
59.034500	-0.010424	-0.003446	-0.016125	-0.048641	6599.138657	47797.857331	3997.772725	25151.699320
59.535500	-0.008892	-0.003435	-0.008175	-0.044431	6576.705342	47366.901415	4007.063771	24937.505069
60.035500	-0.004598	-0.002100	-0.010929	-0.042223	6594.158581	47277.763201	3994.749918	24825.997864
60.535500	-0.005129	-0.001988	-0.006041	-0.035398	6532.968980	46598.830583	3989.983133	24484.926981
61.036000	-0.004789	-0.001901	-0.006583	-0.026821	6465.671704	45755.009592	3967.819164	24063.834740
61.536000	-0.008841	-0.000123	-0.013955	-0.014840	6338.273839	44762.454348	3922.294166	23489.341401
62.036500	-0.007646	0.000824	-0.012623	-0.010138	6311.021421	44402.954005	3914.571519	23268.156081
62.536500	-0.008980	-0.004776	-0.013035	-0.054730	6662.968794	48291.339050	4020.723173	25465.138984
63.037000	-0.008402	-0.001489	-0.013460	0.000064	6227.299837	43227.206319	3889.691355	22796.470960
63.534000	-0.007432	-0.001610	-0.012654	-0.008788	6302.254929	44043.972880	3911.424204	23205.134940
64.035000	-0.013219	-0.003372	-0.016913	0.015097	6080.910548	41690.845917	3849.418192	22121.272403
64.535000	-0.015085	-0.006243	-0.019232	0.001014	6170.221760	42702.498485	3874.849815	22753.118906
65.037500	-0.022049	-0.008603	-0.018740	0.013067	6032.280279	41406.809282	3849.850653	22211.094874
65.535500	-0.011873	-0.006864	-0.014343	0.049406	5852.121203	38466.384886	3784.146469	20665.098509
66.036000	-0.013698	-0.009566	-0.012283	0.066213	5730.273389	36908.884531	3755.404793	19992.654738
66.536500	-0.017753	-0.008593	-0.012218	0.084300	5592.114610	35598.968608	3721.580338	19297.490587
67.036500	-0.017814	-0.009777	-0.019727	0.098754	5505.290669	34446.366810	3682.210794	18762.399624
67.536500	-0.024088	-0.011251	-0.021548	0.094158	5495.438574	34673.206434	3687.076008	18930.616421
68.037000	-0.028015	-0.009634	-0.011366	0.160837	5113.607092	30267.862102	3593.904397	16656.253240
68.535000	-0.023300	-0.007560	-0.011602	0.164124	5120.726998	30191.841714	3588.485984	16552.911183
69.035000	-0.027828	-0.004682	-0.019371	0.169559	5071.516279	30032.313206	3568.565108	16383.761738
69.539500	-0.024297	-0.003554	-0.023028	0.165034	5111.219231	30386.315163	3569.856485	16524.438694
70.036500	-0.027036	-0.003310	-0.016755	0.163852	5103.491156	30476.399782	3581.051994	16561.450292
70.545000	-0.024867	-0.001411	-0.011914	0.164032	5113.371957	30585.301828	3588.149765	16555.797780
71.036500	-0.026267	-0.001619	-0.022499	0.167149	5090.997290	30374.978638	3567.499352	16458.514382
71.536500	-0.021204	-0.000130	-0.022425	0.161066	5146.634468	30856.239242	3576.696635	16649.023992
72.036500	-0.020238	-0.001584	-0.021084	0.153074	5192.399096	31278.634238	3590.892487	16903.434514
72.537500	-0.022333	0.000358	-0.022272	0.147806	5208.838326	31751.891612	3597.194379	17073.718270
73.037500	-0.026780	0.000287	-0.016144	0.144957	5200.545216	31936.364208	3611.270543	17166.682809
73.535000	-0.024538	0.001615	-0.016766	0.137535	5251.170253	32524.995866	3622.125167	17411.688710
74.035500	-0.024251	0.002769	-0.020111	0.125440	5317.701105	33439.360320	3636.348819	17820.079737
74.538000	-0.023008	0.001739	-0.009630	0.115960	5376.871037	34037.227115	3669.888679	18148.224616
75.036000	-0.027994	0.002313	-0.022389	0.113096	5365.048088	34283.776372	3653.070550	18248.781656
75.536000	-0.025568	0.002839	-0.019963	0.099584	5455.294108	35311.174274	3680.350812	18732.213953
76.036000	-0.024919	0.003757	-0.020431	0.091143	5508.272271	36014.850184	3694.377762	19041.950329
76.536000	-0.025770	0.003072	-0.026376	0.081384	5561.275485	36711.774051	3701.180936	19407.631740
77.036500	-0.025994	0.003932	-0.023948	0.073667	5606.707544	37383.995256	3719.567532	19702.672525
77.537000	-0.026014	0.004932	-0.022039	0.065844	5654.854154	38089.368109	3737.612056	20007.130228
78.034500	-0.025425	0.003836	-0.024185	0.057511	5710.984675	38678.899663	3749.296745	20337.574256
78.535000	-0.024485	0.003848	-0.019321	0.050806	5760.000478	39234.853590	3771.596926	20608.082065
79.038500	-0.022930	0.004366	-0.023352	0.043539	5817.650309	39890.053921	3777.941714	20906.021087
79.535500	-0.021709	0.003990	-0.015870	0.037704	5864.609387	40356.509482	3804.554047	21148.871802
80.035500	-0.022847	0.003408	-0.019969	0.031788	5896.846426	40818.074919	3808.248398	21398.477063
80.536500	-0.025519	0.002775	-0.021980	0.027371	5908.710185	41148.962098	3813.165150	21587.051282
81.036500	-0.027734	0.003893	-0.023456	0.030876	5870.002813	40939.911793	3803.016307	21437.249365
81.537000	-0.027339	0.002595	-0.025936	0.024198	5917.939388	41412.702702	3811.562272	21723.723308
82.037000	-0.023708	0.003523	-0.029124	0.021388	5962.270825	41744.595943	3810.789081	21845.558692
82.537000	-0.022858	0.003758	-0.023845	0.021322	5968.633003	41771.552008	3821.781502	21848.448932
83.035000	-0.029276	0.002440	-0.026547	0.025400	5896.569244	41292.908402	3807.863567	21671.834527
83.535000	-0.028082	0.002501	-0.022446	0.023035	5920.805523	41507.342761	3821.130477	21774.036346
84.035500	-0.025713	0.002804	-0.020547	0.019429	5961.957081	41855.408671	3832.585036	21931.010956
84.536000	-0.026119	0.001329	-0.024894	0.018551	5965.232466	41802.136133	3825.351345	21969.429068
85.036500	-0.029105	0.002219	-0.023356	0.024317	5905.093585	41368.965357	3816.612000	21718.586862
85.536000	-0.027739	0.002500	-0.027382	0.023616	5919.183641	41455.823342	3809.798308	21748.893483
86.036500	-0.027009	0.002617	-0.022471	0.020258	5947.257227	41764.620318	3826.839200	21894.801163
86.537000	-0.025565	0.002248	-0.021320	0.020549	5955.222610	41705.803031	3828.630809	21882.119501
87.037000	-0.030829	0.002202	-0.025899	0.026633	5877.735978	41163.443648	3806.671961	21618.757017
87.537500	-0.029534	0.002229	-0.020832	0.022631	5913.650339	41519.018565	3825.311306	21791.556058
88.035000	-0.026629	0.001418	-0.023187	0.021019	5944.630673	41590.116201	3823.771087	21861.627704
88.538000	-0.028121	0.001752	-0.024917	0.021210	5933.046911	41602.836740	3819.795154	21853.306199
89.035500	-0.031005	0.002351	-0.025285	0.028029	5867.152786	41054.027456	3805.082011	21558.828735
89.535000	-0.029349	0.003465	-0.026147	0.027715	5880.419647	41179.373059	3803.971172	21572.322361
90.036000	-0.025365	0.002656	-0.025538	0.022762	5941.330733	41545.357945	3815.323481	21785.899605
90.536500	-0.027159	0.002015	-0.023612	0.022469	5931.007874	41514.374941	3819.890793	21798.590562
91.037000	-0.028374	0.002297	-0.022548	0.028964	5878.567571	40967.503751	3808.748406	21518.823215
91.537000	-0.025791	0.002012	-0.017853	0.023766	5931.497512	41399.399115	3829.152008	21742.409905
92.037000	-0.024510	0.002631	-0.022598	0.024217	5937.204237	41414.248452	3818.377169	21722.898619
92.535000	-0.026638	0.002563	-0.017659	0.024287	5922.121665	41402.013989	3828.469275	21719.869046
93.035000	-0.028478	0.002223	-0.024303	0.030180	5869.682647	40854.943324	3802.710900	21466.910819
93.537500	-0.023856	0.002612	-0.017499	0.024666	5938.604670	41372.795786	3828.011871	21703.482353
94.036000	-0.022347	0.002571	-0.023137	0.024984	5946.814626	41341.106649	3815.689979	21689.767542
94.536000	-0.025021	0.002283	-0.023589	0.024766	5929.921283	41334.942414	3815.208975	21699.170207
95.039000	-0.025783	0.001948	-0.018049	0.029828	5890.237996	40861.672168	3816.191417	21481.928183
95.536500	-0.022645	0.002810	-0.021633	0.024970	5944.860472	41363.481309	3818.814967	21690.395568
96.036500	-0.022044	0.001980	-0.021877	0.024200	5954.323475	41358.193387	3819.900708	21723.628525
96.537000	-0.023458	0.002447	-0.021953	0.024316	5943.762715	41389.193677	3819.503483	21718.613090
97.040500	-0.025536	0.002214	-0.020153	0.028096	5903.657035	41036.154257	3815.426557	21555.971137
97.535000	-0.022569	0.002308	-0.019228	0.024110	5951.316625	41395.140893	3825.572990	21727.531637
98.038000	-0.021156	0.003028	-0.015525	0.023957	5962.150812	41472.356200	3833.619618	21734.119714
98.535500	-0.023344	0.003122	-0.015901	0.024414	5943.869635	41440.264905	3831.876466	21714.385287
99.036000	-0.025037	0.002289	-0.021547	0.028912	5901.502777	40971.316200	3810.898922	21521.045629
99.536000	-0.020378	0.004151	-0.023625	0.025037	5960.061872	41476.146492	3814.579209	21687.487701
100.036500	-0.020523	0.003563	-0.017757	0.024166	5965.097729	41501.263067	3828.518266	21725.100579
100.536500	-0.022071	0.004501	-0.019694	0.024728	5950.486020	41534.554261	3823.323976	21700.820730
101.036500	-0.022069	0.003413	-0.013000	0.023550	5958.648691	41542.570200	3839.786193	21751.750149
101.534500	-0.024831	0.002710	-0.010072	0.025817	5924.023495	41279.952041	3841.182608	21653.870106
102.037500	-0.021702	0.004029	-0.014987	0.023646	5960.525718	41588.714812	3835.401536	21747.596194
102.535500	-0.020608	0.003640	-0.014236	0.022343	5977.181555	41669.945889	3839.725945	21804.063460
103.035500	-0.018571	0.004191	-0.011571	0.022061	5993.384266	41744.230608	3845.963819	21816.306485
103.535500	-0.021214	0.005071	-0.023535	0.026003	5947.603531	41472.126658	3812.782729	21645.863210
104.036000	-0.021223	0.004464	-0.019269	0.021228	5980.673250	41842.982056	3831.494492	21852.530872
104.536500	-0.021857	0.003505	-0.014891	0.020119	5983.990138	41856.383880	3843.041919	21900.862258
105.036500	-0.023819	0.003351	-0.017142	0.024123	5942.606706	41486.254390	3829.889205	21726.963291
105.537000	-0.021738	0.003847	-0.023178	0.023762	5959.473714	41562.207633	3818.119841	21742.557991
106.036500	-0.021826	0.004158	-0.020720	0.019160	5990.908952	42000.932037	3832.786472	21942.769838
106.537500	-0.021993	0.003926	-0.016707	0.018436	5994.811478	42045.037847	3842.759200	21974.426600
107.035000	-0.025640	0.003017	-0.020342	0.022385	5942.026996	41610.791136	3826.841679	21802.236332
107.538000	-0.024286	0.002881	-0.020250	0.020503	5964.406851	41766.367614	3830.959694	21884.126511
108.036000	-0.022592	0.003836	-0.015300	0.017295	5998.613953	42139.647163	3848.170022	22024.475621
108.535500	-0.021629	0.003998	-0.018409	0.017066	6006.991206	42174.884123	3842.058359	22034.540539
109.036000	-0.024715	0.003517	-0.024073	0.020760	5959.649212	41800.199962	3822.473168	21872.921058
109.536500	-0.023871	0.003580	-0.017028	0.019381	5975.088514	41929.217698	3840.084852	21933.112182
110.041500	-0.023089	0.004792	-0.013704	0.015850	6005.277770	42356.637675	3854.672368	22088.076956
110.542500	-0.020647	0.003997	-0.013472	0.015317	6026.263269	42332.792685	3856.310706	22111.539845
111.037000	-0.023945	0.002699	-0.024317	0.017876	5985.071640	41985.145943	3827.953947	21998.977112
111.535000	-0.024078	0.002840	-0.017085	0.013522	6014.707076	42390.661442	3852.414025	22190.914470
112.037500	-0.019690	0.003196	-0.017440	0.013322	6047.247433	42441.147993	3852.084347	22199.791988
112.543500	-0.023316	0.003104	-0.021711	0.013620	6019.392924	42405.670889	3842.362423	22186.559577
113.035500	-0.024090	0.003488	-0.025309	0.016385	5994.487359	42190.351483	3828.995276	22064.495369
