sample name	sample
index	797
start time	 03-31-2021  02:38:54 PM


Wavelength (nm)	Absorbance
494.344910	1.780383
494.563924	1.780383
494.782919	1.780383
495.001897	-0.488675
495.220856	NaN
495.439797	NaN
495.658719	NaN
495.877624	0.816633
496.096510	0.288284
496.315378	0.218858
496.534227	NaN
496.753059	0.865450
496.971872	0.827511
497.190667	0.024129
497.409444	0.012353
497.628203	0.008938
497.846943	0.010486
498.065665	0.010716
498.284369	0.009216
498.503055	0.009121
498.721723	0.008879
498.940372	0.008268
499.159003	0.008330
499.377616	0.009095
499.596210	0.008154
499.814787	0.008058
500.033345	0.007578
500.251885	0.007970
500.470406	0.007462
500.688910	0.007246
500.907395	0.007792
501.125862	0.007526
501.344311	0.007085
501.562742	0.007503
501.781154	0.007451
501.999548	0.007377
502.217924	0.007415
502.436282	0.007916
502.654621	0.007803
502.872942	0.006946
503.091245	0.007121
503.309530	0.006972
503.527797	0.006762
503.746045	0.006568
503.964275	0.005660
504.182487	0.006580
504.400681	0.005423
504.618856	0.005289
504.837013	0.006186
505.055152	0.005698
505.273273	0.006297
505.491376	0.006695
505.709460	0.005908
505.927526	0.006206
506.145574	0.005377
506.363604	0.005809
506.581615	0.005580
506.799608	0.004779
507.017583	0.005341
507.235540	0.005484
507.453478	0.005332
507.671399	0.006222
507.889301	0.006802
508.107185	0.006520
508.325050	0.006598
508.542898	0.007395
508.760727	0.007906
508.978538	0.008280
509.196330	0.007603
509.414105	0.007325
509.631861	0.007220
509.849599	0.006733
510.067319	0.006902
510.285021	0.007169
510.502704	0.006776
510.720369	0.006333
510.938016	0.005417
511.155645	0.005578
511.373255	0.005703
511.590848	0.005516
511.808422	0.005733
512.025977	0.005801
512.243515	0.006052
512.461034	0.006166
512.678536	0.006682
512.896018	0.007735
513.113483	0.007534
513.330930	0.007134
513.548358	0.007141
513.765768	0.007206
513.983160	0.007040
514.200533	0.007280
514.417889	0.007385
514.635226	0.005994
514.852545	0.005014
515.069845	0.004979
515.287128	0.005922
515.504392	0.006274
515.721638	0.005975
515.938866	0.006319
516.156075	0.005399
516.373267	0.005274
516.590440	0.006002
516.807594	0.006097
517.024731	0.006647
517.241850	0.006276
517.458950	0.006050
517.676032	0.006532
517.893095	0.005710
518.110141	0.006075
518.327168	0.005685
518.544177	0.006478
518.761168	0.006886
518.978141	0.006715
519.195095	0.006688
519.412031	0.006779
519.628949	0.006226
519.845849	0.006673
520.062731	0.006887
520.279594	0.007464
520.496439	0.006853
520.713266	0.006947
520.930074	0.006488
521.146865	0.006746
521.363637	0.006833
521.580391	0.007848
521.797127	0.007853
522.013844	0.007941
522.230543	0.007281
522.447224	0.007480
522.663887	0.007772
522.880532	0.008359
523.097158	0.008349
523.313766	0.007945
523.530356	0.007291
523.746928	0.007324
523.963481	0.006824
524.180017	0.007433
524.396534	0.007418
524.613032	0.007381
524.829513	0.007746
525.045975	0.007380
525.262420	0.007480
525.478845	0.007535
525.695253	0.007271
525.911643	0.007521
526.128014	0.007340
526.344367	0.007480
526.560702	0.006743
526.777018	0.006761
526.993316	0.006980
527.209597	0.007194
527.425858	0.007278
527.642102	0.007478
527.858328	0.007185
528.074535	0.007349
528.290724	0.007155
528.506894	0.007317
528.723047	0.006555
528.939181	0.006612
529.155297	0.007295
529.371395	0.007612
529.587475	0.007605
529.803536	0.008192
530.019579	0.007673
530.235604	0.008048
530.451611	0.008839
530.667600	0.009369
530.883570	0.009601
531.099522	0.009347
531.315456	0.009364
531.531372	0.010109
531.747269	0.010465
531.963148	0.011118
532.179009	0.010817
532.394852	0.010357
532.610676	0.009945
532.826482	0.010537
533.042271	0.010267
533.258040	0.009946
533.473792	0.009767
533.689525	0.009423
533.905240	0.009297
534.120937	0.009108
534.336616	0.009559
534.552277	0.010104
534.767919	0.009505
534.983543	0.009970
535.199149	0.010655
535.414736	0.010928
535.630306	0.010675
535.845857	0.010865
536.061390	0.011718
536.276904	0.011822
536.492401	0.012295
536.707879	0.012511
536.923339	0.012446
537.138781	0.012490
537.354204	0.011867
537.569610	0.012274
537.784997	0.012423
538.000366	0.012279
538.215716	0.012331
538.431049	0.012445
538.646363	0.012722
538.861659	0.012790
539.076937	0.012763
539.292196	0.013298
539.507438	0.013715
539.722661	0.013945
539.937866	0.013908
540.153052	0.013886
540.368221	0.013402
540.583371	0.013201
540.798503	0.013618
541.013617	0.013571
541.228712	0.013909
541.443789	0.014009
541.658848	0.013839
541.873889	0.014146
542.088912	0.014061
542.303916	0.014296
542.518902	0.014148
542.733870	0.014008
542.948820	0.014198
543.163752	0.013987
543.378665	0.013760
543.593560	0.013580
543.808437	0.013876
544.023295	0.014020
544.238136	0.013996
544.452958	0.014512
544.667762	0.014745
544.882548	0.014627
545.097315	0.014422
545.312064	0.014758
545.526795	0.015093
545.741508	0.015345
545.956203	0.015447
546.170879	0.015437
546.385537	0.015443
546.600177	0.015258
546.814799	0.015576
547.029402	0.016309
547.243988	0.016344
547.458555	0.016508
547.673103	0.016433
547.887634	0.016400
548.102146	0.016260
548.316640	0.016444
548.531116	0.015898
548.745574	0.015994
548.960013	0.015500
549.174435	0.015645
549.388838	0.015945
549.603222	0.015937
549.817589	0.016086
550.031937	0.016628
550.246267	0.016591
550.460579	0.016944
550.674873	0.016885
550.889148	0.016922
551.103405	0.017055
551.317644	0.017240
551.531865	0.017100
551.746068	0.017100
551.960252	0.017032
552.174418	0.016952
552.388566	0.017604
552.602696	0.017848
552.816807	0.018131
553.030900	0.018067
553.244975	0.018045
553.459032	0.017838
553.673070	0.018109
553.887091	0.018343
554.101093	0.018575
554.315077	0.018330
554.529042	0.017960
554.742990	0.017859
554.956919	0.017571
555.170830	0.017310
555.384722	0.017512
555.598597	0.017451
555.812453	0.017524
556.026291	0.017494
556.240111	0.017626
556.453913	0.017658
556.667696	0.017716
556.881461	0.018166
557.095208	0.018353
557.308937	0.018389
557.522647	0.018172
557.736339	0.018135
557.950013	0.018294
558.163669	0.018243
558.377307	0.018647
558.590926	0.018730
558.804527	0.018387
559.018110	0.018257
559.231675	0.018612
559.445221	0.018886
559.658749	0.018967
559.872259	0.019013
560.085751	0.019183
560.299225	0.019334
560.512680	0.019543
560.726117	0.019859
560.939536	0.019816
561.152937	0.019891
561.366319	0.020083
561.579683	0.020002
561.793029	0.020194
562.006357	0.020431
562.219667	0.020376
562.432958	0.020336
562.646231	0.020133
562.859486	0.020391
563.072723	0.020285
563.285941	0.020210
563.499141	0.020157
563.712323	0.020169
563.925487	0.019936
564.138632	0.019804
564.351760	0.020018
564.564869	0.019851
564.777960	0.020104
564.991032	0.020158
565.204087	0.020291
565.417123	0.020324
565.630141	0.020493
565.843140	0.020266
566.056122	0.020195
566.269085	0.020052
566.482030	0.020199
566.694957	0.019836
566.907866	0.019905
567.120756	0.019889
567.333628	0.020156
567.546482	0.019826
567.759318	0.020057
567.972135	0.020730
568.184935	0.021079
568.397716	0.021425
568.610478	0.021802
568.823223	0.021930
569.035949	0.021727
569.248657	0.021721
569.461347	0.021863
569.674019	0.022166
569.886672	0.021876
570.099308	0.021652
570.311925	0.021611
570.524523	0.021619
570.737104	0.021824
570.949666	0.022113
571.162210	0.021919
571.374736	0.021993
571.587244	0.022153
571.799733	0.022479
572.012205	0.022521
572.224658	0.022555
572.437092	0.022727
572.649509	0.022467
572.861907	0.022598
573.074287	0.023353
573.286649	0.023664
573.498993	0.023711
573.711318	0.023610
573.923625	0.023801
574.135914	0.023702
574.348185	0.023685
574.560438	0.024061
574.772672	0.023890
574.984888	0.023629
575.197086	0.023632
575.409266	0.023551
575.621427	0.023317
575.833570	0.023596
576.045695	0.023871
576.257802	0.023807
576.469890	0.023476
576.681961	0.023839
576.894013	0.023587
577.106046	0.023514
577.318062	0.023797
577.530059	0.023980
577.742039	0.023795
577.954000	0.024118
578.165942	0.024216
578.377867	0.024598
578.589773	0.024262
578.801661	0.024034
579.013531	0.024069
579.225382	0.023687
579.437216	0.023756
579.649031	0.023706
579.860828	0.023500
580.072606	0.023685
580.284367	0.023591
580.496109	0.023509
580.707833	0.024010
580.919539	0.024229
581.131227	0.024484
581.342896	0.024522
581.554547	0.024698
581.766180	0.024946
581.977795	0.024897
582.189391	0.024864
582.400969	0.025238
582.612529	0.025306
582.824071	0.025208
583.035595	0.025309
583.247100	0.025173
583.458587	0.025125
583.670056	0.025077
583.881506	0.025036
584.092939	0.025290
584.304353	0.025418
584.515749	0.025422
584.727127	0.025367
584.938486	0.025095
585.149828	0.025184
585.361151	0.025143
585.572456	0.024993
585.783742	0.025101
585.995011	0.025021
586.206261	0.025028
586.417493	0.025197
586.628706	0.025435
586.839902	0.025872
587.051079	0.026031
587.262238	0.026100
587.473379	0.025914
587.684502	0.025892
587.895606	0.026241
588.106692	0.026498
588.317760	0.026211
588.528810	0.026060
588.739841	0.025953
588.950855	0.025823
589.161850	0.025815
589.372827	0.026081
589.583785	0.026002
589.794726	0.025601
590.005648	0.025096
590.216552	0.025462
590.427437	0.025710
590.638305	0.025611
590.849154	0.025732
591.059985	0.025962
591.270798	0.026434
591.481592	0.026804
591.692369	0.026643
591.903127	0.026893
592.113867	0.027075
592.324588	0.026889
592.535292	0.027204
592.745977	0.027526
592.956644	0.027810
593.167293	0.027623
593.377923	0.027419
593.588536	0.028117
593.799130	0.028543
594.009706	0.028354
594.220263	0.028671
594.430803	0.028534
594.641324	0.028427
594.851827	0.028275
595.062312	0.028103
595.272778	0.028213
595.483227	0.027852
595.693657	0.027630
595.904069	0.027376
596.114462	0.027304
596.324838	0.027512
596.535195	0.027780
596.745534	0.027889
596.955855	0.028106
597.166157	0.028206
597.376441	0.028390
597.586707	0.028366
597.796955	0.028735
598.007185	0.028991
598.217396	0.029005
598.427589	0.029028
598.637764	0.029012
598.847921	0.029305
599.058060	0.029311
599.268180	0.029177
599.478282	0.029287
599.688366	0.029119
599.898431	0.028769
600.108479	0.028687
600.318508	0.028543
600.528519	0.028366
600.738511	0.027911
600.948486	0.027828
601.158442	0.028110
601.368380	0.028320
601.578300	0.028304
601.788202	0.028588
601.998085	0.028394
602.207950	0.028245
602.417797	0.028524
602.627626	0.028613
602.837436	0.028808
603.047228	0.028586
603.257002	0.028500
603.466758	0.029029
603.676496	0.028868
603.886215	0.029215
604.095916	0.029313
604.305599	0.029092
604.515264	0.029387
604.724910	0.029283
604.934538	0.029439
605.144148	0.029572
605.353740	0.029527
605.563314	0.029609
605.772869	0.029551
605.982406	0.029938
606.191925	0.030294
606.401425	0.030197
606.610908	0.030484
606.820372	0.030817
607.029818	0.030679
607.239246	0.030776
607.448655	0.030841
607.658047	0.031158
607.867420	0.030944
608.076775	0.030957
608.286111	0.030917
608.495430	0.030914
608.704730	0.030703
608.914012	0.030815
609.123275	0.030426
609.332521	0.030422
609.541748	0.030340
609.750957	0.030405
609.960148	0.029999
610.169321	0.030219
610.378475	0.030243
610.587611	0.030203
610.796729	0.030422
611.005829	0.030690
611.214910	0.030666
611.423974	0.030676
611.633019	0.030906
611.842045	0.031223
612.051054	0.031151
612.260044	0.031333
612.469017	0.031588
612.677970	0.031447
612.886906	0.031635
613.095824	0.031843
613.304723	0.032152
613.513604	0.032120
613.722467	0.032129
613.931311	0.032293
614.140138	0.032152
614.348946	0.031989
614.557736	0.032008
614.766507	0.031887
614.975261	0.032134
615.183996	0.032015
615.392713	0.031991
615.601412	0.032031
615.810092	0.031946
616.018754	0.032198
616.227399	0.032294
616.436024	0.032610
616.644632	0.032922
616.853222	0.032663
617.061793	0.032596
617.270346	0.032827
617.478880	0.032951
617.687397	0.033164
617.895895	0.032952
618.104375	0.033032
618.312837	0.032845
618.521281	0.032884
618.729706	0.033355
618.938113	0.033511
619.146502	0.033391
619.354873	0.033450
619.563226	0.033376
619.771560	0.033724
619.979876	0.033754
620.188174	0.033905
620.396453	0.033830
620.604715	0.033622
620.812958	0.033303
621.021183	0.033387
621.229390	0.033509
621.437578	0.033801
621.645748	0.033874
621.853900	0.034081
622.062034	0.033983
622.270150	0.034071
622.478247	0.034219
622.686326	0.034786
622.894387	0.034923
623.102430	0.035199
623.310454	0.035169
623.518461	0.035003
623.726449	0.035046
623.934418	0.035146
624.142370	0.035022
624.350303	0.034942
624.558218	0.034933
624.766115	0.034930
624.973994	0.034759
625.181855	0.034920
625.389697	0.035090
625.597521	0.035056
625.805327	0.035281
626.013114	0.035522
626.220883	0.035500
626.428634	0.035352
626.636367	0.035333
626.844082	0.035351
627.051778	0.035049
627.259457	0.034939
627.467117	0.035020
627.674758	0.034999
627.882382	0.034719
628.089987	0.034649
628.297574	0.034754
628.505143	0.034962
628.712694	0.035112
628.920226	0.035318
629.127740	0.035458
629.335236	0.035407
629.542714	0.035375
629.750174	0.035789
629.957615	0.035902
630.165038	0.036049
630.372443	0.036208
630.579829	0.036295
630.787198	0.036505
630.994548	0.036513
631.201880	0.036725
631.409194	0.036987
631.616489	0.037065
631.823766	0.037352
632.031025	0.037391
632.238266	0.037359
632.445489	0.037479
632.652693	0.037453
632.859879	0.037447
633.067047	0.037393
633.274197	0.037581
633.481329	0.037487
633.688442	0.037547
633.895537	0.037550
634.102614	0.037354
634.309672	0.037205
634.516713	0.037407
634.723735	0.037566
634.930739	0.037692
635.137724	0.037553
635.344692	0.037547
635.551641	0.037639
635.758572	0.037508
635.965485	0.037783
636.172379	0.038159
636.379256	0.038131
636.586114	0.038070
636.792954	0.037972
636.999775	0.037902
637.206579	0.037996
637.413364	0.038082
637.620131	0.038260
637.826880	0.038324
638.033610	0.038127
638.240323	0.038195
638.447017	0.038274
638.653692	0.038453
638.860350	0.038573
639.066990	0.038685
639.273611	0.038551
639.480214	0.038640
639.686798	0.038714
639.893365	0.038560
640.099913	0.038447
640.306443	0.038461
640.512955	0.038576
640.719449	0.038567
640.925924	0.038554
641.132381	0.038640
641.338820	0.038583
641.545241	0.038280
641.751644	0.038456
641.958028	0.038564
642.164394	0.038675
642.370742	0.038658
642.577071	0.038612
642.783383	0.038832
642.989676	0.038822
643.195951	0.038907
643.402207	0.039030
643.608446	0.039067
643.814666	0.039012
644.020868	0.038843
644.227052	0.038553
644.433218	0.038892
644.639365	0.038854
644.845494	0.039019
645.051605	0.039196
645.257698	0.039468
645.463772	0.039491
645.669828	0.039589
645.875866	0.039797
646.081886	0.040250
646.287888	0.040325
646.493871	0.040495
646.699836	0.040487
646.905783	0.040619
647.111712	0.040746
647.317622	0.040994
647.523514	0.041136
647.729388	0.041504
647.935244	0.041466
648.141082	0.041447
648.346901	0.041496
648.552702	0.041676
648.758485	0.041781
648.964250	0.041838
649.169996	0.041861
649.375724	0.041715
649.581434	0.041569
649.787126	0.041728
649.992800	0.041726
650.198455	0.041844
650.404092	0.041862
650.609711	0.041757
650.815311	0.041674
651.020894	0.041728
651.226458	0.041893
651.432004	0.041970
651.637532	0.041922
651.843041	0.042021
652.048532	0.041912
652.254006	0.041930
652.459460	0.041998
652.664897	0.041940
652.870315	0.042030
653.075716	0.042206
653.281097	0.042202
653.486461	0.042269
653.691807	0.042328
653.897134	0.042321
654.102443	0.042441
654.307734	0.042464
654.513006	0.042656
654.718261	0.042509
654.923497	0.042493
655.128715	0.042589
655.333915	0.042524
655.539096	0.042659
655.744259	0.042679
655.949404	0.042561
656.154531	0.042641
656.359640	0.042712
656.564730	0.042925
656.769802	0.042976
656.974856	0.043207
657.179892	0.043546
657.384909	0.043447
657.589908	0.043685
657.794889	0.043719
657.999852	0.043750
658.204797	0.043763
658.409723	0.043885
658.614631	0.043975
658.819521	0.043830
659.024393	0.043855
659.229246	0.043867
659.434081	0.043701
659.638898	0.043823
659.843697	0.043889
660.048478	0.043978
660.253240	0.043917
660.457984	0.043984
660.662710	0.043962
660.867417	0.043788
661.072107	0.044012
661.276778	0.044272
661.481431	0.044443
661.686066	0.044717
661.890682	0.044844
662.095281	0.044831
662.299861	0.044847
662.504422	0.045015
662.708966	0.045226
662.913491	0.045190
663.117999	0.045205
663.322488	0.045284
663.526958	0.045251
663.731411	0.045399
663.935845	0.045545
664.140261	0.045794
664.344659	0.045934
664.549038	0.045908
664.753400	0.046222
664.957743	0.046281
665.162068	0.046349
665.366375	0.046328
665.570663	0.046194
665.774933	0.046381
665.979185	0.046252
666.183419	0.046290
666.387635	0.046410
666.591832	0.046224
666.796011	0.046366
667.000172	0.046397
667.204315	0.046472
667.408439	0.046735
667.612545	0.046726
667.816634	0.046942
668.020703	0.047280
668.224755	0.047338
668.428788	0.047383
668.632803	0.047379
668.836800	0.047590
669.040779	0.047719
669.244739	0.047859
669.448681	0.048076
669.652605	0.047986
669.856511	0.047821
670.060399	0.047982
670.264268	0.048070
670.468119	0.048191
670.671952	0.048181
670.875767	0.048314
671.079563	0.048209
671.283341	0.048244
671.487101	0.048521
671.690843	0.048454
671.894567	0.048626
672.098272	0.048726
672.301959	0.048951
672.505628	0.048920
672.709278	0.049027
672.912911	0.049194
673.116525	0.049174
673.320121	0.049158
673.523699	0.049525
673.727258	0.049518
673.930799	0.049536
674.134322	0.049482
674.337827	0.049509
674.541314	0.049504
674.744782	0.049451
674.948232	0.049581
675.151664	0.049598
675.355078	0.049557
675.558474	0.049608
675.761851	0.049680
675.965210	0.049690
676.168551	0.049717
676.371873	0.049730
676.575178	0.049772
676.778464	0.049619
676.981732	0.049627
677.184981	0.049454
677.388213	0.049372
677.591426	0.049476
677.794621	0.049623
677.997798	0.050020
678.200956	0.050005
678.404097	0.050045
678.607219	0.050334
678.810323	0.050504
679.013408	0.050809
679.216476	0.050968
679.419525	0.051219
679.622556	0.051285
679.825569	0.051085
680.028563	0.051384
680.231540	0.051634
680.434498	0.051536
680.637438	0.051603
680.840359	0.051507
681.043263	0.051659
681.246148	0.051562
681.449015	0.051478
681.651864	0.051490
681.854694	0.051453
682.057506	0.051366
682.260301	0.051648
682.463076	0.051687
682.665834	0.051769
682.868573	0.051730
683.071295	0.051910
683.273998	0.052103
683.476682	0.052419
683.679349	0.052613
683.881997	0.052744
684.084627	0.052778
684.287239	0.052859
684.489833	0.053164
684.692408	0.053370
684.894965	0.053286
685.097504	0.053451
685.300025	0.053547
685.502527	0.053447
685.705012	0.053411
685.907478	0.053368
686.109925	0.053182
686.312355	0.053201
686.514766	0.053092
686.717159	0.052943
686.919534	0.052797
687.121891	0.052542
687.324230	0.052551
687.526550	0.052714
687.728852	0.052706
687.931136	0.052891
688.133401	0.052796
688.335649	0.052859
688.537878	0.053147
688.740089	0.053278
688.942281	0.053443
689.144456	0.053647
689.346612	0.053716
689.548750	0.053942
689.750870	0.054178
689.952971	0.054202
690.155055	0.054315
690.357120	0.054381
690.559167	0.054477
690.761195	0.054481
690.963206	0.054469
691.165198	0.054478
691.367172	0.054517
691.569128	0.054455
691.771065	0.054592
691.972984	0.054636
692.174885	0.054640
692.376768	0.054577
692.578633	0.054940
692.780479	0.054804
692.982308	0.054770
693.184118	0.054720
693.385909	0.054870
693.587683	0.054814
693.789438	0.054915
693.991175	0.055145
694.192894	0.055245
694.394595	0.054936
694.596277	0.055124
694.797941	0.055339
694.999587	0.055291
695.201215	0.055285
695.402824	0.055370
695.604416	0.055282
695.805989	0.055353
696.007543	0.055268
696.209080	0.055609
696.410598	0.055585
696.612099	0.055601
696.813580	0.055847
697.015044	0.055976
697.216490	0.056180
697.417917	0.056497
697.619326	0.056479
697.820717	0.056728
698.022089	0.056459
698.223444	0.056450
698.424780	0.056488
698.626098	0.056397
698.827397	0.056498
699.028679	0.056434
699.229942	0.056288
699.431187	0.056166
699.632414	0.056142
699.833622	0.056306
700.034813	0.056578
700.235985	0.056780
700.437139	0.056976
700.638274	0.057031
700.839392	0.057061
701.040491	0.057169
701.241572	0.057390
701.442635	0.057540
701.643679	0.057768
701.844706	0.057880
702.045714	0.057940
702.246704	0.057838
702.447675	0.057768
702.648629	0.057851
702.849564	0.057898
703.050481	0.058093
703.251380	0.058168
703.452260	0.058145
703.653122	0.058149
703.853966	0.058093
704.054792	0.058367
704.255600	0.058402
704.456389	0.058580
704.657160	0.058622
704.857913	0.058541
705.058648	0.058381
705.259365	0.058277
705.460063	0.058148
705.660743	0.058032
705.861405	0.057846
706.062048	0.057805
706.262674	0.057692
706.463281	0.057815
706.663870	0.057652
706.864441	0.057629
707.064993	0.057612
707.265527	0.057737
707.466043	0.057695
707.666541	0.057826
707.867021	0.057937
708.067482	0.057914
708.267925	0.057802
708.468350	0.057873
708.668757	0.057994
708.869145	0.058171
709.069516	0.058084
709.269868	0.058225
709.470201	0.058177
709.670517	0.058222
709.870814	0.058317
710.071093	0.058289
710.271354	0.058303
710.471597	0.058226
710.671821	0.058093
710.872028	0.057986
711.072216	0.057973
711.272385	0.057881
711.472537	0.057656
711.672670	0.057709
711.872785	0.057638
712.072882	0.057719
712.272961	0.057657
712.473021	0.057710
712.673063	0.057841
712.873087	0.057799
713.073093	0.057818
713.273081	0.057798
713.473050	0.057733
713.673001	0.057724
713.872934	0.057412
714.072849	0.057558
714.272745	0.057547
714.472623	0.057384
714.672483	0.057346
714.872325	0.057253
715.072148	0.057347
715.271954	0.057035
715.471741	0.056983
715.671509	0.057178
715.871260	0.056945
716.070992	0.056870
716.270707	0.056873
716.470403	0.056825
716.670080	0.056838
716.869740	0.056768
717.069381	0.057008
717.269004	0.057057
717.468609	0.056954
717.668195	0.057190
717.867764	0.057171
718.067314	0.057055
718.266846	0.056860
718.466360	0.056695
718.665855	0.056584
718.865332	0.056354
719.064791	0.056260
719.264232	0.056242
719.463655	0.055856
719.663059	0.055776
719.862445	0.055847
720.061813	0.055868
720.261163	0.055857
720.460494	0.055700
720.659807	0.055638
720.859102	0.055384
721.058379	0.055237
721.257638	0.055277
721.456878	0.055245
721.656100	0.055118
721.855304	0.055070
722.054490	0.055037
722.253657	0.054836
722.452806	0.054883
722.651937	0.055077
722.851050	0.055149
723.050145	0.055159
723.249221	0.055223
723.448279	0.055284
723.647319	0.055331
723.846340	0.055410
724.045344	0.055724
724.244329	0.055564
724.443296	0.055402
724.642245	0.055308
724.841175	0.055178
725.040088	0.054923
725.238982	0.054911
725.437857	0.054785
725.636715	0.054722
725.835554	0.054749
726.034376	0.054722
726.233179	0.054844
726.431963	0.054890
726.630730	0.055043
726.829478	0.055086
727.028208	0.054956
727.226920	0.054894
727.425614	0.054860
727.624289	0.054586
727.822946	0.054587
728.021585	0.054461
728.220206	0.054384
728.418808	0.054231
728.617392	0.054256
728.815958	0.054169
729.014506	0.054261
729.213036	0.054322
729.411547	0.054399
729.610040	0.054469
729.808515	0.054257
730.006972	0.054156
730.205410	0.053970
730.403831	0.053830
730.602233	0.053855
730.800616	0.053779
730.998982	0.053603
731.197329	0.053493
731.395658	0.053399
731.593969	0.053474
731.792262	0.053349
731.990536	0.053442
732.188793	0.053368
732.387031	0.053293
732.585250	0.053268
732.783452	0.053244
732.981635	0.053234
733.179800	0.053156
733.377947	0.053025
733.576076	0.052923
733.774186	0.052814
733.972278	0.052695
734.170352	0.052721
734.368408	0.052625
734.566446	0.052629
734.764465	0.052495
734.962466	0.052420
735.160449	0.052414
735.358413	0.052397
735.556360	0.052472
735.754288	0.052586
735.952198	0.052427
736.150090	0.052249
736.347963	0.052108
736.545818	0.052094
736.743655	0.051882
736.941474	0.051882
737.139275	0.051734
737.337057	0.051558
737.534821	0.051224
737.732567	0.051234
737.930295	0.051165
738.128005	0.050932
738.325696	0.050777
738.523369	0.050720
738.721024	0.050549
738.918660	0.050625
739.116279	0.050631
739.313879	0.050837
739.511461	0.050637
739.709024	0.050422
739.906570	0.050383
740.104097	0.050242
740.301606	0.050229
740.499097	0.050366
740.696569	0.050185
740.894024	0.050235
741.091460	0.050282
741.288878	0.050264
741.486277	0.050494
741.683659	0.050545
741.881022	0.050771
742.078367	0.050850
742.275694	0.050734
742.473002	0.050998
742.670293	0.050887
742.867565	0.050622
743.064819	0.050704
743.262054	0.050691
743.459272	0.050686
743.656471	0.050600
743.853652	0.050558
744.050815	0.050397
744.247959	0.050184
744.445085	0.050403
744.642194	0.050331
744.839283	0.050203
745.036355	0.050133
745.233408	0.049995
745.430444	0.049964
745.627461	0.049837
745.824459	0.049771
746.021440	0.049853
746.218402	0.049326
746.415346	0.049136
746.612272	0.049017
746.809180	0.048948
747.006069	0.048802
747.202940	0.048742
747.399793	0.048574
747.596628	0.048539
747.793444	0.048228
747.990243	0.048318
748.187023	0.048304
748.383784	0.048220
748.580528	0.047947
748.777253	0.047856
748.973960	0.047571
749.170649	0.047478
749.367320	0.047430
749.563973	0.047248
749.760607	0.046852
749.957223	0.046737
750.153821	0.046712
750.350400	0.046698
750.546962	0.046582
750.743505	0.046750
750.940030	0.046864
751.136536	0.046909
751.333025	0.047187
751.529495	0.047280
751.725947	0.047291
751.922381	0.047111
752.118796	0.046950
752.315194	0.047133
752.511573	0.047080
752.707934	0.046885
752.904276	0.046764
753.100601	0.046562
753.296907	0.046538
753.493195	0.046640
753.689465	0.046654
753.885716	0.046612
754.081949	0.046403
754.278164	0.046254
754.474361	0.046228
754.670540	0.045916
754.866700	0.045929
755.062843	0.045690
755.258967	0.045610
755.455072	0.045641
755.651160	0.045703
755.847229	0.045580
756.043280	0.045443
756.239313	0.045471
756.435328	0.045635
756.631324	0.045542
756.827302	0.045727
757.023262	0.045722
757.219204	0.045716
757.415127	0.045643
757.611033	0.045629
757.806920	0.045423
758.002788	0.045242
758.198639	0.045311
758.394471	0.045127
758.590286	0.045049
758.786081	0.044937
758.981859	0.044647
759.177619	0.044541
759.373360	0.044755
759.569083	0.044901
759.764788	0.044612
759.960474	0.044145
760.156143	0.044015
760.351793	0.043908
760.547425	0.043540
760.743038	0.043590
760.938634	0.043499
761.134211	0.043196
761.329770	0.042999
761.525311	0.043115
761.720833	0.043305
761.916338	0.043412
762.111824	0.043433
762.307292	0.043635
762.502741	0.043623
762.698173	0.043544
762.893586	0.043626
763.088981	0.043584
763.284358	0.043527
763.479716	0.043315
763.675057	0.042995
763.870379	0.042685
764.065683	0.042536
764.260968	0.042249
764.456236	0.042131
764.651485	0.041849
764.846716	0.041718
765.041929	0.041596
765.237123	0.041570
765.432299	0.041477
765.627457	0.041440
765.822597	0.041320
766.017719	0.041291
766.212822	0.041448
766.407907	0.041582
766.602974	0.041726
766.798023	0.042062
766.993054	0.041966
767.188066	0.042040
767.383060	0.042128
767.578036	0.041919
767.772993	0.041990
767.967933	0.041854
768.162854	0.041797
768.357757	0.041642
768.552642	0.041284
768.747508	0.041477
768.942356	0.041485
769.137186	0.041505
769.331998	0.041648
769.526792	0.041719
769.721567	0.041538
769.916324	0.041481
770.111063	0.041648
770.305784	0.041677
770.500486	0.041701
770.695171	0.041759
770.889837	0.041633
771.084484	0.041772
771.279114	0.041645
771.473725	0.041751
771.668318	0.041437
771.862893	0.041391
772.057450	0.041317
772.251988	0.041064
772.446509	0.040850
772.641011	0.040967
772.835494	0.040884
773.029960	0.040957
773.224407	0.040995
773.418836	0.041241
773.613247	0.041026
773.807640	0.040996
774.002014	0.041087
774.196370	0.041063
774.390708	0.041041
774.585028	0.040784
774.779330	0.040815
774.973613	0.040779
775.167878	0.040851
775.362125	0.040983
775.556354	0.041009
775.750564	0.040879
775.944756	0.040948
776.138930	0.040915
776.333086	0.041097
776.527223	0.040928
776.721343	0.040898
776.915444	0.040881
777.109526	0.040794
777.303591	0.040850
777.497637	0.041017
777.691666	0.041232
777.885676	0.041210
778.079667	0.041051
778.273641	0.041137
778.467596	0.041151
778.661533	0.041107
778.855452	0.041062
779.049352	0.041018
779.243235	0.040958
779.437099	0.040736
779.630945	0.040814
779.824773	0.041025
780.018582	0.041021
780.212373	0.041095
780.406146	0.040738
780.599901	0.040835
780.793638	0.041080
780.987356	0.041104
781.181056	0.041037
781.374738	0.040940
781.568402	0.040862
781.762047	0.040904
781.955674	0.040979
782.149283	0.041176
782.342874	0.041229
782.536447	0.041062
782.730001	0.040841
782.923537	0.041092
783.117055	0.041135
783.310555	0.041221
783.504036	0.041212
783.697499	0.041183
783.890944	0.041064
784.084371	0.040972
784.277780	0.040949
784.471170	0.041192
784.664542	0.040972
784.857896	0.040871
785.051231	0.040847
785.244549	0.040786
785.437848	0.040580
785.631129	0.040838
785.824392	0.040706
786.017636	0.040727
786.210863	0.040592
786.404071	0.040672
786.597260	0.040598
786.790432	0.040375
786.983585	0.040328
787.176721	0.040472
787.369838	0.040454
787.562936	0.040530
787.756017	0.040440
787.949079	0.040582
788.142123	0.040620
788.335149	0.040629
788.528156	0.040699
788.721146	0.040763
788.914117	0.040687
789.107070	0.040660
789.300005	0.040939
789.492921	0.040865
789.685819	0.040744
789.878699	0.040862
790.071561	0.041021
790.264405	0.041318
790.457230	0.041295
790.650037	0.041285
790.842826	0.041355
791.035597	0.041193
791.228349	0.041216
791.421084	0.041460
791.613800	0.041445
791.806497	0.041349
791.999177	0.041216
792.191838	0.041321
792.384481	0.041409
792.577106	0.041433
792.769713	0.041493
792.962301	0.041768
793.154871	0.041589
793.347423	0.041784
793.539957	0.042061
793.732473	0.042115
793.924970	0.042192
794.117449	0.042308
794.309910	0.042506
794.502353	0.042517
794.694777	0.042543
794.887183	0.042587
795.079571	0.042450
795.271941	0.042493
795.464293	0.042747
795.656626	0.042789
795.848941	0.042920
796.041238	0.042961
796.233516	0.043143
796.425777	0.042976
796.618019	0.043201
796.810243	0.043324
797.002449	0.043255
797.194636	0.043070
797.386805	0.043073
797.578956	0.043122
797.771089	0.043166
797.963204	0.043041
798.155300	0.043261
798.347378	0.043175
798.539438	0.043107
798.731480	0.043200
798.923503	0.043335
799.115509	0.043288
799.307496	0.043208
799.499465	0.043109
799.691415	0.043274
799.883348	0.043337
800.075262	0.043571
800.267158	0.043635
800.459035	0.043855
800.650895	0.043924
800.842736	0.044173
801.034559	0.044411
801.226364	0.044403
801.418150	0.044308
801.609919	0.044437
801.801669	0.044366
801.993401	0.044463
802.185114	0.044430
802.376810	0.044455
802.568487	0.044648
802.760146	0.044595
802.951787	0.044825
803.143409	0.045046
803.335014	0.045093
803.526600	0.045279
803.718168	0.045573
803.909717	0.045574
804.101249	0.045676
804.292762	0.045803
804.484257	0.045747
804.675734	0.046015
804.867192	0.046071
805.058632	0.046106
805.250054	0.046086
805.441458	0.046123
805.632844	0.046208
805.824211	0.046264
806.015561	0.046034
806.206891	0.046308
806.398204	0.046211
806.589499	0.046384
806.780775	0.046420
806.972033	0.046620
807.163273	0.046416
807.354495	0.046410
807.545698	0.046734
807.736883	0.046914
807.928050	0.047100
808.119199	0.047279
808.310329	0.047258
808.501441	0.047396
808.692535	0.047495
808.883611	0.047801
809.074669	0.048242
809.265708	0.048210
809.456729	0.048470
809.647732	0.048437
809.838717	0.048487
810.029683	0.048467
810.220632	0.048689
810.411562	0.049013
810.602474	0.048947
810.793367	0.048808
810.984242	0.048992
811.175100	0.048598
811.365938	0.048457
811.556759	0.048484
811.747562	0.048686
811.938346	0.048790
812.129112	0.048600
812.319860	0.048852
812.510589	0.048947
812.701300	0.048818
812.891994	0.049048
813.082668	0.049435
813.273325	0.049666
813.463964	0.049731
813.654584	0.049786
813.845186	0.049900
814.035769	0.049998
814.226335	0.050116
814.416882	0.050463
814.607411	0.050769
814.797922	0.051079
814.988415	0.050994
815.178889	0.051375
815.369345	0.051357
815.559783	0.051763
815.750203	0.051981
815.940605	0.052214
816.130988	0.052295
816.321353	0.052476
816.511700	0.052520
816.702028	0.052771
816.892339	0.052818
817.082631	0.053072
817.272905	0.052979
817.463161	0.053017
817.653398	0.053080
817.843617	0.053160
818.033819	0.053187
818.224001	0.053235
818.414166	0.053330
818.604312	0.053201
818.794440	0.053187
818.984550	0.053411
819.174642	0.053755
819.364716	0.053887
819.554771	0.053825
819.744808	0.053904
819.934827	0.053961
820.124827	0.054051
820.314810	0.054318
820.504774	0.054522
820.694720	0.054322
820.884647	0.054271
821.074557	0.054396
821.264448	0.054617
821.454321	0.054799
821.644176	0.054822
821.834012	0.054660
822.023831	0.054678
822.213631	0.054725
822.403413	0.054709
822.593176	0.054671
822.782922	0.054594
822.972649	0.054711
823.162358	0.054954
823.352049	0.055227
823.541721	0.055547
823.731376	0.055928
823.921012	0.056103
824.110629	0.056554
824.300229	0.056905
824.489811	0.057160
824.679374	0.057251
824.868919	0.057321
825.058445	0.057419
825.247954	0.057718
825.437444	0.057656
825.626916	0.057822
825.816370	0.057957
826.005806	0.058027
826.195223	0.058302
826.384622	0.058668
826.574003	0.058701
826.763366	0.058749
826.952711	0.058969
827.142037	0.059098
827.331345	0.059242
827.520635	0.059264
827.709906	0.059332
827.899160	0.059517
828.088395	0.059552
828.277612	0.059691
828.466810	0.059846
828.655991	0.059930
828.845153	0.060145
829.034297	0.060322
829.223423	0.060424
829.412531	0.060765
829.601620	0.060722
829.790691	0.061025
829.979744	0.061187
830.168779	0.061439
830.357795	0.061438
830.546793	0.061547
830.735773	0.061552
830.924735	0.061806
831.113679	0.061586
831.302604	0.061767
831.491511	0.061599
831.680400	0.061834
831.869271	0.061832
832.058123	0.062044
832.246957	0.062347
832.435773	0.062730
832.624571	0.062912
832.813351	0.063337
833.002112	0.063685
833.190855	0.063957
833.379580	0.064035
833.568287	0.064340
833.756975	0.064480
833.945645	0.064362
834.134297	0.064336
834.322931	0.064391
834.511547	0.064692
834.700144	0.064840
834.888723	0.065082
835.077284	0.065343
835.265826	0.065510
835.454351	0.065565
835.642857	0.066001
835.831345	0.066182
836.019815	0.066544
836.208266	0.066697
836.396699	0.066655
836.585114	0.066664
836.773511	0.066683
836.961890	0.066698
837.150250	0.066952
837.338592	0.067053
837.526916	0.067443
837.715222	0.067590
837.903510	0.067622
838.091779	0.067976
838.280030	0.068151
838.468263	0.068612
838.656477	0.068781
838.844674	0.068883
839.032852	0.069186
839.221012	0.069312
839.409153	0.069511
839.597277	0.069624
839.785382	0.069683
839.973469	0.070139
840.161538	0.070273
840.349589	0.070738
840.537621	0.071063
840.725635	0.071095
840.913631	0.071488
841.101609	0.071861
841.289568	0.072166
841.477509	0.072351
841.665432	0.072400
841.853337	0.072746
842.041224	0.072851
842.229092	0.072909
842.416942	0.072973
842.604774	0.072728
842.792588	0.072504
842.980383	0.072600
843.168160	0.072750
843.355919	0.073075
843.543660	0.073147
843.731382	0.073431
843.919087	0.073618
844.106773	0.074001
844.294441	0.074361
844.482090	0.074791
844.669722	0.075176
844.857335	0.075482
845.044930	0.075481
845.232507	0.075642
845.420065	0.075715
845.607605	0.075859
845.795127	0.076055
845.982631	0.076229
846.170117	0.076297
846.357584	0.076439
846.545033	0.076512
846.732464	0.076826
846.919877	0.076962
847.107272	0.077151
847.294648	0.077687
847.482006	0.077865
847.669346	0.078184
847.856667	0.078329
848.043971	0.078320
848.231256	0.078614
848.418523	0.078683
848.605771	0.078771
848.793002	0.078890
848.980214	0.079037
849.167408	0.079262
849.354584	0.079440
849.541742	0.079556
849.728881	0.079726
849.916002	0.079830
850.103105	0.079930
850.290190	0.080157
850.477256	0.080590
850.664304	0.080636
850.851334	0.080717
851.038346	0.080735
851.225340	0.080950
851.412315	0.081117
851.599272	0.081219
851.786211	0.081490
851.973132	0.081539
852.160034	0.081325
852.346918	0.081328
852.533784	0.081478
852.720632	0.081879
852.907462	0.082055
853.094273	0.082051
853.281066	0.082299
853.467841	0.082541
853.654598	0.082789
853.841336	0.082921
854.028056	0.083141
854.214758	0.083480
854.401442	0.083415
854.588107	0.083610
854.774755	0.083834
854.961384	0.084073
855.147995	0.084113
855.334587	0.084095
855.521162	0.084133
855.707718	0.084443
855.894256	0.084595
856.080775	0.084599
856.267277	0.084833
856.453760	0.085289
856.640225	0.085265
856.826672	0.085318
857.013101	0.085667
857.199511	0.086169
857.385903	0.086374
857.572277	0.086706
857.758633	0.087201
857.944970	0.087747
858.131290	0.087921
858.317591	0.088098
858.503873	0.088381
858.690138	0.088525
858.876384	0.088678
859.062612	0.088739
859.248822	0.088568
859.435014	0.088676
859.621188	0.088149
859.807343	0.087982
859.993480	0.088253
860.179599	0.088445
860.365699	0.088554
860.551781	0.088532
860.737846	0.088742
860.923891	0.088766
861.109919	0.088832
861.295929	0.089033
861.481920	0.089180
861.667893	0.088985
861.853848	0.089173
862.039784	0.089202
862.225702	0.089667
862.411603	0.089936
862.597484	0.090137
862.783348	0.089948
862.969193	0.090373
863.155021	0.090519
863.340830	0.091105
863.526620	0.091361
863.712393	0.091413
863.898147	0.091476
864.083883	0.091385
864.269601	0.091503
864.455301	0.091957
864.640982	0.092112
864.826645	0.092546
865.012290	0.092444
865.197917	0.092578
865.383526	0.092984
865.569116	0.093054
865.754688	0.093027
865.940242	0.093182
866.125777	0.093421
866.311295	0.093383
866.496794	0.093593
866.682275	0.094029
866.867737	0.094064
867.053182	0.093838
867.238608	0.093838
867.424016	0.094185
867.609406	0.094491
867.794778	0.094342
867.980131	0.094517
868.165466	0.094208
868.350783	0.094040
868.536082	0.094100
868.721362	0.094648
868.906625	0.094737
869.091869	0.094922
869.277094	0.094918
869.462302	0.095101
869.647491	0.095378
869.832662	0.095738
870.017815	0.096087
870.202950	0.095948
870.388066	0.096025
870.573165	0.096192
870.758245	0.096175
870.943306	0.096365
871.128350	0.096519
871.313375	0.096534
871.498382	0.096657
871.683371	0.096688
871.868342	0.096854
872.053294	0.096552
872.238229	0.096665
872.423144	0.096949
872.608042	0.096666
872.792922	0.096724
872.977783	0.096573
873.162626	0.096529
873.347451	0.096401
873.532258	0.096651
873.717046	0.096787
873.901816	0.096918
874.086568	0.097053
874.271302	0.097623
874.456017	0.097700
874.640715	0.098057
874.825394	0.098021
875.010055	0.097999
875.194697	0.098074
875.379322	0.098399
875.563928	0.098490
875.748516	0.098381
875.933085	0.098087
876.117637	0.098347
876.302170	0.098487
876.486685	0.098879
876.671182	0.098698
876.855661	0.098523
877.040121	0.098583
877.224563	0.098825
877.408987	0.098997
877.593393	0.099254
877.777780	0.099049
877.962150	0.099082
878.146501	0.099293
878.330833	0.099906
878.515148	0.100258
878.699444	0.100675
878.883722	0.100598
879.067982	0.100579
879.252224	0.100757
879.436447	0.101038
879.620653	0.100919
879.804840	0.100906
879.989008	0.100996
880.173159	0.101135
880.357291	0.101035
880.541405	0.101155
880.725501	0.101311
880.909579	0.101310
881.093638	0.101441
881.277680	0.101746
881.461703	0.101781
881.645707	0.101828
881.829694	0.101894
882.013662	0.102056
882.197612	0.101894
882.381544	0.101847
882.565458	0.102007
882.749353	0.101847
882.933230	0.101725
883.117089	0.101855
883.300930	0.102052
883.484753	0.101937
883.668557	0.102106
883.852343	0.102624
884.036111	0.102748
884.219861	0.102982
884.403592	0.103284
884.587305	0.103561
884.771000	0.103382
884.954677	0.103224
885.138335	0.103562
885.321976	0.103340
885.505598	0.103238
885.689201	0.103390
885.872787	0.103387
886.056354	0.103482
886.239904	0.103411
886.423434	0.103676
886.606947	0.103917
886.790442	0.103882
886.973918	0.103874
887.157376	0.103856
887.340816	0.103978
887.524237	0.103845
887.707641	0.103882
887.891026	0.103803
888.074393	0.103820
888.257741	0.103731
888.441072	0.103643
888.624384	0.103773
888.807678	0.103755
888.990954	0.103857
889.174211	0.104051
889.357451	0.103970
889.540672	0.103986
889.723875	0.103822
889.907059	0.103899
890.090226	0.103958
890.273374	0.103893
890.456504	0.103834
890.639616	0.103487
890.822709	0.103114
891.005785	0.103398
891.188842	0.103234
891.371881	0.102881
891.554901	0.102647
891.737904	0.102683
891.920888	0.102315
892.103854	0.102224
892.286802	0.102444
892.469731	0.102291
892.652643	0.102124
892.835536	0.102589
893.018410	0.102827
893.201267	0.102726
893.384106	0.102524
893.566926	0.102859
893.749728	0.102851
893.932511	0.102454
894.115277	0.102818
894.298024	0.102776
894.480753	0.102124
894.663464	0.101890
894.846157	0.101746
895.028831	0.101735
895.211487	0.101495
895.394125	0.101796
895.576745	0.102067
895.759346	0.101820
895.941930	0.101670
896.124495	0.101791
896.307041	0.102200
896.489570	0.102748
896.672080	0.102653
896.854573	0.102984
897.037046	0.102658
897.219502	0.102236
897.401940	0.102277
897.584359	0.102176
897.766760	0.102384
897.949143	0.102011
898.131507	0.101839
898.313854	0.101720
898.496182	0.101396
898.678492	0.101004
898.860783	0.100671
899.043057	0.100517
899.225312	0.100705
899.407549	0.100634
899.589768	0.100588
899.771968	0.100298
899.954151	0.100088
900.136315	0.099836
900.318461	0.100085
900.500588	0.100514
900.682698	0.100283
900.864789	0.099675
901.046862	0.099532
901.228917	0.099547
901.410953	0.099145
901.592971	0.099203
901.774972	0.099122
901.956953	0.099172
902.138917	0.098711
902.320862	0.099007
902.502790	0.099220
902.684699	0.098759
902.866589	0.098614
903.048462	0.098931
903.230316	0.098643
903.412152	0.098760
903.593970	0.098535
903.775770	0.098510
903.957551	0.098142
904.139314	0.097113
904.321059	0.097040
904.502786	0.096570
904.684494	0.096091
904.866185	0.096308
905.047857	0.096350
905.229510	0.096184
905.411146	0.096225
905.592763	0.095989
905.774363	0.096381
905.955943	0.096539
906.137506	0.096868
906.319051	0.096968
906.500577	0.096747
906.682085	0.096625
906.863575	0.095973
907.045046	0.095797
907.226500	0.095799
907.407935	0.096247
907.589352	0.095949
907.770750	0.095775
907.952131	0.095555
908.133493	0.095330
908.314837	0.094940
908.496163	0.095517
908.677470	0.095594
908.858760	0.095606
909.040031	0.095420
909.221284	0.095424
909.402518	0.095272
909.583735	0.095344
909.764933	0.095014
909.946113	0.094559
910.127275	0.093907
910.308418	0.093496
910.489544	0.093076
910.670651	0.092674
910.851740	0.092252
911.032810	0.091586
911.213863	0.090962
911.394897	0.091018
911.575913	0.091087
911.756911	0.091003
911.937890	0.090916
912.118851	0.090524
912.299794	0.090271
912.480719	0.090411
912.661626	0.090681
912.842514	0.090780
913.023384	0.090753
913.204236	0.090608
913.385070	0.090391
913.565886	0.090046
913.746683	0.090026
913.927462	0.089530
914.108223	0.089018
914.288965	0.088467
914.469690	0.088204
914.650396	0.087533
914.831084	0.087177
915.011754	0.087174
915.192405	0.086732
915.373038	0.086454
915.553653	0.086524
915.734250	0.086669
915.914829	0.086350
916.095389	0.085700
916.275931	0.085877
916.456455	0.085921
916.636961	0.085366
916.817448	0.085573
916.997917	0.085627
917.178368	0.085157
917.358801	0.084637
917.539216	0.085071
917.719612	0.085004
917.899990	0.084659
918.080350	0.084384
918.260692	0.084614
918.441015	0.084147
918.621320	0.083878
918.801607	0.083738
918.981876	0.083418
919.162127	0.082581
919.342359	0.082660
919.522573	0.081962
919.702769	0.081418
919.882947	0.081115
920.063106	0.081117
920.243247	0.080774
920.423370	0.080701
920.603475	0.080474
920.783562	0.080616
920.963630	0.080175
921.143680	0.080069
921.323712	0.080201
921.503725	0.079603
921.683721	0.078859
921.863698	0.078400
922.043657	0.077716
922.223598	0.077434
922.403520	0.076996
922.583424	0.076785
922.763311	0.076296
922.943178	0.075539
923.123028	0.075161
923.302859	0.075267
923.482673	0.075042
923.662467	0.074897
923.842244	0.074253
924.022003	0.073764
924.201743	0.073236
924.381465	0.073368
924.561169	0.073031
924.740854	0.072781
924.920522	0.072577
925.100171	0.072088
925.279802	0.071682
925.459414	0.071564
925.639009	0.071279
925.818585	0.070784
925.998143	0.070512
926.177683	0.070057
926.357205	0.069908
926.536708	0.069209
926.716193	0.068927
926.895660	0.068799
927.075109	0.068676
927.254539	0.068398
927.433951	0.068161
927.613345	0.067430
927.792721	0.067053
927.972079	0.066111
928.151418	0.065387
928.330739	0.065442
928.510042	0.064387
928.689327	0.063526
928.868593	0.062895
929.047841	0.062562
929.227071	0.062338
929.406283	0.062514
929.585476	0.062442
929.764652	0.062101
929.943809	0.061497
930.122948	0.061551
930.302068	0.061342
930.481171	0.061200
930.660255	0.060786
930.839321	0.060144
931.018369	0.059371
931.197398	0.059263
931.376409	0.058706
931.555402	0.058193
931.734377	0.058469
931.913334	0.057956
932.092272	0.057912
932.271192	0.057456
932.450094	0.057074
932.628978	0.056851
932.807844	0.055972
932.986691	0.056352
933.165520	0.055767
933.344331	0.055430
933.523123	0.055311
933.701898	0.054396
933.880654	0.054090
934.059392	0.053616
934.238111	0.052658
934.416813	0.052195
934.595496	0.052019
934.774161	0.051242
934.952808	0.050178
935.131437	0.049860
935.310047	0.049702
935.488639	0.050085
935.667213	0.050240
935.845769	0.050543
936.024306	0.050047
936.202825	0.049067
936.381326	0.049356
936.559809	0.048400
936.738274	0.047589
936.916720	0.046761
937.095148	0.045687
937.273558	0.044840
937.451950	0.043513
937.630323	0.042968
937.808678	0.042883
937.987015	0.042642
938.165334	0.042752
938.343635	0.042566
938.521917	0.042360
938.700181	0.042024
938.878427	0.041788
939.056655	0.040983
939.234864	0.040987
939.413055	0.040615
939.591228	0.039719
939.769383	0.038978
939.947519	0.038774
940.125638	0.037892
940.303738	0.036504
940.481820	0.036089
940.659883	0.036553
940.837929	0.035977
941.015956	0.035203
941.193965	0.034451
941.371955	0.034547
941.549928	0.033489
941.727882	0.033671
941.905818	0.034333
942.083736	0.034219
942.261636	0.034530
942.439517	0.035108
942.617380	0.034688
942.795225	0.035199
942.973052	0.034255
943.150860	0.035029
943.328651	0.034445
943.506423	0.034156
943.684176	0.032769
943.861912	0.031210
944.039629	0.029473
944.217328	0.028774
944.395009	0.028075
944.572672	0.027311
944.750317	0.025270
944.927943	0.024174
945.105551	0.023740
945.283141	0.023223
945.460712	0.022650
945.638265	0.023039
945.815801	0.023016
945.993317	0.021773
946.170816	0.021620
946.348297	0.022229
946.525759	0.023274
946.703203	0.022158
946.880629	0.022294
947.058036	0.022764
947.235425	0.022288
947.412797	0.020638
947.590149	0.020984
947.767484	0.021546
947.944800	0.020344
948.122099	0.018991
948.299379	0.019123
948.476640	0.019071
948.653884	0.017957
948.831109	0.017131
949.008316	0.017767
949.185505	0.017240
949.362676	0.016537
949.539828	0.017072
949.716962	0.016743
949.894078	0.016445
950.071176	0.016103
950.248256	0.016055
950.425317	0.015844
950.602360	0.016111
950.779385	0.014159
950.956391	0.012565
951.133380	0.012382
951.310350	0.012228
951.487302	0.011611
951.664235	0.010813
951.841151	0.010360
952.018048	0.010013
952.194927	0.009044
952.371788	0.010741
952.548631	0.010547
952.725455	0.010329
952.902261	0.008487
953.079049	0.008173
953.255819	0.007869
953.432570	0.009439
953.609303	0.008959
953.786018	0.007308
953.962715	0.006269
954.139394	0.006721
954.316054	0.006321
954.492696	0.008529
954.669320	0.008091
954.845926	0.007002
955.022513	0.004338
955.199083	0.004580
955.375634	0.004851
955.552166	0.003904
955.728681	0.003139
955.905177	0.002323
956.081655	-0.000230
956.258115	-0.001147
956.434557	0.000905
956.610980	0.000995
956.787385	0.000103
956.963772	0.001829
957.140141	0.003023
957.316492	0.002377
957.492824	0.002266
957.669138	0.002813
957.845434	0.003791
958.021712	0.002141
958.197971	0.003073
958.374212	0.002265
958.550435	-0.000825
958.726640	-0.002285
958.902826	-0.001519
959.078995	-0.000959
959.255145	-0.002314
959.431277	-0.002835
959.607390	-0.003798
959.783486	-0.003947
959.959563	-0.005115
960.135622	-0.004588
960.311662	-0.004772
960.487685	-0.004566
960.663689	-0.004928
960.839675	-0.002251
961.015643	-0.001824
961.191593	-0.001242
961.367524	-0.001851
961.543437	0.000486
961.719332	0.000908
961.895209	0.001295
962.071067	0.002414
962.246907	0.002783
962.422730	0.002430
962.598533	0.003727
962.774319	0.003992
962.950086	0.002915
963.125835	0.002851
963.301566	0.004811
963.477279	0.003307
963.652973	0.003148
963.828650	0.002160
964.004308	0.001390
964.179947	-0.000714
964.355569	-0.000394
964.531172	0.002133
964.706757	0.001576
964.882324	-0.000976
965.057873	0.001479
965.233403	0.000291
965.408916	-0.000519
965.584410	-0.000259
965.759885	0.001861
965.935343	0.001954
966.110782	0.001782
966.286203	0.000725
966.461606	0.001746
966.636991	0.000945
966.812357	0.000775
966.987705	0.001096
967.163035	0.001882
967.338347	-0.000016
967.513641	-0.000296
967.688916	-0.002364
967.864173	-0.003102
968.039412	-0.001818
968.214632	-0.001699
968.389835	-0.002033
968.565019	-0.002295
968.740185	-0.003470
968.915333	-0.003863
969.090462	-0.005240
969.265573	-0.005775
969.440667	-0.002616
969.615741	-0.004713
969.790798	-0.004192
969.965836	-0.006093
970.140856	-0.005652
970.315858	-0.006204
970.490842	-0.005212
970.665808	-0.004663
970.840755	-0.005510
971.015684	-0.007333
971.190595	-0.005765
971.365487	-0.005854
971.540362	-0.001952
971.715218	-0.003168
971.890056	-0.001367
972.064875	-0.000881
972.239677	0.000067
972.414460	0.003682
972.589225	0.004998
972.763972	0.007322
972.938700	0.006527
973.113411	0.005705
973.288103	0.008249
973.462777	0.007186
973.637432	0.005066
973.812070	0.004355
973.986689	0.003323
974.161290	0.003993
974.335873	0.001290
974.510437	0.002712
974.684984	0.003267
974.859512	0.002459
975.034022	0.002958
975.208513	0.003543
975.382987	0.004919
975.557442	0.002372
975.731879	0.001886
975.906298	0.002232
976.080698	0.000842
976.255080	-0.000681
976.429445	-0.000876
976.603790	-0.002695
976.778118	-0.003618
976.952427	-0.004536
977.126719	-0.002077
977.300992	-0.004003
977.475246	-0.004788
977.649483	-0.004363
977.823701	-0.006772
977.997901	-0.006362
978.172083	-0.005341
978.346247	-0.004373
978.520392	-0.003832
978.694519	-0.002948
978.868628	-0.000171
979.042719	-0.000454
979.216791	-0.000329
979.390845	0.003046
979.564882	0.003701
979.738899	0.003945
979.912899	0.006401
980.086880	0.007474
980.260843	0.006401
980.434788	0.006769
980.608715	0.007144
980.782623	0.007267
980.956514	0.006474
981.130386	0.005870
981.304240	0.004268
981.478075	0.002865
981.651892	0.001350
981.825692	0.000448
981.999472	0.001246
982.173235	0.001433
982.346980	0.000935
982.520706	0.000020
982.694414	-0.000237
982.868104	-0.000421
983.041775	-0.002780
983.215428	-0.003758
983.389064	-0.002538
983.562680	-0.006492
983.736279	-0.006080
983.909860	-0.005264
984.083422	-0.006697
984.256966	-0.008609
984.430491	-0.006741
984.603999	-0.006527
984.777488	-0.005445
984.950959	-0.006696
985.124412	-0.004181
985.297847	-0.004403
985.471263	-0.004053
985.644661	-0.001733
985.818041	-0.001455
985.991403	-0.001932
986.164747	0.000647
986.338072	0.000695
986.511379	0.002401
986.684668	0.001673
986.857938	0.002375
987.031191	0.000010
987.204425	0.000824
987.377641	0.001430
987.550839	0.003235
987.724018	0.000888
987.897179	-0.000298
988.070322	-0.000641
988.243447	-0.000700
988.416554	-0.002073
988.589642	-0.000353
988.762712	-0.001766
988.935764	-0.000451
989.108798	-0.002280
989.281813	0.001286
989.454811	0.003188
989.627790	0.002953
989.800751	0.003077
989.973693	0.003245
990.146617	0.002466
990.319524	0.003840
990.492412	0.003562
990.665281	0.003460
990.838133	0.001753
991.010966	0.000705
991.183781	-0.001399
991.356578	-0.001259
991.529356	0.000133
991.702117	-0.001092
991.874859	-0.001894
992.047583	-0.000411
992.220288	0.000343
992.392976	-0.000424
992.565645	-0.001289
992.738296	0.001000
992.910929	-0.001632
993.083543	-0.002171
993.256139	-0.000843
993.428718	-0.001934
993.601277	-0.002677
993.773819	-0.002565
993.946342	-0.002620
994.118848	-0.000656
994.291335	-0.001563
994.463803	-0.000785
994.636254	-0.000183
994.808686	-0.001404
994.981100	0.000244
995.153496	-0.000171
995.325874	-0.000504
995.498233	-0.000130
995.670574	-0.001386
995.842897	-0.001412
996.015202	-0.001661
996.187488	-0.002839
996.359757	-0.002171
996.532007	-0.003908
996.704239	-0.003277
996.876452	-0.004093
997.048648	-0.004961
997.220825	-0.005700
997.392984	-0.006636
997.565124	-0.004460
997.737247	-0.006271
997.909351	-0.005720
998.081437	-0.005085
998.253505	-0.007796
998.425554	-0.008970
998.597586	-0.007460
998.769599	-0.009289
998.941594	-0.009268
999.113571	-0.008977
999.285529	-0.008148
999.457469	-0.007763
999.629391	-0.008355
999.801295	-0.006919
999.973181	-0.006330
1000.145048	-0.007832
1000.316897	-0.005171
1000.488728	-0.003001
1000.660541	-0.004784
1000.832335	-0.003469
1001.004111	-0.003111
1001.175869	-0.002942
1001.347609	-0.004072
1001.519331	-0.004324
1001.691034	-0.004950
1001.862719	-0.004749
1002.034386	-0.004373
1002.206035	-0.003539
1002.377665	-0.003041
1002.549277	-0.004042
1002.720871	-0.002226
1002.892447	-0.001412
1003.064004	0.001014
1003.235544	0.002390
1003.407065	0.000206
1003.578568	-0.001536
1003.750052	-0.003235
1003.921519	-0.004754
1004.092967	-0.005850
1004.264397	-0.004960
1004.435809	-0.005438
1004.607202	-0.007083
1004.778577	-0.008088
1004.949934	-0.005793
1005.121273	-0.005623
1005.292594	-0.005759
1005.463896	-0.004371
1005.635180	-0.003201
1005.806446	-0.007517
1005.977694	-0.006191
1006.148923	-0.006718
1006.320135	-0.007237
1006.491328	-0.008692
1006.662503	-0.009340
1006.833659	-0.008041
1007.004798	-0.009961
1007.175918	-0.011292
1007.347020	-0.010872
1007.518103	-0.010668
1007.689169	-0.011022
1007.860216	-0.010910
1008.031245	-0.008282
1008.202256	-0.006837
1008.373248	-0.005884
1008.544223	-0.006053
1008.715179	-0.005634
1008.886117	-0.004008
1009.057036	-0.005591
1009.227938	-0.006219
1009.398821	-0.005812
1009.569686	-0.007721
1009.740533	-0.009809
1009.911361	-0.009461
1010.082172	-0.008615
1010.252964	-0.007870
1010.423738	-0.006537
1010.594493	-0.005654
1010.765231	-0.004436
1010.935950	-0.004837
1011.106651	-0.005277
1011.277334	-0.003016
1011.447998	-0.004414
1011.618645	-0.004587
1011.789273	-0.005474
1011.959882	-0.007428
1012.130474	-0.009346
1012.301048	-0.009097
1012.471603	-0.008595
1012.642140	-0.010135
1012.812658	-0.011682
1012.983159	-0.011521
1013.153641	-0.011580
1013.324105	-0.010542
1013.494551	-0.011252
1013.664979	-0.009594
1013.835388	-0.010606
1014.005779	-0.010346
1014.176152	-0.009942
1014.346507	-0.008947
1014.516843	-0.008625
1014.687162	-0.008391
1014.857462	-0.008495
1015.027744	-0.009175
1015.198007	-0.010058
1015.368252	-0.008590
1015.538480	-0.008298
1015.708689	-0.007902
1015.878879	-0.007943
1016.049052	-0.008540
1016.219206	-0.008763
1016.389342	-0.009686
1016.559460	-0.007045
1016.729559	-0.004650
1016.899641	-0.005516
1017.069704	-0.003981
1017.239749	-0.002808
1017.409775	-0.002785
1017.579784	-0.003597
1017.749774	-0.003029
1017.919746	-0.000354
1018.089700	-0.000423
1018.259635	-0.003248
1018.429553	-0.001933
1018.599452	-0.002946
1018.769333	-0.003261
1018.939195	-0.003967
1019.109040	-0.002729
1019.278866	-0.005344
1019.448674	-0.008039
1019.618464	-0.008981
1019.788235	-0.007914
1019.957989	-0.009412
1020.127724	-0.010295
1020.297441	-0.010259
1020.467139	-0.010120
1020.636820	-0.010330
1020.806482	-0.008237
1020.976126	-0.009365
1021.145752	-0.009462
1021.315359	-0.010123
1021.484948	-0.008884
1021.654519	-0.008799
1021.824072	-0.008710
1021.993607	-0.008049
1022.163123	-0.008967
1022.332621	-0.008888
1022.502101	-0.006572
1022.671563	-0.006532
1022.841007	-0.006322
1023.010432	-0.007945
1023.179839	-0.009034
1023.349228	-0.009613
1023.518598	-0.011164
1023.687951	-0.010112
1023.857285	-0.010001
1024.026601	-0.010272
1024.195899	-0.010449
1024.365178	-0.011801
1024.534439	-0.010481
1024.703682	-0.009796
1024.872907	-0.009941
1025.042114	-0.009359
1025.211302	-0.010369
1025.380472	-0.010579
1025.549624	-0.011826
1025.718758	-0.011795
1025.887873	-0.009791
1026.056970	-0.010410
1026.226049	-0.010473
1026.395110	-0.011670
1026.564153	-0.013435
1026.733177	-0.012759
1026.902183	-0.013153
1027.071171	-0.012519
1027.240141	-0.012311
1027.409092	-0.012974
1027.578026	-0.011986
1027.746940	-0.011773
1027.915837	-0.010556
1028.084716	-0.009713
1028.253576	-0.009005
1028.422418	-0.008185
1028.591242	-0.009158
1028.760048	-0.009574
1028.928835	-0.009285
1029.097604	-0.010454
1029.266355	-0.010584
1029.435088	-0.010896
1029.603803	-0.009925
1029.772499	-0.011550
1029.941177	-0.013004
1030.109837	-0.012611
1030.278478	-0.012361
1030.447102	-0.012654
1030.615707	-0.013408
1030.784294	-0.013013
1030.952863	-0.013885
1031.121413	-0.014973
1031.289945	-0.013386
1031.458460	-0.013349
1031.626955	-0.013066
1031.795433	-0.012825
1031.963892	-0.012196
1032.132334	-0.011264
1032.300756	-0.011611
1032.469161	-0.010953
1032.637548	-0.011391
1032.805916	-0.013550
1032.974266	-0.013282
1033.142598	-0.013483
1033.310911	-0.013125
1033.479207	-0.014534
1033.647484	-0.013493
1033.815743	-0.013316
1033.983983	-0.013972
1034.152206	-0.012785
1034.320410	-0.011971
1034.488596	-0.011583
1034.656764	-0.011373
1034.824914	-0.014274
1034.993045	-0.013787
1035.161158	-0.013534
1035.329253	-0.013109
1035.497330	-0.009701
1035.665388	-0.009252
1035.833428	-0.009148
1036.001450	-0.009919
1036.169454	-0.009119
1036.337440	-0.006003
1036.505407	-0.006423
1036.673356	-0.008440
1036.841287	-0.009509
1037.009200	-0.010809
1037.177094	-0.011896
1037.344970	-0.011262
1037.512828	-0.009977
1037.680668	-0.009390
1037.848489	-0.010192
1038.016293	-0.011242
1038.184078	-0.010524
1038.351845	-0.010768
1038.519593	-0.011402
1038.687324	-0.009864
1038.855036	-0.011692
1039.022730	-0.011122
1039.190406	-0.012513
1039.358063	-0.012240
1039.525702	-0.011035
1039.693323	-0.010407
1039.860926	-0.009860
1040.028511	-0.010915
1040.196077	-0.011001
1040.363625	-0.010157
1040.531155	-0.011959
1040.698667	-0.012704
1040.866161	-0.012837
1041.033636	-0.011957
1041.201093	-0.012813
1041.368532	-0.011985
1041.535952	-0.011204
1041.703355	-0.011107
1041.870739	-0.010994
1042.038105	-0.010746
1042.205452	-0.009398
1042.372782	-0.009900
1042.540093	-0.010394
1042.707386	-0.010354
1042.874661	-0.011642
1043.041918	-0.011191
1043.209156	-0.011883
1043.376376	-0.012222
1043.543578	-0.013083
1043.710762	-0.011652
1043.877927	-0.010504
1044.045074	-0.010143
1044.212203	-0.010981
1044.379314	-0.011340
1044.546407	-0.012590
1044.713481	-0.013136
1044.880537	-0.012023
1045.047575	-0.011072
1045.214595	-0.012843
1045.381596	-0.015160
1045.548579	-0.015809
1045.715544	-0.015082
1045.882491	-0.014334
1046.049420	-0.013458
1046.216330	-0.013542
1046.383222	-0.014319
1046.550096	-0.013646
1046.716951	-0.013892
1046.883789	-0.012215
1047.050608	-0.011884
1047.217409	-0.010922
1047.384192	-0.010282
1047.550956	-0.009985
1047.717703	-0.010429
1047.884431	-0.011009
1048.051140	-0.012259
1048.217832	-0.011893
1048.384505	-0.011617
1048.551161	-0.010992
1048.717798	-0.012056
1048.884416	-0.013164
1049.051017	-0.013553
1049.217599	-0.011977
1049.384163	-0.009848
1049.550709	-0.009621
1049.717237	-0.010114
1049.883746	-0.011965
1050.050237	-0.010828
1050.216710	-0.008336
1050.383165	-0.006015
1050.549601	-0.004643
1050.716019	-0.004787
1050.882420	-0.005793
1051.048801	-0.004938
1051.215165	-0.005303
1051.381510	-0.003869
1051.547837	-0.005096
1051.714146	-0.008796
1051.880437	-0.009747
1052.046709	-0.009262
1052.212964	-0.010565
1052.379200	-0.010296
1052.545417	-0.011421
1052.711617	-0.011197
1052.877798	-0.009893
1053.043961	-0.011235
1053.210106	-0.009555
1053.376233	-0.010426
1053.542341	-0.012396
1053.708432	-0.013478
1053.874504	-0.013932
1054.040557	-0.013851
1054.206593	-0.011999
1054.372610	-0.013516
1054.538609	-0.010938
1054.704590	-0.010885
1054.870553	-0.010439
1055.036497	-0.008249
1055.202424	-0.005187
1055.368331	-0.005419
1055.534221	-0.004814
1055.700093	-0.007521
1055.865946	-0.007652
1056.031781	-0.008943
1056.197598	-0.008953
1056.363397	-0.009850
1056.529177	-0.012912
1056.694939	-0.013848
1056.860683	-0.012082
1057.026409	-0.010729
1057.192116	-0.010361
1057.357806	-0.009335
1057.523477	-0.010280
1057.689130	-0.011016
1057.854764	-0.012262
1058.020381	-0.009753
1058.185979	-0.008925
1058.351559	-0.010238
1058.517120	-0.010887
1058.682664	-0.009998
1058.848189	-0.010978
1059.013696	-0.009627
1059.179185	-0.008257
1059.344656	-0.006322
1059.510108	-0.007055
1059.675542	-0.007734
1059.840958	-0.007345
1060.006356	-0.007239
1060.171735	-0.007695
1060.337096	-0.005295
1060.502439	-0.006851
1060.667764	-0.007756
1060.833071	-0.006850
1060.998359	-0.008273
1061.163629	-0.007895
1061.328881	-0.009627
1061.494115	-0.009794
1061.659330	-0.009887
1061.824527	-0.013131
1061.989706	-0.011888
1062.154867	-0.011936
1062.320010	-0.011808
1062.485134	-0.009238
1062.650240	-0.009203
1062.815328	-0.006970
1062.980398	-0.009027
1063.145449	-0.007944
1063.310482	-0.007379
1063.475497	-0.007272
1063.640494	-0.005275
1063.805473	-0.005340
1063.970433	-0.007698
1064.135375	-0.008213
1064.300299	-0.009525
1064.465204	-0.007995
1064.630092	-0.007779
1064.794961	-0.005755
1064.959812	-0.006279
1065.124645	-0.008887
1065.289459	-0.009190
1065.454256	-0.009087
1065.619034	-0.010971
1065.783793	-0.010333
1065.948535	-0.009539
1066.113258	-0.009612
1066.277964	-0.010553
1066.442651	-0.010575
1066.607319	-0.011611
1066.771970	-0.010697
1066.936602	-0.011239
1067.101216	-0.010604
1067.265812	-0.010625
1067.430389	-0.011230
1067.594949	-0.011099
1067.759490	-0.011040
1067.924013	-0.009501
1068.088518	-0.008015
1068.253004	-0.008891
1068.417472	-0.005591
1068.581922	-0.005776
1068.746354	-0.005769
1068.910768	-0.004906
1069.075163	-0.004407
1069.239540	-0.003917
1069.403899	-0.005309
1069.568240	-0.004728
1069.732562	-0.005137
1069.896866	-0.008644
1070.061152	-0.009299
1070.225420	-0.009011
1070.389670	-0.007037
1070.553901	-0.007918
1070.718114	-0.007653
1070.882309	-0.008087
1071.046486	-0.006095
1071.210644	-0.006369
1071.374784	-0.005629
1071.538906	-0.003224
1071.703010	-0.003290
1071.867096	-0.006471
1072.031163	-0.005756
1072.195212	-0.006968
1072.359243	-0.006855
1072.523256	-0.008219
1072.687250	-0.006255
1072.851226	-0.004450
1073.015184	-0.003855
1073.179124	-0.004876
1073.343045	-0.004616
1073.506949	-0.006579
1073.670834	-0.007728
1073.834701	-0.006620
1073.998549	-0.008445
1074.162380	-0.011488
1074.326192	-0.010870
1074.489986	-0.009995
1074.653761	-0.010486
1074.817519	-0.008950
1074.981258	-0.007873
1075.144979	-0.007904
1075.308682	-0.009118
1075.472367	-0.009208
1075.636033	-0.007722
1075.799681	-0.010059
1075.963311	-0.011831
1076.126923	-0.009920
1076.290516	-0.012415
1076.454092	-0.011740
1076.617649	-0.009254
1076.781187	-0.010914
1076.944708	-0.008542
1077.108210	-0.009047
1077.271695	-0.007935
1077.435160	-0.008001
1077.598608	-0.007990
1077.762038	-0.008027
1077.925449	-0.008301
1078.088842	-0.010716
1078.252217	-0.008269
1078.415573	-0.008906
1078.578912	-0.006541
1078.742232	-0.005713
1078.905534	-0.006345
1079.068817	-0.007998
1079.232083	-0.006923
1079.395330	-0.006918
1079.558559	-0.005690
1079.721770	-0.005956
1079.884962	-0.004395
1080.048136	-0.007639
1080.211293	-0.007902
1080.374430	-0.008117
1080.537550	-0.007111
1080.700651	-0.006987
1080.863735	-0.005856
1081.026800	-0.005375
1081.189846	-0.003824
1081.352875	-0.005970
1081.515885	-0.003935
1081.678877	-0.004667
1081.841851	-0.003371
1082.004807	-0.003612
1082.167744	-0.001955
1082.330663	-0.003060
1082.493564	-0.003381
1082.656447	-0.004055
1082.819312	-0.004277
1082.982158	-0.005272
1083.144986	-0.002757
1083.307796	-0.003908
1083.470587	-0.002044
1083.633361	-0.002012
1083.796116	-0.003946
1083.958853	-0.003135
1084.121571	-0.005513
1084.284272	-0.003826
1084.446954	-0.004241
1084.609618	-0.004076
1084.772264	-0.003212
1084.934892	-0.005196
1085.097501	-0.006466
1085.260092	-0.003038
1085.422665	-0.002161
1085.585220	0.001833
1085.747756	0.000548
1085.910274	0.002513
1086.072774	0.000177
1086.235256	0.000209
1086.397720	0.000859
1086.560165	0.003512
1086.722592	0.000877
1086.885001	-0.000549
1087.047392	-0.003892
1087.209764	-0.001728
1087.372119	-0.000928
1087.534455	-0.001867
1087.696772	-0.001163
1087.859072	0.001982
1088.021353	0.000154
1088.183616	0.001326
1088.345861	0.000074
1088.508088	0.000831
1088.670296	-0.002463
1088.832486	-0.004262
1088.994658	-0.003378
1089.156812	-0.002079
1089.318948	-0.006213
1089.481065	-0.006765
1089.643164	-0.006781
1089.805245	-0.004549
1089.967308	-0.005941
1090.129352	-0.004713
1090.291378	-0.004396
1090.453386	-0.005466
1090.615376	-0.006291
1090.777347	-0.005558
1090.939301	-0.005008
1091.101236	-0.004395
1091.263153	-0.003796
1091.425051	0.001499
1091.586932	0.002964
1091.748794	0.002616
1091.910638	0.004300
1092.072463	0.003033
1092.234271	0.002817
1092.396060	-0.000320
1092.557831	-0.000001
1092.719584	-0.000396
1092.881319	-0.002866
1093.043035	-0.003699
1093.204733	-0.004359
1093.366413	-0.005216
1093.528075	-0.005045
1093.689718	-0.007162
1093.851343	-0.003388
1094.012950	-0.003527
1094.174539	-0.002656
1094.336110	-0.002875
1094.497662	-0.004106
1094.659196	-0.001337
1094.820712	-0.001735
1094.982210	-0.001364
1095.143689	0.001823
1095.305151	0.002039
1095.466594	-0.000412
1095.628018	-0.004281
1095.789425	-0.006900
1095.950813	-0.006661
1096.112183	-0.010576
1096.273535	-0.009575
1096.434869	-0.011386
1096.596184	-0.010891
1096.757482	-0.010205
1096.918761	-0.009944
1097.080021	-0.009172
1097.241264	-0.005814
1097.402488	-0.002911
1097.563694	0.000056
1097.724882	0.001037
1097.886052	0.004334
1098.047203	0.004910
1098.208336	0.003045
1098.369451	0.004535
1098.530548	0.007620
1098.691627	0.006355
1098.852687	0.005375
1099.013729	0.004866
1099.174753	0.003455
1099.335758	0.000251
1099.496746	-0.001216
1099.657715	-0.000002
1099.818666	0.002771
1099.979599	-0.000088
1100.140513	-0.001143
1100.301409	-0.000096
1100.462287	-0.000156
1100.623147	-0.000506
1100.783989	0.001536
1100.944812	-0.001453
1101.105617	-0.003669
1101.266404	-0.007311
1101.427173	-0.004549
1101.587923	-0.001716
1101.748656	-0.003403
1101.909370	-0.000499
1102.070066	0.000981
1102.230743	-0.000583
1102.391403	0.001071
1102.552044	0.002973
1102.712667	0.002325
1102.873271	-0.002628
1103.033858	-0.002562
1103.194426	-0.003720
1103.354976	-0.008377
1103.515508	-0.011766
1103.676021	-0.009365
1103.836517	-0.005916
1103.996994	-0.006291
1104.157453	-0.006341
1104.317893	-0.002633
1104.478316	-0.003773
1104.638720	-0.001559
1104.799106	0.001697
1104.959474	0.004478
1105.119823	0.005392
1105.280155	0.007009
1105.440468	0.005122
1105.600763	0.009448
1105.761039	0.012319
1105.921298	0.009822
1106.081538	0.011771
1106.241760	0.010076
1106.401964	0.010981
1106.562149	0.010524
1106.722316	0.008862
1106.882465	0.010626
1107.042596	0.007980
1107.202709	0.007268
1107.362803	0.011622
1107.522879	0.004424
1107.682937	0.005702
1107.842977	0.007079
1108.002999	0.007569
1108.163002	0.006779
1108.322987	0.004741
1108.482954	0.006561
1108.642902	0.004303
1108.802833	0.001898
1108.962745	0.004786
1109.122639	0.004403
1109.282515	0.005276
1109.442372	0.004192
1109.602211	0.002818
1109.762032	0.005283
1109.921835	0.006629
1110.081620	0.005913
1110.241386	0.008123
1110.401134	0.010182
1110.560864	0.009861
1110.720576	0.008346
1110.880269	0.007595
1111.039945	0.009457
1111.199602	0.010401
1111.359240	0.007420
1111.518861	0.010266
1111.678463	0.009171
1111.838047	0.010334
1111.997613	0.009913
1112.157161	0.010677
1112.316690	0.013544
1112.476202	0.014565
1112.635695	0.011133
1112.795169	0.011319
1112.954626	0.007170
1113.114064	0.008605
1113.273484	0.006652
1113.432886	0.006298
1113.592270	0.001485
1113.751635	-0.001051
1113.910983	-0.003906
1114.070312	0.000420
1114.229622	0.003347
1114.388915	0.008294
1114.548189	0.003474
1114.707445	0.001085
1114.866683	0.003136
1115.025903	0.007782
1115.185104	0.007807
1115.344287	0.006654
1115.503452	0.009677
1115.662599	0.006022
1115.821727	0.003257
1115.980838	0.007113
1116.139930	0.007728
1116.299004	0.007205
1116.458059	0.006153
1116.617097	0.009925
1116.776116	0.011899
1116.935117	0.006290
1117.094099	0.005336
1117.253064	0.005035
1117.412010	0.002602
1117.570938	0.007408
1117.729848	0.004712
1117.888740	0.007410
1118.047613	0.002913
1118.206468	0.003109
1118.365305	0.002977
1118.524124	0.002050
1118.682924	0.006484
1118.841707	0.007585
1119.000471	0.004584
1119.159216	0.005810
1119.317944	0.001018
1119.476653	0.005547
1119.635344	0.007114
1119.794017	0.004926
1119.952672	0.009875
1120.111308	0.005252
1120.269927	0.007609
1120.428527	0.004958
1120.587108	0.005166
1120.745672	0.009285
1120.904217	0.005610
1121.062744	0.003185
1121.221253	0.006432
1121.379744	0.006136
1121.538216	0.008413
1121.696671	0.006298
1121.855107	0.010701
1122.013524	0.009827
1122.171924	0.008078
1122.330305	0.011657
1122.488668	0.014645
1122.647013	0.011969
1122.805340	0.014697
1122.963648	0.015775
1123.121938	0.011260
1123.280210	0.011496
1123.438464	0.015737
1123.596700	0.016583
1123.754917	0.013734
1123.913116	0.012126
1124.071297	0.014782
1124.229459	0.010586
1124.387604	0.007437
1124.545730	0.011968
1124.703838	0.013141
1124.861928	0.010333
1125.019999	0.005293
1125.178052	0.004386
1125.336088	0.005731
1125.494104	0.005554
1125.652103	0.005817
1125.810083	0.009494
1125.968045	0.011649
1126.125989	0.010563
1126.283915	0.013802
1126.441823	0.018127
1126.599712	0.018277
1126.757583	0.019781
1126.915436	0.018793
1127.073270	0.020449
1127.231087	0.021084
1127.388885	0.019730
1127.546665	0.018913
1127.704426	0.019317
1127.862170	0.015912
1128.019895	0.018296
1128.177602	0.015806
1128.335291	0.020477
1128.492961	0.019527
1128.650614	0.013770
1128.808248	0.011088
1128.965864	0.011095
1129.123461	0.007192
1129.281041	0.011869
1129.438602	0.012543
1129.596145	0.012545
1129.753670	0.009744
1129.911176	0.007527
1130.068665	0.007366
1130.226135	0.009870
1130.383587	0.010112
1130.541020	0.011751
1130.698436	0.005252
1130.855833	0.003254
1131.013212	-0.000917
1131.170573	-0.000102
1131.327915	0.003463
1131.485239	0.001676
1131.642545	0.000988
1131.799833	-0.000392
1131.957103	0.000400
1132.114354	0.000568
1132.271588	0.002194
1132.428803	0.001733
1132.585999	0.004139
1132.743178	0.000219
1132.900338	0.004463
1133.057480	0.006453
1133.214604	0.012651
1133.371710	0.006741
1133.528797	0.014490
1133.685866	0.015859
1133.842917	0.023971
1133.999950	0.019630
1134.156964	0.025718
1134.313960	0.028276
1134.470938	0.024764
1134.627898	0.018769
1134.784840	0.023642
1134.941763	0.015955
1135.098668	0.011210
1135.255555	0.007043
1135.412424	0.008475
1135.569274	0.007814
1135.726107	0.006374
1135.882921	0.007007
1136.039716	0.001619
1136.196494	0.001352
1136.353253	0.011602
1136.509995	0.018763
1136.666717	0.021498
1136.823422	0.021643
1136.980109	0.018543
1137.136777	0.021455
1137.293427	0.023390
1137.450059	0.028401
1137.606672	0.023129
1137.763267	0.014998
1137.919844	0.011047
1138.076403	0.007792
1138.232944	0.006054
1138.389466	0.009255
1138.545971	0.006399
1138.702457	0.008615
1138.858924	0.009701
1139.015374	0.018078
1139.171805	0.020041
1139.328218	0.017893
1139.484613	0.023029
1139.640990	0.022679
1139.797348	0.014886
1139.953688	0.015487
1140.110010	0.016829
1140.266314	0.014909
1140.422600	0.013800
1140.578867	0.011102
1140.735116	0.007402
1140.891347	-0.000081
1141.047559	0.000896
1141.203754	0.006182
1141.359930	0.010060
1141.516088	0.002080
1141.672228	0.009248
1141.828349	0.005203
1141.984452	0.005866
1142.140537	0.015472
1142.296604	0.025296
1142.452653	0.024681
1142.608683	0.023410
1142.764695	0.016324
1142.920689	0.020984
1143.076665	0.019158
1143.232622	0.022444
1143.388562	0.022485
1143.544483	0.019365
1143.700385	0.017242
1143.856270	0.022536
1144.012136	0.024330
1144.167985	0.030772
1144.323814	0.028555
1144.479626	0.032592
1144.635420	0.030117
1144.791195	0.035147
1144.946952	0.030821
1145.102691	0.028085
1145.258411	0.025036
1145.414113	0.020684
1145.569798	0.017417
1145.725463	0.022545
1145.881111	0.015826
1146.036741	0.021344
1146.192352	0.017582
1146.347945	0.020866
1146.503519	0.021721
1146.659076	0.021128
1146.814614	0.020065
1146.970134	0.019818
1147.125636	0.018573
1147.281120	0.017833
1147.436585	0.013463
1147.592032	0.016606
1147.747461	0.015014
1147.902872	0.013011
1148.058265	0.014023
1148.213639	0.018555
1148.368995	0.021661
1148.524333	0.018196
1148.679653	0.016000
1148.834954	0.014885
1148.990237	0.015796
1149.145502	0.017055
1149.300749	0.014176
1149.455977	0.014385
1149.611188	0.015572
1149.766380	0.018053
1149.921553	0.019608
1150.076709	0.022343
1150.231846	0.024378
1150.386966	0.022747
1150.542066	0.017959
1150.697149	0.021176
1150.852214	0.020437
1151.007260	0.020333
1151.162288	0.010795
1151.317298	0.016063
1151.472289	0.012181
1151.627263	0.016474
1151.782218	0.021891
1151.937155	0.025508
1152.092073	0.024578
1152.246974	0.022530
1152.401856	0.022852
1152.556720	0.029866
1152.711566	0.032302
1152.866393	0.034479
1153.021203	0.031396
1153.175994	0.029689
1153.330767	0.029620
1153.485521	0.034764
1153.640258	0.037589
1153.794976	0.040781
1153.949676	0.033903
1154.104358	0.029242
1154.259021	0.032065
1154.413667	0.027263
1154.568294	0.023951
1154.722903	0.023558
1154.877493	0.025161
1155.032066	0.024654
1155.186620	0.025981
1155.341156	0.025611
1155.495674	0.021845
1155.650173	0.021985
1155.804654	0.026624
1155.959118	0.026313
1156.113562	0.029253
1156.267989	0.020529
1156.422397	0.017492
1156.576788	0.014829
1156.731160	0.018709
1156.885513	0.023409
1157.039849	0.019141
1157.194166	0.017727
1157.348465	0.018110
1157.502746	0.018295
1157.657009	0.023692
1157.811253	0.022441
1157.965479	0.018416
1158.119687	0.017485
1158.273877	0.012891
1158.428048	0.017888
1158.582201	0.011911
1158.736337	0.007096
1158.890453	0.007507
1159.044552	0.010438
1159.198632	0.013379
1159.352694	0.007514
1159.506738	0.011327
1159.660764	0.008613
1159.814771	0.000563
1159.968761	0.012224
1160.122732	0.017851
1160.276685	0.010160
1160.430619	0.002028
1160.584535	0.002488
1160.738434	0.015653
1160.892313	0.009657
1161.046175	0.019240
1161.200019	0.036953
1161.353844	0.033780
1161.507651	0.039182
1161.661440	0.047980
1161.815210	0.050456
1161.968962	0.052794
1162.122697	0.046012
1162.276412	0.046485
1162.430110	0.040474
1162.583789	0.030859
1162.737451	0.031010
1162.891094	0.024957
1163.044718	0.022999
1163.198325	0.028057
1163.351913	0.017636
1163.505483	0.022914
1163.659035	0.037361
1163.812569	0.040540
1163.966084	0.042607
1164.119581	0.042310
1164.273060	0.042443
1164.426521	0.042287
1164.579964	0.041793
1164.733388	0.049724
1164.886794	0.042388
1165.040182	0.031365
1165.193551	0.021877
1165.346903	0.010725
1165.500236	0.003189
1165.653551	-0.002234
1165.806848	-0.006823
1165.960126	-0.015996
1166.113386	-0.021532
1166.266628	-0.027586
1166.419852	-0.032337
1166.573058	-0.029544
1166.726245	-0.022144
1166.879414	-0.013042
1167.032565	-0.008704
1167.185698	-0.006527
1167.338812	0.001256
1167.491909	0.013770
1167.644987	0.020057
1167.798046	0.023435
1167.951088	0.024060
1168.104111	0.024045
1168.257117	0.017579
1168.410103	0.017016
1168.563072	0.019427
1168.716023	0.010829
1168.868955	0.002167
1169.021869	0.012686
1169.174765	0.017842
1169.327642	0.022427
1169.480501	0.027554
1169.633343	0.046843
1169.786165	0.055221
1169.938970	0.054478
1170.091757	0.059832
1170.244525	0.071674
1170.397275	0.054471
1170.550007	0.060634
1170.702720	0.054387
1170.855415	0.051779
1171.008092	0.022229
1171.160751	0.004047
1171.313392	-0.006405
1171.466014	0.049821
1171.618619	-0.076574
1171.771205	-0.076574
1171.923772	-0.076574
