sample name	sample
index	1374
start time	 05-03-2021  02:33:15 PM
880	0.046717
Peak Time (s)	91.036
Peak Height 	0.04672
calc peak height	90,93
Baseline Time (s)	11.037
Baseline Value 	-0.004677
subtract baseline	10,4
Abs	0.025933
Peak Time (s)	92.037
Peak Height 	0.02593
calc peak height	90,93
Baseline Time (s)	8.536
Baseline Value 	0.001853
subtract baseline	10,3
PK_550	0.020825
Peak Time (s)	90.038
Peak Height 	0.02083
calc peak height	90,93
Baseline Time (s)	11.037
Baseline Value 	9.3806E-4
subtract baseline	10,2
PK_880	0.024984
Peak Time (s)	92.037
Peak Height 	0.02498
calc peak height	90,93
Baseline Time (s)	8.536
Baseline Value 	0.002388
subtract baseline	10,1


Time (s)	A880-A510	A880-A775	A880-A975	A880	I510	I775	I975	I880	
0.036500	-0.001584	-0.000899	-0.004542	0.004152	6132.925642	42274.421227	3918.519583	22034.175482
0.537000	-0.001915	-0.001009	-0.003609	0.004485	6128.111381	42234.316374	3919.836057	22019.568870
1.071500	-0.002810	-0.000374	-0.001796	0.004070	6124.644687	42329.299758	3924.744839	22037.777695
1.534500	-0.004747	-0.001033	-0.001788	0.004916	6104.582632	42193.232192	3922.893946	22000.671436
2.038000	-0.002259	-0.000542	-0.001276	0.005036	6121.641245	42226.767815	3923.760297	21995.441950
2.617500	-0.003201	-0.000026	-0.000205	0.001500	6140.427031	42594.230135	3933.978564	22150.818620
3.035000	0.000446	-0.000640	0.004730	-0.001023	6185.575634	42768.598972	3950.754001	22262.507991
3.538500	-0.002881	-0.000568	-0.002215	0.005765	6111.898195	42158.613785	3920.084590	21963.528058
4.036000	-0.002563	0.000462	-0.001296	0.002968	6134.410761	42505.078097	3928.291392	22086.184404
4.536500	-0.000962	-0.000356	-0.001844	0.000277	6165.686311	42675.803273	3933.052170	22204.900640
5.036500	-0.001038	-0.000110	0.001177	0.000354	6164.565876	42691.196841	3939.633183	22201.496447
5.537000	0.000973	0.000586	-0.004584	0.001600	6170.164842	42640.977736	3924.041226	22146.421705
6.037500	-0.001999	-0.000480	-0.007112	0.001810	6146.920685	42524.716391	3918.017543	22137.160450
6.534500	-0.002673	-0.000353	-0.002107	0.000223	6153.571112	42680.926839	3932.587708	22207.283267
7.035000	-0.000742	0.000126	-0.002386	0.000328	6166.919250	42715.071036	3931.730737	22202.626244
7.535500	0.000990	0.000575	-0.000887	0.000447	6178.760331	42745.289789	3934.807045	22197.349710
8.038000	-0.002764	-0.000453	0.000533	0.002461	6136.627323	42468.052349	3933.482979	22108.498334
8.535500	0.000000	0.000436	0.000000	0.000197	6173.326291	42755.463037	3937.348934	22208.445280
9.036000	-0.000888	-0.000233	0.001470	-0.000241	6170.022595	42734.345460	3941.627881	22227.834531
9.536500	0.000004	0.000138	0.004931	0.000546	6170.793070	42696.305264	3947.656745	22192.997375
10.036500	-0.000888	-0.000593	-0.005025	-0.000666	6173.138341	42740.280574	3928.078096	22246.657697
10.534000	-0.001474	-0.000431	-0.000100	-0.000887	6170.460057	42775.297531	3939.551211	22256.455618
11.037000	0.000160	0.000000	-0.005181	0.000000	6175.942913	42733.570406	3926.259600	22217.147216
11.535000	0.000928	0.000739	0.002903	0.000413	6178.548072	42763.404232	3943.379451	22198.851069
12.035500	0.001102	-0.000198	-0.000994	0.000036	6182.606779	42712.238484	3935.486317	22215.561215
12.538500	-0.001152	-0.000619	-0.002011	-0.000149	6167.409975	42690.628679	3933.629572	22223.747359
13.088000	-0.001112	-0.000193	-0.000669	0.000767	6161.002588	42645.915485	3934.579548	22183.215126
13.536000	-0.002315	-0.000618	0.005916	0.000241	6156.054183	42655.084063	3950.578421	22206.479483
14.083500	-0.003472	-0.000112	-0.001093	0.002903	6128.298639	42458.871887	3928.885250	22089.042306
14.536500	-0.001016	-0.000516	-0.003087	0.002445	6149.450447	42463.734599	3925.483241	22109.189707
15.085500	-0.000323	0.000311	-0.001292	0.000873	6165.998326	42682.155559	3932.953673	22178.518425
15.548000	-0.003555	-0.000217	0.001407	0.000704	6143.641841	42649.363038	3939.362032	22185.975954
16.038000	-0.000362	0.000238	0.002752	0.003987	6142.984116	42392.139480	3935.027261	22041.383582
16.539500	-0.000921	0.000542	-0.004504	0.001421	6157.616034	42653.323912	3924.614255	22154.343678
17.057500	0.004635	0.000686	0.006680	-0.002353	6226.505843	43012.410562	3958.223091	22321.621116
17.535500	-0.000719	-0.000707	-0.000266	-0.000070	6170.004066	42675.357097	3937.350810	22220.244016
18.036000	-0.001768	-0.000047	-0.003126	0.001702	6149.387105	42573.917495	3927.039538	22141.907657
18.536000	-0.003576	-0.000338	0.000400	0.001452	6138.057056	42570.205225	3935.435227	22152.943845
19.036500	-0.003753	-0.000765	0.000796	0.001129	6139.119980	42560.814721	3937.044801	22167.238942
19.536500	-0.001985	-0.000425	-0.002506	0.001323	6150.564459	42573.994620	3929.253470	22158.646201
20.037000	-0.002959	-0.000237	-0.004505	0.001726	6140.551787	42554.443850	3923.939717	22140.875317
20.537000	-0.005173	-0.000001	0.001653	0.001406	6126.817670	42605.120154	3938.342185	22154.998414
21.035000	-0.000633	0.000096	-0.003040	0.001975	6155.674479	42562.053970	3926.626167	22129.874080
21.540000	-0.000662	-0.000174	-0.000323	0.001300	6160.393332	42599.062396	3934.163456	22159.676823
22.035500	-0.001059	-0.001326	-0.002697	0.000514	6163.243656	42565.658591	3930.627800	22194.416340
22.536000	-0.001760	-0.000085	0.001262	0.001089	6153.913117	42626.407563	3938.176744	22168.998087
23.041500	0.001972	0.000060	-0.003145	0.001725	6176.579541	42581.549642	3926.946153	22140.894748
23.536000	0.000940	0.000435	0.001903	0.001634	6169.675056	42624.101956	3938.391692	22144.923507
24.036500	-0.002219	-0.001057	0.001065	0.000743	6153.090614	42569.345319	3938.510398	22184.279499
24.536500	-0.001090	0.000219	0.000351	0.001664	6154.603551	42601.572974	3934.851973	22143.585371
25.037000	-0.000590	0.000240	0.003813	0.001506	6159.410845	42617.990273	3942.967490	22150.567114
25.534500	-0.002040	-0.000278	-0.000951	0.000694	6154.753999	42644.814080	3934.113571	22186.447471
26.037500	-0.002739	-0.000050	-0.002975	0.001197	6145.995166	42619.748940	3928.493275	22164.219748
26.535500	-0.002246	-0.000553	0.002343	0.000756	6152.797622	42614.083360	3941.347933	22183.695633
27.035000	0.002562	0.000081	0.001555	-0.001329	6203.477799	42862.744442	3944.268559	22276.108375
27.535500	0.003521	0.001253	0.004344	-0.001508	6211.918788	42986.893020	3950.979037	22284.038017
28.036500	0.000605	0.000178	0.002161	0.000469	6175.767019	42706.913354	3941.583400	22196.369534
28.536000	0.001027	0.000053	-0.001198	0.000606	6177.861641	42682.998399	3933.756695	22190.314244
29.036500	-0.001496	-0.000832	-0.000209	-0.000335	6166.257819	42688.215478	3938.071929	22232.007771
29.537000	-0.004505	-0.000573	-0.003420	0.004174	6111.657230	42301.825977	3920.934640	22033.184446
30.037500	0.001170	0.000074	0.001168	0.000357	6180.744970	42707.678667	3939.605986	22201.328145
30.540000	-0.001965	-0.000213	0.001503	0.001167	6151.851549	42607.608411	3938.540987	22165.537674
31.035000	-0.003106	0.000397	0.001506	0.002513	6133.771218	42540.597535	3935.536737	22106.200689
31.535000	-0.002818	0.000332	-0.003581	0.002493	6136.000824	42536.426930	3924.284198	22107.054676
32.035000	-0.001971	0.000119	0.001007	0.002746	6140.308302	42494.038937	3933.901549	22095.911486
32.536000	-0.002721	-0.000033	-0.002626	0.000044	6154.522718	42726.531049	3931.829545	22215.186474
33.036000	-0.000042	0.000349	0.003415	0.000504	6170.767229	42719.479533	3944.328669	22194.863455
33.537000	-0.001967	-0.000306	-0.004935	0.002082	6145.167673	42515.792041	3922.205137	22125.151572
34.037500	0.000148	0.000470	0.000701	0.002040	6160.909650	42590.321666	3934.797732	22127.044124
34.534500	0.000471	-0.000471	-0.005738	0.000819	6172.218257	42615.854112	3923.220921	22180.930863
35.040000	-0.001734	0.000763	0.000897	0.001858	6148.502249	42633.628782	3935.640036	22135.061094
35.534500	-0.001087	0.000270	0.003106	0.001906	6152.868771	42584.279361	3940.479929	22132.946394
36.035000	-0.002472	-0.000921	-0.009506	0.000954	6149.708853	42562.505969	3914.651528	22174.958204
36.608000	-0.001566	0.000011	0.006903	0.001787	6150.236239	42571.473660	3949.309887	22138.170466
37.036000	-0.001624	-0.000087	0.004436	0.001693	6150.500475	42571.139124	3943.947746	22142.309351
37.538500	-0.001795	-0.000052	-0.000287	0.001819	6148.338213	42562.764754	3933.083654	22136.747505
38.036500	-0.001651	-0.000863	0.002203	0.001077	6154.792736	42556.563916	3940.313282	22169.506753
38.547500	-0.000081	0.000273	0.002820	0.002004	6159.492023	42575.630367	3939.616279	22128.607325
39.036500	-0.000916	0.000454	0.002699	0.001930	6153.935252	42598.775633	3939.511775	22131.852425
39.539500	-0.000609	-0.000526	-0.000531	0.001381	6160.182012	42559.489742	3933.516339	22156.074189
40.037500	-0.001600	0.000384	-0.000270	0.001957	6148.748155	42589.993099	3932.816255	22130.668179
40.535000	-0.001500	-0.000144	0.001517	0.001455	6153.135329	42587.551058	3937.926249	22152.811011
41.035500	-0.003645	-0.000289	0.001270	0.001250	6139.019186	42593.043493	3937.832107	22161.852104
41.536000	0.001207	0.000209	0.002797	0.001985	6169.065059	42571.478787	3939.608619	22129.453521
42.035500	0.000064	0.000401	-0.005107	0.001995	6160.620018	42588.067218	3922.018126	22128.989650
42.536000	-0.000256	0.001100	0.000532	0.002301	6156.050971	42623.934853	3933.838357	22115.543369
43.036000	-0.001521	-0.000224	-0.003709	0.001319	6153.977743	42592.728494	3926.596404	22158.814923
43.536500	-0.001327	-0.000203	0.004522	-0.002589	6184.048617	42952.370195	3953.838726	22332.130146
44.039000	-0.001202	-0.000698	0.002029	-0.000082	6166.559112	42677.283124	3942.526990	22220.800241
44.534500	0.001532	0.000468	0.002862	0.000477	6182.530740	42732.804434	3943.143381	22196.044843
45.035000	-0.000865	-0.000499	-0.001495	0.000213	6166.861887	42668.502165	3933.974053	22207.730176
45.535000	0.000053	-0.000990	-0.000846	0.001599	6163.439808	42497.536038	3932.331877	22146.485837
46.035500	-0.001051	0.000511	-0.004410	0.002028	6152.239653	42595.136934	3923.483517	22127.572403
46.537000	-0.000046	0.001002	0.002674	0.000995	6167.134522	42734.223621	3941.555755	22173.139379
47.036500	-0.001455	0.000593	0.003319	0.001887	6150.315391	42615.431612	3941.000525	22133.754783
47.584500	-0.001138	-0.000152	0.002971	0.001853	6152.874947	42550.633728	3940.294055	22135.259114
48.036500	-0.003668	0.000023	-0.001227	0.001420	6137.619148	42606.005055	3931.882288	22154.379567
48.539500	-0.002384	-0.000505	0.004241	-0.000599	6161.685808	42742.099245	3948.683202	22243.674178
49.037500	-0.001575	-0.000090	0.001801	-0.000175	6164.504412	42741.298336	3942.221876	22224.891805
49.534500	-0.000622	-0.000166	0.001537	-0.001342	6180.065258	42841.244830	3944.256096	22276.668718
50.035000	-0.001382	0.000211	-0.000286	0.001832	6151.255387	42585.652644	3933.058935	22136.202141
50.535000	0.015413	-0.007479	0.009971	0.016442	6167.224594	40605.229286	3923.409808	21502.671273
51.035500	0.022308	-0.015049	-0.018343	0.236707	4932.064431	25261.978918	3505.936698	14136.420132
51.535000	0.016762	-0.030327	-0.019035	-0.116778	7323.012006	51480.963117	4183.194890	28150.320158
52.036000	0.011773	-0.094122	-0.019851	-0.289407	9366.515097	65282.710895	4774.137922	40432.966372
52.536500	0.017663	-0.092144	-0.008001	-0.287592	9426.671567	65306.028244	4816.416455	40276.804690
53.042500	0.012438	-0.062985	-0.013632	-0.246570	8776.002521	63627.815950	4627.892679	36915.663587
53.537000	0.013313	-0.040211	-0.005995	-0.208498	8300.670683	61529.950885	4515.381415	34067.853782
54.037500	0.006909	-0.029999	-0.011685	-0.183572	7930.715906	59580.732933	4409.884004	32334.137458
54.535000	-0.000424	-0.027900	-0.013210	-0.185887	7873.893617	60158.555175	4412.510412	32490.957726
55.035000	0.002610	-0.030926	-0.012806	-0.192510	7983.824804	60633.777925	4436.117290	32944.412156
55.535000	0.004167	-0.020531	-0.009817	-0.151458	7549.308497	56707.035506	4312.712412	30242.245951
56.035500	0.007727	-0.010920	-0.000474	-0.087877	6960.181137	50433.016020	4154.544137	26530.186536
56.536000	0.005955	-0.011517	-0.010763	-0.069541	6780.332000	48410.367798	4078.699304	25556.817996
57.038500	0.009185	-0.005728	-0.004094	-0.041399	6568.761649	46133.205614	4024.997094	24140.586755
57.539000	0.002125	-0.004336	-0.004478	-0.045041	6540.668942	46635.896157	4032.975951	24318.750315
58.037000	0.006724	-0.002068	-0.002512	-0.031366	6467.150450	45505.223649	4004.581614	23657.511243
58.537000	0.006242	0.001014	0.001716	-0.020642	6378.450371	44764.142098	3989.154049	23153.279727
59.037500	0.002693	0.000993	-0.003880	-0.008140	6255.332611	43577.565989	3947.373871	22581.008388
59.534500	0.006894	0.001612	0.001589	0.003183	6202.138978	42590.165695	3934.226493	22076.690598
60.035000	0.005540	0.002051	-0.000278	0.009100	6148.731109	42094.161900	3917.018955	21818.372907
60.535500	0.009653	0.004463	0.003237	0.016620	6124.007812	41637.283703	3908.284275	21495.078772
61.035500	0.005055	0.004910	-0.000069	0.023273	6043.741508	41089.422236	3886.911452	21213.709722
61.536000	0.005984	0.003989	0.000552	0.041674	5923.137355	39432.738502	3849.949529	20457.501599
62.039000	0.008821	0.007806	-0.002183	0.049704	5888.213040	39081.128194	3828.296553	20137.418599
62.537000	0.010881	0.010018	-0.001431	0.042774	5948.931630	39848.285524	3843.693770	20413.290264
63.037000	0.008765	0.010438	0.003311	0.034892	5988.549056	40559.140448	3869.595123	20732.495540
63.537500	0.010433	0.011945	0.006923	0.031181	6025.971660	41012.885193	3884.970324	20884.782689
64.037500	0.012112	0.011822	0.006026	0.026126	6073.492462	41446.852831	3893.814707	21094.331679
64.535000	0.011369	0.012187	0.002154	0.023474	6087.095795	41714.758802	3891.210763	21205.261547
65.035500	0.010998	0.012329	0.005091	0.020825	6103.410021	41964.175273	3903.194783	21316.725797
65.535500	0.011312	0.013681	0.000561	0.019580	6114.619712	42197.800175	3896.127670	21369.346378
66.035500	0.009280	0.013728	0.006077	0.020638	6092.438726	42106.727255	3905.730956	21324.637178
66.539000	0.011170	0.014443	0.006490	0.017634	6127.649560	42442.868372	3913.158492	21451.919025
67.036500	0.013020	0.014919	0.010271	0.017361	6143.048100	42510.864820	3922.043293	21463.515379
67.536500	0.010273	0.015675	0.005634	0.017738	6120.411914	42545.375872	3911.065073	21447.478857
68.034000	0.009206	0.015094	0.005341	0.019130	6102.709903	42366.185870	3907.403412	21388.409075
68.534500	0.013605	0.015536	0.013150	0.019002	6135.379562	42417.921483	3924.775566	21393.857426
69.038000	0.012620	0.015098	0.006068	0.019975	6121.204228	42290.053731	3907.146239	21352.633010
69.535000	0.012390	0.015855	0.006292	0.022339	6102.537813	42145.101750	3902.520623	21252.952731
70.035500	0.013595	0.015504	0.012036	0.022136	6112.653107	42131.679052	3915.437336	21261.478841
70.535000	0.011941	0.015683	0.009741	0.022425	6098.692749	42121.833492	3909.802770	21249.318929
71.039000	0.012898	0.016039	0.014159	0.022979	6101.581612	42103.954121	3918.240909	21226.021723
71.536500	0.015101	0.017324	0.012503	0.024478	6106.636096	42084.637216	3911.344711	21163.167197
72.039500	0.012693	0.016988	0.009040	0.024058	6092.386600	42092.326566	3904.741767	21180.780041
72.588500	0.015704	0.016956	0.016070	0.023802	6115.844004	42112.418672	3920.631557	21191.492744
73.037000	0.017684	0.017643	0.007731	0.024718	6123.527710	42091.893189	3900.494149	21153.157209
73.612000	0.017505	0.018717	0.010166	0.026219	6111.413795	42053.433824	3902.505682	21090.477691
74.035000	0.015557	0.018346	0.018441	0.025567	6102.094224	42078.673629	3921.964781	21117.647719
74.535000	0.018238	0.019717	0.014330	0.026236	6116.569468	42141.858214	3911.496640	21089.746914
75.036000	0.018342	0.020221	0.016384	0.025849	6120.111313	42222.240848	3916.828726	21105.901805
75.539000	0.017081	0.019833	0.016159	0.025219	6115.564006	42244.163435	3917.715958	21132.214654
76.098500	0.018686	0.021468	0.018859	0.025983	6121.628300	42322.800127	3921.969446	21100.306811
76.537000	0.020088	0.021972	0.012935	0.026779	6126.007569	42296.490356	3907.284775	21067.151010
77.036500	0.021090	0.021847	0.014692	0.026184	6137.578337	42338.892925	3912.397471	21091.912328
77.537000	0.019114	0.022172	0.013895	0.027672	6112.536108	42233.770972	3907.430610	21029.997192
78.037500	0.021887	0.023263	0.018033	0.028354	6127.623670	42270.674404	3914.955058	21001.665809
78.538000	0.020649	0.023995	0.014711	0.029285	6111.971715	42252.739974	3905.702864	20963.097875
79.035500	0.019479	0.024763	0.021433	0.030959	6091.559947	42170.957819	3916.695216	20893.938781
79.580500	0.020526	0.024486	0.018117	0.030871	6099.688379	42153.922223	3909.649275	20897.547165
80.038000	0.019494	0.023919	0.012687	0.033700	6072.130617	41849.193239	3891.864869	20781.273231
80.535500	0.023764	0.024257	0.020390	0.033012	6107.574363	41940.972988	3909.937933	20809.495632
81.036000	0.020719	0.023393	0.019863	0.033938	6079.150076	41780.858447	3906.782821	20771.504188
81.536000	0.020285	0.024448	0.023379	0.035717	6063.429294	41716.378381	3910.557026	20698.823947
82.039500	0.022333	0.023559	0.017305	0.037268	6066.946336	41499.541680	3894.107204	20635.660585
82.536500	0.021068	0.022843	0.019009	0.036265	6065.088974	41525.007659	3899.913890	20676.476869
83.108500	0.017921	0.023839	0.021586	0.043550	5991.993418	40971.409584	3889.839893	20382.197938
83.565000	0.021368	0.023425	0.016806	0.038334	6052.571540	41393.355437	3890.767560	20592.407529
84.035000	0.022180	0.022498	0.024139	0.037905	6061.351867	41349.420997	3907.453074	20609.807399
84.560500	0.021115	0.022515	0.017927	0.038176	6051.899881	41326.938651	3893.495857	20598.783630
85.038000	0.019293	0.022856	0.021975	0.038873	6034.165459	41295.568779	3900.686031	20570.567460
85.538500	0.021675	0.022965	0.018607	0.038848	6051.115473	41307.430033	3893.514327	20571.583434
86.053000	0.020647	0.021471	0.025123	0.039774	6037.342768	41094.604854	3905.535236	20534.099570
86.540500	0.021918	0.021626	0.020626	0.039185	6050.447767	41159.911811	3897.114312	20557.930739
87.036500	0.024209	0.022816	0.016882	0.040664	6056.184484	41134.586714	3885.979740	20498.201982
87.540000	0.023167	0.021822	0.024427	0.040706	6048.527162	41043.667366	3902.017533	20496.487295
88.034500	0.018431	0.021137	0.023454	0.042777	6000.889064	40803.166603	3895.477472	20413.199422
88.536500	0.022588	0.022198	0.020788	0.042372	6032.731230	40930.909219	3890.648320	20429.452525
89.037500	0.023516	0.020887	0.021486	0.042204	6040.426695	40831.287520	3892.493740	20436.178071
89.535500	0.018690	0.020472	0.018541	0.042448	6004.972673	40774.004485	3885.712788	20426.405117
90.038500	0.021761	0.020825	0.021570	0.043385	6019.846593	40723.233112	3890.157177	20388.805238
90.536000	0.021058	0.020540	0.018902	0.043828	6011.846376	40660.043602	3883.555439	20371.053785
91.036000	0.021322	0.020464	0.021979	0.046717	5993.609420	40403.906892	3883.951682	20255.773598
91.537000	0.019860	0.020372	0.024700	0.044980	5995.512090	40545.790132	3893.429584	20324.990417
92.037000	0.024984	0.020345	0.025933	0.046646	6019.586902	40399.888870	3892.505153	20258.629155
92.537500	0.022557	0.020279	0.023986	0.046210	6005.704955	40431.666247	3889.285868	20275.973523
93.037500	0.019990	0.019651	0.022047	0.049586	5964.649891	40088.289720	3878.048891	20142.067412
93.535000	0.023319	0.020065	0.021470	0.047738	6000.377291	40281.937467	3880.723687	20215.235140
94.142000	0.024033	0.019590	0.020255	0.047852	6004.550033	40231.435353	3877.927396	20210.728310
94.536000	0.020131	0.018625	0.023169	0.047619	5979.151321	40168.780203	3884.562805	20219.968387
95.036000	0.022451	0.019552	0.019167	0.051714	5966.936910	39898.782566	3867.587584	20058.232883
95.536500	0.020449	0.018334	0.021111	0.048203	5977.315698	40093.956472	3878.989400	20196.799446
96.039500	0.021415	0.019024	0.022324	0.050580	5967.605703	39950.169141	3876.542635	20102.838785
96.537000	0.024188	0.019485	0.024035	0.050629	5986.373750	39985.336924	3880.036823	20100.935342
