sample name	sample
index	79
start time	 02-11-2021  04:18:19 PM
880	-0.073636
Peak Time (s)	91.038
Peak Height 	-0.07364
calc peak height	90,93
Baseline Time (s)	8.534
Baseline Value 	-0.003435
subtract baseline	10,4
Abs	0.005780
Peak Time (s)	90.538
Peak Height 	0.00578
calc peak height	90,93
Baseline Time (s)	9.536
Baseline Value 	0.006231
subtract baseline	10,3
PK_550	0.003378
Peak Time (s)	92.035
Peak Height 	0.003378
calc peak height	90,93
Baseline Time (s)	9.035
Baseline Value 	7.4262E-4
subtract baseline	10,2
PK_880	-0.004595
Peak Time (s)	90.035
Peak Height 	-0.004595
calc peak height	90,93
Baseline Time (s)	10.539
Baseline Value 	0.004554
subtract baseline	10,1


Time (s)	A880-A510	A880-A775	A880-A975	A880	I510	I775	I975	I880	
0.035500	-0.004018	-0.001631	-0.011103	0.000808	4612.413041	20311.195695	3312.006971	10996.895202
0.535500	-0.003937	-0.000517	-0.011022	0.004608	4598.061517	20204.084196	3308.679119	10926.612536
1.039000	-0.004783	-0.000183	-0.014025	0.003461	4599.219601	20263.073163	3307.028009	10947.762407
1.536000	-0.006503	-0.001615	-0.017823	0.004754	4587.669733	20154.618063	3302.535835	10923.909432
2.039500	-0.004179	-0.001600	-0.010978	0.000918	4611.359653	20308.025696	3312.020483	10994.840633
2.536500	-0.001230	-0.000345	-0.005614	0.000820	4623.205478	20362.265715	3316.961662	10996.675643
3.037000	-0.000266	-0.000042	-0.009764	-0.001453	4635.875386	20465.905583	3315.256604	11039.001101
3.537500	-0.003298	-0.000094	-0.009291	0.005140	4598.469235	20199.706094	3309.748404	10916.808627
4.035000	-0.002545	-0.000639	-0.002321	-0.000412	4622.881210	20399.924793	3321.102365	11019.593862
4.535000	-0.000069	-0.001713	0.006356	-0.000674	4633.593605	20367.331053	3329.409472	11024.476669
5.035000	-0.004383	-0.000203	0.002969	0.000604	4611.786542	20376.612425	3325.051634	11000.673027
5.536000	-0.006125	-0.001393	-0.014738	0.003603	4593.521522	20209.178831	3306.270448	10945.138292
6.035500	-0.004349	-0.000148	-0.005982	0.000572	4612.041737	20380.121721	3316.852492	11001.277377
6.539000	-0.001151	-0.001235	0.003252	-0.000205	4627.515575	20367.678645	3326.068400	11015.737736
7.036500	0.000041	0.000311	-0.010231	0.000695	4628.661209	20393.613194	3312.893911	10998.996635
7.537000	-0.002464	-0.000638	-0.009774	0.000545	4619.467234	20361.523877	3313.440947	11001.780957
8.037000	-0.004178	-0.001034	-0.004265	-0.000532	4616.992118	20388.879664	3319.427518	11021.823768
8.534500	-0.004527	0.000156	0.005261	0.000000	4613.570583	20415.322407	3327.751752	11011.914307
9.035000	-0.004674	0.000000	-0.006213	-0.000589	4615.286538	20432.792809	3317.700064	11022.892594
9.535500	-0.004461	-0.000551	0.000000	0.000048	4613.639606	20384.972714	3322.817270	11011.021514
10.035500	0.003185	0.000730	0.005084	0.000684	4641.047907	20410.909058	3326.947611	10999.197573
10.538500	0.000000	0.000203	0.009084	0.001020	4627.224954	20376.205195	3330.380863	10992.946095
11.035500	0.001067	-0.000078	-0.012325	-0.000339	4636.740923	20419.567958	3311.940095	11018.233256
11.536500	0.000405	-0.001280	-0.008978	-0.000239	4633.744004	20367.200205	3314.868468	11016.357729
12.036500	-0.003988	-0.000721	-0.012942	0.000599	4613.337869	20356.043967	3310.545264	11000.782039
12.539000	-0.006009	-0.000110	0.001525	0.000166	4607.191210	20397.980877	3324.119543	11008.832516
13.037000	-0.002794	-0.001612	-0.003470	-0.001191	4624.946829	20392.113989	3320.760965	11034.104156
13.534500	-0.002684	0.000988	0.002018	0.000435	4619.041581	20431.343281	3324.327055	11003.824214
14.035000	-0.008643	-0.000268	-0.002792	0.002271	4588.980688	20307.196863	3318.211261	10969.758443
14.535500	-0.006537	-0.001570	0.001122	0.001069	4601.670458	20303.189369	3322.910810	10992.047016
15.038000	0.002995	0.000142	0.001856	0.000220	4642.127235	20405.887849	3324.375891	11007.812754
15.536000	-0.006530	-0.001096	-0.003082	-0.000700	4608.524794	20393.145283	3320.666823	11024.951012
16.036500	-0.002013	-0.000843	-0.001625	0.001158	4618.835399	20328.733095	3320.299050	10990.388489
16.539500	0.000061	-0.000336	-0.015502	-0.000236	4632.383691	20405.055537	3309.003616	11016.314622
17.037000	0.002299	0.001692	-0.001762	-0.002055	4648.369351	20560.480530	3323.132076	11050.252249
17.537000	-0.000234	0.000127	-0.004875	0.000911	4626.736848	20377.535777	3317.551526	10994.979096
18.034500	-0.001036	0.000081	-0.005562	0.001144	4622.696225	20366.328086	3316.713801	10990.647244
18.535000	-0.001843	-0.000468	0.003304	0.001346	4618.767215	20336.221430	3324.674550	10986.908914
19.035000	-0.004484	-0.000844	-0.006681	0.001112	4609.428672	20330.539828	3315.725954	10991.240674
19.538500	-0.004497	-0.000936	-0.003324	0.000967	4609.936640	20332.628069	3318.916234	10993.927417
20.035500	-0.000881	0.000548	-0.004107	0.002424	4618.316363	20333.755550	3316.873527	10966.926081
20.538500	-0.004022	-0.003224	-0.000854	-0.000560	4617.705181	20302.196271	3322.590444	11022.349818
21.036500	-0.004885	-0.001080	0.001020	0.001532	4606.255266	20304.260160	3322.387958	10983.442002
21.536500	-0.002128	-0.001098	0.001961	0.000723	4620.084890	20335.941808	3324.006690	10998.471036
22.034000	-0.001642	0.000504	-0.000597	0.002279	4615.921190	20337.776629	3320.213550	10969.613665
22.536500	-0.001870	-0.000865	-0.004538	0.000235	4622.990650	20364.857427	3318.476405	11007.546239
23.037000	-0.001055	-0.001630	-0.004091	0.000431	4625.407761	20326.337253	3318.706088	11003.903477
23.534500	-0.003696	0.000549	-0.003565	0.001722	4610.120489	20361.928781	3318.007054	10979.932281
24.035500	-0.004759	-0.000498	-0.005397	0.001355	4607.424171	20334.657186	3316.671420	10986.729903
24.538500	-0.001815	-0.000760	-0.004519	0.001226	4619.344158	20329.308380	3317.589242	10989.126729
25.035000	-0.002381	-0.000035	-0.006644	0.001139	4617.477062	20361.858742	3315.735043	10990.735711
25.536000	-0.000037	-0.000163	-0.006509	0.001910	4623.605933	20325.848028	3315.159157	10976.450300
26.036500	-0.001070	0.000076	-0.006783	0.001814	4619.954501	20339.234159	3314.997089	10978.216815
26.539500	-0.002557	-0.002150	-0.006247	-0.000304	4622.414794	20334.957609	3317.408393	11017.576565
27.037500	-0.000896	-0.000727	0.006113	-0.001569	4633.857644	20442.968840	3330.021800	11041.170425
27.537000	-0.000677	-0.000295	0.001784	-0.000954	4632.302019	20435.584876	3325.398371	11029.681853
28.034500	0.001174	0.000353	-0.020696	0.000261	4634.801246	20412.747743	3303.959516	11007.054780
28.538000	-0.003741	-0.000418	-0.005430	-0.000282	4617.713827	20403.585116	3318.133128	11017.157511
29.035000	-0.000695	-0.000025	-0.008044	-0.000400	4630.065496	20424.173460	3315.861340	11019.370454
29.538000	-0.003707	-0.000362	-0.007500	0.002489	4607.109341	20294.695046	3313.738022	10965.718946
30.036000	-0.004918	-0.000194	-0.008413	-0.000108	4612.471689	20405.615661	3315.262232	11013.923784
30.536000	-0.000095	0.000193	0.002570	0.003123	4618.657133	20291.568699	3322.351293	10954.002780
31.036500	-0.005071	0.000026	0.002495	0.001588	4605.321693	20346.319660	3323.700973	10982.419170
31.537000	-0.000246	-0.000348	-0.003528	0.001045	4626.165983	20353.068078	3318.658458	10992.479665
32.037500	-0.001745	0.000374	-0.008765	0.001947	4616.809949	20345.859128	3313.085569	10975.752701
32.537500	-0.000559	-0.000429	0.002307	0.000001	4629.023224	20391.725491	3324.997015	11011.886453
33.035000	0.000332	-0.000147	-0.006925	-0.000071	4632.798326	20406.009761	3316.579155	11013.232440
33.536000	-0.000298	0.000173	0.002480	0.001612	4623.749416	20351.249352	3323.664463	10981.961943
34.038500	-0.004997	-0.000228	-0.000283	0.001697	4605.187994	20331.792993	3321.036626	10980.394984
34.537500	-0.002822	-0.001705	-0.004897	0.001057	4616.088388	20298.300931	3317.398634	10992.273342
35.036000	-0.003079	0.000737	-0.000412	0.002136	4610.901686	20352.832713	3320.514154	10972.250053
35.536500	-0.002845	-0.000392	-0.005527	0.002006	4612.312446	20312.819852	3315.961645	10974.656984
36.036000	0.000249	-0.001310	-0.012698	0.000821	4628.980832	20323.511183	3310.564646	10996.652271
36.537000	-0.004366	0.000522	-0.009542	0.002786	4603.420654	20318.223901	3311.633036	10960.232964
37.037000	-0.002516	0.000154	-0.015664	0.002030	4613.498842	20333.730299	3306.843856	10974.226229
37.537500	-0.002807	-0.000775	-0.005294	0.002080	4612.174745	20294.555628	3316.106723	10973.299685
38.035500	-0.001014	-0.000457	-0.011294	0.002314	4618.226341	20297.926935	3310.485153	10968.962480
38.535500	0.000362	-0.000663	0.010940	0.002152	4624.219932	20296.154334	3331.063148	10971.967957
39.035500	-0.002860	-0.000435	-0.001079	0.001974	4612.376627	20312.391565	3320.050208	10975.251168
39.536000	-0.000649	-0.000364	-0.011993	0.002641	4618.372590	20288.545715	3309.567040	10962.906227
40.036500	-0.001219	-0.000251	0.005929	0.002198	4617.880828	20310.785499	3326.322647	10971.103529
40.536500	-0.001809	0.000099	0.001821	0.002894	4612.887017	20296.948651	3321.871649	10958.226582
41.037000	-0.000492	0.000069	-0.003456	0.002037	4621.337838	20330.046172	3317.818701	10974.092822
41.537000	-0.003475	-0.000281	-0.007492	0.002617	4607.511526	20292.831311	3313.630057	10963.357947
42.034500	-0.006155	-0.000994	0.005057	0.001596	4601.111599	20305.127994	3326.071705	10982.257726
42.534500	-0.001948	0.000112	-0.001497	0.002550	4613.681851	20311.203679	3319.139376	10964.585567
43.035000	-0.000557	0.001126	-0.003978	0.003269	4616.290567	20323.030454	3316.221453	10951.296430
43.538500	-0.002697	-0.000915	-0.004693	0.001125	4616.306279	20327.149130	3317.522073	10990.998224
44.035500	-0.000121	0.002389	0.000442	0.003135	4618.505845	20379.081913	3320.381160	10953.781029
44.538500	0.001159	0.000419	-0.004704	0.001139	4631.297545	20380.089733	3317.499988	10990.742539
45.036500	0.000528	0.000706	-0.010111	0.001096	4628.997384	20393.365084	3312.640937	10991.546385
45.537000	-0.001426	0.000999	-0.003167	0.002098	4617.461894	20364.862664	3318.026213	10972.952043
46.037000	-0.003117	-0.000325	-0.007894	0.002858	4607.962081	20281.449687	3313.050263	10958.895004
46.537000	-0.002533	-0.001335	-0.005617	-0.000404	4622.893266	20371.619194	3318.073775	11019.428088
47.037500	-0.000600	-0.000228	-0.006750	0.003292	4616.035620	20268.004888	3313.690771	10950.880592
47.535500	-0.005560	-0.001116	-0.008968	0.003497	4596.092590	20224.416593	3311.509889	10947.096542
48.038000	-0.002099	-0.001063	-0.013995	0.001217	4618.270068	20317.554390	3309.050575	10989.287540
48.535500	-0.000816	0.000220	0.003201	0.001288	4622.994504	20366.156936	3324.633598	10987.985438
49.036000	-0.000567	-0.000309	-0.014553	0.000742	4626.098096	20366.827729	3308.977399	10998.125258
49.536500	0.001749	0.000164	-0.000920	-0.001012	4642.073775	20456.445262	3322.946717	11030.779495
50.036000	0.000364	-0.000334	0.002637	-0.005229	4653.281292	20607.145789	3330.194833	11109.831415
50.536500	0.000692	0.000261	-0.009727	0.002802	4622.967132	20307.108038	3311.451741	10959.923793
51.036500	-0.054743	-0.025958	-0.025235	0.230062	3812.632499	12625.504092	3144.526012	7687.829804
51.537500	-0.026524	-0.022662	-0.007845	-0.072445	4821.037167	22531.605726	3387.210023	12479.237648
52.035000	-0.021651	-0.016713	-0.000114	-0.162195	5281.561342	27362.851420	3504.369281	14671.635779
52.535000	-0.016658	-0.012329	0.006047	-0.172677	5366.893000	28213.550323	3527.134749	14958.512592
53.035500	-0.027844	-0.014923	-0.012453	-0.128779	5076.517649	25647.111024	3446.098708	13801.985457
53.535500	-0.034164	-0.015491	-0.009014	-0.139184	5096.809009	26167.431528	3463.085428	14065.629074
54.035500	-0.024514	-0.005412	-0.008165	-0.137407	5136.462108	26615.890933	3461.931692	14020.175472
54.536000	-0.024208	-0.011129	-0.003524	-0.125873	5080.130741	25693.615624	3453.422633	13729.475413
55.036500	-0.030439	-0.012547	-0.013376	-0.148281	5161.756073	26820.626547	3469.022853	14301.381244
55.536500	-0.034593	-0.012758	0.000468	-0.104250	4927.306496	24507.086080	3432.266721	13204.891914
56.037000	-0.036152	-0.008981	-0.003255	-0.098407	4893.546837	24404.729296	3421.142822	13067.577334
56.534500	-0.025926	-0.010524	-0.006967	-0.072868	4825.489214	23106.674152	3388.606731	12488.539932
57.035000	-0.027790	-0.010748	-0.013282	-0.074732	4825.491586	23182.998003	3383.845127	12529.662012
57.538000	-0.032091	-0.011823	-0.008520	-0.063974	4760.864392	22638.712428	3377.507551	12294.759506
58.035500	-0.031266	-0.011420	-0.016727	-0.060442	4749.485971	22497.256193	3365.350119	12218.897963
58.536000	-0.026816	-0.012603	0.000620	-0.049041	4720.585189	21938.564820	3371.467411	11978.202618
59.036000	-0.022387	-0.011302	-0.014922	-0.040342	4703.054329	21617.513533	3347.046614	11798.729348
59.536500	-0.021483	-0.009831	-0.009105	-0.042228	4714.487050	21762.507702	3354.659284	11837.329413
60.036500	-0.025557	-0.010280	-0.005572	-0.053150	4742.862225	22222.098992	3369.315019	12064.226085
60.537000	-0.016196	-0.010041	0.001485	-0.069391	4852.989218	22968.097436	3393.987050	12412.314837
61.037000	-0.028738	-0.013839	0.000354	-0.070116	4801.349974	22826.817735	3393.545723	12428.159387
61.539500	-0.019758	-0.007389	-0.008266	-0.053501	4768.726462	22366.625909	3366.906261	12071.606397
62.034500	-0.019201	-0.002760	-0.008311	-0.060292	4800.112045	22884.376876	3373.876840	12215.688271
62.536500	-0.016895	-0.002405	-0.007801	-0.058387	4801.845244	22813.350285	3372.427010	12175.052593
63.036000	-0.015869	-0.002192	-0.009885	-0.054773	4790.715743	22658.264039	3366.550659	12098.423727
63.538500	-0.016388	-0.001992	-0.006557	-0.057962	4802.195896	22812.762476	3373.276905	12165.998684
64.036000	-0.014623	-0.003413	-0.012560	-0.061022	4823.120968	22887.952219	3370.227125	12231.324031
64.536500	-0.011673	-0.002268	-0.009546	-0.060110	4832.032623	22898.673854	3372.403944	12211.809346
65.036500	-0.014070	-0.003118	-0.011644	-0.060342	4822.569471	22870.266539	3370.471681	12216.765910
65.537000	-0.015694	-0.001744	-0.006001	-0.057831	4804.626199	22818.114266	3373.719058	12163.213820
66.037500	-0.015526	-0.004035	-0.011500	-0.058503	4808.257127	22744.122774	3368.722521	12177.509428
66.535000	-0.015567	-0.004605	-0.014012	-0.061948	4823.043150	22875.767397	3369.684891	12251.180316
67.038000	-0.013255	-0.004292	-0.010771	-0.063101	4838.214064	22943.152359	3374.240257	12275.961637
67.535000	-0.011348	-0.003730	-0.012373	-0.064481	4852.715445	23032.798786	3374.009300	12305.696970
68.036000	-0.007879	-0.004044	-0.010092	-0.065732	4873.736765	23076.233253	3377.703271	12332.755549
68.536000	-0.011009	-0.001986	-0.001364	-0.067439	4867.372907	23251.591929	3388.793655	12369.781972
69.036500	-0.007388	-0.002115	-0.009014	-0.069025	4890.753184	23319.910461	3382.316785	12404.333275
69.537000	-0.007596	-0.001624	-0.008106	-0.070404	4896.043496	23407.872983	3384.748523	12434.459716
70.037000	-0.005703	-0.001736	-0.009422	-0.072011	4911.958205	23478.482914	3385.058973	12469.697939
70.537500	-0.005927	-0.001050	-0.000603	-0.074310	4921.453867	23620.146133	3397.075975	12520.331125
71.034500	-0.004220	-0.000446	-0.004045	-0.075823	4936.279664	23721.262936	3394.969181	12553.810501
71.538000	-0.004134	-0.000231	-0.009044	-0.078131	4947.372602	23842.330358	3392.045095	12605.088646
72.035500	-0.006070	-0.000080	-0.005680	-0.079272	4943.685250	23904.681038	3396.949901	12630.555628
72.535000	-0.007018	-0.000630	-0.011239	-0.082271	4953.218857	24023.248797	3394.156846	12697.780598
73.036000	-0.006482	-0.000077	-0.004001	-0.083202	4960.069142	24095.423833	3403.129179	12718.747517
73.535500	-0.006619	-0.000804	-0.003268	-0.085947	4972.303218	24194.000414	3406.999937	12780.821600
74.036500	-0.005472	0.000300	-0.010513	-0.086843	4981.936433	24292.129372	3399.956854	12801.168916
74.536500	-0.004532	0.001596	-0.006753	-0.087231	4988.221238	24375.121607	3404.547009	12809.996950
75.037000	-0.004134	0.001659	-0.008353	-0.086790	4988.018317	24356.436145	3402.282658	12799.961452
75.537500	-0.007935	0.001066	-0.012043	-0.089165	4981.268382	24444.540996	3400.829747	12854.088716
76.035000	-0.005234	0.000410	-0.012419	-0.090688	5001.324310	24487.548549	3402.097386	12888.966390
76.538000	-0.000182	0.001228	-0.006202	-0.090386	5024.110648	24513.152243	3408.685165	12882.030428
77.035500	-0.007165	0.000714	-0.006076	-0.089592	4986.933308	24448.278297	3407.936693	12863.864648
77.535500	-0.008894	0.000457	-0.001378	-0.090690	4983.942861	24489.958564	3414.469921	12889.001646
78.036000	-0.005670	0.000559	-0.001122	-0.091450	5002.878996	24532.782535	3415.624036	12906.448861
78.536000	-0.006771	0.000950	-0.002451	-0.090838	4994.718894	24521.815263	3413.421448	12892.399911
79.036500	-0.004279	0.000737	0.003506	-0.088311	4994.548632	24386.007232	3417.320608	12834.588284
79.537000	-0.002618	0.001932	-0.009619	-0.090087	5010.962466	24533.307209	3404.536268	12875.190845
80.036500	-0.003913	0.001223	-0.004643	-0.090445	5006.472275	24515.817142	3410.502990	12883.389353
80.537500	-0.006346	0.000620	-0.008919	-0.090996	4997.489473	24513.222684	3406.327498	12896.019033
81.038000	-0.007002	0.001841	-0.010813	-0.088953	4984.679936	24472.441452	3401.953961	12849.249856
81.534500	-0.009107	0.000726	-0.002634	-0.089067	4975.277755	24422.880598	3411.214952	12851.861965
82.035500	-0.006188	0.002597	-0.007125	-0.087530	4981.795026	24439.372111	3404.464968	12816.785368
82.535500	-0.007680	0.002442	-0.011275	-0.086439	4969.627256	24377.808442	3398.673671	12791.994959
83.036000	-0.003123	0.002514	-0.002521	-0.085686	4987.575963	24344.205546	3407.544426	12774.909675
83.536500	-0.007683	0.001976	-0.012765	-0.085514	4965.268541	24309.178628	3396.028775	12770.998620
84.037000	-0.008917	0.001974	-0.000159	-0.083801	4951.499690	24224.944032	3408.077794	12732.257510
84.537000	-0.004843	0.002936	-0.004645	-0.083147	4967.488068	24240.037415	3402.354044	12717.494778
85.034500	-0.006182	0.003134	0.002111	-0.082630	4958.797714	24224.411997	3409.310266	12705.867834
85.534500	-0.010631	0.002533	-0.001432	-0.082689	4938.386638	24197.879879	3405.413895	12707.189817
86.038000	-0.005074	0.003861	-0.001130	-0.081939	4960.745593	24226.190385	3404.914936	12690.317562
86.535500	-0.005436	0.002280	-0.006484	-0.082874	4963.430596	24194.534610	3400.022077	12711.355473
87.035500	-0.007351	0.002565	-0.009701	-0.077571	4929.902959	23950.315699	3390.728552	12592.633012
87.542500	-0.005792	0.003511	0.004079	-0.080658	4951.419303	24146.382561	3409.305979	12661.570440
88.044500	-0.005772	0.003220	-0.000499	-0.079432	4945.809517	24072.377189	3402.831054	12634.119010
88.536500	-0.003014	0.003105	-0.009290	-0.079633	4959.597983	24076.612962	3393.407858	12638.632187
89.036500	-0.007291	0.003853	-0.012436	-0.075350	4919.970280	23905.192986	3385.406381	12543.330922
89.537500	-0.006151	0.003124	-0.002774	-0.079304	4943.457427	24061.497625	3400.177001	12631.274947
90.034500	-0.004595	0.003058	-0.006494	-0.078943	4949.008121	24040.743991	3395.700526	12623.202329
90.537500	-0.006481	0.003122	0.005780	-0.079191	4941.404012	24055.943172	3409.568576	12628.755934
91.037500	-0.007315	0.002869	-0.001657	-0.073636	4912.018137	23775.322174	3395.187900	12505.463985
91.535500	-0.007432	0.000487	-0.000831	-0.080421	4942.696883	23987.672980	3403.560591	12656.260124
92.035500	-0.005169	0.003378	-0.006648	-0.077060	4937.614482	23964.895722	3393.482376	12581.261961
92.535000	-0.005355	0.002721	-0.001215	-0.078602	4943.894692	24007.836827	3401.122088	12615.600984
93.036500	-0.009253	0.002760	-0.016148	-0.073073	4900.633491	23743.055738	3379.054225	12493.049587
93.536500	-0.007684	0.003197	-0.003514	-0.077326	4927.239745	23969.035932	3397.191083	12587.186671
94.037000	-0.008772	0.003325	-0.015008	-0.077611	4923.547155	23989.026175	3385.074380	12593.520933
94.537500	-0.006878	0.002174	-0.006356	-0.077850	4933.366294	23944.868876	3394.658955	12598.837022
95.035000	-0.009400	0.001368	-0.004485	-0.072624	4897.929317	23655.048776	3391.018639	12483.170089
95.538000	-0.006068	0.003022	0.002605	-0.076300	4929.956024	23910.936479	3402.800999	12564.391363
96.035000	-0.007351	0.002669	-0.015085	-0.076427	4924.635475	23900.020073	3383.730484	12567.205105
