sample name	sample
index	664
start time	 03-22-2021  10:39:19 AM
880	0.331908
Peak Time (s)	180.036
Peak Height 	0.3319
calc peak height	180,183
Baseline Time (s)	11.037
Baseline Value 	-0.002502
subtract baseline	10,4
Abs	0.216844
Peak Time (s)	180.538
Peak Height 	0.2168
calc peak height	180,183
Baseline Time (s)	11.537
Baseline Value 	0.004792
subtract baseline	10,3
PK_550	0.115237
Peak Time (s)	181.035
Peak Height 	0.1152
calc peak height	180,183
Baseline Time (s)	8.536
Baseline Value 	0.001406
subtract baseline	10,2
PK_880	0.199085
Peak Time (s)	180.036
Peak Height 	0.1991
calc peak height	180,183
Baseline Time (s)	10.037
Baseline Value 	0.004482
subtract baseline	10,1


Time (s)	A880-A510	A880-A775	A880-A975	A880	I510	I775	I975	I880	
0.036000	-0.003764	-0.000829	0.001474	-0.001321	7368.091437	45910.490488	3933.232105	24127.606600
0.536000	-0.005056	-0.000598	-0.004863	0.004171	7295.493376	45390.334450	3898.840250	23857.989604
1.036500	-0.003629	-0.000782	-0.004347	0.001521	7338.989810	45633.285347	3907.951808	23987.644327
1.599000	-0.004640	-0.000911	-0.004545	0.003180	7310.456873	45457.058526	3902.599290	23906.396221
2.035000	-0.001264	-0.000300	-0.003660	-0.001615	7398.329953	45992.469776	3919.045807	24142.149713
2.540500	-0.004815	-0.001394	-0.001130	0.002448	7316.393645	45481.488212	3914.586460	23942.219487
3.035000	-0.001342	-0.000084	0.002058	-0.002727	7409.566572	46125.020246	3939.111985	24197.201535
3.535000	-0.003972	-0.000399	-0.009005	0.002934	7320.200220	45531.697008	3890.536827	23918.414455
4.036000	-0.003520	-0.000591	0.005042	-0.000819	7365.311866	45884.262254	3942.299872	24102.833611
4.536000	-0.004636	-0.000901	-0.006953	0.003079	7311.571083	45467.950395	3895.979580	23911.318286
5.036500	-0.001444	0.000240	-0.005626	0.000028	7378.581049	45882.633428	3908.570747	24061.062929
5.536500	-0.001274	-0.000915	-0.002002	-0.001340	7395.236342	45903.787938	3923.082230	24128.535885
6.036500	-0.001765	-0.000573	-0.002036	-0.000411	7379.860382	45845.480567	3920.272048	24082.710513
6.537500	-0.000752	0.000208	0.000050	-0.000088	7387.323035	45890.990422	3925.424783	24066.768713
7.035000	0.000463	-0.000553	-0.003389	-0.000216	7401.894823	45828.112632	3915.763486	24073.092321
7.535000	-0.002787	-0.000119	-0.000956	-0.000202	7366.553352	45869.814616	3922.812507	24072.374689
8.035000	-0.001922	0.000060	-0.000739	-0.000086	7374.641565	45876.062403	3923.108154	24066.656723
8.535500	-0.000328	0.000000	-0.002017	0.000016	7390.789433	45860.002931	3919.081268	24061.656388
9.036000	0.000067	0.000041	0.000756	0.000123	7393.909182	45853.371810	3926.873339	24056.369542
9.536000	0.000376	-0.000211	0.001879	-0.000021	7398.832685	45842.706279	3930.596540	24063.488602
10.036500	0.000000	-0.000220	-0.004190	-0.000141	7396.049704	45853.752800	3913.217931	24069.396708
10.539500	0.001109	0.000152	0.005136	-0.000025	7406.830974	45879.236522	3940.224855	24063.679314
11.037000	-0.000675	-0.000350	-0.003596	0.000000	7387.198130	45826.789447	3914.533562	24062.442308
11.537500	-0.000983	0.000399	0.000000	0.004396	7336.542016	45466.236424	3912.213783	23847.019651
12.034500	0.000091	0.000248	0.000487	0.000783	7387.014726	45808.477213	3924.152788	24023.896898
12.535000	0.000517	-0.000323	-0.001448	0.000236	7397.570249	45806.054142	3920.097362	24050.818519
13.035500	0.002238	0.000331	-0.001921	-0.001716	7437.609821	46065.564777	3924.420119	24147.153836
13.536000	-0.002294	-0.000165	0.002181	0.003885	7327.975925	45461.069498	3920.041228	23871.945483
14.036000	0.001093	-0.000560	0.000129	-0.000562	7412.500297	45861.728932	3927.045098	24090.122652
14.536500	-0.002248	0.000282	-0.001804	0.003299	7334.727441	45562.735109	3910.162056	23900.532124
15.039000	0.001227	0.000060	0.002139	0.000762	7399.558593	45791.826745	3929.057215	24024.931735
15.544000	-0.001964	0.000364	-0.002057	0.004157	7328.594024	45486.306209	3906.953065	23858.656370
16.037500	0.000260	0.000818	0.002727	0.000802	7388.642488	45863.121825	3930.670541	24022.968009
16.537000	-0.000031	0.000250	0.000116	0.000549	7388.233435	45831.920667	3923.754669	24035.421870
17.035000	-0.001579	0.000764	-0.001517	0.000272	7374.478962	45910.429953	3919.792180	24049.025356
17.535500	-0.001304	0.000133	-0.003114	0.002953	7348.576927	45582.258797	3907.378022	23917.491944
18.035500	0.001745	0.000617	0.008555	-0.000427	7418.130539	45965.480916	3951.594584	24083.476667
18.538500	-0.000834	0.000344	-0.000346	0.002480	7358.709168	45649.907342	3916.773194	23940.645242
19.036000	-0.000606	0.000601	-0.000305	0.003287	7352.485234	45595.521441	3914.545887	23901.156240
19.539000	-0.000522	0.000455	0.000249	0.003523	7350.845121	45557.757443	3915.468976	23889.615114
20.036000	-0.001112	0.000557	0.000484	0.003271	7347.217354	45592.796684	3916.886719	23901.947355
20.538500	0.002330	0.001191	0.003222	0.003580	7380.975976	45624.837020	3923.972027	23886.811477
21.036000	0.000282	0.000569	-0.001395	0.003283	7362.074180	45592.663492	3911.393925	23901.323306
21.534500	-0.001092	0.000612	0.005513	0.004728	7331.813528	45454.481115	3927.320604	23830.816720
22.036500	0.001892	0.001172	0.003990	0.003852	7373.303189	45596.044083	3925.423130	23873.514848
22.535500	0.001589	0.001252	0.001050	0.003776	7370.849467	45611.455595	3917.062833	23877.244785
23.035500	0.000035	0.001196	0.002762	0.004223	7349.306591	45561.878316	3920.750263	23855.435367
23.536000	0.001150	0.001173	0.000726	0.005765	7344.720745	45407.665160	3910.350788	23780.341428
24.039000	0.001006	0.001357	0.000051	0.004396	7357.895015	45560.706249	3912.361339	23847.011379
24.536500	0.000620	0.000698	0.000633	0.003874	7359.352910	45547.062927	3915.563342	23872.453302
25.039500	0.002213	0.001394	0.006002	0.004797	7366.570398	45524.724081	3928.552336	23827.439085
25.537500	-0.001677	0.000089	0.003858	0.005292	7319.525696	45347.615253	3920.828551	23803.344203
26.045500	-0.000191	0.000922	0.001027	0.004294	7346.121080	45527.814869	3915.490390	23851.985150
26.558000	0.000926	0.000828	0.005869	0.004322	7357.829252	45515.793506	3929.557757	23850.598553
27.038000	0.001155	0.001055	0.002421	0.004144	7362.207829	45555.658453	3919.984819	23859.265532
27.536000	0.000243	0.000433	-0.000704	0.006079	7331.636943	45304.149127	3905.310218	23765.065309
28.039500	0.004029	0.001754	0.005555	0.002118	7415.297853	45825.492704	3935.124776	23958.380511
28.539000	0.001721	0.000929	0.004265	0.002368	7387.506736	45718.850873	3930.588569	23946.117635
29.036500	0.004250	0.001429	0.003182	0.003071	7407.323082	45698.711654	3925.345823	23911.714595
29.536500	0.003510	0.001575	0.004303	0.002857	7401.606821	45734.389571	3929.263161	23922.179136
30.036500	0.002597	0.001620	0.007591	0.003328	7386.598559	45692.152128	3937.566292	23899.129374
30.537000	0.000066	0.001424	0.001158	0.006839	7321.617897	45326.803373	3908.492390	23728.202072
31.035000	0.002386	0.001374	0.001504	0.002836	7389.642021	45716.625375	3921.125919	23923.223146
31.538000	0.000523	0.001321	0.001621	0.006897	7325.890344	45311.113557	3909.665353	23725.415886
32.038000	0.001365	0.000992	0.003418	0.003018	7376.619929	45660.709122	3926.193016	23914.308242
32.535500	0.000353	0.001192	0.003295	0.005137	7342.909333	45471.359752	3919.637703	23810.888153
33.039000	0.003878	0.002196	0.007631	0.004085	7392.275837	45674.320091	3935.449205	23862.186179
33.536500	-0.001622	0.001565	0.001529	0.008808	7282.733939	45147.816143	3903.884281	23632.957631
34.036500	0.003528	0.001742	0.004555	0.003355	7396.386917	45701.594542	3928.537377	23897.801014
34.536500	0.000831	0.001769	0.000737	0.006855	7329.626068	45359.133110	3907.232634	23727.443227
35.037000	0.002805	0.001800	0.000104	0.006119	7358.713713	45434.508981	3907.528436	23763.155251
35.537500	0.001269	0.000594	-0.000903	0.006712	7335.845900	45257.812362	3902.914543	23734.348296
36.034500	0.000813	0.002459	0.000994	0.007049	7327.357578	45407.849420	3907.412587	23718.013944
36.535000	0.000901	0.001122	0.004493	0.006423	7334.995927	45337.982408	3919.380219	23748.384789
37.038500	0.002015	0.001204	0.000806	0.006398	7347.213748	45348.531556	3908.750389	23749.611178
37.538500	0.002332	0.001549	0.000836	0.008807	7324.810869	45146.347242	3901.891460	23632.997606
38.036000	0.003160	0.001932	-0.000445	0.006732	7355.930782	45387.257707	3904.176330	23733.405391
38.536500	-0.000015	0.001210	0.001437	0.006644	7322.842534	45325.032089	3909.863260	23737.677921
39.036000	0.000586	0.000992	0.005353	0.006567	7330.091545	45311.152613	3921.471537	23741.404191
39.536500	0.002141	0.001340	0.006638	0.008060	7330.757176	45198.982276	3920.864993	23669.099623
40.037500	0.001060	0.000759	0.003605	0.006505	7335.827125	45294.387045	3916.558091	23744.417970
40.535000	0.003628	0.002080	0.005802	0.007600	7351.625033	45316.453610	3919.764895	23691.325239
41.035000	0.001937	0.001248	0.000321	0.007039	7339.499013	45289.886097	3905.497520	23718.495145
41.535000	-0.000597	0.002449	0.005460	0.009827	7282.800295	45134.616030	3912.297029	23583.836689
42.038500	0.000024	0.001888	0.008360	0.007376	7315.451425	45319.706593	3927.907318	23702.200288
42.536000	0.000123	0.001219	0.003282	0.007539	7314.763759	45238.125087	3912.616860	23694.310171
43.036000	0.002272	0.002685	0.001862	0.008438	7328.115108	45293.717039	3905.908947	23650.819356
43.536500	0.001574	0.001495	0.006174	0.008608	7318.836893	45160.517730	3917.912952	23642.622748
44.036500	0.002845	0.002298	0.006221	0.006125	7359.068614	45482.971597	3925.300069	23762.847104
44.537000	0.004222	0.001998	0.005576	0.003833	7398.736536	45679.606402	3930.135675	23874.472676
45.034500	0.004550	0.001532	0.005770	0.005413	7385.172730	45477.715608	3926.067098	23797.478059
45.535000	0.000534	0.001523	0.002141	0.009411	7299.210027	45084.798277	3903.907416	23603.856397
46.037500	0.002736	0.001649	0.003492	0.005444	7365.238791	45486.117353	3919.317338	23795.952312
46.538000	0.002784	0.001991	0.008576	0.006711	7352.121885	45395.113355	3930.494135	23734.432432
47.035500	0.002984	0.002284	0.004963	0.005859	7363.434048	45507.820561	3922.399497	23775.773383
47.536000	-0.000598	0.002259	0.002581	0.010515	7275.507162	45048.964829	3901.997480	23550.729014
48.036000	0.001959	0.002037	0.001831	0.009056	7318.157773	45169.628611	3904.035968	23620.963730
48.537000	0.003840	0.001805	0.003299	0.006213	7368.850994	45425.795918	3916.516760	23758.584289
49.039500	0.005153	0.002012	0.005487	0.005971	7385.655253	45469.961201	3923.603876	23770.319343
49.537500	0.002122	0.002101	0.005336	0.010002	7309.811204	45083.446363	3911.428112	23575.367731
50.042000	0.004356	0.002043	0.007499	0.003999	7398.387070	45667.670531	3935.311253	23866.357134
50.538000	0.005274	0.002379	0.007605	0.008354	7361.237546	45271.970819	3922.831288	23654.894651
51.038000	-0.002115	-0.003131	0.012472	0.006093	7306.322572	44954.649344	3943.839712	23764.423968
51.535500	-0.042618	-0.015293	0.032040	0.251009	5079.647823	26079.473090	3421.392335	14671.882651
52.036000	-0.036756	-0.017788	-0.017945	-0.056277	7611.093667	49861.020255	4042.373602	27022.189226
52.536000	-0.068848	-0.119509	-0.028817	-0.282628	10390.476657	65535.000000	4934.737040	43679.936417
53.036500	-0.122551	-0.288980	-0.134151	-0.452099	12744.669976	65535.000000	5297.822815	63254.414594
53.536500	-0.044649	-0.159333	-0.028871	-0.322452	11614.614239	65535.000000	5153.527237	47618.351568
54.037000	-0.047546	-0.140253	-0.023430	-0.303371	11173.898901	65535.000000	5076.222504	45686.280366
54.537000	-0.037693	-0.099787	-0.020819	-0.262906	10596.068883	65535.000000	4873.972140	41859.298328
55.035000	-0.030708	-0.112399	-0.026374	-0.275518	10961.269084	65535.000000	4910.348864	43014.008891
55.535000	-0.018795	-0.118556	-0.022349	-0.281675	11312.935569	65535.000000	4963.896753	43590.069311
56.035500	-0.011992	-0.101938	-0.019942	-0.265056	11120.106733	65535.000000	4889.506552	42053.817894
56.535500	-0.014504	-0.067893	-0.017955	-0.227557	10377.595726	65037.290895	4713.927892	38795.896874
57.036000	-0.014066	-0.042009	-0.016350	-0.188628	9725.043625	63192.776735	4544.225926	35698.521461
57.535500	-0.012175	-0.025279	-0.009538	-0.152557	9192.130979	60558.093739	4421.023757	33066.125895
58.036500	-0.011415	-0.016450	-0.008747	-0.112555	8629.820798	56550.877793	4268.409126	30391.419337
58.536500	-0.017033	-0.014854	-0.006244	-0.084803	8190.061562	53403.666255	4177.188042	28675.402540
59.037000	-0.006353	-0.009043	-0.008748	-0.057601	7984.527639	50967.061824	4076.437810	27096.542971
59.534500	-0.007360	-0.007367	-0.003089	-0.036764	7724.501727	48884.008523	4027.555576	25952.238589
60.038000	-0.007306	-0.006010	0.002379	-0.023920	7578.223311	47678.550407	4004.413023	25273.760915
60.535500	-0.006625	-0.005008	-0.001082	-0.013361	7468.159709	46699.690323	3961.491882	24730.820864
61.035500	-0.005077	-0.003432	0.004044	0.001654	7322.076901	45359.171177	3932.039983	23981.131963
61.536000	-0.002811	-0.002328	0.010388	0.016164	7193.134182	44062.584367	3908.218828	23280.869776
62.036000	0.004415	0.002234	0.014140	0.027160	7154.164303	43454.360429	3887.460296	22765.582940
62.536500	0.008461	0.002994	0.013121	0.026291	7205.039692	43607.497467	3887.032792	22805.818214
63.037000	0.011086	0.003588	0.016015	0.023527	7261.478423	43924.965336	3903.210413	22934.359294
63.537500	0.013067	0.004859	0.011781	0.027677	7238.684525	43652.668738	3879.312468	22741.654338
64.061500	0.016920	0.005640	0.017643	0.024445	7313.603204	44032.754696	3905.256425	22891.586715
64.541500	0.020184	0.007407	0.024497	0.027812	7312.503273	43880.807725	3915.349959	22735.424581
65.038000	0.020097	0.007391	0.020006	0.029169	7297.137491	43750.804911	3898.469328	22672.815605
65.535500	0.017758	0.008279	0.022116	0.038194	7177.986934	42988.886925	3878.798861	22261.430565
66.036000	0.022602	0.009244	0.028264	0.035629	7255.309284	43317.609929	3903.634165	22377.461860
66.536000	0.024245	0.009676	0.025828	0.038979	7237.389382	43045.804113	3887.087635	22226.067925
67.036000	0.024744	0.010653	0.027541	0.041378	7217.508952	42913.846231	3885.138933	22118.329226
67.536500	0.024376	0.011725	0.029469	0.050832	7116.123006	42145.248510	3863.976032	21699.535653
68.037000	0.029824	0.013728	0.029504	0.049003	7191.004085	42494.776729	3869.181441	21779.823166
68.537500	0.029453	0.013155	0.037575	0.051939	7156.825195	42174.591372	3883.645518	21651.091917
69.040000	0.033266	0.015032	0.033566	0.056013	7154.130557	41975.376666	3860.957425	21473.855114
69.534000	0.030638	0.014664	0.032543	0.064050	7045.688837	41222.710278	3836.023934	21129.067767
70.035500	0.036510	0.017819	0.037686	0.062291	7123.013558	41661.026354	3854.974022	21204.011457
70.535500	0.034363	0.017135	0.040389	0.063998	7083.793179	41447.190041	3857.731461	21131.300170
71.035000	0.040049	0.018486	0.041921	0.066296	7118.250287	41362.743352	3855.607919	21033.850882
71.536000	0.038685	0.018717	0.034894	0.072942	7037.209457	40795.959666	3818.344635	20754.970761
72.036500	0.042853	0.020848	0.048186	0.070941	7099.494542	41160.059413	3860.102125	20838.482554
72.536500	0.043996	0.021620	0.045141	0.072668	7093.561921	41075.600420	3846.913192	20766.389097
73.037000	0.045804	0.022535	0.050836	0.074885	7089.416058	40960.751945	3856.511315	20674.250240
73.540000	0.044360	0.022709	0.047715	0.081952	7003.915424	40358.330167	3828.612632	20383.647881
74.035000	0.048957	0.023489	0.052133	0.078424	7085.494262	40733.732235	3850.317457	20528.136749
74.537500	0.050918	0.025143	0.052865	0.080839	7080.903822	40667.206062	3845.686660	20429.114330
75.035500	0.050094	0.025779	0.055097	0.083148	7049.290664	40521.199440	3845.474259	20334.931704
75.538500	0.049444	0.026534	0.054807	0.090333	6971.234351	39965.408552	3825.128961	20045.076940
76.039000	0.052235	0.026854	0.054769	0.087614	7025.980053	40227.030518	3832.386010	20154.210811
76.536000	0.053098	0.028064	0.055860	0.089194	7018.826302	40195.154209	3831.061204	20090.721406
77.036500	0.056781	0.028948	0.060910	0.090502	7042.593990	40158.574801	3841.253460	20038.334186
77.536500	0.054557	0.028904	0.054353	0.097932	6946.766199	39519.444325	3803.601524	19743.715135
78.040000	0.057187	0.030345	0.062659	0.096398	6987.838852	39772.522089	3829.961417	19804.128797
78.537000	0.060877	0.030230	0.060720	0.096532	7023.222715	39751.305012	3824.359230	19798.845794
79.035000	0.059765	0.030469	0.063858	0.098096	6996.569671	39638.396809	3828.611203	19737.261275
79.535500	0.061075	0.031194	0.063235	0.099685	6993.797610	39565.014513	3822.638162	19674.923266
80.035500	0.062046	0.031882	0.066267	0.103694	6963.755987	39284.238717	3820.013028	19518.687370
80.535500	0.062297	0.033074	0.067241	0.105088	6952.504595	39267.204421	3818.882583	19464.673035
81.036000	0.063625	0.032892	0.067229	0.105977	6956.818200	39177.139028	3816.467078	19430.316744
81.536000	0.064393	0.033386	0.071598	0.107181	6952.530090	39117.584828	3824.974708	19383.932687
82.036000	0.064041	0.034015	0.071257	0.111236	6909.434852	38831.448452	3813.175288	19228.583450
82.539500	0.066693	0.034783	0.076459	0.111640	6931.358025	38861.707251	3826.060828	19213.189268
83.037000	0.068607	0.035649	0.075729	0.113662	6930.304686	38765.595983	3818.653278	19136.360396
83.534500	0.068862	0.036074	0.075235	0.114913	6920.581053	38697.110402	3813.979740	19088.985692
84.035000	0.069641	0.036562	0.075584	0.119397	6884.588478	38367.471517	3802.979573	18920.346503
84.535500	0.073260	0.037434	0.080029	0.119043	6923.198614	38468.279510	3815.756321	18933.600421
85.035500	0.073848	0.038722	0.081652	0.121500	6904.993082	38372.128710	3813.525262	18841.850083
85.536000	0.074667	0.039158	0.084985	0.122700	6901.284187	38309.400848	3819.235861	18797.214012
86.036500	0.073785	0.040746	0.085401	0.128645	6835.506715	37954.028318	3804.486432	18577.950688
86.536500	0.075561	0.040631	0.085506	0.126837	6869.917231	38091.673515	3809.570501	18644.325491
87.039500	0.078187	0.040766	0.086329	0.128632	6877.932122	37956.721673	3806.986095	18578.450266
87.536500	0.074518	0.041152	0.080522	0.135801	6774.558227	37410.367266	3773.022639	18317.969055
88.037500	0.077282	0.041425	0.086900	0.135151	6806.848133	37484.264622	3791.292181	18341.433931
88.534500	0.079680	0.042108	0.092413	0.133109	6849.215633	37703.176858	3811.261358	18415.294750
89.034500	0.080302	0.043109	0.089838	0.135385	6833.386499	37600.603532	3798.400848	18332.995745
89.535500	0.077052	0.043501	0.088335	0.143383	6727.285258	36994.670315	3773.617460	18047.155182
90.035500	0.082086	0.044759	0.093691	0.142821	6779.723090	37138.672375	3788.989735	18067.071385
90.536000	0.084538	0.045061	0.089735	0.140908	6821.104892	37314.774666	3783.660731	18135.056155
91.036500	0.082984	0.045681	0.095567	0.142502	6791.214755	37237.277374	3794.745194	18078.389821
91.539500	0.081171	0.045425	0.096611	0.149782	6706.118529	36643.224621	3778.472604	17822.258631
92.037000	0.083245	0.047165	0.094642	0.151639	6708.127328	36634.067652	3768.601609	17757.601463
92.537500	0.088471	0.047639	0.099061	0.148826	6783.310786	36891.900608	3787.331481	17855.661303
93.037500	0.089300	0.048501	0.105015	0.150508	6775.270005	36827.367844	3798.542689	17796.951437
93.535000	0.086421	0.048197	0.100662	0.157050	6687.472668	36293.670803	3770.167373	17570.802902
94.035500	0.089190	0.050086	0.100634	0.159112	6693.997647	36280.324626	3764.805319	17500.220933
94.535000	0.093221	0.051429	0.105001	0.156556	6755.279197	36583.138953	3782.666808	17587.757063
95.036000	0.094951	0.051881	0.103588	0.158681	6751.578998	36452.809825	3773.502662	17514.934961
95.536000	0.091254	0.051400	0.106911	0.165794	6651.572240	35867.836622	3763.768258	17273.760912
96.039000	0.092498	0.051857	0.111361	0.166980	6652.096958	35812.226360	3772.145614	17233.936687
96.537000	0.097005	0.053736	0.108418	0.164678	6714.805869	36132.485728	3770.495709	17311.352733
97.039500	0.098606	0.054125	0.108631	0.166169	6715.832280	36047.807282	3767.216245	17261.188622
97.537000	0.097150	0.053735	0.110036	0.173102	6638.688739	35490.286034	3753.123848	17030.082591
98.035000	0.099023	0.055270	0.111179	0.174544	6642.617502	35497.293018	3752.367337	16982.473137
98.535000	0.102104	0.057250	0.115761	0.172580	6688.877351	35796.397089	3769.058566	17047.350704
99.038000	0.102056	0.056157	0.117099	0.173361	6681.244535	35653.960226	3770.492696	17021.536020
99.536000	0.101747	0.056387	0.115531	0.174759	6665.555277	35565.446333	3762.888307	16975.404371
100.036000	0.102745	0.058010	0.113618	0.182233	6606.627199	35125.771477	3739.163016	16731.333675
100.539000	0.104775	0.058863	0.123828	0.180057	6644.798489	35352.617125	3770.576700	16801.944668
101.036500	0.108002	0.058734	0.121305	0.181196	6663.890212	35257.441808	3761.195488	16764.936353
101.536500	0.107580	0.060509	0.125213	0.183070	6642.904268	35250.070551	3766.397902	16704.259636
102.034500	0.110606	0.060600	0.126242	0.184877	6654.028186	35121.672522	3764.402826	16645.965663
102.537000	0.107433	0.059732	0.126770	0.185550	6619.020618	35006.824925	3764.030699	16624.317360
103.038000	0.112174	0.062117	0.128575	0.188860	6632.020821	34938.160192	3760.190668	16518.393905
103.535500	0.111857	0.061790	0.125889	0.189708	6621.436395	34851.091323	3751.220143	16491.371421
104.035500	0.108037	0.062229	0.125886	0.197167	6520.485836	34335.555747	3732.514456	16256.000468
104.536000	0.112725	0.063269	0.132391	0.193788	6592.421726	34659.138779	3757.359227	16362.131659
105.038500	0.116032	0.064708	0.131322	0.196338	6599.251110	34577.466140	3748.197784	16281.982547
105.536000	0.113289	0.063715	0.131937	0.202840	6516.770024	34032.135831	3733.454964	16079.694899
106.036000	0.112989	0.064948	0.133422	0.205205	6493.320130	33950.539035	3731.267112	16006.854749
106.536500	0.118361	0.065401	0.131520	0.200613	6581.742039	34315.705892	3737.966229	16148.639757
107.039000	0.118682	0.066877	0.141048	0.203146	6561.934833	34238.795018	3755.579186	16070.247324
107.537000	0.119719	0.066595	0.137408	0.204620	6558.034431	34111.623163	3742.675090	16024.858183
108.035000	0.117834	0.067153	0.130811	0.211685	6479.006502	33644.510396	3708.936807	15809.344020
108.535500	0.121102	0.066685	0.134323	0.206939	6549.694729	33950.786943	3729.201873	15953.713648
109.035500	0.122949	0.067913	0.137393	0.209247	6545.590369	33873.171603	3731.092271	15883.322299
109.538500	0.122072	0.068132	0.138891	0.210299	6528.469698	33813.420215	3732.198755	15851.335048
110.036500	0.120113	0.068906	0.139961	0.218620	6438.538559	33277.478743	3714.333272	15601.182376
110.536500	0.123965	0.069371	0.139569	0.213635	6515.726567	33663.619713	3725.616760	15750.485708
111.037000	0.126049	0.071445	0.142010	0.216651	6507.507718	33596.500804	3724.197812	15659.946148
111.534500	0.122398	0.070555	0.144734	0.223717	6414.301045	33035.758928	3713.543401	15450.310311
112.034500	0.123584	0.070734	0.146857	0.224992	6413.541983	32959.301299	3715.616318	15412.862788
112.535000	0.128835	0.071773	0.149204	0.220427	6498.798737	33352.225551	3732.659843	15547.494924
113.035500	0.130711	0.072790	0.147094	0.222661	6495.658632	33266.492922	3721.918812	15481.444277
113.535500	0.127204	0.072834	0.145089	0.230055	6401.170502	32753.590586	3699.036135	15265.154903
114.038500	0.127430	0.073313	0.149326	0.231726	6388.825750	32671.257262	3705.236002	15216.801558
114.536000	0.133566	0.075455	0.150825	0.228188	6472.271734	33065.742682	3717.506200	15319.410639
115.036500	0.130707	0.074946	0.152616	0.229017	6440.238654	32972.325007	3719.865210	15295.292655
115.537000	0.130930	0.075782	0.149262	0.237331	6370.903279	32455.637414	3691.590870	15055.895196
116.034000	0.130050	0.075131	0.154401	0.237659	6360.670690	32388.681050	3703.159264	15046.561689
116.537000	0.135484	0.076623	0.157186	0.234044	6438.079010	32739.760036	3718.745213	15150.002981
117.034000	0.135821	0.077162	0.153358	0.235418	6429.129707	32682.078909	3706.058252	15110.588333
117.535000	0.132941	0.077956	0.153292	0.242693	6342.563184	32237.978746	3688.411263	14903.904158
118.035000	0.135425	0.077179	0.156075	0.244512	6348.172871	32062.015580	3690.710764	14852.769799
118.538500	0.137974	0.077589	0.158686	0.239265	6414.542356	32446.871580	3709.652366	15000.851286
119.035500	0.140416	0.078190	0.158336	0.240310	6426.568373	32416.557501	3706.267416	14971.222681
119.535500	0.136168	0.078628	0.159497	0.248247	6323.014680	31907.869606	3689.963497	14748.451928
120.036500	0.138322	0.079156	0.162027	0.249942	6326.861721	31829.518469	3691.960071	14701.401464
120.536500	0.140273	0.080468	0.165306	0.245446	6381.346447	32221.655161	3710.722632	14826.612498
121.037000	0.142971	0.081307	0.165777	0.247673	6385.359402	32127.497862	3706.455855	14764.433283
121.537500	0.140441	0.079796	0.162107	0.253320	6316.321960	31646.492381	3684.103087	14608.192246
122.035000	0.140542	0.080787	0.166877	0.255281	6300.793229	31581.965147	3690.790481	14554.406521
122.535500	0.145409	0.082127	0.165498	0.251620	6372.521011	31916.380739	3696.257506	14655.012924
123.038000	0.144285	0.082256	0.170130	0.252941	6351.812594	31836.298492	3704.239892	14618.610793
123.536000	0.146122	0.083465	0.165962	0.254513	6354.054849	31811.968123	3690.439011	14575.438323
124.039000	0.142795	0.083131	0.171341	0.260606	6275.295602	31384.357624	3688.734176	14409.560114
124.536000	0.146882	0.083378	0.168634	0.256193	6346.279688	31693.728950	3692.811619	14529.458670
125.036500	0.147231	0.085440	0.173523	0.258500	6329.813580	31677.454309	3699.011261	14466.643760
125.537000	0.147551	0.083791	0.168526	0.258337	6333.860972	31578.408590	3687.433642	14471.055959
126.037500	0.147917	0.084382	0.169740	0.259420	6327.844110	31545.725750	3687.745658	14441.665862
126.534500	0.149541	0.085755	0.173896	0.261901	6320.654389	31472.264243	3691.743384	14374.606697
127.034500	0.152691	0.086482	0.170916	0.263564	6333.138966	31410.391270	3680.701457	14329.887842
127.538000	0.150084	0.086023	0.173770	0.264541	6303.144676	31315.604505	3685.153058	14303.687404
128.035500	0.153132	0.087760	0.174412	0.266377	6313.252262	31309.021157	3682.317864	14254.595669
128.536000	0.150651	0.087617	0.176403	0.266848	6288.666616	31268.627104	3685.925199	14242.043717
129.036000	0.153639	0.087278	0.178097	0.268460	6300.107489	31140.609645	3686.122417	14199.176713
129.536500	0.150050	0.087570	0.175368	0.275159	6215.452480	30724.163952	3663.940047	14022.696081
130.036500	0.146774	0.087436	0.173728	0.275181	6188.737232	30714.181172	3660.082373	14022.130713
130.537000	0.154124	0.088835	0.178519	0.271579	6278.240544	31038.509558	3679.726159	14116.665014
131.037500	0.154832	0.088835	0.180024	0.272106	6279.736681	31004.181156	3682.040464	14102.776393
131.535000	0.153157	0.088994	0.176925	0.279874	6202.394123	30512.636194	3656.618532	13900.105366
132.037500	0.152734	0.089245	0.181762	0.279686	6200.491651	30540.817720	3668.295493	13904.970698
132.535500	0.156474	0.090014	0.179271	0.275608	6264.370652	30853.192767	3672.010121	14010.959973
133.036000	0.157749	0.090629	0.184476	0.276852	6264.627774	30812.504974	3681.346319	13978.534017
133.535000	0.153701	0.089968	0.180850	0.283398	6178.341693	30349.878964	3657.547026	13809.362011
134.036500	0.159077	0.091838	0.177456	0.279711	6252.031336	30705.893961	3658.222012	13904.322943
134.538500	0.160031	0.091614	0.184001	0.280142	6256.334022	30663.705150	3672.472035	13893.187757
135.039500	0.158119	0.091984	0.183820	0.281254	6231.541355	30615.973863	3669.442463	13864.493364
135.539500	0.156328	0.091239	0.184540	0.287884	6163.413473	30145.982913	3655.708526	13694.895683
136.035000	0.157584	0.092468	0.186426	0.286560	6184.144469	30307.752245	3663.143945	13728.544660
136.537500	0.159334	0.092851	0.188434	0.283654	6221.873356	30517.629205	3674.634877	13802.802118
137.035000	0.159617	0.093494	0.186492	0.285349	6210.393796	30450.320890	3666.118450	13759.437522
137.535500	0.157586	0.091557	0.188342	0.289663	6159.238607	30053.779785	3660.385903	13649.803141
138.036000	0.161165	0.094230	0.187104	0.290314	6182.750755	30181.424806	3656.015293	13633.358754
138.536000	0.164199	0.094281	0.190105	0.287613	6229.263773	30356.105180	3669.268759	13701.763486
139.036500	0.162913	0.095973	0.190253	0.289366	6204.538054	30352.202625	3665.519187	13657.325162
139.536500	0.161842	0.094819	0.186524	0.294795	6152.237281	29936.327934	3644.397169	13520.827908
140.036500	0.162144	0.094749	0.185070	0.294193	6159.465145	29969.652508	3642.455059	13535.876823
140.537000	0.165215	0.095240	0.192776	0.290897	6210.794449	30208.463818	3667.835300	13618.661689
141.040000	0.164173	0.095950	0.194379	0.292272	6191.217931	30166.432022	3668.368669	13584.052363
141.535000	0.163712	0.096861	0.193681	0.299357	6130.797916	29778.763429	3650.336178	13407.433987
142.035000	0.164087	0.095944	0.191699	0.296848	6153.771512	29878.230312	3651.548664	13469.663404
142.535500	0.166007	0.098287	0.192678	0.295246	6182.017287	30126.093066	3657.498861	13509.554893
143.035500	0.166443	0.095882	0.199037	0.294091	6194.861064	30047.357003	3675.024442	13538.429045
143.536000	0.165262	0.097748	0.196983	0.302234	6120.286713	29654.986118	3651.313644	13336.549529
144.036500	0.165154	0.096606	0.189323	0.299843	6138.402668	29732.591277	3639.280186	13395.438405
144.536500	0.167830	0.097014	0.197589	0.296248	6188.643504	29982.865018	3666.578712	13484.592423
145.037500	0.168640	0.097652	0.190702	0.297834	6182.385627	29923.395578	3647.001492	13445.163637
145.543000	0.167664	0.098174	0.196014	0.298776	6166.973303	29897.054843	3657.051527	13421.816106
146.035000	0.168701	0.099315	0.197273	0.304135	6132.481015	29634.279194	3647.619827	13289.963693
146.534500	0.169162	0.098471	0.195454	0.300359	6166.286525	29816.680871	3652.108628	13382.697063
147.035500	0.172385	0.099598	0.199474	0.301775	6180.810485	29798.691215	3658.116905	13347.835627
147.536000	0.170131	0.100749	0.196743	0.302739	6154.990814	29810.354403	3649.603560	13324.151949
148.036000	0.169979	0.099683	0.194944	0.304999	6135.770827	29603.509271	3640.336406	13268.855363
148.536000	0.172466	0.099942	0.198383	0.303922	6164.205886	29686.396713	3650.650381	13295.156809
149.036500	0.174813	0.101567	0.200963	0.305451	6170.770886	29692.309707	3653.068743	13257.814509
149.537000	0.173056	0.101729	0.200421	0.305732	6154.453744	29685.001476	3651.177587	13250.983136
150.040000	0.171945	0.101647	0.195019	0.308433	6124.119870	29512.622717	3632.729538	13185.371150
150.537500	0.173373	0.100988	0.189090	0.306496	6150.879092	29591.637891	3623.768170	13232.373786
151.035000	0.176406	0.103029	0.202096	0.309082	6154.446679	29557.875105	3647.334630	13169.662626
151.535000	0.176568	0.101751	0.199335	0.308159	6163.129473	29535.938729	3643.136071	13192.000140
152.035500	0.173580	0.101861	0.201875	0.310798	6118.341700	29380.149829	3642.911345	13128.265484
152.535500	0.175290	0.102110	0.202030	0.309549	6141.820250	29472.358433	3646.115379	13158.382240
153.036500	0.176411	0.102562	0.201801	0.310759	6141.111634	29425.709947	3642.830578	13129.209297
153.536500	0.173828	0.103974	0.200841	0.318052	6063.381912	29066.269993	3624.205365	12955.041890
154.037000	0.175926	0.104233	0.201850	0.314293	6109.259240	29311.266907	3634.922504	13044.431077
154.540000	0.176628	0.103981	0.203358	0.313289	6122.747254	29357.407161	3640.616646	13068.452293
155.037000	0.176745	0.102987	0.203637	0.312784	6127.674116	29327.415186	3642.399769	13080.544917
155.535000	0.174934	0.103024	0.201229	0.319738	6058.870969	28906.734600	3621.305775	12915.177208
156.034500	0.180595	0.105493	0.207448	0.317262	6122.697944	29206.814337	3640.883287	12973.751767
156.535500	0.178392	0.105489	0.204022	0.315746	6117.268894	29299.254552	3636.549274	13009.788482
157.035500	0.180780	0.104682	0.200905	0.316051	6133.773688	29231.257097	3628.832186	13002.535802
157.536000	0.177394	0.104267	0.201777	0.322178	6059.030361	28834.648938	3617.098798	12857.789836
158.036500	0.179684	0.104751	0.204331	0.317865	6110.728796	29124.845194	3632.459729	12959.457365
158.536500	0.180163	0.106306	0.206761	0.318336	6110.793422	29190.871706	3636.886009	12948.302894
159.039500	0.181217	0.105623	0.209894	0.318230	6119.958789	29155.687444	3644.248029	12950.811772
159.537500	0.179465	0.106241	0.205329	0.325341	6050.553353	28763.192522	3617.963653	12783.861369
160.034500	0.181310	0.106358	0.200111	0.320422	6103.398212	29067.133598	3617.298203	12899.063134
160.537500	0.182723	0.107502	0.206826	0.320789	6111.645866	29114.334773	3631.492470	12890.426744
161.035500	0.184135	0.107173	0.204302	0.320536	6124.804473	29109.679081	3626.390068	12896.365293
161.534500	0.180349	0.106892	0.202393	0.326515	6048.300822	28731.812268	3608.875987	12756.549602
162.036000	0.186758	0.107291	0.209451	0.321005	6141.922180	29088.408976	3636.934552	12885.346336
162.535500	0.187034	0.108220	0.210079	0.322403	6132.993480	29059.841883	3635.190195	12852.493177
163.036000	0.188659	0.108824	0.213046	0.322569	6144.605059	29086.549325	3641.546482	12848.623639
163.539500	0.186644	0.108420	0.210037	0.322488	6129.227320	29066.869045	3634.904618	12850.509813
164.037500	0.186170	0.108213	0.205923	0.323570	6116.897589	28988.752377	3623.229999	12825.177713
164.536500	0.189066	0.109987	0.206247	0.324029	6136.219703	29068.474910	3622.928637	12814.453637
165.037500	0.187712	0.110048	0.207997	0.324701	6120.152075	29031.404722	3625.337240	12798.768935
165.535000	0.187223	0.109018	0.204383	0.329738	6076.700108	28666.178758	3606.165954	12681.964956
166.035500	0.186490	0.109573	0.205071	0.324859	6109.244764	28993.033834	3618.459375	12795.076690
166.535500	0.190374	0.109491	0.210836	0.324148	6145.689327	29031.137367	3632.960117	12811.672684
167.036000	0.191328	0.111193	0.211384	0.325746	6140.558408	29037.470243	3630.595995	12774.431934
167.536000	0.184830	0.108680	0.203958	0.329755	6057.925983	28644.935917	3605.195545	12681.568975
168.036500	0.190460	0.109644	0.210617	0.326181	6130.194837	28917.431662	3627.891591	12764.297048
168.536500	0.192191	0.111689	0.208814	0.326399	6142.226141	29027.919046	3623.367106	12759.234719
169.037000	0.191220	0.109613	0.205581	0.324645	6148.462525	29008.435312	3620.069620	12800.066225
169.540000	0.188872	0.111179	0.207504	0.332415	6068.682253	28635.350131	3607.141097	12620.437888
170.035000	0.192400	0.111652	0.209687	0.327554	6134.709583	28955.796653	3622.739750	12732.456043
170.535500	0.191777	0.111334	0.211122	0.326346	6139.355015	29009.662146	3628.657414	12760.479278
171.035500	0.191075	0.110747	0.212835	0.326046	6136.158140	28992.297598	3633.189335	12767.458012
171.535500	0.194550	0.111310	0.211105	0.326973	6156.467386	28970.229240	3627.210666	12745.906776
172.035500	0.191323	0.113235	0.215949	0.329305	6112.301961	28945.594236	3632.859880	12691.946371
172.538500	0.195942	0.113192	0.215183	0.328307	6156.935037	29003.364042	3633.382284	12715.003924
173.036500	0.194160	0.113639	0.213409	0.328775	6138.983069	29002.119154	3628.337427	12704.187288
173.537000	0.191600	0.112624	0.208955	0.333915	6078.266208	28632.050583	3607.032461	12586.125941
174.036500	0.194552	0.112538	0.209273	0.328595	6143.535712	28946.399613	3619.495678	12708.344344
174.535000	0.193643	0.112746	0.211453	0.328554	6136.637402	28961.483913	3624.450971	12709.309962
175.035000	0.194207	0.112917	0.214970	0.328697	6139.984529	28963.162343	3632.023653	12705.993000
175.535500	0.192668	0.112481	0.207626	0.334089	6085.263581	28613.150942	3603.737901	12582.157794
176.035500	0.193540	0.112748	0.212959	0.328911	6132.975940	28940.017682	3627.022468	12701.053400
176.535500	0.194219	0.111746	0.213997	0.327854	6146.797756	28943.369635	3631.732448	12725.499626
177.039000	0.194874	0.114762	0.213652	0.329514	6138.792055	29025.416727	3627.225538	12687.134403
177.536500	0.192356	0.111671	0.211265	0.333306	6088.953701	28611.511825	3613.464782	12600.055378
178.037000	0.195702	0.114882	0.211683	0.330991	6133.629762	28943.253856	3619.525510	12653.120461
178.537000	0.193320	0.112332	0.211242	0.328609	6133.624426	28933.123656	3623.853895	12708.025939
179.037000	0.197944	0.113716	0.207187	0.329911	6160.113581	28938.053202	3611.955376	12677.975966
179.535000	0.197946	0.115189	0.207139	0.331407	6148.180501	28936.731080	3608.554124	12643.575308
180.035500	0.199085	0.114554	0.214578	0.331908	6153.274760	28868.167825	3623.937364	12632.068773
180.538000	0.197823	0.114692	0.216844	0.330816	6151.918053	28942.403838	3631.473311	12657.149823
181.035000	0.196928	0.115237	0.212367	0.331518	6139.183716	28932.898728	3619.876601	12641.019206
181.539000	0.194476	0.113875	0.212438	0.330869	6124.870434	28889.906903	3621.480684	12655.938388
182.036000	0.196690	0.114345	0.215597	0.331374	6138.438884	28887.765286	3627.415854	12644.332136
182.537000	0.198422	0.115166	0.211159	0.331895	6148.091023	28905.867827	3616.356110	12632.377072
183.037000	0.197975	0.114738	0.214315	0.331781	6145.431119	28886.939035	3623.635486	12634.987196
183.537000	0.196908	0.115198	0.211348	0.337840	6089.094613	28551.540416	3603.674485	12496.929657
184.037500	0.197353	0.115069	0.220169	0.332299	6136.354440	28875.650044	3635.629869	12623.099183
184.535500	0.197748	0.114413	0.218292	0.331594	6145.115893	28878.609654	3632.982494	12639.276604
185.060000	0.196727	0.114671	0.213177	0.331899	6134.564421	28875.760806	3620.831759	12632.281778
185.535500	0.197053	0.114290	0.210198	0.332568	6131.832134	28812.555054	3612.739463	12616.942251
186.035500	0.200745	0.115188	0.218435	0.333241	6155.888072	28826.052404	3629.596046	12601.533688
186.536000	0.198981	0.115309	0.214561	0.332216	6149.981884	28895.084083	3623.210082	12624.994415
187.089500	0.198962	0.114696	0.214218	0.332345	6148.805419	28850.415622	3622.159354	12622.057280
187.536500	0.194615	0.114965	0.215375	0.337576	6073.221901	28553.388202	3613.111280	12502.894197
