sample name	sample
index	1038
start time	 04-19-2021  02:00:15 PM


Wavelength (nm)	Absorbance
494.344910	-0.278107
494.563924	-0.278107
494.782919	-0.278107
495.001897	-0.506956
495.220856	-0.166101
495.439797	-0.139744
495.658719	-0.139129
495.877624	-0.134025
496.096510	-0.121678
496.315378	-0.125664
496.534227	-0.224349
496.753059	-0.141073
496.971872	-0.118649
497.190667	-0.007633
497.409444	0.017876
497.628203	0.019087
497.846943	0.022283
498.065665	0.026400
498.284369	0.025207
498.503055	0.026613
498.721723	0.027043
498.940372	0.026579
499.159003	0.028335
499.377616	0.028006
499.596210	0.028705
499.814787	0.029555
500.033345	0.029467
500.251885	0.030617
500.470406	0.029439
500.688910	0.028674
500.907395	0.029312
501.125862	0.028558
501.344311	0.028817
501.562742	0.028828
501.781154	0.028209
501.999548	0.027210
502.217924	0.025696
502.436282	0.026621
502.654621	0.027566
502.872942	0.026258
503.091245	0.026407
503.309530	0.026144
503.527797	0.026644
503.746045	0.026002
503.964275	0.025846
504.182487	0.027662
504.400681	0.027608
504.618856	0.026685
504.837013	0.027282
505.055152	0.027532
505.273273	0.027083
505.491376	0.027559
505.709460	0.027899
505.927526	0.027838
506.145574	0.026801
506.363604	0.026808
506.581615	0.027438
506.799608	0.027841
507.017583	0.027623
507.235540	0.027486
507.453478	0.026830
507.671399	0.025901
507.889301	0.026510
508.107185	0.026205
508.325050	0.026343
508.542898	0.026100
508.760727	0.025313
508.978538	0.025643
509.196330	0.025780
509.414105	0.025631
509.631861	0.026560
509.849599	0.026165
510.067319	0.027275
510.285021	0.026705
510.502704	0.026605
510.720369	0.026814
510.938016	0.026356
511.155645	0.026550
511.373255	0.026633
511.590848	0.027010
511.808422	0.027038
512.025977	0.026354
512.243515	0.026863
512.461034	0.026590
512.678536	0.026822
512.896018	0.026096
513.113483	0.025101
513.330930	0.024769
513.548358	0.023948
513.765768	0.023500
513.983160	0.023452
514.200533	0.022695
514.417889	0.022433
514.635226	0.022752
514.852545	0.023444
515.069845	0.024087
515.287128	0.024213
515.504392	0.024442
515.721638	0.024508
515.938866	0.024072
516.156075	0.024577
516.373267	0.025002
516.590440	0.024754
516.807594	0.024803
517.024731	0.024419
517.241850	0.024364
517.458950	0.024621
517.676032	0.024671
517.893095	0.025259
518.110141	0.025297
518.327168	0.025083
518.544177	0.024304
518.761168	0.023596
518.978141	0.024041
519.195095	0.024155
519.412031	0.023775
519.628949	0.023439
519.845849	0.023128
520.062731	0.023210
520.279594	0.022366
520.496439	0.022843
520.713266	0.023064
520.930074	0.023459
521.146865	0.022777
521.363637	0.023106
521.580391	0.023477
521.797127	0.023864
522.013844	0.024194
522.230543	0.025065
522.447224	0.024496
522.663887	0.024198
522.880532	0.023930
523.097158	0.024191
523.313766	0.023812
523.530356	0.023251
523.746928	0.023089
523.963481	0.022581
524.180017	0.022596
524.396534	0.023160
524.613032	0.023467
524.829513	0.023195
525.045975	0.023715
525.262420	0.023869
525.478845	0.023991
525.695253	0.024181
525.911643	0.024256
526.128014	0.024971
526.344367	0.024851
526.560702	0.025133
526.777018	0.025095
526.993316	0.024831
527.209597	0.024719
527.425858	0.025048
527.642102	0.025146
527.858328	0.025021
528.074535	0.024554
528.290724	0.024549
528.506894	0.024391
528.723047	0.024260
528.939181	0.024149
529.155297	0.024169
529.371395	0.023917
529.587475	0.023460
529.803536	0.022964
530.019579	0.023206
530.235604	0.023530
530.451611	0.023733
530.667600	0.024352
530.883570	0.024501
531.099522	0.024631
531.315456	0.025061
531.531372	0.025293
531.747269	0.025857
531.963148	0.025430
532.179009	0.025540
532.394852	0.025460
532.610676	0.025117
532.826482	0.025808
533.042271	0.026085
533.258040	0.025888
533.473792	0.025750
533.689525	0.025667
533.905240	0.025808
534.120937	0.025572
534.336616	0.025646
534.552277	0.025347
534.767919	0.024732
534.983543	0.024503
535.199149	0.024644
535.414736	0.024905
535.630306	0.025165
535.845857	0.024912
536.061390	0.025137
536.276904	0.025003
536.492401	0.024926
536.707879	0.025063
536.923339	0.025076
537.138781	0.024842
537.354204	0.024596
537.569610	0.023990
537.784997	0.024345
538.000366	0.023995
538.215716	0.023643
538.431049	0.024141
538.646363	0.023944
538.861659	0.024001
539.076937	0.024024
539.292196	0.024734
539.507438	0.025192
539.722661	0.025298
539.937866	0.025631
540.153052	0.026076
540.368221	0.025906
540.583371	0.026364
540.798503	0.026126
541.013617	0.026562
541.228712	0.026243
541.443789	0.026166
541.658848	0.026147
541.873889	0.026095
542.088912	0.026145
542.303916	0.025982
542.518902	0.025727
542.733870	0.025849
542.948820	0.025537
543.163752	0.025205
543.378665	0.025140
543.593560	0.025177
543.808437	0.024889
544.023295	0.024900
544.238136	0.025627
544.452958	0.025459
544.667762	0.025101
544.882548	0.025308
545.097315	0.025231
545.312064	0.025641
545.526795	0.025689
545.741508	0.026058
545.956203	0.026133
546.170879	0.026005
546.385537	0.025998
546.600177	0.026638
546.814799	0.026524
547.029402	0.026789
547.243988	0.026619
547.458555	0.026346
547.673103	0.026388
547.887634	0.026447
548.102146	0.026218
548.316640	0.026282
548.531116	0.025777
548.745574	0.025840
548.960013	0.026156
549.174435	0.026049
549.388838	0.026030
549.603222	0.025973
549.817589	0.025822
550.031937	0.025626
550.246267	0.025531
550.460579	0.025779
550.674873	0.025813
550.889148	0.025408
551.103405	0.025391
551.317644	0.025430
551.531865	0.025339
551.746068	0.025416
551.960252	0.025601
552.174418	0.026049
552.388566	0.026184
552.602696	0.026230
552.816807	0.026485
553.030900	0.026387
553.244975	0.026794
553.459032	0.026956
553.673070	0.026532
553.887091	0.026604
554.101093	0.026187
554.315077	0.026267
554.529042	0.026156
554.742990	0.026349
554.956919	0.026780
555.170830	0.026562
555.384722	0.026302
555.598597	0.026592
555.812453	0.026244
556.026291	0.026530
556.240111	0.026458
556.453913	0.026312
556.667696	0.025704
556.881461	0.025276
557.095208	0.025038
557.308937	0.025000
557.522647	0.024994
557.736339	0.024993
557.950013	0.024849
558.163669	0.024500
558.377307	0.024869
558.590926	0.025155
558.804527	0.025221
559.018110	0.025213
559.231675	0.025376
559.445221	0.025464
559.658749	0.025434
559.872259	0.025492
560.085751	0.025658
560.299225	0.025266
560.512680	0.025045
560.726117	0.025134
560.939536	0.025214
561.152937	0.025004
561.366319	0.024990
561.579683	0.025001
561.793029	0.024706
562.006357	0.024387
562.219667	0.024501
562.432958	0.024456
562.646231	0.024445
562.859486	0.024187
563.072723	0.024493
563.285941	0.024511
563.499141	0.024838
563.712323	0.024976
563.925487	0.025070
564.138632	0.025051
564.351760	0.025231
564.564869	0.025105
564.777960	0.025028
564.991032	0.024932
565.204087	0.024887
565.417123	0.024724
565.630141	0.024868
565.843140	0.024964
566.056122	0.024959
566.269085	0.024905
566.482030	0.025247
566.694957	0.025442
566.907866	0.025550
567.120756	0.025483
567.333628	0.025407
567.546482	0.025155
567.759318	0.025175
567.972135	0.025227
568.184935	0.025248
568.397716	0.025118
568.610478	0.025366
568.823223	0.025203
569.035949	0.025078
569.248657	0.024879
569.461347	0.025028
569.674019	0.024924
569.886672	0.024752
570.099308	0.024482
570.311925	0.023883
570.524523	0.023442
570.737104	0.023354
570.949666	0.023462
571.162210	0.023686
571.374736	0.023539
571.587244	0.023548
571.799733	0.023346
572.012205	0.023383
572.224658	0.023797
572.437092	0.024295
572.649509	0.024348
572.861907	0.024369
573.074287	0.024360
573.286649	0.024458
573.498993	0.024866
573.711318	0.025005
573.923625	0.025434
574.135914	0.025381
574.348185	0.025362
574.560438	0.025227
574.772672	0.025048
574.984888	0.024886
575.197086	0.024782
575.409266	0.024395
575.621427	0.024491
575.833570	0.024297
576.045695	0.024541
576.257802	0.024314
576.469890	0.024179
576.681961	0.024442
576.894013	0.024402
577.106046	0.024514
577.318062	0.024643
577.530059	0.024961
577.742039	0.025052
577.954000	0.024736
578.165942	0.025066
578.377867	0.025201
578.589773	0.025150
578.801661	0.025339
579.013531	0.025101
579.225382	0.025094
579.437216	0.024989
579.649031	0.025122
579.860828	0.024993
580.072606	0.024653
580.284367	0.024662
580.496109	0.024376
580.707833	0.024284
580.919539	0.024495
581.131227	0.024424
581.342896	0.024579
581.554547	0.024228
581.766180	0.024527
581.977795	0.024696
582.189391	0.024573
582.400969	0.024424
582.612529	0.024440
582.824071	0.024165
583.035595	0.024342
583.247100	0.024261
583.458587	0.024281
583.670056	0.024289
583.881506	0.023953
584.092939	0.024192
584.304353	0.024603
584.515749	0.024590
584.727127	0.024700
584.938486	0.024530
585.149828	0.024247
585.361151	0.023952
585.572456	0.023758
585.783742	0.023690
585.995011	0.023476
586.206261	0.023418
586.417493	0.023623
586.628706	0.023729
586.839902	0.023950
587.051079	0.024075
587.262238	0.024477
587.473379	0.024624
587.684502	0.025077
587.895606	0.025449
588.106692	0.025563
588.317760	0.025495
588.528810	0.025893
588.739841	0.025911
588.950855	0.026141
589.161850	0.026473
589.372827	0.026494
589.583785	0.026362
589.794726	0.026516
590.005648	0.026604
590.216552	0.026706
590.427437	0.026702
590.638305	0.026592
590.849154	0.026480
591.059985	0.026517
591.270798	0.026694
591.481592	0.026734
591.692369	0.026730
591.903127	0.026780
592.113867	0.027032
592.324588	0.026928
592.535292	0.026944
592.745977	0.026921
592.956644	0.026637
593.167293	0.026770
593.377923	0.026885
593.588536	0.026872
593.799130	0.026781
594.009706	0.026615
594.220263	0.026471
594.430803	0.026348
594.641324	0.026591
594.851827	0.026746
595.062312	0.026557
595.272778	0.026512
595.483227	0.026341
595.693657	0.026617
595.904069	0.026601
596.114462	0.026705
596.324838	0.026905
596.535195	0.027024
596.745534	0.027096
596.955855	0.027248
597.166157	0.027190
597.376441	0.027396
597.586707	0.027198
597.796955	0.027078
598.007185	0.027260
598.217396	0.027376
598.427589	0.026957
598.637764	0.026650
598.847921	0.026514
599.058060	0.026534
599.268180	0.026148
599.478282	0.026187
599.688366	0.026077
599.898431	0.026104
600.108479	0.026152
600.318508	0.026302
600.528519	0.026594
600.738511	0.026934
600.948486	0.027129
601.158442	0.027394
601.368380	0.027339
601.578300	0.027429
601.788202	0.027255
601.998085	0.027078
602.207950	0.027052
602.417797	0.027317
602.627626	0.027134
602.837436	0.027290
603.047228	0.027483
603.257002	0.027493
603.466758	0.028048
603.676496	0.027981
603.886215	0.028226
604.095916	0.028117
604.305599	0.027923
604.515264	0.027924
604.724910	0.027841
604.934538	0.027580
605.144148	0.027849
605.353740	0.027618
605.563314	0.027611
605.772869	0.027506
605.982406	0.027725
606.191925	0.027798
606.401425	0.027908
606.610908	0.027853
606.820372	0.027876
607.029818	0.027421
607.239246	0.027018
607.448655	0.027114
607.658047	0.027075
607.867420	0.026901
608.076775	0.026659
608.286111	0.026520
608.495430	0.026504
608.704730	0.026555
608.914012	0.026684
609.123275	0.026876
609.332521	0.026788
609.541748	0.026664
609.750957	0.026696
609.960148	0.026787
610.169321	0.026885
610.378475	0.026678
610.587611	0.026943
610.796729	0.026969
611.005829	0.026918
611.214910	0.027085
611.423974	0.027253
611.633019	0.027387
611.842045	0.027346
612.051054	0.027228
612.260044	0.027308
612.469017	0.027268
612.677970	0.027452
612.886906	0.027673
613.095824	0.027640
613.304723	0.027752
613.513604	0.027806
613.722467	0.027883
613.931311	0.027944
614.140138	0.028075
614.348946	0.028106
614.557736	0.027976
614.766507	0.027878
614.975261	0.028086
615.183996	0.028219
615.392713	0.028367
615.601412	0.028533
615.810092	0.028567
616.018754	0.028627
616.227399	0.028553
616.436024	0.028616
616.644632	0.028672
616.853222	0.028589
617.061793	0.028466
617.270346	0.028443
617.478880	0.028309
617.687397	0.028417
617.895895	0.028429
618.104375	0.028556
618.312837	0.028592
618.521281	0.028774
618.729706	0.028862
618.938113	0.028739
619.146502	0.028680
619.354873	0.028774
619.563226	0.028651
619.771560	0.028589
619.979876	0.028518
620.188174	0.028592
620.396453	0.028652
620.604715	0.028580
620.812958	0.028934
621.021183	0.029016
621.229390	0.029081
621.437578	0.029005
621.645748	0.029092
621.853900	0.029041
622.062034	0.029005
622.270150	0.028799
622.478247	0.028809
622.686326	0.028575
622.894387	0.028340
623.102430	0.028013
623.310454	0.028219
623.518461	0.027963
623.726449	0.027764
623.934418	0.027680
624.142370	0.027785
624.350303	0.027429
624.558218	0.027257
624.766115	0.027450
624.973994	0.027707
625.181855	0.027545
625.389697	0.027903
625.597521	0.027997
625.805327	0.027956
626.013114	0.027935
626.220883	0.028340
626.428634	0.028634
626.636367	0.028575
626.844082	0.028509
627.051778	0.028686
627.259457	0.028588
627.467117	0.028685
627.674758	0.029016
627.882382	0.029062
628.089987	0.029088
628.297574	0.029187
628.505143	0.029228
628.712694	0.029558
628.920226	0.029629
629.127740	0.029716
629.335236	0.029869
629.542714	0.029971
629.750174	0.029954
629.957615	0.029896
630.165038	0.029760
630.372443	0.029905
630.579829	0.029511
630.787198	0.029638
630.994548	0.029699
631.201880	0.029735
631.409194	0.029715
631.616489	0.030008
631.823766	0.030002
632.031025	0.030279
632.238266	0.030156
632.445489	0.030326
632.652693	0.030144
632.859879	0.030296
633.067047	0.030259
633.274197	0.030207
633.481329	0.029996
633.688442	0.030042
633.895537	0.029850
634.102614	0.030186
634.309672	0.030412
634.516713	0.030431
634.723735	0.030193
634.930739	0.030254
635.137724	0.030305
635.344692	0.030184
635.551641	0.030376
635.758572	0.030539
635.965485	0.030417
636.172379	0.030324
636.379256	0.030468
636.586114	0.030554
636.792954	0.030491
636.999775	0.030463
637.206579	0.030493
637.413364	0.030417
637.620131	0.030063
637.826880	0.029933
638.033610	0.029739
638.240323	0.029782
638.447017	0.029787
638.653692	0.029796
638.860350	0.029631
639.066990	0.029715
639.273611	0.029750
639.480214	0.029949
639.686798	0.029978
639.893365	0.030203
640.099913	0.030138
640.306443	0.030145
640.512955	0.030032
640.719449	0.030158
640.925924	0.030274
641.132381	0.030387
641.338820	0.030583
641.545241	0.030778
641.751644	0.030802
641.958028	0.030774
642.164394	0.031014
642.370742	0.031074
642.577071	0.031155
642.783383	0.031206
642.989676	0.031135
643.195951	0.031020
643.402207	0.030855
643.608446	0.030857
643.814666	0.030861
644.020868	0.030831
644.227052	0.030977
644.433218	0.030929
644.639365	0.030936
644.845494	0.030983
645.051605	0.030983
645.257698	0.031018
645.463772	0.030937
645.669828	0.031111
645.875866	0.031077
646.081886	0.031180
646.287888	0.031294
646.493871	0.031222
646.699836	0.031144
646.905783	0.031137
647.111712	0.031400
647.317622	0.031741
647.523514	0.031714
647.729388	0.031825
647.935244	0.031714
648.141082	0.031918
648.346901	0.032004
648.552702	0.032196
648.758485	0.032437
648.964250	0.032219
649.169996	0.032131
649.375724	0.032253
649.581434	0.032330
649.787126	0.032519
649.992800	0.032414
650.198455	0.032522
650.404092	0.032590
650.609711	0.032373
650.815311	0.032360
651.020894	0.032323
651.226458	0.032259
651.432004	0.032137
651.637532	0.032042
651.843041	0.032024
652.048532	0.031994
652.254006	0.031821
652.459460	0.032000
652.664897	0.031964
652.870315	0.031841
653.075716	0.031897
653.281097	0.032060
653.486461	0.032216
653.691807	0.032316
653.897134	0.032432
654.102443	0.032605
654.307734	0.032541
654.513006	0.032698
654.718261	0.032710
654.923497	0.032725
655.128715	0.032555
655.333915	0.032471
655.539096	0.032442
655.744259	0.032516
655.949404	0.032539
656.154531	0.032581
656.359640	0.032670
656.564730	0.032812
656.769802	0.032740
656.974856	0.032766
657.179892	0.032678
657.384909	0.032534
657.589908	0.032541
657.794889	0.032559
657.999852	0.032623
658.204797	0.032627
658.409723	0.032848
658.614631	0.032942
658.819521	0.033034
659.024393	0.033097
659.229246	0.033335
659.434081	0.033369
659.638898	0.033367
659.843697	0.033364
660.048478	0.033483
660.253240	0.033384
660.457984	0.033403
660.662710	0.033460
660.867417	0.033621
661.072107	0.033663
661.276778	0.033399
661.481431	0.033318
661.686066	0.033339
661.890682	0.033205
662.095281	0.033337
662.299861	0.033260
662.504422	0.033154
662.708966	0.033334
662.913491	0.033250
663.117999	0.033552
663.322488	0.033531
663.526958	0.033563
663.731411	0.033580
663.935845	0.033449
664.140261	0.033633
664.344659	0.033682
664.549038	0.033574
664.753400	0.033515
664.957743	0.033444
665.162068	0.033609
665.366375	0.033659
665.570663	0.033772
665.774933	0.033848
665.979185	0.033941
666.183419	0.034026
666.387635	0.034076
666.591832	0.033910
666.796011	0.033949
667.000172	0.034209
667.204315	0.034349
667.408439	0.034414
667.612545	0.034469
667.816634	0.034252
668.020703	0.034351
668.224755	0.034296
668.428788	0.034634
668.632803	0.034754
668.836800	0.034650
669.040779	0.034650
669.244739	0.034699
669.448681	0.034754
669.652605	0.034947
669.856511	0.034918
670.060399	0.034989
670.264268	0.034983
670.468119	0.034918
670.671952	0.034917
670.875767	0.035015
671.079563	0.035051
671.283341	0.035190
671.487101	0.035262
671.690843	0.035331
671.894567	0.035615
672.098272	0.035825
672.301959	0.035914
672.505628	0.036123
672.709278	0.036164
672.912911	0.036247
673.116525	0.036265
673.320121	0.036290
673.523699	0.036244
673.727258	0.035942
673.930799	0.035819
674.134322	0.035822
674.337827	0.035498
674.541314	0.035482
674.744782	0.035364
674.948232	0.035239
675.151664	0.035237
675.355078	0.035357
675.558474	0.035469
675.761851	0.035584
675.965210	0.035480
676.168551	0.035644
676.371873	0.035698
676.575178	0.035868
676.778464	0.035980
676.981732	0.036155
677.184981	0.036065
677.388213	0.036219
677.591426	0.036134
677.794621	0.036352
677.997798	0.036384
678.200956	0.036341
678.404097	0.036269
678.607219	0.036161
678.810323	0.036046
679.013408	0.036201
679.216476	0.036321
679.419525	0.036201
679.622556	0.036111
679.825569	0.036082
680.028563	0.036059
680.231540	0.036175
680.434498	0.036264
680.637438	0.036239
680.840359	0.036261
681.043263	0.036159
681.246148	0.036372
681.449015	0.036402
681.651864	0.036586
681.854694	0.036648
682.057506	0.036664
682.260301	0.036686
682.463076	0.036634
682.665834	0.036456
682.868573	0.036410
683.071295	0.036411
683.273998	0.036581
683.476682	0.036466
683.679349	0.036473
683.881997	0.036410
684.084627	0.036457
684.287239	0.036619
684.489833	0.036708
684.692408	0.036591
684.894965	0.036561
685.097504	0.036491
685.300025	0.036702
685.502527	0.036720
685.705012	0.036681
685.907478	0.036555
686.109925	0.036530
686.312355	0.036771
686.514766	0.036845
686.717159	0.036965
686.919534	0.036964
687.121891	0.036808
687.324230	0.036782
687.526550	0.036867
687.728852	0.036857
687.931136	0.036860
688.133401	0.036655
688.335649	0.036677
688.537878	0.036520
688.740089	0.036590
688.942281	0.036635
689.144456	0.036712
689.346612	0.036690
689.548750	0.036832
689.750870	0.036805
689.952971	0.036799
690.155055	0.036828
690.357120	0.037000
690.559167	0.036785
690.761195	0.036606
690.963206	0.036729
691.165198	0.036712
691.367172	0.036759
691.569128	0.036978
691.771065	0.037047
691.972984	0.037184
692.174885	0.037307
692.376768	0.037516
692.578633	0.037582
692.780479	0.037370
692.982308	0.037358
693.184118	0.037423
693.385909	0.037342
693.587683	0.037403
693.789438	0.037383
693.991175	0.037250
694.192894	0.037263
694.394595	0.037348
694.596277	0.037426
694.797941	0.037390
694.999587	0.037299
695.201215	0.037176
695.402824	0.037226
695.604416	0.037228
695.805989	0.037283
696.007543	0.037274
696.209080	0.037233
696.410598	0.037350
696.612099	0.037448
696.813580	0.037548
697.015044	0.037466
697.216490	0.037415
697.417917	0.037227
697.619326	0.036990
697.820717	0.037150
698.022089	0.037152
698.223444	0.036999
698.424780	0.037011
698.626098	0.036903
698.827397	0.037113
699.028679	0.037102
699.229942	0.037198
699.431187	0.037441
699.632414	0.037455
699.833622	0.037498
700.034813	0.037602
700.235985	0.037580
700.437139	0.037689
700.638274	0.037606
700.839392	0.037675
701.040491	0.037752
701.241572	0.037725
701.442635	0.037580
701.643679	0.037698
701.844706	0.037818
702.045714	0.037938
702.246704	0.037940
702.447675	0.038006
702.648629	0.037995
702.849564	0.038126
703.050481	0.038410
703.251380	0.038378
703.452260	0.038504
703.653122	0.038464
703.853966	0.038647
704.054792	0.038664
704.255600	0.038873
704.456389	0.038956
704.657160	0.038908
704.857913	0.038792
705.058648	0.038969
705.259365	0.038821
705.460063	0.038767
705.660743	0.038577
705.861405	0.038560
706.062048	0.038564
706.262674	0.038521
706.463281	0.038429
706.663870	0.038254
706.864441	0.038261
707.064993	0.038289
707.265527	0.038454
707.466043	0.038504
707.666541	0.038637
707.867021	0.038500
708.067482	0.038557
708.267925	0.038568
708.468350	0.038616
708.668757	0.038611
708.869145	0.038658
709.069516	0.038477
709.269868	0.038521
709.470201	0.038357
709.670517	0.038376
709.870814	0.038501
710.071093	0.038654
710.271354	0.038708
710.471597	0.038646
710.671821	0.038522
710.872028	0.038548
711.072216	0.038550
711.272385	0.038556
711.472537	0.038637
711.672670	0.038412
711.872785	0.038408
712.072882	0.038299
712.272961	0.038291
712.473021	0.038492
712.673063	0.038487
712.873087	0.038438
713.073093	0.038482
713.273081	0.038340
713.473050	0.038365
713.673001	0.038261
713.872934	0.038326
714.072849	0.038304
714.272745	0.038280
714.472623	0.038227
714.672483	0.038135
714.872325	0.038099
715.072148	0.038110
715.271954	0.037882
715.471741	0.038022
715.671509	0.037992
715.871260	0.037964
716.070992	0.037793
716.270707	0.037840
716.470403	0.037860
716.670080	0.037830
716.869740	0.037785
717.069381	0.038026
717.269004	0.037883
717.468609	0.037881
717.668195	0.037862
717.867764	0.037835
718.067314	0.037657
718.266846	0.037769
718.466360	0.037648
718.665855	0.037781
718.865332	0.037636
719.064791	0.037662
719.264232	0.037750
719.463655	0.037805
719.663059	0.038048
719.862445	0.038255
720.061813	0.038099
720.261163	0.038220
720.460494	0.038110
720.659807	0.038285
720.859102	0.038204
721.058379	0.038071
721.257638	0.037909
721.456878	0.037718
721.656100	0.037660
721.855304	0.037565
722.054490	0.037468
722.253657	0.037289
722.452806	0.037163
722.651937	0.036903
722.851050	0.036859
723.050145	0.036794
723.249221	0.036573
723.448279	0.036400
723.647319	0.036268
723.846340	0.036183
724.045344	0.036264
724.244329	0.036031
724.443296	0.036114
724.642245	0.036027
724.841175	0.036038
725.040088	0.035956
725.238982	0.035885
725.437857	0.035861
725.636715	0.035709
725.835554	0.035657
726.034376	0.035834
726.233179	0.035923
726.431963	0.035908
726.630730	0.035879
726.829478	0.036179
727.028208	0.036194
727.226920	0.036285
727.425614	0.036429
727.624289	0.036409
727.822946	0.036254
728.021585	0.036140
728.220206	0.035971
728.418808	0.035824
728.617392	0.035492
728.815958	0.035387
729.014506	0.035359
729.213036	0.035258
729.411547	0.035037
729.610040	0.034973
729.808515	0.034856
730.006972	0.034876
730.205410	0.034768
730.403831	0.034776
730.602233	0.034764
730.800616	0.034634
730.998982	0.034603
731.197329	0.034851
731.395658	0.034931
731.593969	0.034938
731.792262	0.034890
731.990536	0.034982
732.188793	0.035048
732.387031	0.035006
732.585250	0.035028
732.783452	0.035060
732.981635	0.034805
733.179800	0.034717
733.377947	0.034768
733.576076	0.034807
733.774186	0.034836
733.972278	0.034777
734.170352	0.034877
734.368408	0.034866
734.566446	0.034752
734.764465	0.034887
734.962466	0.034905
735.160449	0.034753
735.358413	0.034679
735.556360	0.034713
735.754288	0.034541
735.952198	0.034404
736.150090	0.034415
736.347963	0.034242
736.545818	0.034113
736.743655	0.033971
736.941474	0.034105
737.139275	0.034121
737.337057	0.034134
737.534821	0.034331
737.732567	0.034477
737.930295	0.034351
738.128005	0.034626
738.325696	0.034572
738.523369	0.034533
738.721024	0.034289
738.918660	0.034255
739.116279	0.034125
739.313879	0.034087
739.511461	0.033925
739.709024	0.033823
739.906570	0.033693
740.104097	0.033708
740.301606	0.033767
740.499097	0.033933
740.696569	0.033985
740.894024	0.034078
741.091460	0.033997
741.288878	0.034032
741.486277	0.034280
741.683659	0.034395
741.881022	0.034364
742.078367	0.034419
742.275694	0.034429
742.473002	0.034583
742.670293	0.034549
742.867565	0.034687
743.064819	0.034833
743.262054	0.034924
743.459272	0.034935
743.656471	0.035036
743.853652	0.035118
744.050815	0.035064
744.247959	0.035097
744.445085	0.035131
744.642194	0.034843
744.839283	0.034635
745.036355	0.034432
745.233408	0.034295
745.430444	0.034222
745.627461	0.034180
745.824459	0.034127
746.021440	0.033895
746.218402	0.033685
746.415346	0.033832
746.612272	0.033757
746.809180	0.033706
747.006069	0.033913
747.202940	0.033991
747.399793	0.033825
747.596628	0.034059
747.793444	0.033875
747.990243	0.033824
748.187023	0.033704
748.383784	0.033766
748.580528	0.033763
748.777253	0.033522
748.973960	0.033517
749.170649	0.033608
749.367320	0.033374
749.563973	0.033489
749.760607	0.033585
749.957223	0.033729
750.153821	0.033687
750.350400	0.033747
750.546962	0.033729
750.743505	0.033744
750.940030	0.033595
751.136536	0.033598
751.333025	0.033541
751.529495	0.033598
751.725947	0.033639
751.922381	0.033652
752.118796	0.033528
752.315194	0.033400
752.511573	0.033100
752.707934	0.033166
752.904276	0.033173
753.100601	0.033214
753.296907	0.033143
753.493195	0.032898
753.689465	0.032889
753.885716	0.032975
754.081949	0.032980
754.278164	0.033066
754.474361	0.032843
754.670540	0.032718
754.866700	0.032658
755.062843	0.032688
755.258967	0.032666
755.455072	0.032813
755.651160	0.032812
755.847229	0.032949
756.043280	0.032849
756.239313	0.032963
756.435328	0.033073
756.631324	0.033210
756.827302	0.033192
757.023262	0.033339
757.219204	0.033215
757.415127	0.033104
757.611033	0.032939
757.806920	0.033033
758.002788	0.032920
758.198639	0.032865
758.394471	0.032751
758.590286	0.032598
758.786081	0.032543
758.981859	0.032336
759.177619	0.032347
759.373360	0.032520
759.569083	0.032592
759.764788	0.032677
759.960474	0.032485
760.156143	0.032354
760.351793	0.032356
760.547425	0.032140
760.743038	0.032201
760.938634	0.032410
761.134211	0.032325
761.329770	0.032279
761.525311	0.032413
761.720833	0.032634
761.916338	0.032954
762.111824	0.033015
762.307292	0.033169
762.502741	0.033303
762.698173	0.033041
762.893586	0.033019
763.088981	0.032945
763.284358	0.033028
763.479716	0.032884
763.675057	0.032653
763.870379	0.032785
764.065683	0.032714
764.260968	0.032665
764.456236	0.032794
764.651485	0.032780
764.846716	0.032867
765.041929	0.032765
765.237123	0.032742
765.432299	0.032653
765.627457	0.032495
765.822597	0.032392
766.017719	0.032314
766.212822	0.032260
766.407907	0.032243
766.602974	0.032078
766.798023	0.031960
766.993054	0.032025
767.188066	0.032084
767.383060	0.032025
767.578036	0.032264
767.772993	0.032205
767.967933	0.032150
768.162854	0.032201
768.357757	0.032130
768.552642	0.032211
768.747508	0.032200
768.942356	0.032129
769.137186	0.032093
769.331998	0.032027
769.526792	0.032094
769.721567	0.032058
769.916324	0.031985
770.111063	0.032182
770.305784	0.032042
770.500486	0.031900
770.695171	0.031937
770.889837	0.031919
771.084484	0.031912
771.279114	0.031940
771.473725	0.032103
771.668318	0.032162
771.862893	0.032065
772.057450	0.032269
772.251988	0.032405
772.446509	0.032473
772.641011	0.032658
772.835494	0.032494
773.029960	0.032553
773.224407	0.032502
773.418836	0.032614
773.613247	0.032709
773.807640	0.032661
774.002014	0.032814
774.196370	0.032707
774.390708	0.032813
774.585028	0.032940
774.779330	0.032885
774.973613	0.032796
775.167878	0.032790
775.362125	0.032754
775.556354	0.032705
775.750564	0.032491
775.944756	0.032625
776.138930	0.032516
776.333086	0.032696
776.527223	0.032705
776.721343	0.032657
776.915444	0.032613
777.109526	0.032625
777.303591	0.032722
777.497637	0.032874
777.691666	0.032967
777.885676	0.032830
778.079667	0.032555
778.273641	0.032716
778.467596	0.033029
778.661533	0.033007
778.855452	0.033159
779.049352	0.033143
779.243235	0.033236
779.437099	0.033090
779.630945	0.033177
779.824773	0.033425
780.018582	0.033313
780.212373	0.033208
780.406146	0.033290
780.599901	0.033222
780.793638	0.033254
780.987356	0.033203
781.181056	0.033542
781.374738	0.033693
781.568402	0.033774
781.762047	0.033780
781.955674	0.033876
782.149283	0.033802
782.342874	0.033956
782.536447	0.033872
782.730001	0.034003
782.923537	0.033838
783.117055	0.033764
783.310555	0.033665
783.504036	0.033775
783.697499	0.033576
783.890944	0.033647
784.084371	0.033610
784.277780	0.033864
784.471170	0.033727
784.664542	0.033861
784.857896	0.033965
785.051231	0.033946
785.244549	0.034166
785.437848	0.034263
785.631129	0.034399
785.824392	0.034255
786.017636	0.034143
786.210863	0.034041
786.404071	0.034060
786.597260	0.034126
786.790432	0.034104
786.983585	0.033882
787.176721	0.033829
787.369838	0.033797
787.562936	0.033890
787.756017	0.033781
787.949079	0.034015
788.142123	0.033875
788.335149	0.033740
788.528156	0.033772
788.721146	0.033827
788.914117	0.033862
789.107070	0.033808
789.300005	0.033865
789.492921	0.033975
789.685819	0.034081
789.878699	0.034042
790.071561	0.034268
790.264405	0.034519
790.457230	0.034533
790.650037	0.034503
790.842826	0.034382
791.035597	0.034317
791.228349	0.034256
791.421084	0.034134
791.613800	0.034053
791.806497	0.034022
791.999177	0.033849
792.191838	0.033706
792.384481	0.033746
792.577106	0.033768
792.769713	0.033525
792.962301	0.033605
793.154871	0.033557
793.347423	0.033691
793.539957	0.033399
793.732473	0.033423
793.924970	0.033504
794.117449	0.033625
794.309910	0.033762
794.502353	0.034112
794.694777	0.034004
794.887183	0.034162
795.079571	0.034246
795.271941	0.034439
795.464293	0.034456
795.656626	0.034391
795.848941	0.034324
796.041238	0.034289
796.233516	0.034339
796.425777	0.034625
796.618019	0.034706
796.810243	0.034599
797.002449	0.034766
797.194636	0.035013
797.386805	0.035459
797.578956	0.035583
797.771089	0.035954
797.963204	0.036132
798.155300	0.036232
798.347378	0.036268
798.539438	0.036453
798.731480	0.036522
798.923503	0.036557
799.115509	0.036408
799.307496	0.036592
799.499465	0.036348
799.691415	0.036269
799.883348	0.036107
800.075262	0.036032
800.267158	0.036096
800.459035	0.036137
800.650895	0.036008
800.842736	0.036113
801.034559	0.036076
801.226364	0.036044
801.418150	0.035936
801.609919	0.036035
801.801669	0.035949
801.993401	0.035988
802.185114	0.035816
802.376810	0.036033
802.568487	0.035994
802.760146	0.036115
802.951787	0.036246
803.143409	0.036397
803.335014	0.036455
803.526600	0.036821
803.718168	0.036980
803.909717	0.037162
804.101249	0.037046
804.292762	0.037070
804.484257	0.036920
804.675734	0.037064
804.867192	0.037046
805.058632	0.036979
805.250054	0.036836
805.441458	0.036632
805.632844	0.036550
805.824211	0.036693
806.015561	0.036635
806.206891	0.036794
806.398204	0.036692
806.589499	0.036773
806.780775	0.036955
806.972033	0.037231
807.163273	0.037355
807.354495	0.037431
807.545698	0.037370
807.736883	0.037644
807.928050	0.037615
808.119199	0.037776
808.310329	0.037815
808.501441	0.037684
808.692535	0.037767
808.883611	0.038033
809.074669	0.038132
809.265708	0.038277
809.456729	0.038251
809.647732	0.038433
809.838717	0.038500
810.029683	0.038673
810.220632	0.038871
810.411562	0.038630
810.602474	0.038449
810.793367	0.038546
810.984242	0.038498
811.175100	0.038615
811.365938	0.038539
811.556759	0.038663
811.747562	0.038786
811.938346	0.039040
812.129112	0.039035
812.319860	0.039324
812.510589	0.039340
812.701300	0.039311
812.891994	0.039068
813.082668	0.039067
813.273325	0.038866
813.463964	0.038949
813.654584	0.038754
813.845186	0.038859
814.035769	0.038712
814.226335	0.038721
814.416882	0.038777
814.607411	0.039047
814.797922	0.039095
814.988415	0.039301
815.178889	0.039134
815.369345	0.039262
815.559783	0.039181
815.750203	0.039327
815.940605	0.039256
816.130988	0.039521
816.321353	0.039530
816.511700	0.039530
816.702028	0.039654
816.892339	0.039616
817.082631	0.039532
817.272905	0.039685
817.463161	0.039654
817.653398	0.039813
817.843617	0.039804
818.033819	0.039551
818.224001	0.039768
818.414166	0.039709
818.604312	0.039740
818.794440	0.039785
818.984550	0.039963
819.174642	0.039989
819.364716	0.039933
819.554771	0.039922
819.744808	0.040270
819.934827	0.040269
820.124827	0.040276
820.314810	0.040279
820.504774	0.040448
820.694720	0.040301
820.884647	0.040339
821.074557	0.040459
821.264448	0.040481
821.454321	0.040511
821.644176	0.040688
821.834012	0.040788
822.023831	0.040999
822.213631	0.041064
822.403413	0.041146
822.593176	0.041166
822.782922	0.041186
822.972649	0.041396
823.162358	0.041526
823.352049	0.041195
823.541721	0.041297
823.731376	0.041394
823.921012	0.041466
824.110629	0.041668
824.300229	0.041711
824.489811	0.041841
824.679374	0.041753
824.868919	0.041780
825.058445	0.042106
825.247954	0.042068
825.437444	0.042074
825.626916	0.042167
825.816370	0.042281
826.005806	0.042515
826.195223	0.042530
826.384622	0.042436
826.574003	0.042567
826.763366	0.042476
826.952711	0.042556
827.142037	0.042601
827.331345	0.042847
827.520635	0.042633
827.709906	0.042388
827.899160	0.042562
828.088395	0.042601
828.277612	0.042645
828.466810	0.042999
828.655991	0.043068
828.845153	0.043126
829.034297	0.042768
829.223423	0.043214
829.412531	0.043727
829.601620	0.043816
829.790691	0.044159
829.979744	0.044283
830.168779	0.044211
830.357795	0.044303
830.546793	0.044538
830.735773	0.044764
830.924735	0.044676
831.113679	0.044522
831.302604	0.044592
831.491511	0.044699
831.680400	0.044773
831.869271	0.044883
832.058123	0.044864
832.246957	0.044754
832.435773	0.044770
832.624571	0.044745
832.813351	0.044840
833.002112	0.044856
833.190855	0.044849
833.379580	0.044688
833.568287	0.044765
833.756975	0.044778
833.945645	0.045067
834.134297	0.045358
834.322931	0.045501
834.511547	0.045423
834.700144	0.045442
834.888723	0.045280
835.077284	0.045519
835.265826	0.045409
835.454351	0.045627
835.642857	0.045432
835.831345	0.045359
836.019815	0.045402
836.208266	0.045666
836.396699	0.045747
836.585114	0.045996
836.773511	0.046203
836.961890	0.046483
837.150250	0.046614
837.338592	0.046827
837.526916	0.046719
837.715222	0.046806
837.903510	0.046989
838.091779	0.047230
838.280030	0.047505
838.468263	0.047371
838.656477	0.047589
838.844674	0.047591
839.032852	0.047646
839.221012	0.047976
839.409153	0.048248
839.597277	0.048214
839.785382	0.048126
839.973469	0.048122
840.161538	0.048005
840.349589	0.048036
840.537621	0.048340
840.725635	0.048374
840.913631	0.048326
841.101609	0.048437
841.289568	0.048438
841.477509	0.048690
841.665432	0.048808
841.853337	0.049244
842.041224	0.049377
842.229092	0.049342
842.416942	0.049706
842.604774	0.050110
842.792588	0.050201
842.980383	0.050563
843.168160	0.050611
843.355919	0.050728
843.543660	0.050839
843.731382	0.050788
843.919087	0.051058
844.106773	0.051061
844.294441	0.051131
844.482090	0.051080
844.669722	0.050874
844.857335	0.050945
845.044930	0.051119
845.232507	0.051399
845.420065	0.051671
845.607605	0.051556
845.795127	0.051535
845.982631	0.051207
846.170117	0.051587
846.357584	0.051565
846.545033	0.051645
846.732464	0.051474
846.919877	0.051218
847.107272	0.051323
847.294648	0.051403
847.482006	0.051541
847.669346	0.051976
847.856667	0.051748
848.043971	0.052119
848.231256	0.052199
848.418523	0.052580
848.605771	0.052674
848.793002	0.052523
848.980214	0.052561
849.167408	0.053007
849.354584	0.052846
849.541742	0.053016
849.728881	0.052983
849.916002	0.053124
850.103105	0.053039
850.290190	0.053202
850.477256	0.053409
850.664304	0.053847
850.851334	0.053566
851.038346	0.054031
851.225340	0.054242
851.412315	0.054449
851.599272	0.054662
851.786211	0.054587
851.973132	0.054533
852.160034	0.054594
852.346918	0.054358
852.533784	0.054550
852.720632	0.054527
852.907462	0.054532
853.094273	0.054540
853.281066	0.054408
853.467841	0.054669
853.654598	0.054740
853.841336	0.054507
854.028056	0.054601
854.214758	0.054342
854.401442	0.054269
854.588107	0.054110
854.774755	0.054133
854.961384	0.054274
855.147995	0.053975
855.334587	0.054320
855.521162	0.054882
855.707718	0.055199
855.894256	0.055525
856.080775	0.055462
856.267277	0.055736
856.453760	0.055874
856.640225	0.056122
856.826672	0.056615
857.013101	0.056712
857.199511	0.056736
857.385903	0.056803
857.572277	0.056729
857.758633	0.057311
857.944970	0.057800
858.131290	0.058116
858.317591	0.058022
858.503873	0.058409
858.690138	0.058527
858.876384	0.058598
859.062612	0.058659
859.248822	0.058917
859.435014	0.058635
859.621188	0.058526
859.807343	0.058332
859.993480	0.058683
860.179599	0.058657
860.365699	0.058745
860.551781	0.058720
860.737846	0.058864
860.923891	0.059403
861.109919	0.059607
861.295929	0.059596
861.481920	0.060007
861.667893	0.059807
861.853848	0.059810
862.039784	0.059822
862.225702	0.059886
862.411603	0.059862
862.597484	0.059598
862.783348	0.059811
862.969193	0.059699
863.155021	0.059508
863.340830	0.059818
863.526620	0.059700
863.712393	0.059724
863.898147	0.060022
864.083883	0.060116
864.269601	0.060175
864.455301	0.060246
864.640982	0.060600
864.826645	0.060923
865.012290	0.061200
865.197917	0.061641
865.383526	0.061787
865.569116	0.062074
865.754688	0.062244
865.940242	0.062298
866.125777	0.062334
866.311295	0.062301
866.496794	0.062300
866.682275	0.062052
866.867737	0.062122
867.053182	0.062307
867.238608	0.062174
867.424016	0.062106
867.609406	0.062250
867.794778	0.062416
867.980131	0.062570
868.165466	0.062675
868.350783	0.062918
868.536082	0.062896
868.721362	0.062874
868.906625	0.062743
869.091869	0.062899
869.277094	0.063185
869.462302	0.063157
869.647491	0.063236
869.832662	0.063130
870.017815	0.063070
870.202950	0.062800
870.388066	0.062994
870.573165	0.062984
870.758245	0.062966
870.943306	0.062602
871.128350	0.062406
871.313375	0.062126
871.498382	0.062434
871.683371	0.062435
871.868342	0.062688
872.053294	0.062625
872.238229	0.062784
872.423144	0.062742
872.608042	0.062841
872.792922	0.063065
872.977783	0.063359
873.162626	0.063264
873.347451	0.063290
873.532258	0.063325
873.717046	0.063335
873.901816	0.063327
874.086568	0.063548
874.271302	0.063857
874.456017	0.063748
874.640715	0.063719
874.825394	0.063806
875.010055	0.063683
875.194697	0.063892
875.379322	0.063701
875.563928	0.063763
875.748516	0.063632
875.933085	0.063481
876.117637	0.063950
876.302170	0.064063
876.486685	0.064134
876.671182	0.064375
876.855661	0.064241
877.040121	0.064699
877.224563	0.064932
877.408987	0.065212
877.593393	0.065177
877.777780	0.064886
877.962150	0.064820
878.146501	0.064820
878.330833	0.064821
878.515148	0.064832
878.699444	0.064509
878.883722	0.064632
879.067982	0.064506
879.252224	0.064541
879.436447	0.064701
879.620653	0.064913
879.804840	0.064849
879.989008	0.065109
880.173159	0.065175
880.357291	0.065358
880.541405	0.065249
880.725501	0.065320
880.909579	0.065328
881.093638	0.065385
881.277680	0.065337
881.461703	0.065395
881.645707	0.065200
881.829694	0.065281
882.013662	0.065508
882.197612	0.065548
882.381544	0.065420
882.565458	0.065931
882.749353	0.066143
882.933230	0.066132
883.117089	0.066309
883.300930	0.066739
883.484753	0.066805
883.668557	0.066784
883.852343	0.066855
884.036111	0.067010
884.219861	0.066502
884.403592	0.066459
884.587305	0.066407
884.771000	0.066357
884.954677	0.066360
885.138335	0.066199
885.321976	0.066229
885.505598	0.066206
885.689201	0.066236
885.872787	0.066701
886.056354	0.066636
886.239904	0.066802
886.423434	0.066950
886.606947	0.066936
886.790442	0.067170
886.973918	0.066985
887.157376	0.067048
887.340816	0.067266
887.524237	0.067086
887.707641	0.066853
887.891026	0.066809
888.074393	0.066687
888.257741	0.066573
888.441072	0.066405
888.624384	0.066496
888.807678	0.066437
888.990954	0.066490
889.174211	0.066482
889.357451	0.066544
889.540672	0.066610
889.723875	0.066558
889.907059	0.066712
890.090226	0.066692
890.273374	0.066554
890.456504	0.066507
890.639616	0.066268
890.822709	0.066087
891.005785	0.066268
891.188842	0.066168
891.371881	0.065972
891.554901	0.065632
891.737904	0.065621
891.920888	0.065690
892.103854	0.065936
892.286802	0.066190
892.469731	0.066468
892.652643	0.066501
892.835536	0.066473
893.018410	0.066705
893.201267	0.066722
893.384106	0.067039
893.566926	0.067197
893.749728	0.066565
893.932511	0.066310
894.115277	0.066242
894.298024	0.066150
894.480753	0.066187
894.663464	0.066564
894.846157	0.066718
895.028831	0.066324
895.211487	0.066222
895.394125	0.066477
895.576745	0.066379
895.759346	0.066232
895.941930	0.066359
896.124495	0.066275
896.307041	0.065804
896.489570	0.065486
896.672080	0.065539
896.854573	0.065136
897.037046	0.065266
897.219502	0.065450
897.401940	0.065371
897.584359	0.065055
897.766760	0.064855
897.949143	0.064974
898.131507	0.064957
898.313854	0.064873
898.496182	0.065422
898.678492	0.065484
898.860783	0.065402
899.043057	0.065664
899.225312	0.066065
899.407549	0.066335
899.589768	0.066194
899.771968	0.066333
899.954151	0.066081
900.136315	0.065778
900.318461	0.065623
900.500588	0.065577
900.682698	0.065607
900.864789	0.065475
901.046862	0.065409
901.228917	0.065793
901.410953	0.065476
901.592971	0.065848
901.774972	0.065959
901.956953	0.066053
902.138917	0.065785
902.320862	0.065719
902.502790	0.065350
902.684699	0.065487
902.866589	0.064905
903.048462	0.065317
903.230316	0.065507
903.412152	0.065160
903.593970	0.065309
903.775770	0.065346
903.957551	0.065129
904.139314	0.065232
904.321059	0.064967
904.502786	0.065047
904.684494	0.064844
904.866185	0.064541
905.047857	0.064899
905.229510	0.064435
905.411146	0.064704
905.592763	0.064560
905.774363	0.064236
905.955943	0.064129
906.137506	0.063872
906.319051	0.063487
906.500577	0.063141
906.682085	0.062757
906.863575	0.062564
907.045046	0.061997
907.226500	0.061757
907.407935	0.061823
907.589352	0.061645
907.770750	0.061730
907.952131	0.062048
908.133493	0.062317
908.314837	0.062040
908.496163	0.062016
908.677470	0.062147
908.858760	0.062296
909.040031	0.062032
909.221284	0.061846
909.402518	0.061473
909.583735	0.060979
909.764933	0.060654
909.946113	0.060526
910.127275	0.060665
910.308418	0.060604
910.489544	0.060192
910.670651	0.060556
910.851740	0.060389
911.032810	0.060750
911.213863	0.060895
911.394897	0.060922
911.575913	0.060623
911.756911	0.060116
911.937890	0.060068
912.118851	0.059997
912.299794	0.059245
912.480719	0.059157
912.661626	0.058595
912.842514	0.058231
913.023384	0.057993
913.204236	0.058075
913.385070	0.057951
913.565886	0.057381
913.746683	0.057244
913.927462	0.057278
914.108223	0.057569
914.288965	0.057237
914.469690	0.056954
914.650396	0.056976
914.831084	0.056817
915.011754	0.056951
915.192405	0.056778
915.373038	0.056474
915.553653	0.056401
915.734250	0.056117
915.914829	0.055945
916.095389	0.055874
916.275931	0.055389
916.456455	0.055245
916.636961	0.055068
916.817448	0.055136
916.997917	0.054822
917.178368	0.054547
917.358801	0.054144
917.539216	0.054497
917.719612	0.054567
917.899990	0.054769
918.080350	0.054745
918.260692	0.054359
918.441015	0.054200
918.621320	0.054147
918.801607	0.054233
918.981876	0.054550
919.162127	0.053853
919.342359	0.053904
919.522573	0.053287
919.702769	0.053111
919.882947	0.052915
920.063106	0.052629
920.243247	0.052581
920.423370	0.051881
920.603475	0.051236
920.783562	0.051551
920.963630	0.051431
921.143680	0.051484
921.323712	0.051021
921.503725	0.050587
921.683721	0.050566
921.863698	0.050783
922.043657	0.050940
922.223598	0.050726
922.403520	0.050318
922.583424	0.049658
922.763311	0.049538
922.943178	0.049269
923.123028	0.049481
923.302859	0.049520
923.482673	0.049078
923.662467	0.048710
923.842244	0.048472
924.022003	0.048227
924.201743	0.048223
924.381465	0.047811
924.561169	0.047977
924.740854	0.047572
924.920522	0.046630
925.100171	0.045784
925.279802	0.045856
925.459414	0.045236
925.639009	0.044765
925.818585	0.044110
925.998143	0.043566
926.177683	0.043243
926.357205	0.042599
926.536708	0.042409
926.716193	0.042707
926.895660	0.041976
927.075109	0.042063
927.254539	0.042064
927.433951	0.041760
927.613345	0.041945
927.792721	0.041846
927.972079	0.041776
928.151418	0.041514
928.330739	0.041385
928.510042	0.041319
928.689327	0.041191
928.868593	0.041003
929.047841	0.040706
929.227071	0.039991
929.406283	0.039219
929.585476	0.038956
929.764652	0.038772
929.943809	0.038190
930.122948	0.037752
930.302068	0.037631
930.481171	0.037301
930.660255	0.036880
930.839321	0.036933
931.018369	0.036710
931.197398	0.036800
931.376409	0.036762
931.555402	0.036164
931.734377	0.036122
931.913334	0.035265
932.092272	0.034739
932.271192	0.034908
932.450094	0.034562
932.628978	0.034289
932.807844	0.033390
932.986691	0.032719
933.165520	0.033170
933.344331	0.032922
933.523123	0.032714
933.701898	0.032368
933.880654	0.032054
934.059392	0.032035
934.238111	0.031771
934.416813	0.032038
934.595496	0.032115
934.774161	0.031265
934.952808	0.030033
935.131437	0.029583
935.310047	0.029535
935.488639	0.029314
935.667213	0.028690
935.845769	0.028348
936.024306	0.027956
936.202825	0.027737
936.381326	0.027445
936.559809	0.028082
936.738274	0.028164
936.916720	0.028023
937.095148	0.027462
937.273558	0.027149
937.451950	0.027040
937.630323	0.026928
937.808678	0.026253
937.987015	0.025883
938.165334	0.025439
938.343635	0.025272
938.521917	0.023998
938.700181	0.023531
938.878427	0.023128
939.056655	0.022946
939.234864	0.022570
939.413055	0.022381
939.591228	0.022569
939.769383	0.022749
939.947519	0.022461
940.125638	0.022347
940.303738	0.022398
940.481820	0.022320
940.659883	0.022511
940.837929	0.021363
941.015956	0.021113
941.193965	0.020282
941.371955	0.020334
941.549928	0.019939
941.727882	0.020625
941.905818	0.020997
942.083736	0.020610
942.261636	0.019829
942.439517	0.020672
942.617380	0.020746
942.795225	0.020676
942.973052	0.019227
943.150860	0.018996
943.328651	0.018560
943.506423	0.018397
943.684176	0.017895
943.861912	0.017416
944.039629	0.016546
944.217328	0.015408
944.395009	0.016349
944.572672	0.016465
944.750317	0.016444
944.927943	0.017102
945.105551	0.016202
945.283141	0.016406
945.460712	0.016229
945.638265	0.016769
945.815801	0.017220
945.993317	0.015735
946.170816	0.015234
946.348297	0.014445
946.525759	0.013178
946.703203	0.012392
946.880629	0.011108
947.058036	0.010898
947.235425	0.010825
947.412797	0.010606
947.590149	0.011151
947.767484	0.011228
947.944800	0.011355
948.122099	0.011217
948.299379	0.011664
948.476640	0.012644
948.653884	0.012593
948.831109	0.012110
949.008316	0.013008
949.185505	0.011942
949.362676	0.012104
949.539828	0.011611
949.716962	0.011989
949.894078	0.011884
950.071176	0.011898
950.248256	0.012776
950.425317	0.012042
950.602360	0.011095
950.779385	0.011846
950.956391	0.011239
951.133380	0.010988
951.310350	0.010685
951.487302	0.010733
951.664235	0.011154
951.841151	0.011432
952.018048	0.012769
952.194927	0.012381
952.371788	0.011393
952.548631	0.013052
952.725455	0.014340
952.902261	0.014348
953.079049	0.014596
953.255819	0.014762
953.432570	0.012790
953.609303	0.011178
953.786018	0.012889
953.962715	0.015128
954.139394	0.013540
954.316054	0.013969
954.492696	0.012476
954.669320	0.012490
954.845926	0.011532
955.022513	0.011954
955.199083	0.012972
955.375634	0.011004
955.552166	0.010555
955.728681	0.011551
955.905177	0.010733
956.081655	0.012722
956.258115	0.013279
956.434557	0.014193
956.610980	0.013870
956.787385	0.013094
956.963772	0.012839
957.140141	0.010626
957.316492	0.010983
957.492824	0.010460
957.669138	0.010873
957.845434	0.011354
958.021712	0.009821
958.197971	0.010508
958.374212	0.012954
958.550435	0.013183
958.726640	0.016075
958.902826	0.015886
959.078995	0.018616
959.255145	0.017329
959.431277	0.017445
959.607390	0.017811
959.783486	0.019624
959.959563	0.018393
960.135622	0.021416
960.311662	0.019660
960.487685	0.020164
960.663689	0.017830
960.839675	0.018883
961.015643	0.017702
961.191593	0.020404
961.367524	0.019097
961.543437	0.018839
961.719332	0.019408
961.895209	0.021033
962.071067	0.021475
962.246907	0.021764
962.422730	0.023085
962.598533	0.023810
962.774319	0.021872
962.950086	0.022889
963.125835	0.022164
963.301566	0.020582
963.477279	0.021298
963.652973	0.021051
963.828650	0.021207
964.004308	0.020146
964.179947	0.022037
964.355569	0.023315
964.531172	0.023670
964.706757	0.025189
964.882324	0.025131
965.057873	0.024934
965.233403	0.024529
965.408916	0.025334
965.584410	0.024724
965.759885	0.023611
965.935343	0.026396
966.110782	0.028117
966.286203	0.029312
966.461606	0.028585
966.636991	0.028345
966.812357	0.029616
966.987705	0.030807
967.163035	0.032439
967.338347	0.030480
967.513641	0.026768
967.688916	0.023867
967.864173	0.023720
968.039412	0.024310
968.214632	0.022400
968.389835	0.021565
968.565019	0.021993
968.740185	0.019939
968.915333	0.020511
969.090462	0.020163
969.265573	0.022396
969.440667	0.020935
969.615741	0.021393
969.790798	0.022699
969.965836	0.023155
970.140856	0.021324
970.315858	0.023431
970.490842	0.022143
970.665808	0.023059
970.840755	0.024530
971.015684	0.026428
971.190595	0.026803
971.365487	0.026527
971.540362	0.025556
971.715218	0.023824
971.890056	0.024413
972.064875	0.027918
972.239677	0.028068
972.414460	0.024296
972.589225	0.022623
972.763972	0.021163
972.938700	0.021147
973.113411	0.023256
973.288103	0.026231
973.462777	0.024546
973.637432	0.026002
973.812070	0.026340
973.986689	0.027861
974.161290	0.027993
974.335873	0.027707
974.510437	0.030138
974.684984	0.029823
974.859512	0.028784
975.034022	0.029241
975.208513	0.025213
975.382987	0.024752
975.557442	0.023996
975.731879	0.024887
975.906298	0.024788
976.080698	0.023909
976.255080	0.022313
976.429445	0.022013
976.603790	0.021629
976.778118	0.022567
976.952427	0.021228
977.126719	0.020268
977.300992	0.019251
977.475246	0.020646
977.649483	0.018890
977.823701	0.019137
977.997901	0.019142
978.172083	0.020048
978.346247	0.018890
978.520392	0.020768
978.694519	0.022861
978.868628	0.024117
979.042719	0.023925
979.216791	0.026118
979.390845	0.028437
979.564882	0.029543
979.738899	0.028906
979.912899	0.030730
980.086880	0.031216
980.260843	0.030237
980.434788	0.028437
980.608715	0.028004
980.782623	0.026172
980.956514	0.024498
981.130386	0.024219
981.304240	0.023911
981.478075	0.023285
981.651892	0.021687
981.825692	0.022289
981.999472	0.023099
982.173235	0.022356
982.346980	0.021768
982.520706	0.021578
982.694414	0.021339
982.868104	0.020984
983.041775	0.019944
983.215428	0.022011
983.389064	0.022338
983.562680	0.022881
983.736279	0.023852
983.909860	0.024587
984.083422	0.025839
984.256966	0.026046
984.430491	0.026992
984.603999	0.027428
984.777488	0.026685
984.950959	0.026150
985.124412	0.025800
985.297847	0.025207
985.471263	0.023483
985.644661	0.021579
985.818041	0.021834
985.991403	0.021768
986.164747	0.021507
986.338072	0.020898
986.511379	0.020412
986.684668	0.020389
986.857938	0.021311
987.031191	0.023227
987.204425	0.024945
987.377641	0.024566
987.550839	0.025218
987.724018	0.026584
987.897179	0.026682
988.070322	0.028004
988.243447	0.030587
988.416554	0.029538
988.589642	0.029252
988.762712	0.028371
988.935764	0.028094
989.108798	0.029540
989.281813	0.029836
989.454811	0.030371
989.627790	0.029025
989.800751	0.026723
989.973693	0.027274
990.146617	0.026897
990.319524	0.026926
990.492412	0.026606
990.665281	0.023351
990.838133	0.022969
991.010966	0.020521
991.183781	0.020422
991.356578	0.021633
991.529356	0.021795
991.702117	0.022537
991.874859	0.022140
992.047583	0.021482
992.220288	0.021903
992.392976	0.020684
992.565645	0.023048
992.738296	0.023754
992.910929	0.021429
993.083543	0.021280
993.256139	0.020827
993.428718	0.021213
993.601277	0.021317
993.773819	0.023120
993.946342	0.024516
994.118848	0.020687
994.291335	0.019063
994.463803	0.019155
994.636254	0.020253
994.808686	0.020825
994.981100	0.020249
995.153496	0.022018
995.325874	0.019026
995.498233	0.016958
995.670574	0.020501
995.842897	0.020981
996.015202	0.020727
996.187488	0.020441
996.359757	0.020039
996.532007	0.019576
996.704239	0.018376
996.876452	0.019557
997.048648	0.020622
997.220825	0.020196
997.392984	0.020310
997.565124	0.021621
997.737247	0.019927
997.909351	0.019742
998.081437	0.020162
998.253505	0.020027
998.425554	0.020349
998.597586	0.021335
998.769599	0.020306
998.941594	0.020624
999.113571	0.019721
999.285529	0.021173
999.457469	0.022062
999.629391	0.023157
999.801295	0.023243
999.973181	0.024420
1000.145048	0.024148
1000.316897	0.025778
1000.488728	0.025701
1000.660541	0.025098
1000.832335	0.024945
1001.004111	0.024124
1001.175869	0.023455
1001.347609	0.023775
1001.519331	0.023417
1001.691034	0.024067
1001.862719	0.021491
1002.034386	0.021639
1002.206035	0.022043
1002.377665	0.021221
1002.549277	0.020676
1002.720871	0.020140
1002.892447	0.020691
1003.064004	0.018898
1003.235544	0.017024
1003.407065	0.018596
1003.578568	0.017362
1003.750052	0.018060
1003.921519	0.020022
1004.092967	0.020952
1004.264397	0.021783
1004.435809	0.021178
1004.607202	0.022142
1004.778577	0.024236
1004.949934	0.024485
1005.121273	0.025076
1005.292594	0.024568
1005.463896	0.023506
1005.635180	0.022727
1005.806446	0.021205
1005.977694	0.021454
1006.148923	0.020304
1006.320135	0.018771
1006.491328	0.018672
1006.662503	0.018445
1006.833659	0.018344
1007.004798	0.017261
1007.175918	0.016604
1007.347020	0.017232
1007.518103	0.017516
1007.689169	0.017376
1007.860216	0.017198
1008.031245	0.016936
1008.202256	0.017608
1008.373248	0.017966
1008.544223	0.017087
1008.715179	0.017938
1008.886117	0.019800
1009.057036	0.018828
1009.227938	0.020466
1009.398821	0.019491
1009.569686	0.019215
1009.740533	0.019927
1009.911361	0.020193
1010.082172	0.022268
1010.252964	0.022383
1010.423738	0.022037
1010.594493	0.021846
1010.765231	0.020483
1010.935950	0.020605
1011.106651	0.021414
1011.277334	0.020785
1011.447998	0.019936
1011.618645	0.018931
1011.789273	0.018604
1011.959882	0.017109
1012.130474	0.017896
1012.301048	0.019671
1012.471603	0.020302
1012.642140	0.018924
1012.812658	0.019464
1012.983159	0.020395
1013.153641	0.020425
1013.324105	0.019884
1013.494551	0.019860
1013.664979	0.019157
1013.835388	0.017526
1014.005779	0.017546
1014.176152	0.019330
1014.346507	0.018049
1014.516843	0.017944
1014.687162	0.019124
1014.857462	0.019900
1015.027744	0.019728
1015.198007	0.019325
1015.368252	0.019229
1015.538480	0.018871
1015.708689	0.017429
1015.878879	0.017973
1016.049052	0.016346
1016.219206	0.016129
1016.389342	0.015579
1016.559460	0.015877
1016.729559	0.017559
1016.899641	0.017401
1017.069704	0.017931
1017.239749	0.018306
1017.409775	0.018515
1017.579784	0.020369
1017.749774	0.018181
1017.919746	0.019074
1018.089700	0.018429
1018.259635	0.016879
1018.429553	0.018462
1018.599452	0.018801
1018.769333	0.018530
1018.939195	0.018135
1019.109040	0.017997
1019.278866	0.018861
1019.448674	0.018336
1019.618464	0.019056
1019.788235	0.020029
1019.957989	0.019928
1020.127724	0.018932
1020.297441	0.020275
1020.467139	0.019275
1020.636820	0.018671
1020.806482	0.019384
1020.976126	0.019862
1021.145752	0.019978
1021.315359	0.019603
1021.484948	0.018894
1021.654519	0.019639
1021.824072	0.018763
1021.993607	0.020552
1022.163123	0.020743
1022.332621	0.018671
1022.502101	0.018702
1022.671563	0.019730
1022.841007	0.019486
1023.010432	0.019376
1023.179839	0.017656
1023.349228	0.016516
1023.518598	0.015549
1023.687951	0.015186
1023.857285	0.016795
1024.026601	0.016708
1024.195899	0.015059
1024.365178	0.014137
1024.534439	0.014363
1024.703682	0.015880
1024.872907	0.016398
1025.042114	0.016488
1025.211302	0.016303
1025.380472	0.016552
1025.549624	0.015964
1025.718758	0.016523
1025.887873	0.017173
1026.056970	0.017022
1026.226049	0.017119
1026.395110	0.017147
1026.564153	0.016768
1026.733177	0.016970
1026.902183	0.016464
1027.071171	0.016058
1027.240141	0.016955
1027.409092	0.017049
1027.578026	0.017432
1027.746940	0.018316
1027.915837	0.017719
1028.084716	0.018254
1028.253576	0.018062
1028.422418	0.018799
1028.591242	0.019590
1028.760048	0.017403
1028.928835	0.016999
1029.097604	0.015873
1029.266355	0.014587
1029.435088	0.015675
1029.603803	0.015457
1029.772499	0.015670
1029.941177	0.015676
1030.109837	0.014809
1030.278478	0.014840
1030.447102	0.014919
1030.615707	0.014197
1030.784294	0.014062
1030.952863	0.014116
1031.121413	0.013397
1031.289945	0.013275
1031.458460	0.012626
1031.626955	0.014722
1031.795433	0.015949
1031.963892	0.017269
1032.132334	0.018700
1032.300756	0.019351
1032.469161	0.019853
1032.637548	0.020319
1032.805916	0.019654
1032.974266	0.020016
1033.142598	0.019442
1033.310911	0.018802
1033.479207	0.017669
1033.647484	0.018726
1033.815743	0.019588
1033.983983	0.019596
1034.152206	0.020012
1034.320410	0.020635
1034.488596	0.021554
1034.656764	0.021743
1034.824914	0.022836
1034.993045	0.022090
1035.161158	0.021544
1035.329253	0.020689
1035.497330	0.019284
1035.665388	0.020059
1035.833428	0.019391
1036.001450	0.016868
1036.169454	0.014854
1036.337440	0.013304
1036.505407	0.013941
1036.673356	0.014611
1036.841287	0.014932
1037.009200	0.015506
1037.177094	0.013519
1037.344970	0.012672
1037.512828	0.013062
1037.680668	0.014784
1037.848489	0.015880
1038.016293	0.016805
1038.184078	0.014166
1038.351845	0.014083
1038.519593	0.014267
1038.687324	0.014304
1038.855036	0.016628
1039.022730	0.017613
1039.190406	0.016266
1039.358063	0.017877
1039.525702	0.016042
1039.693323	0.017570
1039.860926	0.015879
1040.028511	0.015955
1040.196077	0.017202
1040.363625	0.015803
1040.531155	0.015054
1040.698667	0.016651
1040.866161	0.013971
1041.033636	0.015642
1041.201093	0.015889
1041.368532	0.017938
1041.535952	0.017873
1041.703355	0.017697
1041.870739	0.019472
1042.038105	0.020209
1042.205452	0.020144
1042.372782	0.021080
1042.540093	0.019232
1042.707386	0.019026
1042.874661	0.018408
1043.041918	0.017158
1043.209156	0.018346
1043.376376	0.017261
1043.543578	0.017644
1043.710762	0.017253
1043.877927	0.017062
1044.045074	0.019424
1044.212203	0.020050
1044.379314	0.019439
1044.546407	0.020697
1044.713481	0.020069
1044.880537	0.021679
1045.047575	0.021027
1045.214595	0.019560
1045.381596	0.018756
1045.548579	0.018743
1045.715544	0.018942
1045.882491	0.018485
1046.049420	0.017751
1046.216330	0.016750
1046.383222	0.015895
1046.550096	0.018297
1046.716951	0.017072
1046.883789	0.018086
1047.050608	0.017161
1047.217409	0.017683
1047.384192	0.019882
1047.550956	0.019390
1047.717703	0.019581
1047.884431	0.020063
1048.051140	0.017597
1048.217832	0.019368
1048.384505	0.018995
1048.551161	0.017962
1048.717798	0.015558
1048.884416	0.014111
1049.051017	0.014503
1049.217599	0.015280
1049.384163	0.013850
1049.550709	0.014506
1049.717237	0.014670
1049.883746	0.015482
1050.050237	0.015573
1050.216710	0.015722
1050.383165	0.015188
1050.549601	0.016421
1050.716019	0.016354
1050.882420	0.017598
1051.048801	0.018325
1051.215165	0.019238
1051.381510	0.018962
1051.547837	0.019027
1051.714146	0.019538
1051.880437	0.018943
1052.046709	0.018603
1052.212964	0.018077
1052.379200	0.017586
1052.545417	0.017099
1052.711617	0.017127
1052.877798	0.017293
1053.043961	0.018382
1053.210106	0.018777
1053.376233	0.019920
1053.542341	0.019273
1053.708432	0.019641
1053.874504	0.017912
1054.040557	0.016704
1054.206593	0.014942
1054.372610	0.014029
1054.538609	0.013765
1054.704590	0.014627
1054.870553	0.013907
1055.036497	0.015129
1055.202424	0.014652
1055.368331	0.016557
1055.534221	0.016618
1055.700093	0.018451
1055.865946	0.017974
1056.031781	0.019387
1056.197598	0.017139
1056.363397	0.018248
1056.529177	0.017198
1056.694939	0.016731
1056.860683	0.016015
1057.026409	0.015933
1057.192116	0.014803
1057.357806	0.016021
1057.523477	0.015248
1057.689130	0.016178
1057.854764	0.015789
1058.020381	0.016108
1058.185979	0.016003
1058.351559	0.015167
1058.517120	0.015777
1058.682664	0.016329
1058.848189	0.014138
1059.013696	0.015268
1059.179185	0.016374
1059.344656	0.016665
1059.510108	0.016431
1059.675542	0.017420
1059.840958	0.018773
1060.006356	0.018562
1060.171735	0.017260
1060.337096	0.018540
1060.502439	0.016494
1060.667764	0.013726
1060.833071	0.014451
1060.998359	0.015992
1061.163629	0.014785
1061.328881	0.014214
1061.494115	0.014095
1061.659330	0.013202
1061.824527	0.014725
1061.989706	0.015387
1062.154867	0.016658
1062.320010	0.014984
1062.485134	0.011165
1062.650240	0.012897
1062.815328	0.012203
1062.980398	0.013528
1063.145449	0.013385
1063.310482	0.012676
1063.475497	0.013566
1063.640494	0.014419
1063.805473	0.014954
1063.970433	0.018218
1064.135375	0.016179
1064.300299	0.017505
1064.465204	0.015927
1064.630092	0.017107
1064.794961	0.016128
1064.959812	0.014264
1065.124645	0.015465
1065.289459	0.015767
1065.454256	0.015287
1065.619034	0.016232
1065.783793	0.015978
1065.948535	0.015491
1066.113258	0.015019
1066.277964	0.016531
1066.442651	0.018695
1066.607319	0.017603
1066.771970	0.017444
1066.936602	0.019509
1067.101216	0.017883
1067.265812	0.017150
1067.430389	0.019138
1067.594949	0.021841
1067.759490	0.021691
1067.924013	0.018386
1068.088518	0.017015
1068.253004	0.016787
1068.417472	0.013433
1068.581922	0.015051
1068.746354	0.015023
1068.910768	0.014897
1069.075163	0.012478
1069.239540	0.010853
1069.403899	0.012459
1069.568240	0.013036
1069.732562	0.011265
1069.896866	0.010035
1070.061152	0.008672
1070.225420	0.008711
1070.389670	0.007667
1070.553901	0.009072
1070.718114	0.008697
1070.882309	0.009462
1071.046486	0.008193
1071.210644	0.008941
1071.374784	0.010451
1071.538906	0.011430
1071.703010	0.011282
1071.867096	0.009169
1072.031163	0.009459
1072.195212	0.009717
1072.359243	0.008357
1072.523256	0.008641
1072.687250	0.009299
1072.851226	0.008798
1073.015184	0.008789
1073.179124	0.009764
1073.343045	0.012317
1073.506949	0.010445
1073.670834	0.010392
1073.834701	0.010250
1073.998549	0.011769
1074.162380	0.010757
1074.326192	0.011640
1074.489986	0.013022
1074.653761	0.011445
1074.817519	0.011027
1074.981258	0.011898
1075.144979	0.013313
1075.308682	0.013239
1075.472367	0.010336
1075.636033	0.012105
1075.799681	0.014288
1075.963311	0.010993
1076.126923	0.012022
1076.290516	0.013974
1076.454092	0.013486
1076.617649	0.011986
1076.781187	0.010968
1076.944708	0.013604
1077.108210	0.011882
1077.271695	0.008214
1077.435160	0.011208
1077.598608	0.009019
1077.762038	0.006785
1077.925449	0.006607
1078.088842	0.008227
1078.252217	0.008883
1078.415573	0.009637
1078.578912	0.011310
1078.742232	0.012628
1078.905534	0.011215
1079.068817	0.011785
1079.232083	0.011996
1079.395330	0.013143
1079.558559	0.012273
1079.721770	0.011810
1079.884962	0.011579
1080.048136	0.009514
1080.211293	0.010461
1080.374430	0.009366
1080.537550	0.012086
1080.700651	0.012597
1080.863735	0.011098
1081.026800	0.010508
1081.189846	0.010829
1081.352875	0.010188
1081.515885	0.010823
1081.678877	0.009205
1081.841851	0.011421
1082.004807	0.011010
1082.167744	0.011227
1082.330663	0.012766
1082.493564	0.012881
1082.656447	0.011934
1082.819312	0.011418
1082.982158	0.012194
1083.144986	0.011182
1083.307796	0.008232
1083.470587	0.008568
1083.633361	0.007794
1083.796116	0.006499
1083.958853	0.005750
1084.121571	0.006732
1084.284272	0.008784
1084.446954	0.009633
1084.609618	0.011376
1084.772264	0.014673
1084.934892	0.013621
1085.097501	0.012596
1085.260092	0.011596
1085.422665	0.014040
1085.585220	0.012061
1085.747756	0.011122
1085.910274	0.008005
1086.072774	0.009435
1086.235256	0.008837
1086.397720	0.009937
1086.560165	0.012177
1086.722592	0.014906
1086.885001	0.013565
1087.047392	0.016089
1087.209764	0.015019
1087.372119	0.018267
1087.534455	0.015316
1087.696772	0.015045
1087.859072	0.011571
1088.021353	0.011260
1088.183616	0.008559
1088.345861	0.006145
1088.508088	0.007112
1088.670296	0.005694
1088.832486	0.005039
1088.994658	0.006347
1089.156812	0.005557
1089.318948	0.007147
1089.481065	0.005017
1089.643164	0.004683
1089.805245	0.008618
1089.967308	0.007007
1090.129352	0.008872
1090.291378	0.011167
1090.453386	0.011216
1090.615376	0.013355
1090.777347	0.015133
1090.939301	0.015688
1091.101236	0.017375
1091.263153	0.015014
1091.425051	0.016674
1091.586932	0.014415
1091.748794	0.011412
1091.910638	0.011728
1092.072463	0.007951
1092.234271	0.002632
1092.396060	0.002701
1092.557831	0.001898
1092.719584	0.005498
1092.881319	0.006012
1093.043035	0.007382
1093.204733	0.007017
1093.366413	0.008191
1093.528075	0.013609
1093.689718	0.016332
1093.851343	0.016068
1094.012950	0.015176
1094.174539	0.011049
1094.336110	0.010349
1094.497662	0.009612
1094.659196	0.008310
1094.820712	0.005755
1094.982210	0.003382
1095.143689	0.007785
1095.305151	0.007498
1095.466594	0.009422
1095.628018	0.011892
1095.789425	0.013136
1095.950813	0.011721
1096.112183	0.013850
1096.273535	0.014746
1096.434869	0.012818
1096.596184	0.009307
1096.757482	0.009955
1096.918761	0.008474
1097.080021	0.008619
1097.241264	0.006688
1097.402488	0.009098
1097.563694	0.007734
1097.724882	0.003955
1097.886052	0.006251
1098.047203	0.005751
1098.208336	0.003510
1098.369451	0.002852
1098.530548	0.000655
1098.691627	0.000061
1098.852687	0.000352
1099.013729	0.002091
1099.174753	0.007979
1099.335758	0.007285
1099.496746	0.004815
1099.657715	0.008740
1099.818666	0.012890
1099.979599	0.011715
1100.140513	0.011678
1100.301409	0.013136
1100.462287	0.014085
1100.623147	0.009652
1100.783989	0.011250
1100.944812	0.012652
1101.105617	0.011322
1101.266404	0.009034
1101.427173	0.010436
1101.587923	0.010442
1101.748656	0.006571
1101.909370	0.004536
1102.070066	0.007921
1102.230743	0.005647
1102.391403	0.005769
1102.552044	0.003918
1102.712667	0.003271
1102.873271	0.004229
1103.033858	0.004153
1103.194426	0.003818
1103.354976	-0.000552
1103.515508	-0.003935
1103.676021	-0.005292
1103.836517	-0.003964
1103.996994	-0.003474
1104.157453	-0.003898
1104.317893	-0.004311
1104.478316	-0.001410
1104.638720	-0.001594
1104.799106	0.004490
1104.959474	0.005240
1105.119823	0.004908
1105.280155	0.003753
1105.440468	0.007088
1105.600763	0.008822
1105.761039	0.008585
1105.921298	0.004962
1106.081538	0.006878
1106.241760	0.005834
1106.401964	0.004826
1106.562149	0.004851
1106.722316	0.003736
1106.882465	-0.001368
1107.042596	-0.002363
1107.202709	-0.002704
1107.362803	-0.002032
1107.522879	-0.003019
1107.682937	-0.004136
1107.842977	-0.003217
1108.002999	0.000650
1108.163002	0.002538
1108.322987	0.004575
1108.482954	0.004285
1108.642902	0.007537
1108.802833	0.009233
1108.962745	0.009703
1109.122639	0.011306
1109.282515	0.010881
1109.442372	0.009314
1109.602211	0.009813
1109.762032	0.009118
1109.921835	0.010810
1110.081620	0.008458
1110.241386	0.011052
1110.401134	0.012212
1110.560864	0.009982
1110.720576	0.010263
1110.880269	0.010069
1111.039945	0.007372
1111.199602	0.011466
1111.359240	0.009156
1111.518861	0.006370
1111.678463	-0.005152
1111.838047	-0.007381
1111.997613	-0.007701
1112.157161	-0.005567
1112.316690	-0.005765
1112.476202	-0.000090
1112.635695	-0.001302
1112.795169	-0.000048
1112.954626	0.000405
1113.114064	0.004222
1113.273484	0.008345
1113.432886	0.010268
1113.592270	0.008168
1113.751635	0.009286
1113.910983	0.001891
1114.070312	0.003012
1114.229622	0.002147
1114.388915	0.003225
1114.548189	0.008345
1114.707445	0.006861
1114.866683	0.005509
1115.025903	0.004429
1115.185104	0.001567
1115.344287	0.005334
1115.503452	0.004898
1115.662599	0.007753
1115.821727	0.006467
1115.980838	0.003923
1116.139930	0.004300
1116.299004	0.004736
1116.458059	0.006214
1116.617097	0.009589
1116.776116	0.013721
1116.935117	0.011679
1117.094099	0.008199
1117.253064	0.009815
1117.412010	0.010476
1117.570938	0.007837
1117.729848	0.008488
1117.888740	0.006022
1118.047613	0.004741
1118.206468	0.004658
1118.365305	0.005638
1118.524124	0.006579
1118.682924	0.009914
1118.841707	0.006858
1119.000471	0.005974
1119.159216	0.005865
1119.317944	0.007393
1119.476653	0.007512
1119.635344	0.003377
1119.794017	0.002982
1119.952672	0.003364
1120.111308	-0.000586
1120.269927	0.005211
1120.428527	0.008433
1120.587108	0.007298
1120.745672	0.008063
1120.904217	0.006931
1121.062744	0.006216
1121.221253	0.011811
1121.379744	0.011282
1121.538216	0.010928
1121.696671	0.012745
1121.855107	0.011432
1122.013524	0.012644
1122.171924	0.011211
1122.330305	0.009784
1122.488668	0.014152
1122.647013	0.010082
1122.805340	0.013106
1122.963648	0.014609
1123.121938	0.011215
1123.280210	0.012578
1123.438464	0.012712
1123.596700	0.011725
1123.754917	0.017883
1123.913116	0.012440
1124.071297	0.008408
1124.229459	0.008915
1124.387604	0.009590
1124.545730	0.008237
1124.703838	0.010949
1124.861928	0.013848
1125.019999	0.015008
1125.178052	0.011880
1125.336088	0.015684
1125.494104	0.019497
1125.652103	0.011834
1125.810083	0.010172
1125.968045	0.012309
1126.125989	0.013267
1126.283915	0.004370
1126.441823	0.008371
1126.599712	0.006217
1126.757583	0.004136
1126.915436	0.000661
1127.073270	0.005562
1127.231087	0.008381
1127.388885	0.008980
1127.546665	0.005294
1127.704426	0.007043
1127.862170	0.008024
1128.019895	0.005504
1128.177602	0.006163
1128.335291	0.011190
1128.492961	0.016352
1128.650614	0.016123
1128.808248	0.012188
1128.965864	0.009030
1129.123461	0.015961
1129.281041	0.013128
1129.438602	0.017609
1129.596145	0.018097
1129.753670	0.018389
1129.911176	0.009256
1130.068665	0.009641
1130.226135	0.009621
1130.383587	0.008996
1130.541020	0.008111
1130.698436	0.008403
1130.855833	0.007243
1131.013212	0.005999
1131.170573	-0.001940
1131.327915	0.006877
1131.485239	0.004888
1131.642545	0.003225
1131.799833	0.004235
1131.957103	0.003757
1132.114354	-0.000408
1132.271588	0.000902
1132.428803	0.001350
1132.585999	0.004417
1132.743178	-0.003696
1132.900338	-0.008363
1133.057480	-0.008318
1133.214604	-0.004306
1133.371710	-0.007205
1133.528797	-0.003804
1133.685866	-0.009983
1133.842917	-0.005540
1133.999950	-0.004242
1134.156964	-0.001882
1134.313960	-0.000660
1134.470938	0.004999
1134.627898	0.000826
1134.784840	0.002418
1134.941763	-0.000536
1135.098668	0.008185
1135.255555	0.002828
1135.412424	0.002390
1135.569274	-0.001114
1135.726107	0.003202
1135.882921	0.000700
1136.039716	0.000893
1136.196494	0.003523
1136.353253	0.009227
1136.509995	0.006604
1136.666717	0.005735
1136.823422	0.006292
1136.980109	0.013282
1137.136777	0.009809
1137.293427	0.007459
1137.450059	0.017906
1137.606672	0.016468
1137.763267	0.012435
1137.919844	0.011197
1138.076403	0.013782
1138.232944	0.009310
1138.389466	0.007655
1138.545971	0.008105
1138.702457	0.008268
1138.858924	0.007526
1139.015374	0.006065
1139.171805	0.010071
1139.328218	0.009524
1139.484613	0.008671
1139.640990	0.012838
1139.797348	0.015864
1139.953688	0.017667
1140.110010	0.022827
1140.266314	0.018151
1140.422600	0.018513
1140.578867	0.013366
1140.735116	0.010312
1140.891347	0.010074
1141.047559	0.009221
1141.203754	0.006755
1141.359930	0.011649
1141.516088	0.015486
1141.672228	0.014406
1141.828349	0.009517
1141.984452	0.016084
1142.140537	0.017427
1142.296604	0.019349
1142.452653	0.013287
1142.608683	0.014926
1142.764695	0.011456
1142.920689	0.002528
1143.076665	0.004995
1143.232622	0.014223
1143.388562	0.014996
1143.544483	0.021960
1143.700385	0.026982
1143.856270	0.040200
1144.012136	0.033133
1144.167985	0.036427
1144.323814	0.039663
1144.479626	0.034898
1144.635420	0.026170
1144.791195	0.021819
1144.946952	0.023170
1145.102691	0.012883
1145.258411	0.010943
1145.414113	0.016929
1145.569798	0.014414
1145.725463	0.009077
1145.881111	0.008049
1146.036741	0.017691
1146.192352	0.019951
1146.347945	0.021259
1146.503519	0.026367
1146.659076	0.012796
1146.814614	0.021987
1146.970134	0.021769
1147.125636	0.024961
1147.281120	0.024678
1147.436585	0.021034
1147.592032	0.021034
1147.747461	0.009604
1147.902872	0.010152
1148.058265	0.018184
1148.213639	0.009547
1148.368995	0.011596
1148.524333	0.014113
1148.679653	0.015469
1148.834954	0.016449
1148.990237	0.013978
1149.145502	0.016416
1149.300749	0.015476
1149.455977	0.021799
1149.611188	0.020939
1149.766380	0.008709
1149.921553	0.003136
1150.076709	0.003753
1150.231846	0.002472
1150.386966	-0.004205
1150.542066	-0.001934
1150.697149	-0.000914
1150.852214	-0.008798
1151.007260	-0.011553
1151.162288	-0.006454
1151.317298	-0.006715
1151.472289	-0.005731
1151.627263	-0.011353
1151.782218	-0.006426
1151.937155	-0.006729
1152.092073	-0.006149
1152.246974	-0.004809
1152.401856	-0.004559
1152.556720	-0.001435
1152.711566	-0.001534
1152.866393	-0.000420
1153.021203	0.007556
1153.175994	0.006690
1153.330767	0.005406
1153.485521	0.001572
1153.640258	0.009180
1153.794976	0.013069
1153.949676	0.015986
1154.104358	0.022419
1154.259021	0.019849
1154.413667	0.018432
1154.568294	0.023109
1154.722903	0.030908
1154.877493	0.041322
1155.032066	0.040795
1155.186620	0.032897
1155.341156	0.034940
1155.495674	0.031354
1155.650173	0.036951
1155.804654	0.034088
1155.959118	0.050325
1156.113562	0.044650
1156.267989	0.032705
1156.422397	0.028299
1156.576788	0.031436
1156.731160	0.030671
1156.885513	0.035112
1157.039849	0.031386
1157.194166	0.024757
1157.348465	0.002936
1157.502746	-0.003903
1157.657009	0.002382
1157.811253	0.006314
1157.965479	0.002900
1158.119687	0.000642
1158.273877	-0.001948
1158.428048	0.001444
1158.582201	0.007157
1158.736337	0.010488
1158.890453	0.015410
1159.044552	0.012476
1159.198632	0.015260
1159.352694	0.017960
1159.506738	0.023081
1159.660764	0.028726
1159.814771	0.026351
1159.968761	0.028857
1160.122732	0.030281
1160.276685	0.036247
1160.430619	0.043635
1160.584535	0.032115
1160.738434	0.029050
1160.892313	0.019654
1161.046175	0.023937
1161.200019	0.019855
1161.353844	0.019032
1161.507651	0.020060
1161.661440	0.016719
1161.815210	0.003208
1161.968962	0.008281
1162.122697	0.020258
1162.276412	0.019478
1162.430110	0.016895
1162.583789	0.020064
1162.737451	0.012073
1162.891094	0.008859
1163.044718	-0.001673
1163.198325	0.005509
1163.351913	0.001930
1163.505483	-0.007598
1163.659035	0.000745
1163.812569	-0.007695
1163.966084	-0.014530
1164.119581	0.001006
1164.273060	0.011288
1164.426521	0.016951
1164.579964	0.015307
1164.733388	0.018948
1164.886794	0.023551
1165.040182	0.008050
1165.193551	0.008441
1165.346903	0.029832
1165.500236	0.026234
1165.653551	0.027292
1165.806848	0.032560
1165.960126	0.030571
1166.113386	0.036192
1166.266628	0.028832
1166.419852	0.044570
1166.573058	0.041056
1166.726245	0.026504
1166.879414	0.015015
1167.032565	0.015332
1167.185698	0.022978
1167.338812	0.030115
1167.491909	0.020690
1167.644987	0.035884
1167.798046	0.043981
1167.951088	0.039935
1168.104111	0.045043
1168.257117	0.051428
1168.410103	0.057399
1168.563072	0.050103
1168.716023	0.044245
1168.868955	0.056519
1169.021869	0.043556
1169.174765	0.036527
1169.327642	0.042799
1169.480501	0.046156
1169.633343	0.059602
1169.786165	0.038659
1169.938970	0.058896
1170.091757	0.052040
1170.244525	0.059688
1170.397275	0.058989
1170.550007	0.048549
1170.702720	0.055927
1170.855415	0.048751
1171.008092	0.031449
1171.160751	0.032855
1171.313392	0.009354
1171.466014	0.055146
1171.618619	-0.015763
1171.771205	-0.015763
1171.923772	-0.015763
