sample name	sample
index	347
start time	 03-01-2021  11:41:48 AM
880	0.499379
Peak Time (s)	92.035
Peak Height 	0.4994
calc peak height	90,93
Baseline Time (s)	9.535
Baseline Value 	-0.003864
subtract baseline	10,4
Abs	0.129719
Peak Time (s)	91.035
Peak Height 	0.1297
calc peak height	90,93
Baseline Time (s)	9.037
Baseline Value 	0.006047
subtract baseline	10,3
PK_550	0.144759
Peak Time (s)	90.04
Peak Height 	0.1448
calc peak height	90,93
Baseline Time (s)	9.037
Baseline Value 	4.6822E-4
subtract baseline	10,2
PK_880	0.213896
Peak Time (s)	91.535
Peak Height 	0.2139
calc peak height	90,93
Baseline Time (s)	11.537
Baseline Value 	0.002173
subtract baseline	10,1


Time (s)	A880-A510	A880-A775	A880-A975	A880	I510	I775	I975	I880	
0.035000	0.000027	-0.000199	0.001475	0.000379	6959.724109	48235.296618	4007.821934	25398.832554
0.540500	-0.004308	-0.001120	-0.003378	0.004693	6878.844400	47691.804134	3983.271535	25175.908452
1.035000	-0.002029	-0.000445	-0.000390	0.002130	6923.933565	48027.225256	3998.079939	25308.130740
1.536000	0.000996	0.000260	0.000399	-0.000051	6972.963894	48328.333139	4006.078111	25421.214497
2.036500	-0.001459	0.000096	-0.004980	-0.000368	6952.750155	48344.304683	3992.475049	25437.675007
2.536500	-0.004346	-0.000209	-0.005437	0.005204	6873.772375	47733.122381	3976.483165	25149.684161
3.037000	0.001374	-0.000441	0.000865	-0.002554	7000.348924	48517.258452	4014.128492	25551.701913
3.536500	-0.000570	-0.000532	-0.004321	-0.000155	6959.124340	48256.255240	3993.666053	25426.583378
4.037500	-0.001022	-0.000843	-0.004841	-0.000647	6959.514815	48275.303821	3993.594754	25452.215714
4.535000	-0.001563	0.000385	-0.000567	0.000518	6943.424705	48281.755534	4001.935445	25391.623645
5.035500	-0.000549	-0.000576	-0.004571	-0.000330	6960.988471	48270.035894	3993.468611	25435.729305
5.534500	-0.000689	0.000403	-0.001047	0.000345	6953.291474	48301.852162	4001.108908	25400.633722
6.035500	-0.000846	0.000353	-0.002643	0.000264	6952.577028	48305.040509	3997.038833	25404.833823
6.538000	0.000732	-0.000168	0.000218	-0.000312	6972.927332	48310.759392	4006.291854	25434.745815
7.036000	-0.001623	-0.000613	-0.001599	-0.000170	6949.347198	48249.396884	4001.011616	25427.399436
7.540000	0.001925	0.000133	-0.000231	0.000418	6977.316136	48265.950232	4003.109458	25396.827744
8.041500	0.000083	0.000257	0.001332	0.000472	6959.376669	48273.228672	4007.184285	25394.029881
8.539500	-0.002366	-0.000086	0.000298	0.000047	6940.305401	48281.835918	4005.538579	25416.109786
9.037500	-0.000053	0.000000	0.000000	0.000029	6962.276302	48292.724582	4004.783945	25417.057052
9.535000	-0.000092	-0.000202	-0.000772	0.000000	6962.182871	48274.559474	4002.778059	25418.545717
10.034500	0.000025	0.000105	-0.002277	-0.000042	6963.685827	48311.073493	3998.842991	25420.739223
10.535500	0.000143	-0.000056	0.001460	-0.000070	6965.066793	48297.213079	4008.997686	25422.180268
11.038500	0.000647	0.000334	0.000027	-0.000049	6969.633221	48335.828175	4005.065769	25421.085421
11.536500	0.000000	0.000384	-0.005949	0.000591	6957.474542	48274.125584	3987.338013	25387.873339
12.036500	-0.000159	0.000406	-0.002253	-0.000089	6962.391424	48347.484937	3999.032325	25423.171633
12.537000	0.000567	0.000427	0.000284	0.000003	6968.385954	48340.142464	4005.620844	25418.404635
13.037500	0.000714	-0.000221	-0.004046	-0.001486	6983.900208	48428.258429	3997.969650	25495.922957
13.537500	-0.000611	0.000209	0.000697	0.000706	6950.627074	48243.751574	4004.837290	25381.892439
14.035000	-0.000114	0.000140	-0.002506	0.001152	6951.104706	48190.057927	3995.028437	25358.749398
14.535500	-0.002029	-0.000392	0.001278	0.002498	6920.478679	47994.427590	4001.570599	25289.059321
15.035000	-0.001801	-0.000204	-0.003585	-0.000449	6950.294703	48321.372444	3996.425368	25441.882953
15.552000	0.000029	0.000315	0.000891	0.000031	6963.030868	48325.437378	4007.185179	25416.926173
16.039000	-0.000681	-0.000160	0.000735	-0.000822	6964.383079	48365.049821	4009.073720	25461.316999
16.536000	-0.001755	0.000522	-0.000728	0.003531	6913.399139	47982.141382	3993.420516	25235.783011
17.039500	-0.000241	0.000260	0.002008	-0.000345	6964.028277	48359.043680	4011.231069	25436.469796
17.537000	0.000756	0.000901	0.001900	-0.001914	6988.373353	48591.161193	4015.203492	25518.264680
18.037500	0.000221	-0.000119	-0.003693	0.000436	6961.019500	48237.721318	3993.767339	25395.894822
18.535000	-0.002322	0.000145	-0.003247	0.001236	6929.556889	48181.741912	3992.820134	25354.378351
19.040500	0.000117	0.000762	0.000937	0.002003	6945.269469	48166.124643	4001.987069	25314.688318
19.535500	-0.000436	0.000603	-0.001450	0.001839	6941.601385	48166.641004	3996.016731	25323.163623
20.038500	-0.001536	0.000175	-0.005828	0.001408	6935.321472	48166.967191	3985.487722	25345.491965
20.538500	0.001431	0.000025	-0.008740	0.001584	6961.607213	48132.957980	3977.318790	25336.379095
21.036000	-0.000779	0.000332	-0.003589	0.002232	6934.692354	48097.372843	3989.251186	25302.811068
21.536500	-0.001553	0.000381	-0.002906	0.002040	6929.235388	48122.565260	3991.584581	25312.769051
22.036000	0.000023	-0.000510	-0.002478	0.001497	6949.141016	48086.256137	3994.178834	25340.861140
22.537000	-0.002133	0.000386	-0.002204	0.001718	6926.813485	48156.621950	3994.318885	25329.404722
23.037000	-0.000998	0.000245	-0.001757	0.001617	6938.406338	48152.449661	3995.785619	25334.642060
23.535000	-0.003308	-0.000154	0.000669	0.001655	6916.402284	48106.863615	4002.202465	25332.668290
24.035000	-0.000928	-0.000213	-0.001900	0.001457	6940.572800	48121.375323	3995.833025	25342.928280
24.538000	-0.001593	0.001168	0.001848	0.002548	6924.092216	48151.642764	4002.972127	25286.482254
25.036000	-0.002400	0.000156	-0.005866	0.001845	6923.127318	48119.380630	3984.227674	25322.841582
25.536000	-0.000855	-0.000161	0.000307	0.001659	6939.361651	48105.855778	4001.219059	25332.505585
26.036500	0.000631	0.000269	-0.000271	0.002132	6948.891849	48101.327473	3998.392421	25308.018627
26.536500	0.000692	0.001075	0.001862	0.002441	6946.548752	48153.022364	4003.297673	25292.000993
27.036500	0.000769	0.000322	0.000218	0.001864	6952.716508	48134.724302	4000.426641	25321.880295
27.537500	-0.000054	0.000158	-0.001550	0.000671	6956.204942	48242.058770	3998.878606	25383.670954
28.040000	0.002760	0.000015	-0.000494	-0.001778	7006.171166	48483.572224	4008.333802	25511.142038
28.535000	-0.001289	-0.000184	0.000282	-0.000427	6954.917111	48321.166632	4006.778039	25440.773464
29.035000	-0.001269	-0.000505	-0.001066	-0.000603	6956.762962	48305.946759	4003.612410	25449.906392
29.535500	-0.000820	0.000009	-0.004256	0.000727	6948.456264	48220.636833	3991.484053	25380.764445
30.038000	0.001595	0.000494	-0.002739	0.000205	6976.205731	48325.977122	3996.939131	25407.884568
30.536000	-0.001830	0.000333	-0.004951	0.001775	6929.117747	48145.216723	3986.844167	25326.479983
31.070500	0.000841	0.000751	-0.001970	0.000273	6968.421923	48345.706439	3998.822782	25404.362757
31.536500	-0.001348	0.000374	-0.001891	0.003699	6915.627510	47949.262306	3989.865993	25227.094280
32.036500	0.000219	0.001016	-0.003066	0.002131	6945.026577	48179.283154	3990.913950	25308.064438
32.583500	-0.002460	-0.000822	-0.000551	0.000148	6938.480797	48194.456920	4002.977463	25410.875908
33.037500	0.001041	0.000801	0.001545	0.001096	6962.535450	48264.866551	4006.074651	25361.661986
33.535500	0.002421	0.001098	-0.001138	0.002483	6962.467414	48151.073577	3995.127089	25289.866772
34.035000	0.000908	0.000454	-0.000960	0.000617	6965.801497	48278.634625	4000.609881	25386.488399
34.536000	-0.000858	0.000135	-0.002466	0.002284	6933.461293	48071.510676	3992.106382	25300.121231
35.036500	0.000155	0.000838	-0.003683	0.002682	6939.236499	48103.201663	3987.801443	25279.562085
35.536500	-0.002209	0.000514	-0.001181	0.002415	6919.579346	48097.345285	3995.194171	25293.367648
36.039500	-0.001791	0.000480	0.004275	0.002514	6922.569150	48083.556795	4009.626316	25288.270849
36.537000	-0.000504	0.000531	-0.004576	0.002741	6932.495902	48065.143320	3985.271569	25276.517321
37.037000	-0.000625	0.000735	-0.003520	0.002640	6932.308841	48096.937854	3988.349821	25281.757851
37.537500	-0.001357	0.000505	0.004211	0.002559	6926.206798	48081.443487	4009.330514	25285.935384
38.035000	-0.003733	-0.000496	-0.002643	0.001380	6915.012622	48099.936668	3994.051108	25346.951082
38.535500	-0.001965	0.000632	0.000064	0.002198	6923.891518	48132.223374	3999.113919	25304.583114
39.035500	0.000201	0.000909	0.000582	0.002312	6943.151279	48149.190690	4000.199436	25298.698447
39.538500	-0.001276	-0.000965	-0.004890	0.001358	6938.231333	48053.406634	3988.114354	25348.066955
40.036000	0.000913	-0.000185	-0.005239	0.001964	6953.128575	48071.566066	3985.575031	25316.702668
40.536000	-0.002039	-0.000004	-0.000575	0.001952	6925.498034	48091.532872	3998.058767	25317.292095
41.036500	-0.001329	0.000460	-0.001549	0.002361	6928.321727	48097.321683	3994.353967	25296.172156
41.536500	-0.002151	0.000733	-0.000403	0.002595	6918.442161	48101.408700	3996.795998	25284.068433
42.037000	-0.000333	0.000630	-0.006131	0.003095	6930.775944	48038.687631	3980.216797	25258.254681
42.537500	-0.000333	0.001346	-0.001781	0.003089	6930.835481	48113.780584	3991.786017	25258.555276
43.035000	-0.001565	0.001048	-0.006587	0.003062	6919.556520	48085.634783	3979.099124	25259.967534
43.534500	-0.000696	0.002295	0.001974	0.003996	6918.941187	48118.102380	3999.414144	25211.773465
44.036500	-0.002306	-0.000607	-0.004685	0.001662	6925.719137	48059.030557	3987.851913	25332.330905
44.536000	0.000374	0.000091	0.000004	-0.001754	6983.212936	48488.999399	4009.616022	25509.871732
45.036500	-0.000559	-0.000264	-0.001780	-0.001300	6970.063766	48404.226250	4003.567706	25486.224363
45.539000	0.000486	0.000832	-0.001989	0.001757	6951.062412	48199.088552	3994.793951	25327.428692
46.039500	-0.000078	0.000565	0.001860	-0.000180	6964.013355	48373.656334	4010.381106	25427.880156
46.540000	-0.000191	0.000564	-0.000496	0.001079	6951.067896	48241.839024	4000.617920	25362.532157
47.037500	0.000148	0.000524	-0.000681	0.000193	6962.628041	48330.380291	4002.503758	25408.517193
47.535000	-0.001291	0.000639	-0.002333	0.001546	6936.318386	48200.931595	3994.434665	25338.308918
48.065000	0.001140	0.000584	0.004514	0.000268	6971.306784	48328.828662	4016.381189	25404.634687
48.535500	-0.000322	0.000494	-0.000932	0.003238	6929.546167	48009.625399	3993.657946	25250.879905
49.042500	0.002002	0.000857	-0.000133	0.002289	6960.334600	48146.152490	3998.339678	25299.866058
49.557500	-0.000999	0.000328	0.001797	0.001255	6941.796252	48198.810943	4006.323561	25353.391615
50.036500	0.000845	0.000583	0.002092	0.000026	6970.804201	48354.053691	4010.453076	25417.193559
50.536500	0.001109	0.001000	0.000524	0.000515	6968.675883	48346.505498	4004.885678	25391.816098
51.037000	0.001420	0.000316	0.000389	-0.002813	7003.259428	48624.090586	4013.537422	25565.221895
51.537000	-0.001475	-0.000158	0.000079	-0.001286	6961.271236	48413.898866	4008.553881	25485.512291
52.037500	-0.000846	-0.002224	0.005507	0.008106	6879.312495	47228.205259	3997.866420	25001.152970
52.534500	-0.053331	-0.016167	-0.087480	0.232910	4981.726744	28471.496530	3393.058780	16048.629098
53.034500	-0.133598	-0.008655	-0.215527	0.165212	4921.149412	33311.147045	3320.318365	18275.864149
53.537500	-0.144585	-0.078739	-0.228195	-0.215497	7691.119400	65106.679284	3971.075941	39921.214485
54.035500	-0.063386	-0.161853	-0.131277	-0.301591	9962.184580	65535.000000	4567.864597	48050.194356
54.536000	0.019744	-0.114657	-0.043246	-0.254394	10574.969547	65535.000000	4738.958606	43395.119947
55.036000	0.066672	0.032723	0.009109	-0.084115	8666.981043	62316.778241	4285.599313	30242.720958
55.536500	0.089177	0.079406	0.027705	0.032673	7533.412118	53455.894664	3991.524402	23782.599669
56.037000	0.102290	0.096929	0.040717	0.053650	7449.524225	53055.295637	3970.460376	22795.358065
56.534500	0.121475	0.108120	0.050350	0.040315	7806.512346	55970.556509	4032.269394	23417.405447
57.037500	0.149554	0.121533	0.074832	0.054766	7964.258810	55843.827242	4060.307148	22744.147544
57.537500	0.167856	0.135836	0.086063	0.113698	7508.225814	50671.005767	3932.577862	20219.130912
58.038500	0.173156	0.145056	0.098949	0.172249	6971.633325	45539.031551	3822.769641	18027.849707
58.535500	0.178316	0.151556	0.099299	0.212042	6656.346332	42390.623484	3736.783195	16698.524493
59.035500	0.192030	0.154831	0.099436	0.247709	6469.126985	39550.512474	3665.738198	15606.262424
59.538500	0.185278	0.153094	0.101695	0.297620	6027.448627	35438.359788	3579.138666	14220.859706
60.036000	0.181738	0.156653	0.102905	0.332106	5761.753885	33200.151100	3524.057994	13352.488381
60.537000	0.191359	0.162788	0.109136	0.337450	5790.493497	33255.428988	3525.471761	13223.993471
61.037000	0.196282	0.163868	0.107730	0.375856	5572.914041	30753.381075	3464.759381	12345.561804
61.534500	0.194084	0.161747	0.105418	0.398616	5421.300450	29201.161410	3429.285090	11860.503440
62.037500	0.191702	0.158541	0.107451	0.414445	5316.046515	28072.227408	3410.622454	11537.837569
62.535000	0.177889	0.151848	0.105713	0.409835	5264.513894	27951.648753	3414.459025	11630.596388
63.038000	0.175938	0.153902	0.096596	0.429246	5149.012497	26969.232552	3377.451571	11246.573707
63.557000	0.179868	0.159602	0.093355	0.415213	5245.754444	28089.244657	3391.166574	11522.486219
64.036000	0.184109	0.163825	0.088363	0.393266	5394.151198	29655.279931	3413.412582	11972.246563
64.539000	0.185788	0.165458	0.095968	0.388450	5432.361224	30055.930667	3430.271352	12074.029390
65.058500	0.187711	0.165140	0.086314	0.384982	5464.516937	30253.800362	3421.815037	12148.010709
65.538000	0.186072	0.165266	0.093440	0.383083	5466.078145	30381.754211	3434.192219	12188.783107
66.040000	0.186450	0.165781	0.088747	0.382737	5470.428213	30436.383168	3428.198522	12196.241057
66.537500	0.184401	0.163933	0.089911	0.381201	5467.343891	30416.565759	3431.914871	12229.364581
67.035500	0.187054	0.163342	0.085859	0.381414	5482.044536	30365.635596	3426.055890	12224.763206
67.535000	0.188722	0.164438	0.099178	0.383514	5479.437844	30302.186953	3441.591954	12179.527207
68.035500	0.187769	0.162982	0.100923	0.383988	5470.839094	30180.538972	3443.377624	12169.340041
68.536000	0.186985	0.162571	0.093990	0.385063	5459.682863	30087.241909	3432.213686	12146.291272
69.036000	0.186400	0.159466	0.089930	0.384517	5459.440515	29927.366780	3427.379645	12157.975398
69.536500	0.188846	0.158057	0.092101	0.384933	5471.630469	29813.899515	3429.788919	12149.062930
70.036000	0.188107	0.159227	0.096037	0.387511	5451.745247	29726.722137	3431.659505	12093.999200
70.537000	0.186369	0.158656	0.100333	0.387490	5441.511077	29692.753943	3437.646145	12094.443100
71.040000	0.187164	0.158951	0.092429	0.389208	5436.029011	29605.023326	3424.385086	12057.939473
71.538000	0.187480	0.156141	0.096766	0.388992	5439.188237	29445.833364	3430.623426	12062.509023
72.035000	0.192001	0.156937	0.098973	0.393399	5439.863058	29225.871048	3427.600688	11969.456437
72.538500	0.188246	0.156514	0.098193	0.394223	5412.785398	29150.270450	3425.405244	11952.153939
73.036000	0.195042	0.157129	0.101783	0.398179	5429.551860	28948.965525	3424.906509	11869.589411
73.536000	0.193107	0.157992	0.107417	0.401797	5396.880669	28784.064297	3427.663346	11794.710968
74.036000	0.195112	0.156492	0.100105	0.405737	5385.596273	28461.576043	3412.438558	11713.890760
74.536500	0.195422	0.158583	0.104657	0.408587	5370.854767	28416.874788	3414.715974	11655.877049
75.040000	0.199509	0.157921	0.109060	0.410094	5385.829234	28289.634433	3418.612879	11625.362089
75.537000	0.200665	0.156625	0.102319	0.411888	5382.120487	28109.434268	3407.203317	11589.169589
76.035000	0.199090	0.157076	0.104494	0.417624	5339.988763	27804.249531	3402.510396	11474.451608
76.535000	0.199632	0.157455	0.104880	0.416907	5347.188613	27867.247695	3403.959400	11488.703689
77.035500	0.200928	0.156847	0.101892	0.418621	5344.799813	27733.966922	3397.804685	11454.664573
77.538500	0.204046	0.158609	0.113395	0.422388	5341.083803	27619.475798	3407.966817	11380.309743
78.036000	0.201663	0.158367	0.106282	0.427775	5297.056228	27300.775968	3391.636079	11275.077358
78.536000	0.203325	0.157303	0.100589	0.426827	5311.756033	27294.274505	3385.558982	11293.499066
79.036500	0.203872	0.156887	0.102153	0.429212	5301.399626	27137.348292	3384.515087	11247.246461
79.536000	0.203852	0.157407	0.104120	0.432931	5280.451628	26959.226078	3382.291016	11175.595818
80.037000	0.204468	0.156380	0.108142	0.438564	5252.629778	26592.742445	3380.255075	11068.248557
80.537000	0.204583	0.155790	0.098601	0.437097	5261.369837	26640.704210	3370.164019	11096.067333
81.037000	0.205131	0.154834	0.110064	0.439296	5252.249383	26468.654567	3381.758474	11054.397329
81.535000	0.204279	0.154749	0.113703	0.443167	5226.355401	26254.736001	3381.464859	10981.557752
82.038500	0.202741	0.153338	0.109454	0.448770	5187.736569	25880.206345	3369.149422	10877.264726
82.536000	0.207460	0.154590	0.117241	0.448876	5212.614466	25940.985895	3378.727026	10875.299708
83.039000	0.208085	0.151943	0.115575	0.449898	5210.457738	25746.872050	3375.355967	10856.413135
83.536500	0.205677	0.152716	0.117544	0.454857	5170.896884	25527.544381	3371.630753	10765.472959
84.039500	0.209281	0.151113	0.114520	0.455722	5185.530482	25399.172976	3366.823618	10749.715584
84.540000	0.210404	0.151494	0.116995	0.459087	5173.543794	25244.957055	3365.729080	10688.698504
85.037000	0.208202	0.149334	0.115352	0.460103	5156.450050	25081.975793	3362.473440	10670.377024
85.537500	0.209768	0.149830	0.115212	0.464154	5143.335713	24900.872912	3357.382158	10597.710409
86.037500	0.209516	0.149090	0.115734	0.465693	5133.935706	24785.628376	3356.154042	10570.294143
86.538000	0.206163	0.146142	0.113532	0.466672	5111.351300	24588.414020	3352.332946	10552.908113
87.035500	0.211138	0.148023	0.116767	0.471868	5110.200033	24423.312181	3349.990393	10461.238183
87.535500	0.209640	0.145141	0.110878	0.473826	5092.350094	24184.506016	3340.721587	10426.973130
88.038500	0.204899	0.145040	0.118162	0.480387	5034.958669	23860.125591	3341.567506	10313.292508
88.536500	0.208077	0.145254	0.112795	0.479277	5056.559945	23924.159572	3336.601764	10332.404658
89.036000	0.211704	0.145659	0.115258	0.482335	5059.439025	23795.997769	3335.911303	10279.876150
89.537000	0.212915	0.145667	0.118257	0.485413	5049.994254	23648.613800	3335.818658	10227.358471
90.040000	0.211502	0.144759	0.120882	0.491660	5011.679037	23309.214425	3331.638655	10121.947349
90.534500	0.211146	0.143259	0.124854	0.488279	5026.729938	23397.907067	3340.163500	10178.812131
91.035500	0.211705	0.142269	0.129719	0.490608	5017.910579	23241.652654	3343.137471	10139.590210
91.535500	0.213896	0.141218	0.120497	0.492663	5018.586141	23096.506580	3330.044867	10105.148461
92.035500	0.209682	0.140206	0.116497	0.499379	4964.894618	22739.864315	3317.915391	9993.751505
92.535500	0.212935	0.142212	0.123308	0.498071	4987.133511	22892.042568	3327.078263	10015.309929
93.036500	0.217406	0.140705	0.123978	0.499315	5003.013535	22765.640403	3326.423555	9994.795784
93.536000	0.213104	0.139770	0.122204	0.501784	4969.835068	22610.358837	3321.621756	9954.278169
94.042500	0.211401	0.141261	0.122388	0.510687	4918.890359	22276.374480	3311.896217	9810.015780
94.537000	0.213082	0.138521	0.119845	0.505587	4951.315002	22382.083583	3314.728571	9892.285305
95.098500	0.216793	0.137566	0.133982	0.507193	4961.485732	22267.399519	3328.848837	9866.273324
95.534500	0.217691	0.138518	0.129981	0.510998	4947.455213	22140.430510	3320.005125	9805.030850
96.062500	0.216716	0.137687	0.131354	0.518947	4904.960733	21754.855505	3312.677223	9678.801285
96.538500	0.220807	0.138226	0.124574	0.514799	4944.166290	21959.753571	3309.775533	9744.392123
97.035500	0.221328	0.138184	0.125994	0.516776	4937.179589	21871.201024	3309.162516	9713.044952
97.536000	0.215402	0.135042	0.117047	0.517473	4905.715249	21704.016218	3298.692120	9702.034297
98.062000	0.214666	0.135775	0.130114	0.525601	4864.353853	21386.179150	3304.026529	9574.909112
98.539500	0.219050	0.135774	0.128106	0.521927	4901.918457	21543.335730	3305.838502	9632.069494
