sample name	sample
index	427
start time	 03-08-2021  11:58:06 AM


Wavelength (nm)	Absorbance
494.344910	NaN
494.563924	NaN
494.782919	NaN
495.001897	-0.701177
495.220856	-1.009830
495.439797	-0.333877
495.658719	-0.011973
495.877624	0.469464
496.096510	0.378174
496.315378	0.137089
496.534227	-0.162001
496.753059	-0.015103
496.971872	-0.048445
497.190667	0.003811
497.409444	0.014344
497.628203	0.010687
497.846943	0.008849
498.065665	0.009674
498.284369	0.009300
498.503055	0.008960
498.721723	0.009128
498.940372	0.009315
499.159003	0.008735
499.377616	0.007825
499.596210	0.007416
499.814787	0.008109
500.033345	0.007459
500.251885	0.006712
500.470406	0.008201
500.688910	0.007222
500.907395	0.007663
501.125862	0.007343
501.344311	0.006400
501.562742	0.007432
501.781154	0.006656
501.999548	0.007541
502.217924	0.008086
502.436282	0.007434
502.654621	0.007357
502.872942	0.005579
503.091245	0.005602
503.309530	0.006003
503.527797	0.006331
503.746045	0.006373
503.964275	0.006153
504.182487	0.006674
504.400681	0.006958
504.618856	0.007314
504.837013	0.008203
505.055152	0.008854
505.273273	0.008508
505.491376	0.007500
505.709460	0.007711
505.927526	0.007397
506.145574	0.006004
506.363604	0.005251
506.581615	0.005412
506.799608	0.005298
507.017583	0.004753
507.235540	0.005190
507.453478	0.005250
507.671399	0.005338
507.889301	0.005100
508.107185	0.006133
508.325050	0.006748
508.542898	0.005598
508.760727	0.005190
508.978538	0.004465
509.196330	0.003729
509.414105	0.004200
509.631861	0.004179
509.849599	0.003638
510.067319	0.003306
510.285021	0.002688
510.502704	0.003360
510.720369	0.003221
510.938016	0.004113
511.155645	0.003953
511.373255	0.003332
511.590848	0.003393
511.808422	0.003579
512.025977	0.003870
512.243515	0.003881
512.461034	0.003642
512.678536	0.004703
512.896018	0.004135
513.113483	0.004439
513.330930	0.005146
513.548358	0.004599
513.765768	0.004460
513.983160	0.004104
514.200533	0.004278
514.417889	0.004336
514.635226	0.003965
514.852545	0.004066
515.069845	0.004109
515.287128	0.003122
515.504392	0.003445
515.721638	0.003539
515.938866	0.003919
516.156075	0.003686
516.373267	0.003942
516.590440	0.003392
516.807594	0.003406
517.024731	0.003437
517.241850	0.004071
517.458950	0.003886
517.676032	0.003813
517.893095	0.004138
518.110141	0.004198
518.327168	0.004071
518.544177	0.005067
518.761168	0.005694
518.978141	0.006179
519.195095	0.006186
519.412031	0.006427
519.628949	0.006942
519.845849	0.006886
520.062731	0.006997
520.279594	0.006688
520.496439	0.005602
520.713266	0.005371
520.930074	0.004678
521.146865	0.004463
521.363637	0.004673
521.580391	0.004033
521.797127	0.003722
522.013844	0.003936
522.230543	0.004265
522.447224	0.004422
522.663887	0.004465
522.880532	0.004327
523.097158	0.004558
523.313766	0.004391
523.530356	0.005033
523.746928	0.005085
523.963481	0.004445
524.180017	0.004404
524.396534	0.004225
524.613032	0.003901
524.829513	0.004418
525.045975	0.004403
525.262420	0.004610
525.478845	0.003958
525.695253	0.004246
525.911643	0.004641
526.128014	0.004528
526.344367	0.004682
526.560702	0.004966
526.777018	0.004743
526.993316	0.004525
527.209597	0.004216
527.425858	0.004851
527.642102	0.004599
527.858328	0.004545
528.074535	0.004610
528.290724	0.005094
528.506894	0.004858
528.723047	0.005360
528.939181	0.005586
529.155297	0.005433
529.371395	0.004923
529.587475	0.004888
529.803536	0.005145
530.019579	0.005152
530.235604	0.004995
530.451611	0.004960
530.667600	0.004524
530.883570	0.004660
531.099522	0.004965
531.315456	0.005325
531.531372	0.005129
531.747269	0.005171
531.963148	0.005101
532.179009	0.004765
532.394852	0.005281
532.610676	0.005367
532.826482	0.004443
533.042271	0.004020
533.258040	0.003883
533.473792	0.004292
533.689525	0.004175
533.905240	0.004510
534.120937	0.004896
534.336616	0.004569
534.552277	0.004524
534.767919	0.005675
534.983543	0.006259
535.199149	0.006182
535.414736	0.005964
535.630306	0.006068
535.845857	0.005723
536.061390	0.005534
536.276904	0.005488
536.492401	0.005755
536.707879	0.005616
536.923339	0.005138
537.138781	0.005363
537.354204	0.005548
537.569610	0.005729
537.784997	0.006385
538.000366	0.006364
538.215716	0.006568
538.431049	0.006527
538.646363	0.006518
538.861659	0.006710
539.076937	0.007011
539.292196	0.006794
539.507438	0.006607
539.722661	0.006616
539.937866	0.006717
540.153052	0.006559
540.368221	0.006579
540.583371	0.006600
540.798503	0.006529
541.013617	0.005946
541.228712	0.006242
541.443789	0.006094
541.658848	0.005535
541.873889	0.005897
542.088912	0.005559
542.303916	0.005740
542.518902	0.005732
542.733870	0.005972
542.948820	0.006178
543.163752	0.006067
543.378665	0.006390
543.593560	0.006385
543.808437	0.006251
544.023295	0.006713
544.238136	0.006488
544.452958	0.006536
544.667762	0.006879
544.882548	0.007183
545.097315	0.007170
545.312064	0.006839
545.526795	0.007236
545.741508	0.006975
545.956203	0.007137
546.170879	0.007067
546.385537	0.007034
546.600177	0.006631
546.814799	0.006610
547.029402	0.006893
547.243988	0.006943
547.458555	0.006825
547.673103	0.006938
547.887634	0.006776
548.102146	0.007351
548.316640	0.007135
548.531116	0.007010
548.745574	0.006869
548.960013	0.006479
549.174435	0.006331
549.388838	0.006797
549.603222	0.006894
549.817589	0.006999
550.031937	0.006187
550.246267	0.006229
550.460579	0.006376
550.674873	0.006168
550.889148	0.006159
551.103405	0.006138
551.317644	0.005644
551.531865	0.005841
551.746068	0.005931
551.960252	0.006217
552.174418	0.006553
552.388566	0.006777
552.602696	0.007306
552.816807	0.007219
553.030900	0.007501
553.244975	0.007661
553.459032	0.007434
553.673070	0.007298
553.887091	0.007288
554.101093	0.006950
554.315077	0.006527
554.529042	0.006415
554.742990	0.006318
554.956919	0.006270
555.170830	0.006162
555.384722	0.006169
555.598597	0.006255
555.812453	0.006411
556.026291	0.006756
556.240111	0.006848
556.453913	0.007004
556.667696	0.007252
556.881461	0.007092
557.095208	0.007260
557.308937	0.007060
557.522647	0.006810
557.736339	0.006777
557.950013	0.006682
558.163669	0.006941
558.377307	0.006595
558.590926	0.006775
558.804527	0.007063
559.018110	0.006830
559.231675	0.007019
559.445221	0.007101
559.658749	0.007262
559.872259	0.006854
560.085751	0.006635
560.299225	0.006748
560.512680	0.006818
560.726117	0.006725
560.939536	0.007073
561.152937	0.007183
561.366319	0.007463
561.579683	0.007278
561.793029	0.007412
562.006357	0.007253
562.219667	0.007208
562.432958	0.006877
562.646231	0.007100
562.859486	0.006571
563.072723	0.006498
563.285941	0.006274
563.499141	0.006246
563.712323	0.006195
563.925487	0.006500
564.138632	0.006480
564.351760	0.006785
564.564869	0.006615
564.777960	0.006706
564.991032	0.006839
565.204087	0.006748
565.417123	0.006947
565.630141	0.007186
565.843140	0.006940
566.056122	0.007337
566.269085	0.007386
566.482030	0.007487
566.694957	0.007752
566.907866	0.007652
567.120756	0.007725
567.333628	0.007684
567.546482	0.007918
567.759318	0.008235
567.972135	0.008068
568.184935	0.008168
568.397716	0.008114
568.610478	0.008016
568.823223	0.008001
569.035949	0.008056
569.248657	0.007881
569.461347	0.007718
569.674019	0.007438
569.886672	0.007575
570.099308	0.007656
570.311925	0.007645
570.524523	0.007761
570.737104	0.008053
570.949666	0.008261
571.162210	0.008467
571.374736	0.008646
571.587244	0.008924
571.799733	0.008707
572.012205	0.008576
572.224658	0.008515
572.437092	0.008494
572.649509	0.008644
572.861907	0.008411
573.074287	0.008492
573.286649	0.008274
573.498993	0.008329
573.711318	0.008279
573.923625	0.008227
574.135914	0.008145
574.348185	0.008449
574.560438	0.008008
574.772672	0.008090
574.984888	0.007969
575.197086	0.008116
575.409266	0.008099
575.621427	0.008258
575.833570	0.008197
576.045695	0.008492
576.257802	0.008336
576.469890	0.008356
576.681961	0.008295
576.894013	0.008062
577.106046	0.008106
577.318062	0.007963
577.530059	0.007901
577.742039	0.007881
577.954000	0.007593
578.165942	0.007719
578.377867	0.008005
578.589773	0.008006
578.801661	0.008423
579.013531	0.008218
579.225382	0.008698
579.437216	0.008557
579.649031	0.008819
579.860828	0.009241
580.072606	0.009097
580.284367	0.009410
580.496109	0.009554
580.707833	0.009432
580.919539	0.009897
581.131227	0.009977
581.342896	0.010574
581.554547	0.010724
581.766180	0.010586
581.977795	0.010687
582.189391	0.010398
582.400969	0.010554
582.612529	0.010639
582.824071	0.010526
583.035595	0.010653
583.247100	0.010414
583.458587	0.010085
583.670056	0.010245
583.881506	0.010341
584.092939	0.010307
584.304353	0.010225
584.515749	0.010068
584.727127	0.010146
584.938486	0.010192
585.149828	0.010181
585.361151	0.010338
585.572456	0.010428
585.783742	0.010607
585.995011	0.010743
586.206261	0.010909
586.417493	0.011306
586.628706	0.011069
586.839902	0.010777
587.051079	0.010569
587.262238	0.010773
587.473379	0.010603
587.684502	0.010329
587.895606	0.010396
588.106692	0.010049
588.317760	0.010127
588.528810	0.010367
588.739841	0.010463
588.950855	0.010711
589.161850	0.010638
589.372827	0.010783
589.583785	0.010908
589.794726	0.010727
590.005648	0.011208
590.216552	0.011031
590.427437	0.010967
590.638305	0.010994
590.849154	0.010968
591.059985	0.010954
591.270798	0.011107
591.481592	0.011097
591.692369	0.011058
591.903127	0.010991
592.113867	0.011127
592.324588	0.011167
592.535292	0.011187
592.745977	0.011403
592.956644	0.011390
593.167293	0.011274
593.377923	0.011544
593.588536	0.011898
593.799130	0.012038
594.009706	0.012027
594.220263	0.012146
594.430803	0.012075
594.641324	0.012031
594.851827	0.011756
595.062312	0.011890
595.272778	0.011789
595.483227	0.011829
595.693657	0.011728
595.904069	0.011886
596.114462	0.011870
596.324838	0.011807
596.535195	0.011789
596.745534	0.012177
596.955855	0.012065
597.166157	0.011886
597.376441	0.011794
597.586707	0.011794
597.796955	0.011429
598.007185	0.011196
598.217396	0.011257
598.427589	0.011488
598.637764	0.011554
598.847921	0.011376
599.058060	0.011721
599.268180	0.011882
599.478282	0.011898
599.688366	0.012152
599.898431	0.012376
600.108479	0.012454
600.318508	0.012397
600.528519	0.012267
600.738511	0.012618
600.948486	0.012648
601.158442	0.012737
601.368380	0.013033
601.578300	0.013225
601.788202	0.013324
601.998085	0.013543
602.207950	0.013525
602.417797	0.013559
602.627626	0.013859
602.837436	0.013736
603.047228	0.013693
603.257002	0.013464
603.466758	0.013373
603.676496	0.013565
603.886215	0.013392
604.095916	0.013385
604.305599	0.013618
604.515264	0.013404
604.724910	0.013546
604.934538	0.013367
605.144148	0.013544
605.353740	0.013672
605.563314	0.013668
605.772869	0.013740
605.982406	0.013905
606.191925	0.013974
606.401425	0.014174
606.610908	0.014229
606.820372	0.014188
607.029818	0.014074
607.239246	0.013934
607.448655	0.013658
607.658047	0.013649
607.867420	0.013532
608.076775	0.013511
608.286111	0.013289
608.495430	0.013216
608.704730	0.013547
608.914012	0.013819
609.123275	0.014055
609.332521	0.014167
609.541748	0.014132
609.750957	0.014188
609.960148	0.014335
610.169321	0.014606
610.378475	0.014773
610.587611	0.014764
610.796729	0.014628
611.005829	0.014713
611.214910	0.014808
611.423974	0.014932
611.633019	0.014828
611.842045	0.014710
612.051054	0.014474
612.260044	0.014329
612.469017	0.014090
612.677970	0.014348
612.886906	0.014372
613.095824	0.014497
613.304723	0.014564
613.513604	0.014737
613.722467	0.015036
613.931311	0.015257
614.140138	0.015429
614.348946	0.015679
614.557736	0.015492
614.766507	0.015384
614.975261	0.015446
615.183996	0.015368
615.392713	0.015443
615.601412	0.015286
615.810092	0.015241
616.018754	0.015228
616.227399	0.015219
616.436024	0.015289
616.644632	0.015394
616.853222	0.015520
617.061793	0.015763
617.270346	0.015949
617.478880	0.016105
617.687397	0.016083
617.895895	0.016180
618.104375	0.016249
618.312837	0.016292
618.521281	0.016105
618.729706	0.015873
618.938113	0.015816
619.146502	0.015777
619.354873	0.015535
619.563226	0.015707
619.771560	0.015503
619.979876	0.015488
620.188174	0.015359
620.396453	0.015610
620.604715	0.015679
620.812958	0.015623
621.021183	0.015390
621.229390	0.015444
621.437578	0.015398
621.645748	0.015404
621.853900	0.015156
622.062034	0.015275
622.270150	0.015263
622.478247	0.015200
622.686326	0.015362
622.894387	0.015449
623.102430	0.015474
623.310454	0.015488
623.518461	0.015740
623.726449	0.016114
623.934418	0.016325
624.142370	0.016238
624.350303	0.016377
624.558218	0.016441
624.766115	0.016621
624.973994	0.016788
625.181855	0.016901
625.389697	0.016985
625.597521	0.016984
625.805327	0.016875
626.013114	0.017007
626.220883	0.017186
626.428634	0.017073
626.636367	0.016962
626.844082	0.016987
627.051778	0.017039
627.259457	0.017063
627.467117	0.017026
627.674758	0.017251
627.882382	0.017282
628.089987	0.017196
628.297574	0.017460
628.505143	0.017623
628.712694	0.017703
628.920226	0.017747
629.127740	0.017805
629.335236	0.017988
629.542714	0.017952
629.750174	0.017999
629.957615	0.018135
630.165038	0.017882
630.372443	0.017918
630.579829	0.017876
630.787198	0.017755
630.994548	0.017613
631.201880	0.017634
631.409194	0.017573
631.616489	0.017558
631.823766	0.017448
632.031025	0.017542
632.238266	0.017389
632.445489	0.017275
632.652693	0.017209
632.859879	0.017263
633.067047	0.017201
633.274197	0.017293
633.481329	0.017349
633.688442	0.017349
633.895537	0.017456
634.102614	0.017538
634.309672	0.017802
634.516713	0.017950
634.723735	0.018139
634.930739	0.018067
635.137724	0.018038
635.344692	0.017972
635.551641	0.018012
635.758572	0.018020
635.965485	0.017973
636.172379	0.017877
636.379256	0.017815
636.586114	0.017720
636.792954	0.017960
636.999775	0.017878
637.206579	0.018027
637.413364	0.018089
637.620131	0.018160
637.826880	0.018240
638.033610	0.018380
638.240323	0.018459
638.447017	0.018425
638.653692	0.018282
638.860350	0.018419
639.066990	0.018458
639.273611	0.018291
639.480214	0.018277
639.686798	0.018351
639.893365	0.017985
640.099913	0.017838
640.306443	0.017842
640.512955	0.017885
640.719449	0.017876
640.925924	0.017859
641.132381	0.018231
641.338820	0.018346
641.545241	0.018612
641.751644	0.018830
641.958028	0.019171
642.164394	0.019336
642.370742	0.019515
642.577071	0.019505
642.783383	0.019629
642.989676	0.019658
643.195951	0.019510
643.402207	0.019332
643.608446	0.019456
643.814666	0.019370
644.020868	0.019401
644.227052	0.019327
644.433218	0.019474
644.639365	0.019637
644.845494	0.019612
645.051605	0.019829
645.257698	0.019960
645.463772	0.019999
645.669828	0.019958
645.875866	0.019928
646.081886	0.019982
646.287888	0.020111
646.493871	0.020052
646.699836	0.020054
646.905783	0.020112
647.111712	0.020115
647.317622	0.020028
647.523514	0.020248
647.729388	0.020232
647.935244	0.020272
648.141082	0.020197
648.346901	0.020218
648.552702	0.020351
648.758485	0.020428
648.964250	0.020484
649.169996	0.020689
649.375724	0.020590
649.581434	0.020722
649.787126	0.020792
649.992800	0.020764
650.198455	0.020815
650.404092	0.020733
650.609711	0.020750
650.815311	0.020693
651.020894	0.020824
651.226458	0.020945
651.432004	0.021028
651.637532	0.021023
651.843041	0.021041
652.048532	0.021000
652.254006	0.021011
652.459460	0.021012
652.664897	0.021093
652.870315	0.020982
653.075716	0.020991
653.281097	0.020773
653.486461	0.020765
653.691807	0.020918
653.897134	0.020929
654.102443	0.020920
654.307734	0.020872
654.513006	0.020958
654.718261	0.020978
654.923497	0.021076
655.128715	0.021332
655.333915	0.021535
655.539096	0.021316
655.744259	0.021456
655.949404	0.021455
656.154531	0.021616
656.359640	0.021659
656.564730	0.021768
656.769802	0.021771
656.974856	0.021728
657.179892	0.021641
657.384909	0.021997
657.589908	0.021990
657.794889	0.022071
657.999852	0.021927
658.204797	0.021806
658.409723	0.021874
658.614631	0.021908
658.819521	0.022028
659.024393	0.022131
659.229246	0.022080
659.434081	0.022064
659.638898	0.022137
659.843697	0.022211
660.048478	0.022294
660.253240	0.022358
660.457984	0.022306
660.662710	0.022286
660.867417	0.022409
661.072107	0.022460
661.276778	0.022556
661.481431	0.022736
661.686066	0.022722
661.890682	0.022845
662.095281	0.022775
662.299861	0.022987
662.504422	0.022972
662.708966	0.023000
662.913491	0.022943
663.117999	0.022973
663.322488	0.022914
663.526958	0.023099
663.731411	0.023133
663.935845	0.023216
664.140261	0.023298
664.344659	0.023497
664.549038	0.023494
664.753400	0.023725
664.957743	0.023791
665.162068	0.023838
665.366375	0.023879
665.570663	0.023871
665.774933	0.023881
665.979185	0.023868
666.183419	0.024013
666.387635	0.024016
666.591832	0.023941
666.796011	0.023973
667.000172	0.024016
667.204315	0.023956
667.408439	0.024181
667.612545	0.024283
667.816634	0.024441
668.020703	0.024469
668.224755	0.024428
668.428788	0.024504
668.632803	0.024417
668.836800	0.024570
669.040779	0.024719
669.244739	0.024915
669.448681	0.024847
669.652605	0.024767
669.856511	0.024587
670.060399	0.024679
670.264268	0.024854
670.468119	0.024900
670.671952	0.025048
670.875767	0.025065
671.079563	0.024867
671.283341	0.024952
671.487101	0.024905
671.690843	0.024948
671.894567	0.024963
672.098272	0.024605
672.301959	0.024810
672.505628	0.024527
672.709278	0.024639
672.912911	0.024528
673.116525	0.024510
673.320121	0.024458
673.523699	0.024538
673.727258	0.024244
673.930799	0.024546
674.134322	0.024360
674.337827	0.024487
674.541314	0.024170
674.744782	0.024412
674.948232	0.024529
675.151664	0.024674
675.355078	0.024776
675.558474	0.025154
675.761851	0.025082
675.965210	0.025206
676.168551	0.025328
676.371873	0.025502
676.575178	0.025473
676.778464	0.025705
676.981732	0.025686
677.184981	0.025698
677.388213	0.025852
677.591426	0.025994
677.794621	0.026063
677.997798	0.026081
678.200956	0.026279
678.404097	0.026369
678.607219	0.026162
678.810323	0.026229
679.013408	0.026213
679.216476	0.026093
679.419525	0.026080
679.622556	0.026135
679.825569	0.026228
680.028563	0.026131
680.231540	0.025955
680.434498	0.025877
680.637438	0.025852
680.840359	0.025939
681.043263	0.025944
681.246148	0.026060
681.449015	0.026008
681.651864	0.025855
681.854694	0.025952
682.057506	0.026236
682.260301	0.026393
682.463076	0.026594
682.665834	0.026639
682.868573	0.026831
683.071295	0.026827
683.273998	0.026824
683.476682	0.027087
683.679349	0.027249
683.881997	0.027294
684.084627	0.027472
684.287239	0.027406
684.489833	0.027345
684.692408	0.027271
684.894965	0.027312
685.097504	0.027521
685.300025	0.027504
685.502527	0.027455
685.705012	0.027264
685.907478	0.027324
686.109925	0.027411
686.312355	0.027526
686.514766	0.027809
686.717159	0.027938
686.919534	0.027977
687.121891	0.027894
687.324230	0.027880
687.526550	0.028117
687.728852	0.028043
687.931136	0.028051
688.133401	0.028012
688.335649	0.027856
688.537878	0.027705
688.740089	0.027780
688.942281	0.027819
689.144456	0.027876
689.346612	0.027918
689.548750	0.027985
689.750870	0.028086
689.952971	0.028040
690.155055	0.027989
690.357120	0.028042
690.559167	0.027877
690.761195	0.027970
690.963206	0.028012
691.165198	0.027829
691.367172	0.027790
691.569128	0.027676
691.771065	0.027900
691.972984	0.028020
692.174885	0.028143
692.376768	0.028205
692.578633	0.028206
692.780479	0.028113
692.982308	0.028221
693.184118	0.028352
693.385909	0.028508
693.587683	0.028415
693.789438	0.028601
693.991175	0.028556
694.192894	0.028821
694.394595	0.028888
694.596277	0.028994
694.797941	0.029042
694.999587	0.028996
695.201215	0.028865
695.402824	0.029043
695.604416	0.029023
695.805989	0.029069
696.007543	0.028829
696.209080	0.028680
696.410598	0.028707
696.612099	0.028848
696.813580	0.028837
697.015044	0.029011
697.216490	0.028890
697.417917	0.028740
697.619326	0.028677
697.820717	0.028759
698.022089	0.028741
698.223444	0.028686
698.424780	0.028716
698.626098	0.028628
698.827397	0.028566
699.028679	0.028713
699.229942	0.028869
699.431187	0.029079
699.632414	0.029081
699.833622	0.029192
700.034813	0.029272
700.235985	0.029036
700.437139	0.029087
700.638274	0.029191
700.839392	0.029085
701.040491	0.028983
701.241572	0.028960
701.442635	0.029064
701.643679	0.029150
701.844706	0.029140
702.045714	0.029339
702.246704	0.029299
702.447675	0.029245
702.648629	0.029450
702.849564	0.029351
703.050481	0.029388
703.251380	0.029346
703.452260	0.029267
703.653122	0.029449
703.853966	0.029536
704.054792	0.029658
704.255600	0.029660
704.456389	0.029459
704.657160	0.029604
704.857913	0.029587
705.058648	0.029530
705.259365	0.029546
705.460063	0.029320
705.660743	0.029226
705.861405	0.029252
706.062048	0.029274
706.262674	0.029344
706.463281	0.029250
706.663870	0.029188
706.864441	0.029243
707.064993	0.029329
707.265527	0.029491
707.466043	0.029720
707.666541	0.029918
707.867021	0.029949
708.067482	0.030041
708.267925	0.030194
708.468350	0.030370
708.668757	0.030506
708.869145	0.030700
709.069516	0.030696
709.269868	0.030613
709.470201	0.030633
709.670517	0.030764
709.870814	0.030778
710.071093	0.030895
710.271354	0.030709
710.471597	0.030597
710.671821	0.030415
710.872028	0.030384
711.072216	0.030353
711.272385	0.030235
711.472537	0.030070
711.672670	0.029931
711.872785	0.029772
712.072882	0.029775
712.272961	0.029872
712.473021	0.029846
712.673063	0.029974
712.873087	0.029916
713.073093	0.029939
713.273081	0.030031
713.473050	0.030075
713.673001	0.030105
713.872934	0.030144
714.072849	0.030156
714.272745	0.030294
714.472623	0.030230
714.672483	0.030106
714.872325	0.029976
715.072148	0.029984
715.271954	0.029945
715.471741	0.029716
715.671509	0.029527
715.871260	0.029421
716.070992	0.029212
716.270707	0.029252
716.470403	0.029334
716.670080	0.029204
716.869740	0.029117
717.069381	0.029066
717.269004	0.029197
717.468609	0.029372
717.668195	0.029487
717.867764	0.029564
718.067314	0.029414
718.266846	0.029412
718.466360	0.029528
718.665855	0.029465
718.865332	0.029507
719.064791	0.029535
719.264232	0.029409
719.463655	0.029362
719.663059	0.029390
719.862445	0.029269
720.061813	0.029239
720.261163	0.029228
720.460494	0.029274
720.659807	0.029316
720.859102	0.029338
721.058379	0.029372
721.257638	0.029370
721.456878	0.029194
721.656100	0.029252
721.855304	0.029083
722.054490	0.029081
722.253657	0.029088
722.452806	0.029139
722.651937	0.029154
722.851050	0.029037
723.050145	0.028885
723.249221	0.029037
723.448279	0.029160
723.647319	0.029280
723.846340	0.029384
724.045344	0.029189
724.244329	0.029110
724.443296	0.029053
724.642245	0.029269
724.841175	0.029401
725.040088	0.029413
725.238982	0.029412
725.437857	0.029546
725.636715	0.029463
725.835554	0.029548
726.034376	0.029464
726.233179	0.029432
726.431963	0.029330
726.630730	0.029299
726.829478	0.029199
727.028208	0.029059
727.226920	0.028879
727.425614	0.028880
727.624289	0.028926
727.822946	0.029016
728.021585	0.028919
728.220206	0.028952
728.418808	0.028903
728.617392	0.029038
728.815958	0.029195
729.014506	0.029206
729.213036	0.029144
729.411547	0.029094
729.610040	0.029137
729.808515	0.029150
730.006972	0.029027
730.205410	0.028871
730.403831	0.028699
730.602233	0.028474
730.800616	0.028417
730.998982	0.028258
731.197329	0.028132
731.395658	0.028050
731.593969	0.028133
731.792262	0.028217
731.990536	0.028313
732.188793	0.028324
732.387031	0.028418
732.585250	0.028498
732.783452	0.028577
732.981635	0.028622
733.179800	0.028572
733.377947	0.028459
733.576076	0.028380
733.774186	0.028169
733.972278	0.028192
734.170352	0.028135
734.368408	0.027887
734.566446	0.027912
734.764465	0.028019
734.962466	0.027817
735.160449	0.027849
735.358413	0.027797
735.556360	0.027950
735.754288	0.027928
735.952198	0.027994
736.150090	0.028164
736.347963	0.028118
736.545818	0.028190
736.743655	0.028345
736.941474	0.028468
737.139275	0.028522
737.337057	0.028385
737.534821	0.028349
737.732567	0.028229
737.930295	0.028023
738.128005	0.028115
738.325696	0.027843
738.523369	0.027888
738.721024	0.027779
738.918660	0.027830
739.116279	0.027781
739.313879	0.027795
739.511461	0.027803
739.709024	0.028089
739.906570	0.028020
740.104097	0.028031
740.301606	0.027887
740.499097	0.027970
740.696569	0.028011
740.894024	0.028000
741.091460	0.027839
741.288878	0.027692
741.486277	0.027616
741.683659	0.027654
741.881022	0.027748
742.078367	0.027750
742.275694	0.027621
742.473002	0.027545
742.670293	0.027587
742.867565	0.027506
743.064819	0.027756
743.262054	0.027637
743.459272	0.027539
743.656471	0.027305
743.853652	0.027330
744.050815	0.027032
744.247959	0.026848
744.445085	0.027005
744.642194	0.027142
744.839283	0.027059
745.036355	0.027146
745.233408	0.027100
745.430444	0.027272
745.627461	0.027297
745.824459	0.027488
746.021440	0.027617
746.218402	0.027475
746.415346	0.027234
746.612272	0.026972
746.809180	0.026778
747.006069	0.026477
747.202940	0.026388
747.399793	0.026073
747.596628	0.025938
747.793444	0.025709
747.990243	0.025525
748.187023	0.025793
748.383784	0.025853
748.580528	0.025890
748.777253	0.026232
748.973960	0.026113
749.170649	0.026424
749.367320	0.026515
749.563973	0.026436
749.760607	0.026521
749.957223	0.026388
750.153821	0.026448
750.350400	0.026336
750.546962	0.026116
750.743505	0.026231
750.940030	0.026053
751.136536	0.026059
751.333025	0.026194
751.529495	0.026009
751.725947	0.026001
751.922381	0.025948
752.118796	0.025889
752.315194	0.025895
752.511573	0.025940
752.707934	0.025826
752.904276	0.025763
753.100601	0.025764
753.296907	0.025990
753.493195	0.025787
753.689465	0.025798
753.885716	0.025966
754.081949	0.025994
754.278164	0.025950
754.474361	0.026083
754.670540	0.026212
754.866700	0.026207
755.062843	0.026188
755.258967	0.026336
755.455072	0.026317
755.651160	0.026120
755.847229	0.026040
756.043280	0.025903
756.239313	0.025752
756.435328	0.025584
756.631324	0.025600
756.827302	0.025541
757.023262	0.025499
757.219204	0.025505
757.415127	0.025507
757.611033	0.025588
757.806920	0.025566
758.002788	0.025628
758.198639	0.025661
758.394471	0.025517
758.590286	0.025564
758.786081	0.025630
758.981859	0.025727
759.177619	0.025762
759.373360	0.025794
759.569083	0.025810
759.764788	0.025790
759.960474	0.025521
760.156143	0.025555
760.351793	0.025290
760.547425	0.025270
760.743038	0.025069
760.938634	0.025074
761.134211	0.024915
761.329770	0.024834
761.525311	0.024878
761.720833	0.025120
761.916338	0.025134
762.111824	0.025165
762.307292	0.025062
762.502741	0.025283
762.698173	0.025410
762.893586	0.025513
763.088981	0.025532
763.284358	0.025411
763.479716	0.025334
763.675057	0.025348
763.870379	0.025557
764.065683	0.025578
764.260968	0.025451
764.456236	0.025297
764.651485	0.025309
764.846716	0.025445
765.041929	0.025586
765.237123	0.025564
765.432299	0.025581
765.627457	0.025515
765.822597	0.025472
766.017719	0.025609
766.212822	0.025524
766.407907	0.025400
766.602974	0.025348
766.798023	0.025265
766.993054	0.025273
767.188066	0.025091
767.383060	0.024899
767.578036	0.025009
767.772993	0.024829
767.967933	0.024879
768.162854	0.024995
768.357757	0.025020
768.552642	0.024924
768.747508	0.025166
768.942356	0.025162
769.137186	0.025327
769.331998	0.025176
769.526792	0.025115
769.721567	0.025065
769.916324	0.024892
770.111063	0.024785
770.305784	0.024903
770.500486	0.024533
770.695171	0.024629
770.889837	0.024560
771.084484	0.024639
771.279114	0.024551
771.473725	0.024428
771.668318	0.024489
771.862893	0.024478
772.057450	0.024550
772.251988	0.024716
772.446509	0.024624
772.641011	0.024689
772.835494	0.024678
773.029960	0.024681
773.224407	0.024766
773.418836	0.024770
773.613247	0.024862
773.807640	0.024706
774.002014	0.024434
774.196370	0.024484
774.390708	0.024519
774.585028	0.024448
774.779330	0.024448
774.973613	0.024514
775.167878	0.024419
775.362125	0.024331
775.556354	0.024288
775.750564	0.024530
775.944756	0.024577
776.138930	0.024557
776.333086	0.024677
776.527223	0.024726
776.721343	0.024557
776.915444	0.024480
777.109526	0.024514
777.303591	0.024716
777.497637	0.024799
777.691666	0.024770
777.885676	0.024612
778.079667	0.024482
778.273641	0.024580
778.467596	0.024727
778.661533	0.024881
778.855452	0.024770
779.049352	0.024611
779.243235	0.024548
779.437099	0.024431
779.630945	0.024507
779.824773	0.024329
780.018582	0.024245
780.212373	0.024258
780.406146	0.024129
780.599901	0.024168
780.793638	0.024143
780.987356	0.024084
781.181056	0.024019
781.374738	0.024041
781.568402	0.024306
781.762047	0.024241
781.955674	0.024269
782.149283	0.024371
782.342874	0.024434
782.536447	0.024368
782.730001	0.024383
782.923537	0.024548
783.117055	0.024712
783.310555	0.024637
783.504036	0.024742
783.697499	0.024721
783.890944	0.024785
784.084371	0.024842
784.277780	0.025016
784.471170	0.024990
784.664542	0.024958
784.857896	0.024737
785.051231	0.024635
785.244549	0.024483
785.437848	0.024552
785.631129	0.024442
785.824392	0.024394
786.017636	0.024258
786.210863	0.024442
786.404071	0.024361
786.597260	0.024289
786.790432	0.024174
786.983585	0.024183
787.176721	0.023896
787.369838	0.023856
787.562936	0.023704
787.756017	0.023720
787.949079	0.023452
788.142123	0.023335
788.335149	0.023410
788.528156	0.023567
788.721146	0.023675
788.914117	0.023821
789.107070	0.023823
789.300005	0.023825
789.492921	0.023695
789.685819	0.023707
789.878699	0.024025
790.071561	0.024039
790.264405	0.024033
790.457230	0.023804
790.650037	0.023724
790.842826	0.023670
791.035597	0.023746
791.228349	0.023889
791.421084	0.023989
791.613800	0.023802
791.806497	0.023860
791.999177	0.023955
792.191838	0.024060
792.384481	0.024086
792.577106	0.024279
792.769713	0.024373
792.962301	0.024374
793.154871	0.024261
793.347423	0.024360
793.539957	0.024353
793.732473	0.024266
793.924970	0.024393
794.117449	0.024549
794.309910	0.024450
794.502353	0.024478
794.694777	0.024446
794.887183	0.024595
795.079571	0.024618
795.271941	0.024569
795.464293	0.024593
795.656626	0.024571
795.848941	0.024404
796.041238	0.024598
796.233516	0.024509
796.425777	0.024613
796.618019	0.024711
796.810243	0.024623
797.002449	0.024740
797.194636	0.024857
797.386805	0.024916
797.578956	0.025179
797.771089	0.025211
797.963204	0.025341
798.155300	0.025174
798.347378	0.025055
798.539438	0.025073
798.731480	0.025085
798.923503	0.025126
799.115509	0.025076
799.307496	0.024915
799.499465	0.024917
799.691415	0.024695
799.883348	0.024799
800.075262	0.024824
800.267158	0.024972
800.459035	0.024955
800.650895	0.024796
800.842736	0.024852
801.034559	0.025115
801.226364	0.025052
801.418150	0.025215
801.609919	0.025283
801.801669	0.025306
801.993401	0.025224
802.185114	0.025195
802.376810	0.025403
802.568487	0.025447
802.760146	0.025212
802.951787	0.025237
803.143409	0.025277
803.335014	0.025429
803.526600	0.025350
803.718168	0.025419
803.909717	0.025532
804.101249	0.025435
804.292762	0.025246
804.484257	0.025411
804.675734	0.025528
804.867192	0.025570
805.058632	0.025393
805.250054	0.025605
805.441458	0.025653
805.632844	0.025664
805.824211	0.025645
806.015561	0.025814
806.206891	0.025805
806.398204	0.025683
806.589499	0.025741
806.780775	0.025633
806.972033	0.025595
807.163273	0.025525
807.354495	0.025654
807.545698	0.025762
807.736883	0.025653
807.928050	0.025559
808.119199	0.025578
808.310329	0.025489
808.501441	0.025588
808.692535	0.025383
808.883611	0.025388
809.074669	0.025229
809.265708	0.025085
809.456729	0.025139
809.647732	0.025077
809.838717	0.025036
810.029683	0.025069
810.220632	0.025076
810.411562	0.025261
810.602474	0.025332
810.793367	0.025196
810.984242	0.025143
811.175100	0.025510
811.365938	0.025655
811.556759	0.025699
811.747562	0.025845
811.938346	0.026046
812.129112	0.025895
812.319860	0.025944
812.510589	0.026137
812.701300	0.026350
812.891994	0.026157
813.082668	0.026376
813.273325	0.026460
813.463964	0.026360
813.654584	0.026344
813.845186	0.026456
814.035769	0.026361
814.226335	0.026222
814.416882	0.026353
814.607411	0.026455
814.797922	0.026401
814.988415	0.026601
815.178889	0.026676
815.369345	0.026924
815.559783	0.027342
815.750203	0.027587
815.940605	0.027961
816.130988	0.028048
816.321353	0.028016
816.511700	0.028126
816.702028	0.028179
816.892339	0.028357
817.082631	0.028185
817.272905	0.028075
817.463161	0.027932
817.653398	0.027865
817.843617	0.027652
818.033819	0.027478
818.224001	0.027472
818.414166	0.027255
818.604312	0.027085
818.794440	0.027089
818.984550	0.027107
819.174642	0.027253
819.364716	0.027124
819.554771	0.027399
819.744808	0.027500
819.934827	0.027331
820.124827	0.027137
820.314810	0.026914
820.504774	0.026923
820.694720	0.026879
820.884647	0.026960
821.074557	0.027036
821.264448	0.026998
821.454321	0.027057
821.644176	0.027284
821.834012	0.027554
822.023831	0.027902
822.213631	0.028002
822.403413	0.027894
822.593176	0.027733
822.782922	0.027813
822.972649	0.027663
823.162358	0.027684
823.352049	0.027649
823.541721	0.027573
823.731376	0.027280
823.921012	0.027144
824.110629	0.027032
824.300229	0.026817
824.489811	0.026760
824.679374	0.026635
824.868919	0.026626
825.058445	0.026432
825.247954	0.026513
825.437444	0.026733
825.626916	0.026753
825.816370	0.026761
826.005806	0.026947
826.195223	0.026883
826.384622	0.027260
826.574003	0.027311
826.763366	0.027537
826.952711	0.027659
827.142037	0.027813
827.331345	0.027807
827.520635	0.028125
827.709906	0.028297
827.899160	0.028295
828.088395	0.028344
828.277612	0.028244
828.466810	0.028182
828.655991	0.028292
828.845153	0.028388
829.034297	0.028366
829.223423	0.028277
829.412531	0.028332
829.601620	0.028489
829.790691	0.028477
829.979744	0.028867
830.168779	0.029129
830.357795	0.029068
830.546793	0.029049
830.735773	0.029290
830.924735	0.029334
831.113679	0.029383
831.302604	0.029580
831.491511	0.029591
831.680400	0.029436
831.869271	0.029219
832.058123	0.029290
832.246957	0.029428
832.435773	0.029485
832.624571	0.029593
832.813351	0.029660
833.002112	0.029456
833.190855	0.029640
833.379580	0.029641
833.568287	0.029488
833.756975	0.029541
833.945645	0.029464
834.134297	0.029452
834.322931	0.029307
834.511547	0.029336
834.700144	0.029340
834.888723	0.029207
835.077284	0.029663
835.265826	0.029948
835.454351	0.030059
835.642857	0.030176
835.831345	0.030454
836.019815	0.030695
836.208266	0.030972
836.396699	0.031374
836.585114	0.031387
836.773511	0.031243
836.961890	0.031295
837.150250	0.031191
837.338592	0.031182
837.526916	0.031121
837.715222	0.031249
837.903510	0.031100
838.091779	0.031090
838.280030	0.031057
838.468263	0.031098
838.656477	0.030934
838.844674	0.031076
839.032852	0.031035
839.221012	0.030953
839.409153	0.030930
839.597277	0.031150
839.785382	0.031068
839.973469	0.031279
840.161538	0.031229
840.349589	0.031549
840.537621	0.031640
840.725635	0.031674
840.913631	0.031997
841.101609	0.032031
841.289568	0.031808
841.477509	0.031724
841.665432	0.031869
841.853337	0.031921
842.041224	0.032078
842.229092	0.032215
842.416942	0.032428
842.604774	0.032335
842.792588	0.032558
842.980383	0.032658
843.168160	0.032719
843.355919	0.032693
843.543660	0.032767
843.731382	0.032858
843.919087	0.032932
844.106773	0.032948
844.294441	0.033099
844.482090	0.033254
844.669722	0.033305
844.857335	0.033590
845.044930	0.033817
845.232507	0.033885
845.420065	0.033794
845.607605	0.033653
845.795127	0.033653
845.982631	0.033590
846.170117	0.033525
846.357584	0.033476
846.545033	0.033660
846.732464	0.033766
846.919877	0.033763
847.107272	0.033965
847.294648	0.034128
847.482006	0.034225
847.669346	0.034288
847.856667	0.034443
848.043971	0.034752
848.231256	0.034721
848.418523	0.034648
848.605771	0.035148
848.793002	0.035248
848.980214	0.035356
849.167408	0.035603
849.354584	0.035806
849.541742	0.035888
849.728881	0.035869
849.916002	0.036074
850.103105	0.036130
850.290190	0.035853
850.477256	0.035930
850.664304	0.036158
850.851334	0.036364
851.038346	0.036601
851.225340	0.036606
851.412315	0.036803
851.599272	0.037031
851.786211	0.037596
851.973132	0.037898
852.160034	0.038084
852.346918	0.038188
852.533784	0.038088
852.720632	0.037951
852.907462	0.038147
853.094273	0.038350
853.281066	0.038150
853.467841	0.037781
853.654598	0.037533
853.841336	0.037590
854.028056	0.037437
854.214758	0.037612
854.401442	0.037697
854.588107	0.037451
854.774755	0.037261
854.961384	0.037391
855.147995	0.037489
855.334587	0.037581
855.521162	0.037222
855.707718	0.037158
855.894256	0.036900
856.080775	0.036628
856.267277	0.036699
856.453760	0.036691
856.640225	0.036746
856.826672	0.036729
857.013101	0.036874
857.199511	0.037361
857.385903	0.037506
857.572277	0.037941
857.758633	0.038158
857.944970	0.038642
858.131290	0.039010
858.317591	0.038973
858.503873	0.039178
858.690138	0.039470
858.876384	0.039597
859.062612	0.039699
859.248822	0.039660
859.435014	0.039820
859.621188	0.039406
859.807343	0.039436
859.993480	0.039492
860.179599	0.039469
860.365699	0.039490
860.551781	0.039428
860.737846	0.039510
860.923891	0.039262
861.109919	0.039533
861.295929	0.039530
861.481920	0.039392
861.667893	0.039558
861.853848	0.039798
862.039784	0.039753
862.225702	0.039633
862.411603	0.039678
862.597484	0.040017
862.783348	0.039876
862.969193	0.040340
863.155021	0.040417
863.340830	0.040584
863.526620	0.040404
863.712393	0.040561
863.898147	0.040979
864.083883	0.041172
864.269601	0.041284
864.455301	0.041664
864.640982	0.041705
864.826645	0.041891
865.012290	0.042022
865.197917	0.042245
865.383526	0.042070
865.569116	0.041952
865.754688	0.041848
865.940242	0.042117
866.125777	0.041670
866.311295	0.041769
866.496794	0.041956
866.682275	0.042165
866.867737	0.042066
867.053182	0.042536
867.238608	0.042861
867.424016	0.043194
867.609406	0.042971
867.794778	0.043273
867.980131	0.043122
868.165466	0.042967
868.350783	0.042862
868.536082	0.043009
868.721362	0.042770
868.906625	0.042399
869.091869	0.042217
869.277094	0.042252
869.462302	0.042534
869.647491	0.042539
869.832662	0.042839
870.017815	0.042683
870.202950	0.042603
870.388066	0.042577
870.573165	0.042707
870.758245	0.042978
870.943306	0.043419
871.128350	0.043229
871.313375	0.043320
871.498382	0.043472
871.683371	0.043569
871.868342	0.043776
872.053294	0.044085
872.238229	0.044262
872.423144	0.044314
872.608042	0.044063
872.792922	0.044131
872.977783	0.044250
873.162626	0.044186
873.347451	0.044413
873.532258	0.044288
873.717046	0.044408
873.901816	0.044305
874.086568	0.044376
874.271302	0.044429
874.456017	0.044670
874.640715	0.044894
874.825394	0.044604
875.010055	0.044392
875.194697	0.044590
875.379322	0.044442
875.563928	0.044667
875.748516	0.044668
875.933085	0.044768
876.117637	0.044422
876.302170	0.044317
876.486685	0.044671
876.671182	0.044911
876.855661	0.044989
877.040121	0.045153
877.224563	0.045235
877.408987	0.045105
877.593393	0.045104
877.777780	0.045331
877.962150	0.045558
878.146501	0.045415
878.330833	0.045474
878.515148	0.045320
878.699444	0.045411
878.883722	0.045567
879.067982	0.045729
879.252224	0.045680
879.436447	0.046008
879.620653	0.046179
879.804840	0.046334
879.989008	0.046090
880.173159	0.046413
880.357291	0.046298
880.541405	0.045939
880.725501	0.045815
880.909579	0.045933
881.093638	0.045756
881.277680	0.045485
881.461703	0.045594
881.645707	0.046033
881.829694	0.046033
882.013662	0.046049
882.197612	0.046304
882.381544	0.046359
882.565458	0.046336
882.749353	0.046491
882.933230	0.046609
883.117089	0.046883
883.300930	0.046520
883.484753	0.046587
883.668557	0.046491
883.852343	0.046795
884.036111	0.046967
884.219861	0.046837
884.403592	0.046824
884.587305	0.046782
884.771000	0.046461
884.954677	0.046721
885.138335	0.046677
885.321976	0.046830
885.505598	0.046294
885.689201	0.046273
885.872787	0.046585
886.056354	0.046531
886.239904	0.046587
886.423434	0.046712
886.606947	0.046733
886.790442	0.046620
886.973918	0.046450
887.157376	0.046946
887.340816	0.046885
887.524237	0.046829
887.707641	0.046886
887.891026	0.046770
888.074393	0.046830
888.257741	0.046504
888.441072	0.046492
888.624384	0.046679
888.807678	0.046163
888.990954	0.046312
889.174211	0.046186
889.357451	0.046148
889.540672	0.046141
889.723875	0.046025
889.907059	0.046260
890.090226	0.046103
890.273374	0.046168
890.456504	0.046353
890.639616	0.046086
890.822709	0.046216
891.005785	0.046165
891.188842	0.046500
891.371881	0.046386
891.554901	0.046252
891.737904	0.046605
891.920888	0.046566
892.103854	0.046819
892.286802	0.047355
892.469731	0.047128
892.652643	0.047287
892.835536	0.047012
893.018410	0.047364
893.201267	0.047242
893.384106	0.047112
893.566926	0.047041
893.749728	0.046885
893.932511	0.046466
894.115277	0.046895
894.298024	0.046674
894.480753	0.046781
894.663464	0.046552
894.846157	0.046993
895.028831	0.046928
895.211487	0.047190
895.394125	0.047033
895.576745	0.047153
895.759346	0.046600
895.941930	0.046778
896.124495	0.046723
896.307041	0.046752
896.489570	0.046606
896.672080	0.046544
896.854573	0.046100
897.037046	0.046160
897.219502	0.045877
897.401940	0.046054
897.584359	0.045608
897.766760	0.045474
897.949143	0.045118
898.131507	0.045107
898.313854	0.045276
898.496182	0.045258
898.678492	0.045086
898.860783	0.045003
899.043057	0.044748
899.225312	0.044784
899.407549	0.044639
899.589768	0.044699
899.771968	0.044467
899.954151	0.044219
900.136315	0.044200
900.318461	0.044237
900.500588	0.044642
900.682698	0.044756
900.864789	0.045097
901.046862	0.044935
901.228917	0.044903
901.410953	0.044935
901.592971	0.045022
901.774972	0.045155
901.956953	0.044969
902.138917	0.044569
902.320862	0.044288
902.502790	0.043972
902.684699	0.043990
902.866589	0.044019
903.048462	0.043860
903.230316	0.043735
903.412152	0.043578
903.593970	0.043782
903.775770	0.043927
903.957551	0.044378
904.139314	0.044588
904.321059	0.044598
904.502786	0.044556
904.684494	0.044606
904.866185	0.044674
905.047857	0.044708
905.229510	0.044451
905.411146	0.044113
905.592763	0.043993
905.774363	0.043904
905.955943	0.044107
906.137506	0.043987
906.319051	0.044000
906.500577	0.044020
906.682085	0.044139
906.863575	0.043970
907.045046	0.044101
907.226500	0.043691
907.407935	0.043551
907.589352	0.043239
907.770750	0.043249
907.952131	0.042970
908.133493	0.042320
908.314837	0.042023
908.496163	0.042215
908.677470	0.041951
908.858760	0.042049
909.040031	0.041533
909.221284	0.041349
909.402518	0.040853
909.583735	0.041041
909.764933	0.041279
909.946113	0.041111
910.127275	0.040739
910.308418	0.040588
910.489544	0.040431
910.670651	0.040697
910.851740	0.040703
911.032810	0.040921
911.213863	0.040816
911.394897	0.040912
911.575913	0.041045
911.756911	0.041370
911.937890	0.041408
912.118851	0.041028
912.299794	0.040570
912.480719	0.040454
912.661626	0.040076
912.842514	0.039820
913.023384	0.039216
913.204236	0.038709
913.385070	0.038209
913.565886	0.037901
913.746683	0.038105
913.927462	0.038209
914.108223	0.038240
914.288965	0.038359
914.469690	0.038441
914.650396	0.038567
914.831084	0.038640
915.011754	0.038942
915.192405	0.039205
915.373038	0.039233
915.553653	0.039473
915.734250	0.039141
915.914829	0.038836
916.095389	0.038453
916.275931	0.038032
916.456455	0.038220
916.636961	0.037516
916.817448	0.037022
916.997917	0.036796
917.178368	0.036309
917.358801	0.036346
917.539216	0.036427
917.719612	0.036005
917.899990	0.036449
918.080350	0.036016
918.260692	0.035864
918.441015	0.035582
918.621320	0.035114
918.801607	0.034680
918.981876	0.034364
919.162127	0.033999
919.342359	0.033789
919.522573	0.033293
919.702769	0.032809
919.882947	0.033029
920.063106	0.033034
920.243247	0.033054
920.423370	0.033089
920.603475	0.032876
920.783562	0.032676
920.963630	0.032729
921.143680	0.032463
921.323712	0.032328
921.503725	0.031940
921.683721	0.031722
921.863698	0.031820
922.043657	0.031377
922.223598	0.031026
922.403520	0.030714
922.583424	0.030217
922.763311	0.030107
922.943178	0.030205
923.123028	0.029822
923.302859	0.030042
923.482673	0.029397
923.662467	0.029565
923.842244	0.029784
924.022003	0.029751
924.201743	0.030020
924.381465	0.029777
924.561169	0.028867
924.740854	0.028746
924.920522	0.028000
925.100171	0.027872
925.279802	0.027657
925.459414	0.027320
925.639009	0.027311
925.818585	0.026443
925.998143	0.026400
926.177683	0.026765
926.357205	0.026541
926.536708	0.026335
926.716193	0.026303
926.895660	0.025733
927.075109	0.025485
927.254539	0.025159
927.433951	0.025496
927.613345	0.025354
927.792721	0.024915
927.972079	0.024823
928.151418	0.025113
928.330739	0.024653
928.510042	0.024675
928.689327	0.024474
928.868593	0.024116
929.047841	0.023412
929.227071	0.022864
929.406283	0.022813
929.585476	0.022518
929.764652	0.022013
929.943809	0.021620
930.122948	0.021453
930.302068	0.020504
930.481171	0.020477
930.660255	0.020725
930.839321	0.020084
931.018369	0.019873
931.197398	0.019935
931.376409	0.019961
931.555402	0.020237
931.734377	0.019623
931.913334	0.019898
932.092272	0.019909
932.271192	0.019724
932.450094	0.020280
932.628978	0.020051
932.807844	0.019414
932.986691	0.018577
933.165520	0.017537
933.344331	0.017587
933.523123	0.017157
933.701898	0.016504
933.880654	0.016283
934.059392	0.015974
934.238111	0.015973
934.416813	0.015653
934.595496	0.015768
934.774161	0.016256
934.952808	0.016303
935.131437	0.016242
935.310047	0.015496
935.488639	0.015579
935.667213	0.015179
935.845769	0.014201
936.024306	0.014603
936.202825	0.014571
936.381326	0.014346
936.559809	0.013656
936.738274	0.013013
936.916720	0.013527
937.095148	0.012345
937.273558	0.011958
937.451950	0.011793
937.630323	0.010922
937.808678	0.009881
937.987015	0.009062
938.165334	0.009321
938.343635	0.009850
938.521917	0.008476
938.700181	0.008520
938.878427	0.008571
939.056655	0.008992
939.234864	0.009078
939.413055	0.009203
939.591228	0.008338
939.769383	0.007892
939.947519	0.006863
940.125638	0.007231
940.303738	0.007287
940.481820	0.006281
940.659883	0.005331
940.837929	0.005019
941.015956	0.004356
941.193965	0.005822
941.371955	0.005448
941.549928	0.006014
941.727882	0.005946
941.905818	0.005468
942.083736	0.005220
942.261636	0.005578
942.439517	0.005131
942.617380	0.005907
942.795225	0.005284
942.973052	0.004546
943.150860	0.004462
943.328651	0.004171
943.506423	0.004790
943.684176	0.005383
943.861912	0.005375
944.039629	0.005201
944.217328	0.004957
944.395009	0.004357
944.572672	0.005092
944.750317	0.005039
944.927943	0.005012
945.105551	0.004400
945.283141	0.003469
945.460712	0.003393
945.638265	0.002782
945.815801	0.002254
945.993317	0.001837
946.170816	0.001775
946.348297	0.000504
946.525759	0.000719
946.703203	0.001002
946.880629	0.001042
947.058036	0.000535
947.235425	0.000164
947.412797	0.000219
947.590149	0.000280
947.767484	-0.000893
947.944800	-0.001045
948.122099	-0.001497
948.299379	-0.003612
948.476640	-0.003692
948.653884	-0.003984
948.831109	-0.003536
949.008316	-0.003487
949.185505	-0.003426
949.362676	-0.003275
949.539828	-0.003106
949.716962	-0.002616
949.894078	-0.001322
950.071176	-0.002173
950.248256	-0.002790
950.425317	-0.003126
950.602360	-0.003759
950.779385	-0.004119
950.956391	-0.004281
951.133380	-0.003519
951.310350	-0.003782
951.487302	-0.004201
951.664235	-0.002623
951.841151	-0.001804
952.018048	-0.001139
952.194927	-0.000889
952.371788	-0.000669
952.548631	0.001041
952.725455	-0.000281
952.902261	-0.000791
953.079049	-0.000981
953.255819	-0.000335
953.432570	-0.000282
953.609303	-0.000817
953.786018	-0.000742
953.962715	0.000037
954.139394	-0.000976
954.316054	-0.000966
954.492696	0.000498
954.669320	0.000925
954.845926	-0.001625
955.022513	-0.002767
955.199083	-0.002240
955.375634	-0.003303
955.552166	-0.004211
955.728681	-0.003707
955.905177	-0.001589
956.081655	-0.003323
956.258115	-0.003056
956.434557	-0.001367
956.610980	-0.000446
956.787385	0.000005
956.963772	0.000109
957.140141	0.000138
957.316492	-0.000014
957.492824	-0.002225
957.669138	-0.001607
957.845434	-0.001482
958.021712	-0.000740
958.197971	-0.001721
958.374212	-0.001163
958.550435	-0.000891
958.726640	-0.001034
958.902826	-0.002663
959.078995	-0.000801
959.255145	-0.000530
959.431277	-0.001076
959.607390	-0.001661
959.783486	0.000307
959.959563	0.000778
960.135622	0.001333
960.311662	0.003057
960.487685	0.005394
960.663689	0.004590
960.839675	0.004488
961.015643	0.004811
961.191593	0.005280
961.367524	0.005934
961.543437	0.004357
961.719332	0.005940
961.895209	0.003462
962.071067	0.002792
962.246907	0.002664
962.422730	0.003145
962.598533	0.003373
962.774319	0.003103
962.950086	0.002136
963.125835	0.002723
963.301566	0.001881
963.477279	0.004817
963.652973	0.007429
963.828650	0.008226
964.004308	0.008238
964.179947	0.008737
964.355569	0.009615
964.531172	0.007254
964.706757	0.006825
964.882324	0.007242
965.057873	0.006538
965.233403	0.002303
965.408916	0.001323
965.584410	0.002306
965.759885	0.001552
965.935343	0.001015
966.110782	0.001629
966.286203	0.002037
966.461606	0.002526
966.636991	0.002844
966.812357	0.005305
966.987705	0.006577
967.163035	0.005841
967.338347	0.007039
967.513641	0.007163
967.688916	0.008303
967.864173	0.008495
968.039412	0.007194
968.214632	0.007735
968.389835	0.007578
968.565019	0.006830
968.740185	0.005961
968.915333	0.006542
969.090462	0.007322
969.265573	0.008127
969.440667	0.008463
969.615741	0.008963
969.790798	0.008820
969.965836	0.007664
970.140856	0.008414
970.315858	0.008117
970.490842	0.007212
970.665808	0.007046
970.840755	0.006225
971.015684	0.004749
971.190595	0.005994
971.365487	0.004890
971.540362	0.005705
971.715218	0.004377
971.890056	0.004979
972.064875	0.005053
972.239677	0.003521
972.414460	0.004321
972.589225	0.004933
972.763972	0.005227
972.938700	0.006101
973.113411	0.006755
973.288103	0.008953
973.462777	0.009711
973.637432	0.010230
973.812070	0.011865
973.986689	0.012298
974.161290	0.011513
974.335873	0.010170
974.510437	0.009428
974.684984	0.008350
974.859512	0.007052
975.034022	0.006845
975.208513	0.006151
975.382987	0.005873
975.557442	0.005473
975.731879	0.005928
975.906298	0.005290
976.080698	0.005833
976.255080	0.007696
976.429445	0.009294
976.603790	0.008667
976.778118	0.008078
976.952427	0.007715
977.126719	0.005601
977.300992	0.006361
977.475246	0.004624
977.649483	0.004388
977.823701	0.003188
977.997901	0.002676
978.172083	0.003866
978.346247	0.004595
978.520392	0.005866
978.694519	0.007764
978.868628	0.007008
979.042719	0.009842
979.216791	0.008811
979.390845	0.008885
979.564882	0.006757
979.738899	0.006538
979.912899	0.006585
980.086880	0.004969
980.260843	0.005333
980.434788	0.006463
980.608715	0.006234
980.782623	0.007238
980.956514	0.007011
981.130386	0.007988
981.304240	0.008662
981.478075	0.008529
981.651892	0.008781
981.825692	0.008285
981.999472	0.006564
982.173235	0.006411
982.346980	0.006031
982.520706	0.005991
982.694414	0.007212
982.868104	0.006439
983.041775	0.006006
983.215428	0.005087
983.389064	0.006197
983.562680	0.006500
983.736279	0.006549
983.909860	0.007628
984.083422	0.006730
984.256966	0.006146
984.430491	0.004930
984.603999	0.004163
984.777488	0.004926
984.950959	0.004048
985.124412	0.004831
985.297847	0.003139
985.471263	0.002860
985.644661	0.003621
985.818041	0.004950
985.991403	0.006227
986.164747	0.007298
986.338072	0.007794
986.511379	0.006302
986.684668	0.007707
986.857938	0.008669
987.031191	0.007947
987.204425	0.007424
987.377641	0.006751
987.550839	0.006419
987.724018	0.006538
987.897179	0.006325
988.070322	0.009315
988.243447	0.007899
988.416554	0.007260
988.589642	0.007199
988.762712	0.007495
988.935764	0.006823
989.108798	0.007014
989.281813	0.004904
989.454811	0.004966
989.627790	0.003875
989.800751	0.004748
989.973693	0.005174
990.146617	0.005159
990.319524	0.004791
990.492412	0.003739
990.665281	0.002709
990.838133	0.003727
991.010966	0.004707
991.183781	0.004449
991.356578	0.004755
991.529356	0.004306
991.702117	0.005070
991.874859	0.006365
992.047583	0.006955
992.220288	0.008302
992.392976	0.009383
992.565645	0.007962
992.738296	0.008209
992.910929	0.007564
993.083543	0.007810
993.256139	0.007483
993.428718	0.007285
993.601277	0.007636
993.773819	0.006597
993.946342	0.005669
994.118848	0.004601
994.291335	0.003379
994.463803	0.003791
994.636254	0.005455
994.808686	0.004869
994.981100	0.004988
995.153496	0.004777
995.325874	0.005656
995.498233	0.006096
995.670574	0.007276
995.842897	0.007266
996.015202	0.006837
996.187488	0.005800
996.359757	0.006630
996.532007	0.006859
996.704239	0.006290
996.876452	0.004373
997.048648	0.005225
997.220825	0.004862
997.392984	0.005703
997.565124	0.004865
997.737247	0.004681
997.909351	0.003375
998.081437	0.002259
998.253505	0.003346
998.425554	0.004625
998.597586	0.003606
998.769599	0.004779
998.941594	0.003165
999.113571	0.003036
999.285529	0.002233
999.457469	0.002865
999.629391	0.003416
999.801295	0.002492
999.973181	0.001677
1000.145048	0.000276
1000.316897	0.000359
1000.488728	0.002112
1000.660541	0.002770
1000.832335	0.003825
1001.004111	0.003772
1001.175869	0.002509
1001.347609	0.002860
1001.519331	0.002837
1001.691034	0.005296
1001.862719	0.004649
1002.034386	0.005896
1002.206035	0.006163
1002.377665	0.005625
1002.549277	0.005186
1002.720871	0.004438
1002.892447	0.003979
1003.064004	0.003752
1003.235544	0.002186
1003.407065	0.001612
1003.578568	0.000601
1003.750052	-0.000410
1003.921519	-0.000426
1004.092967	-0.000636
1004.264397	0.000242
1004.435809	0.001284
1004.607202	0.002216
1004.778577	0.002704
1004.949934	0.001842
1005.121273	-0.000231
1005.292594	-0.000340
1005.463896	0.000250
1005.635180	0.001278
1005.806446	0.001686
1005.977694	0.001533
1006.148923	0.001805
1006.320135	0.003244
1006.491328	0.005236
1006.662503	0.006738
1006.833659	0.007307
1007.004798	0.006692
1007.175918	0.007664
1007.347020	0.008103
1007.518103	0.007419
1007.689169	0.007238
1007.860216	0.004548
1008.031245	0.003743
1008.202256	0.003621
1008.373248	0.001966
1008.544223	0.001820
1008.715179	0.001839
1008.886117	0.001987
1009.057036	0.001850
1009.227938	0.002877
1009.398821	0.005935
1009.569686	0.005922
1009.740533	0.005133
1009.911361	0.006471
1010.082172	0.007712
1010.252964	0.005456
1010.423738	0.005496
1010.594493	0.004483
1010.765231	0.003365
1010.935950	0.001008
1011.106651	0.000898
1011.277334	0.001861
1011.447998	0.002423
1011.618645	0.001337
1011.789273	0.002417
1011.959882	0.002140
1012.130474	0.003512
1012.301048	0.003129
1012.471603	0.004074
1012.642140	0.002526
1012.812658	0.002137
1012.983159	0.000639
1013.153641	-0.000363
1013.324105	-0.001357
1013.494551	-0.001474
1013.664979	-0.000883
1013.835388	-0.000293
1014.005779	-0.001784
1014.176152	-0.000408
1014.346507	-0.001641
1014.516843	-0.000872
1014.687162	0.001671
1014.857462	0.002052
1015.027744	0.001960
1015.198007	0.000972
1015.368252	0.001088
1015.538480	0.003241
1015.708689	0.003238
1015.878879	0.003390
1016.049052	0.003807
1016.219206	0.001600
1016.389342	0.001145
1016.559460	0.001843
1016.729559	0.000955
1016.899641	0.000225
1017.069704	-0.001427
1017.239749	-0.001409
1017.409775	-0.000213
1017.579784	-0.001435
1017.749774	-0.001591
1017.919746	-0.000775
1018.089700	-0.001711
1018.259635	-0.000491
1018.429553	-0.000919
1018.599452	0.000083
1018.769333	0.000184
1018.939195	-0.000257
1019.109040	-0.001004
1019.278866	0.000219
1019.448674	-0.000639
1019.618464	-0.000257
1019.788235	-0.000645
1019.957989	-0.000465
1020.127724	-0.000842
1020.297441	-0.002368
1020.467139	-0.002300
1020.636820	-0.000021
1020.806482	-0.001404
1020.976126	-0.000637
1021.145752	-0.000583
1021.315359	0.000751
1021.484948	-0.000253
1021.654519	-0.001699
1021.824072	0.000447
1021.993607	0.000791
1022.163123	0.000616
1022.332621	0.001391
1022.502101	0.002377
1022.671563	0.001086
1022.841007	0.000815
1023.010432	0.002263
1023.179839	0.002771
1023.349228	0.002338
1023.518598	0.000798
1023.687951	-0.000450
1023.857285	-0.000965
1024.026601	-0.002035
1024.195899	-0.000624
1024.365178	-0.001755
1024.534439	-0.002139
1024.703682	-0.001402
1024.872907	-0.002951
1025.042114	-0.002277
1025.211302	-0.000712
1025.380472	-0.001108
1025.549624	-0.002669
1025.718758	-0.003716
1025.887873	-0.003479
1026.056970	-0.003452
1026.226049	-0.002833
1026.395110	-0.002956
1026.564153	-0.002674
1026.733177	-0.002819
1026.902183	-0.001878
1027.071171	-0.001358
1027.240141	-0.001407
1027.409092	-0.001284
1027.578026	-0.001006
1027.746940	-0.000951
1027.915837	0.000997
1028.084716	0.001648
1028.253576	-0.000251
1028.422418	-0.000893
1028.591242	-0.000541
1028.760048	-0.000165
1028.928835	0.000665
1029.097604	-0.000384
1029.266355	-0.001392
1029.435088	-0.001852
1029.603803	-0.001687
1029.772499	-0.000692
1029.941177	-0.001501
1030.109837	0.000331
1030.278478	-0.000669
1030.447102	-0.003511
1030.615707	-0.003323
1030.784294	-0.001313
1030.952863	-0.001162
1031.121413	-0.002545
1031.289945	-0.002176
1031.458460	-0.000594
1031.626955	-0.001441
1031.795433	-0.001342
1031.963892	0.000310
1032.132334	-0.000281
1032.300756	-0.002146
1032.469161	-0.003258
1032.637548	-0.003199
1032.805916	-0.002948
1032.974266	-0.002458
1033.142598	-0.002289
1033.310911	-0.000509
1033.479207	-0.002578
1033.647484	-0.001669
1033.815743	-0.000654
1033.983983	0.001095
1034.152206	0.001950
1034.320410	0.002512
1034.488596	0.001757
1034.656764	0.001127
1034.824914	0.000568
1034.993045	0.002592
1035.161158	0.002568
1035.329253	0.002070
1035.497330	0.000807
1035.665388	0.000247
1035.833428	-0.000879
1036.001450	-0.001634
1036.169454	-0.001661
1036.337440	-0.002122
1036.505407	-0.002054
1036.673356	-0.002486
1036.841287	-0.001811
1037.009200	-0.002371
1037.177094	-0.001453
1037.344970	-0.000452
1037.512828	-0.000064
1037.680668	-0.000516
1037.848489	-0.000019
1038.016293	0.000266
1038.184078	0.001144
1038.351845	0.000469
1038.519593	0.001363
1038.687324	0.001734
1038.855036	0.002314
1039.022730	0.001517
1039.190406	0.001919
1039.358063	0.001395
1039.525702	0.000966
1039.693323	0.001157
1039.860926	-0.000141
1040.028511	-0.000909
1040.196077	-0.002382
1040.363625	-0.003857
1040.531155	-0.003431
1040.698667	-0.003790
1040.866161	-0.004233
1041.033636	-0.002793
1041.201093	-0.002902
1041.368532	-0.001616
1041.535952	-0.001477
1041.703355	-0.000657
1041.870739	0.000699
1042.038105	0.002465
1042.205452	0.004433
1042.372782	0.004912
1042.540093	0.003387
1042.707386	0.004009
1042.874661	0.003439
1043.041918	0.003851
1043.209156	0.004010
1043.376376	0.003175
1043.543578	0.002499
1043.710762	0.002090
1043.877927	0.001503
1044.045074	0.000884
1044.212203	0.000527
1044.379314	0.000502
1044.546407	0.000765
1044.713481	0.000729
1044.880537	-0.000510
1045.047575	-0.001984
1045.214595	-0.003438
1045.381596	-0.001892
1045.548579	-0.001689
1045.715544	-0.002521
1045.882491	-0.002612
1046.049420	-0.003602
1046.216330	-0.003868
1046.383222	-0.002058
1046.550096	-0.001119
1046.716951	-0.000421
1046.883789	-0.000931
1047.050608	-0.001712
1047.217409	0.000021
1047.384192	0.000247
1047.550956	0.001655
1047.717703	0.000368
1047.884431	-0.000365
1048.051140	-0.000791
1048.217832	-0.000174
1048.384505	0.000965
1048.551161	0.002781
1048.717798	0.001800
1048.884416	0.001517
1049.051017	0.000529
1049.217599	0.000304
1049.384163	-0.000188
1049.550709	-0.000356
1049.717237	0.000054
1049.883746	-0.001140
1050.050237	-0.001198
1050.216710	-0.002484
1050.383165	-0.002471
1050.549601	-0.003524
1050.716019	-0.001996
1050.882420	-0.002750
1051.048801	-0.001738
1051.215165	-0.003899
1051.381510	-0.004931
1051.547837	-0.004644
1051.714146	-0.003515
1051.880437	-0.003767
1052.046709	-0.001466
1052.212964	-0.001869
1052.379200	-0.000325
1052.545417	-0.000931
1052.711617	0.000377
1052.877798	-0.000852
1053.043961	-0.001798
1053.210106	-0.001673
1053.376233	-0.001627
1053.542341	-0.002871
1053.708432	-0.001810
1053.874504	-0.004028
1054.040557	-0.002741
1054.206593	-0.003277
1054.372610	-0.000563
1054.538609	-0.000410
1054.704590	-0.000677
1054.870553	-0.001126
1055.036497	-0.002658
1055.202424	-0.003430
1055.368331	-0.001802
1055.534221	-0.002776
1055.700093	-0.003945
1055.865946	-0.004405
1056.031781	-0.003418
1056.197598	-0.002693
1056.363397	-0.002365
1056.529177	-0.001105
1056.694939	-0.000008
1056.860683	0.001115
1057.026409	0.001135
1057.192116	0.002287
1057.357806	0.001798
1057.523477	0.000634
1057.689130	-0.000594
1057.854764	-0.000986
1058.020381	-0.000795
1058.185979	-0.001163
1058.351559	-0.004547
1058.517120	-0.003830
1058.682664	-0.003744
1058.848189	-0.003153
1059.013696	-0.003085
1059.179185	-0.003540
1059.344656	-0.003550
1059.510108	-0.003113
1059.675542	-0.003490
1059.840958	-0.003385
1060.006356	-0.003535
1060.171735	-0.003702
1060.337096	-0.004402
1060.502439	-0.004306
1060.667764	-0.003754
1060.833071	-0.001936
1060.998359	-0.001516
1061.163629	-0.002272
1061.328881	-0.000532
1061.494115	-0.002112
1061.659330	-0.001845
1061.824527	-0.002430
1061.989706	-0.001445
1062.154867	-0.001804
1062.320010	-0.001715
1062.485134	-0.001957
1062.650240	-0.001625
1062.815328	-0.000389
1062.980398	0.000439
1063.145449	-0.001200
1063.310482	-0.001384
1063.475497	-0.002497
1063.640494	-0.002980
1063.805473	-0.004074
1063.970433	-0.004372
1064.135375	-0.004926
1064.300299	-0.004284
1064.465204	-0.002911
1064.630092	-0.003603
1064.794961	-0.002666
1064.959812	-0.003144
1065.124645	-0.001202
1065.289459	-0.002194
1065.454256	-0.003027
1065.619034	-0.003409
1065.783793	-0.005404
1065.948535	-0.006619
1066.113258	-0.006183
1066.277964	-0.005807
1066.442651	-0.005091
1066.607319	-0.006702
1066.771970	-0.006018
1066.936602	-0.004843
1067.101216	-0.004338
1067.265812	-0.003126
1067.430389	-0.002670
1067.594949	-0.002641
1067.759490	-0.001615
1067.924013	-0.003013
1068.088518	-0.001332
1068.253004	-0.001250
1068.417472	-0.000656
1068.581922	0.000102
1068.746354	-0.001538
1068.910768	-0.002136
1069.075163	-0.002389
1069.239540	-0.002918
1069.403899	-0.001697
1069.568240	-0.002764
1069.732562	-0.002722
1069.896866	-0.005392
1070.061152	-0.006947
1070.225420	-0.006523
1070.389670	-0.006933
1070.553901	-0.005950
1070.718114	-0.007083
1070.882309	-0.007453
1071.046486	-0.008883
1071.210644	-0.009389
1071.374784	-0.008349
1071.538906	-0.007870
1071.703010	-0.007923
1071.867096	-0.007039
1072.031163	-0.005973
1072.195212	-0.005135
1072.359243	-0.005029
1072.523256	-0.004984
1072.687250	-0.005677
1072.851226	-0.005099
1073.015184	-0.004506
1073.179124	-0.004936
1073.343045	-0.005112
1073.506949	-0.005068
1073.670834	-0.006167
1073.834701	-0.006125
1073.998549	-0.004620
1074.162380	-0.001824
1074.326192	-0.001180
1074.489986	-0.001131
1074.653761	-0.001413
1074.817519	-0.000230
1074.981258	-0.000020
1075.144979	-0.000401
1075.308682	0.000350
1075.472367	-0.000812
1075.636033	-0.001591
1075.799681	-0.002430
1075.963311	-0.002766
1076.126923	-0.002618
1076.290516	-0.004472
1076.454092	-0.005068
1076.617649	-0.005520
1076.781187	-0.005096
1076.944708	-0.006121
1077.108210	-0.006857
1077.271695	-0.005958
1077.435160	-0.005896
1077.598608	-0.004597
1077.762038	-0.004090
1077.925449	-0.004085
1078.088842	-0.003821
1078.252217	-0.003752
1078.415573	-0.002092
1078.578912	-0.002903
1078.742232	-0.003584
1078.905534	-0.004717
1079.068817	-0.003803
1079.232083	-0.004482
1079.395330	-0.005162
1079.558559	-0.002972
1079.721770	-0.003971
1079.884962	-0.004208
1080.048136	-0.005372
1080.211293	-0.004441
1080.374430	-0.004087
1080.537550	-0.006988
1080.700651	-0.006753
1080.863735	-0.006159
1081.026800	-0.007521
1081.189846	-0.007628
1081.352875	-0.008737
1081.515885	-0.007091
1081.678877	-0.008583
1081.841851	-0.008619
1082.004807	-0.006320
1082.167744	-0.005760
1082.330663	-0.006334
1082.493564	-0.006605
1082.656447	-0.006217
1082.819312	-0.003335
1082.982158	-0.002454
1083.144986	-0.002090
1083.307796	-0.000427
1083.470587	-0.001331
1083.633361	-0.001912
1083.796116	-0.001531
1083.958853	-0.001906
1084.121571	-0.003938
1084.284272	-0.005959
1084.446954	-0.008638
1084.609618	-0.009475
1084.772264	-0.009721
1084.934892	-0.008657
1085.097501	-0.008983
1085.260092	-0.008489
1085.422665	-0.008656
1085.585220	-0.007297
1085.747756	-0.005844
1085.910274	-0.003853
1086.072774	-0.005285
1086.235256	-0.006770
1086.397720	-0.008016
1086.560165	-0.008174
1086.722592	-0.010306
1086.885001	-0.012835
1087.047392	-0.013148
1087.209764	-0.013860
1087.372119	-0.013568
1087.534455	-0.012333
1087.696772	-0.011725
1087.859072	-0.013045
1088.021353	-0.012660
1088.183616	-0.011897
1088.345861	-0.008684
1088.508088	-0.008810
1088.670296	-0.009137
1088.832486	-0.009850
1088.994658	-0.006800
1089.156812	-0.006346
1089.318948	-0.004846
1089.481065	-0.004244
1089.643164	-0.002407
1089.805245	-0.000805
1089.967308	0.000249
1090.129352	0.000011
1090.291378	-0.000733
1090.453386	-0.003553
1090.615376	-0.003602
1090.777347	-0.004259
1090.939301	-0.004972
1091.101236	-0.004611
1091.263153	-0.006302
1091.425051	-0.005746
1091.586932	-0.005943
1091.748794	-0.004453
1091.910638	-0.004408
1092.072463	-0.005777
1092.234271	-0.005383
1092.396060	-0.004192
1092.557831	-0.005934
1092.719584	-0.005190
1092.881319	-0.006327
1093.043035	-0.004874
1093.204733	-0.003670
1093.366413	-0.003690
1093.528075	-0.002283
1093.689718	-0.002173
1093.851343	-0.000128
1094.012950	-0.001617
1094.174539	-0.000938
1094.336110	-0.001403
1094.497662	-0.002630
1094.659196	-0.004340
1094.820712	-0.005458
1094.982210	-0.006745
1095.143689	-0.006614
1095.305151	-0.011231
1095.466594	-0.008906
1095.628018	-0.011509
1095.789425	-0.011790
1095.950813	-0.011195
1096.112183	-0.010695
1096.273535	-0.011549
1096.434869	-0.012260
1096.596184	-0.011309
1096.757482	-0.012224
1096.918761	-0.014066
1097.080021	-0.012056
1097.241264	-0.011889
1097.402488	-0.012379
1097.563694	-0.012982
1097.724882	-0.015050
1097.886052	-0.013508
1098.047203	-0.013975
1098.208336	-0.010380
1098.369451	-0.010091
1098.530548	-0.010430
1098.691627	-0.009722
1098.852687	-0.008845
1099.013729	-0.007288
1099.174753	0.000378
1099.335758	0.001885
1099.496746	0.002562
1099.657715	0.003092
1099.818666	0.002292
1099.979599	0.002445
1100.140513	0.002787
1100.301409	0.003392
1100.462287	0.002410
1100.623147	0.000282
1100.783989	-0.001107
1100.944812	-0.001734
1101.105617	-0.004567
1101.266404	-0.003087
1101.427173	-0.006212
1101.587923	-0.005785
1101.748656	-0.006204
1101.909370	-0.005536
1102.070066	-0.009699
1102.230743	-0.012132
1102.391403	-0.010076
1102.552044	-0.008685
1102.712667	-0.008567
1102.873271	-0.005773
1103.033858	-0.009128
1103.194426	-0.009031
1103.354976	-0.010540
1103.515508	-0.006530
1103.676021	-0.003274
1103.836517	-0.006715
1103.996994	-0.008065
1104.157453	-0.007503
1104.317893	-0.004632
1104.478316	-0.002784
1104.638720	-0.002812
1104.799106	-0.003253
1104.959474	-0.003982
1105.119823	-0.005803
1105.280155	-0.007803
1105.440468	-0.007233
1105.600763	-0.005938
1105.761039	-0.008042
1105.921298	-0.005382
1106.081538	-0.004684
1106.241760	-0.006626
1106.401964	-0.008394
1106.562149	-0.006570
1106.722316	-0.004692
1106.882465	-0.004376
1107.042596	-0.006187
1107.202709	-0.003856
1107.362803	-0.005178
1107.522879	-0.006444
1107.682937	-0.002622
1107.842977	-0.000735
1108.002999	-0.005721
1108.163002	-0.003712
1108.322987	-0.004555
1108.482954	-0.005456
1108.642902	-0.011575
1108.802833	-0.010088
1108.962745	-0.013679
1109.122639	-0.014532
1109.282515	-0.015776
1109.442372	-0.014349
1109.602211	-0.015976
1109.762032	-0.017618
1109.921835	-0.017532
1110.081620	-0.013909
1110.241386	-0.015482
1110.401134	-0.010103
1110.560864	-0.009034
1110.720576	-0.006056
1110.880269	-0.002423
1111.039945	0.000068
1111.199602	0.001854
1111.359240	-0.001129
1111.518861	-0.002032
1111.678463	-0.001645
1111.838047	-0.004939
1111.997613	-0.006870
1112.157161	-0.011810
1112.316690	-0.006116
1112.476202	-0.007916
1112.635695	-0.004540
1112.795169	0.000162
1112.954626	-0.000458
1113.114064	0.001680
1113.273484	0.003608
1113.432886	0.003713
1113.592270	0.008302
1113.751635	0.001567
1113.910983	0.002059
1114.070312	-0.002550
1114.229622	-0.002547
1114.388915	0.001513
1114.548189	0.000637
1114.707445	-0.001227
1114.866683	-0.000743
1115.025903	-0.003437
1115.185104	-0.003823
1115.344287	-0.007752
1115.503452	-0.007198
1115.662599	-0.009091
1115.821727	-0.010917
1115.980838	-0.013749
1116.139930	-0.011675
1116.299004	-0.011600
1116.458059	-0.008175
1116.617097	-0.007923
1116.776116	-0.006349
1116.935117	-0.005085
1117.094099	-0.002750
1117.253064	-0.004634
1117.412010	-0.005521
1117.570938	-0.007655
1117.729848	-0.004214
1117.888740	-0.008555
1118.047613	-0.009430
1118.206468	-0.008423
1118.365305	-0.009265
1118.524124	-0.008790
1118.682924	-0.008242
1118.841707	-0.006435
1119.000471	-0.006502
1119.159216	-0.010377
1119.317944	-0.008445
1119.476653	-0.005347
1119.635344	-0.003696
1119.794017	-0.002496
1119.952672	-0.006618
1120.111308	-0.006682
1120.269927	-0.006111
1120.428527	-0.001536
1120.587108	-0.004041
1120.745672	-0.004979
1120.904217	-0.004500
1121.062744	-0.007274
1121.221253	-0.005145
1121.379744	-0.004659
1121.538216	-0.006876
1121.696671	-0.007802
1121.855107	-0.011382
1122.013524	-0.007123
1122.171924	-0.005463
1122.330305	-0.008323
1122.488668	-0.005497
1122.647013	-0.008313
1122.805340	-0.008392
1122.963648	-0.006813
1123.121938	-0.007488
1123.280210	-0.008951
1123.438464	-0.011287
1123.596700	-0.014605
1123.754917	-0.014747
1123.913116	-0.018288
1124.071297	-0.016301
1124.229459	-0.012086
1124.387604	-0.016459
1124.545730	-0.015705
1124.703838	-0.017338
1124.861928	-0.015293
1125.019999	-0.009618
1125.178052	-0.009675
1125.336088	-0.006564
1125.494104	-0.007554
1125.652103	-0.008537
1125.810083	-0.003122
1125.968045	-0.004307
1126.125989	-0.000900
1126.283915	-0.001182
1126.441823	-0.004600
1126.599712	-0.001120
1126.757583	-0.003540
1126.915436	-0.002180
1127.073270	-0.002135
1127.231087	-0.003725
1127.388885	0.001979
1127.546665	0.003023
1127.704426	-0.001076
1127.862170	-0.000488
1128.019895	-0.004276
1128.177602	-0.003857
1128.335291	-0.004092
1128.492961	-0.003961
1128.650614	-0.003274
1128.808248	-0.006231
1128.965864	-0.006032
1129.123461	-0.003065
1129.281041	-0.005336
1129.438602	-0.004266
1129.596145	-0.005834
1129.753670	-0.005533
1129.911176	-0.005790
1130.068665	-0.001722
1130.226135	-0.005965
1130.383587	-0.005614
1130.541020	-0.005436
1130.698436	-0.003447
1130.855833	0.000771
1131.013212	-0.001085
1131.170573	-0.001002
1131.327915	-0.001834
1131.485239	-0.001842
1131.642545	0.002677
1131.799833	0.001348
1131.957103	0.004126
1132.114354	0.005097
1132.271588	0.002932
1132.428803	0.008491
1132.585999	0.005266
1132.743178	0.000553
1132.900338	-0.001953
1133.057480	-0.003661
1133.214604	-0.001731
1133.371710	-0.002613
1133.528797	0.000449
1133.685866	-0.000748
1133.842917	0.000511
1133.999950	0.004180
1134.156964	0.015543
1134.313960	0.014478
1134.470938	0.016704
1134.627898	0.016948
1134.784840	0.013674
1134.941763	0.009550
1135.098668	0.005456
1135.255555	0.006167
1135.412424	0.000104
1135.569274	-0.005787
1135.726107	-0.002408
1135.882921	-0.004801
1136.039716	-0.005917
1136.196494	-0.001475
1136.353253	-0.005420
1136.509995	-0.005813
1136.666717	-0.005798
1136.823422	-0.001338
1136.980109	0.000980
1137.136777	-0.002690
1137.293427	-0.004849
1137.450059	-0.001120
1137.606672	-0.002253
1137.763267	0.005613
1137.919844	0.012470
1138.076403	0.007859
1138.232944	0.007726
1138.389466	0.004301
1138.545971	0.002647
1138.702457	0.002846
1138.858924	0.002414
1139.015374	0.007294
1139.171805	0.007754
1139.328218	0.010609
1139.484613	0.012021
1139.640990	0.008903
1139.797348	0.011416
1139.953688	0.013438
1140.110010	0.014751
1140.266314	0.009119
1140.422600	0.001665
1140.578867	-0.004286
1140.735116	-0.012548
1140.891347	-0.012572
1141.047559	-0.009568
1141.203754	-0.012778
1141.359930	-0.008744
1141.516088	-0.004766
1141.672228	0.000215
1141.828349	-0.004163
1141.984452	-0.003654
1142.140537	0.004497
1142.296604	0.011317
1142.452653	0.012784
1142.608683	0.015007
1142.764695	0.011314
1142.920689	0.008190
1143.076665	0.004537
1143.232622	0.009445
1143.388562	0.012819
1143.544483	0.003588
1143.700385	-0.003660
1143.856270	-0.001350
1144.012136	-0.005626
1144.167985	-0.009277
1144.323814	-0.012676
1144.479626	-0.009444
1144.635420	-0.004774
1144.791195	-0.012188
1144.946952	-0.006396
1145.102691	-0.005407
1145.258411	-0.008292
1145.414113	-0.010276
1145.569798	-0.008051
1145.725463	-0.004785
1145.881111	-0.012933
1146.036741	-0.017500
1146.192352	-0.006520
1146.347945	-0.006056
1146.503519	-0.007299
1146.659076	-0.009064
1146.814614	-0.001354
1146.970134	0.000678
1147.125636	0.000560
1147.281120	0.006179
1147.436585	0.010130
1147.592032	0.001225
1147.747461	-0.005199
1147.902872	-0.001474
1148.058265	0.003934
1148.213639	-0.001508
1148.368995	-0.004846
1148.524333	-0.004849
1148.679653	-0.001248
1148.834954	-0.007279
1148.990237	0.001380
1149.145502	0.003678
1149.300749	-0.000953
1149.455977	-0.005644
1149.611188	-0.007482
1149.766380	-0.005033
1149.921553	-0.001929
1150.076709	-0.009059
1150.231846	-0.006807
1150.386966	-0.018471
1150.542066	-0.018413
1150.697149	-0.015266
1150.852214	-0.015366
1151.007260	-0.008612
1151.162288	-0.007142
1151.317298	-0.007993
1151.472289	-0.006872
1151.627263	-0.012818
1151.782218	-0.004256
1151.937155	0.002930
1152.092073	0.000711
1152.246974	-0.002922
1152.401856	-0.004015
1152.556720	-0.012950
1152.711566	-0.015773
1152.866393	-0.011955
1153.021203	-0.003186
1153.175994	-0.001179
1153.330767	-0.006917
1153.485521	-0.015255
1153.640258	-0.013178
1153.794976	-0.007321
1153.949676	-0.004375
1154.104358	0.001187
1154.259021	-0.004549
1154.413667	-0.007274
1154.568294	-0.009403
1154.722903	-0.009669
1154.877493	0.002075
1155.032066	0.008800
1155.186620	-0.000935
1155.341156	0.001891
1155.495674	-0.007783
1155.650173	-0.001050
1155.804654	-0.004019
1155.959118	-0.002387
1156.113562	-0.000677
1156.267989	-0.002029
1156.422397	-0.005132
1156.576788	-0.000934
1156.731160	-0.004975
1156.885513	-0.005082
1157.039849	-0.006951
1157.194166	-0.008812
1157.348465	-0.010465
1157.502746	-0.016691
1157.657009	-0.016860
1157.811253	-0.020211
1157.965479	-0.019561
1158.119687	-0.009808
1158.273877	-0.004008
1158.428048	-0.009941
1158.582201	-0.004293
1158.736337	-0.008573
1158.890453	-0.000349
1159.044552	0.002785
1159.198632	0.005804
1159.352694	-0.000798
1159.506738	-0.000583
1159.660764	-0.003834
1159.814771	0.000293
1159.968761	-0.002360
1160.122732	0.000089
1160.276685	-0.001936
1160.430619	-0.009537
1160.584535	-0.014246
1160.738434	-0.006711
1160.892313	-0.008541
1161.046175	-0.012878
1161.200019	-0.012559
1161.353844	-0.001879
1161.507651	0.002993
1161.661440	-0.010905
1161.815210	-0.009446
1161.968962	-0.011915
1162.122697	-0.020751
1162.276412	-0.022012
1162.430110	-0.014685
1162.583789	-0.011615
1162.737451	-0.019401
1162.891094	-0.023474
1163.044718	-0.020842
1163.198325	-0.007482
1163.351913	-0.002040
1163.505483	-0.003840
1163.659035	-0.006347
1163.812569	-0.003795
1163.966084	-0.003338
1164.119581	-0.001075
1164.273060	0.002744
1164.426521	0.014505
1164.579964	0.002320
1164.733388	0.008244
1164.886794	0.009811
1165.040182	0.009383
1165.193551	0.009129
1165.346903	-0.003077
1165.500236	-0.006432
1165.653551	-0.018928
1165.806848	-0.012396
1165.960126	-0.010663
1166.113386	-0.019342
1166.266628	-0.001957
1166.419852	0.001182
1166.573058	-0.001498
1166.726245	0.008254
1166.879414	0.002536
1167.032565	0.001468
1167.185698	-0.012548
1167.338812	-0.012470
1167.491909	-0.005642
1167.644987	-0.018048
1167.798046	-0.022917
1167.951088	-0.022576
1168.104111	-0.024473
1168.257117	-0.013243
1168.410103	-0.011405
1168.563072	-0.006067
1168.716023	-0.005170
1168.868955	-0.006959
1169.021869	-0.021707
1169.174765	-0.016184
1169.327642	-0.029883
1169.480501	-0.035667
1169.633343	-0.038928
1169.786165	-0.022404
1169.938970	-0.016768
1170.091757	-0.023256
1170.244525	-0.034840
1170.397275	-0.023877
1170.550007	-0.022978
1170.702720	-0.017400
1170.855415	-0.010272
1171.008092	-0.009076
1171.160751	-0.018690
1171.313392	-0.020988
1171.466014	0.012316
1171.618619	0.020932
1171.771205	0.020932
1171.923772	0.020932
