sample name	sample
index	195
start time	 02-18-2021  12:11:38 PM
880	-0.038816
Peak Time (s)	92.037
Peak Height 	-0.03882
calc peak height	90,93
Baseline Time (s)	9.036
Baseline Value 	-0.003818
subtract baseline	10,4
Abs	-0.009857
Peak Time (s)	90.035
Peak Height 	-0.009857
calc peak height	90,93
Baseline Time (s)	9.536
Baseline Value 	8.0496E-4
subtract baseline	10,3
PK_550	-0.006185
Peak Time (s)	91.036
Peak Height 	-0.006185
calc peak height	90,93
Baseline Time (s)	11.537
Baseline Value 	5.4806E-4
subtract baseline	10,2
PK_880	-0.017902
Peak Time (s)	90.035
Peak Height 	-0.0179
calc peak height	90,93
Baseline Time (s)	10.537
Baseline Value 	0.002464
subtract baseline	10,1


Time (s)	A880-A510	A880-A775	A880-A975	A880	I510	I775	I975	I880	
0.036000	-0.002419	-0.000286	0.004035	0.001285	6690.888374	43505.826509	3920.122907	22968.631930
0.536000	-0.004740	-0.000669	-0.001140	0.006087	6629.387055	43024.306186	3896.553143	22747.964924
1.036500	-0.001396	-0.000535	0.002390	0.003105	6683.953996	43313.006386	3911.875532	22884.695729
1.537500	-0.002327	0.000059	0.006922	0.000942	6694.671826	43570.151336	3927.869000	22984.463786
2.037500	-0.000848	0.000209	0.009577	0.000440	6711.972936	43631.193517	3935.498935	23007.683471
2.542000	-0.001018	0.000169	-0.001382	0.005262	6668.522106	43178.099405	3897.913943	22785.669369
3.034500	-0.000410	0.000429	0.001376	-0.000517	6724.207803	43741.573967	3918.075399	23052.046443
3.535500	-0.001759	0.000075	0.003352	0.000476	6703.706705	43615.286939	3920.425922	23006.056533
4.035500	-0.002197	-0.000737	0.002371	-0.000744	6710.534212	43653.464392	3920.995801	23062.597465
4.536000	0.000438	-0.000139	-0.000839	0.000117	6726.097973	43628.885969	3911.305274	23022.685193
5.036000	-0.000263	0.000132	0.002898	0.000343	6717.959215	43633.076221	3919.657912	23012.216169
5.536500	-0.000396	-0.001042	0.005085	-0.000394	6723.249131	43592.060887	3926.665379	23046.337198
6.037000	-0.000988	0.000827	0.004127	0.000760	6707.951879	43659.098020	3921.598661	22992.883955
6.537000	-0.001577	0.000325	-0.005613	0.000166	6707.999756	43667.785741	3899.940348	23020.384387
7.037500	-0.000556	-0.000332	-0.000558	-0.000486	6722.660330	43667.298238	3913.401998	23050.628532
7.537500	0.000858	0.000180	0.003599	0.000174	6729.284077	43653.434381	3921.736836	23020.035904
8.035000	-0.000734	0.000370	-0.000831	-0.000112	6717.820328	43698.097861	3911.865910	23033.289128
8.535500	0.000390	-0.000203	-0.001840	-0.000541	6731.449748	43684.501138	3910.490013	23053.158405
9.035500	-0.000049	0.000087	-0.001157	0.000000	6722.845711	43661.017565	3910.827730	23028.084487
9.536000	-0.001957	-0.000236	0.000000	0.000062	6705.582546	43624.912020	3913.423635	23025.190276
10.036000	-0.001519	0.000337	-0.000083	0.000363	6706.781689	43650.383712	3912.514387	23011.266766
10.536500	0.000000	0.000171	0.002570	0.000531	6718.609529	43619.072745	3918.423943	23003.470141
11.037000	0.001772	-0.000166	0.001379	-0.000450	6742.830985	43679.516825	3917.923332	23048.950124
11.537000	0.000070	0.000000	0.002160	-0.000738	6730.374818	43722.060881	3920.474670	23062.297589
12.037500	-0.001675	-0.000461	-0.003811	0.000002	6708.578773	43609.496883	3904.557322	23028.002184
12.535000	-0.000399	0.001067	0.004280	0.000564	6714.830326	43700.104712	3922.436094	23001.983224
13.035500	-0.000144	0.000948	0.001279	-0.000393	6725.460406	43778.731131	3917.549242	23046.296047
13.535500	0.000516	0.000992	0.000019	0.000205	6726.005529	43726.769289	3913.131673	23018.605568
14.060500	0.000524	0.000383	-0.000632	-0.000304	6730.549822	43717.258411	3912.792975	23042.169770
14.536000	-0.004497	0.000122	-0.000282	0.002627	6661.230703	43418.644920	3906.686200	22906.697570
15.039500	-0.000700	0.000730	0.001160	0.001477	6704.208299	43582.871783	3912.819949	22959.748279
15.553000	0.000436	-0.000015	0.003155	-0.000058	6727.615207	43656.910389	3921.229081	23030.770146
16.037000	0.000432	0.000700	0.003546	0.000100	6726.185277	43709.130375	3921.787393	23023.431642
16.537000	0.000591	0.001023	0.003768	0.000180	6726.877292	43731.945187	3922.125488	23019.721349
17.035000	0.000456	0.001066	0.007152	0.000796	6720.290207	43678.144037	3928.775099	22991.221579
17.535000	-0.000078	-0.000351	0.002731	-0.003532	6753.724659	43952.256358	3928.553765	23192.461818
18.035500	-0.000167	0.000675	0.005866	-0.000055	6722.295251	43721.388055	3927.728949	23030.644347
18.535500	-0.001765	-0.000040	0.002091	0.001019	6698.904747	43553.625143	3916.119535	22980.907530
19.035000	-0.000234	0.000070	0.000464	0.001175	6710.915842	43549.355240	3911.884466	22973.688570
19.536000	-0.000970	0.000721	0.000811	0.001300	6703.389305	43598.563833	3912.410175	22967.907707
20.036000	-0.001912	-0.000048	0.001686	0.001416	6694.162721	43515.798285	3914.212904	22962.563434
20.537000	-0.000843	-0.000349	-0.003041	0.001401	6703.620635	43489.044663	3903.076903	22963.246865
21.037000	-0.002541	-0.000322	0.005346	0.000896	6693.220106	43538.876514	3924.194343	22986.622731
21.540000	-0.002105	-0.000144	0.004315	0.001283	6693.644476	43519.301465	3920.796551	22968.713057
22.035000	-0.000728	-0.000222	-0.000309	0.001260	6705.852958	43514.154865	3909.852140	22969.774841
22.535000	0.000408	0.000469	0.002302	0.001500	6713.695463	43556.352885	3915.479941	22958.699999
23.035500	-0.000847	0.000739	0.007314	0.001412	6703.491778	43589.808674	3927.681766	22962.752580
23.536000	-0.000617	-0.000611	-0.002891	0.000698	6711.746843	43530.289063	3905.084820	22995.772385
24.036000	-0.000846	0.000020	0.002648	0.001198	6705.368607	43542.558664	3917.022260	22972.648355
24.536000	-0.000771	0.001054	0.000178	0.001359	6704.617945	43624.298210	3910.771079	22965.198555
25.037000	-0.001305	-0.000231	0.003732	0.001129	6701.958633	43525.467184	3919.770610	22975.807119
25.537000	-0.001530	-0.000408	0.004532	0.000680	6703.913133	43550.918020	3922.758628	22996.585136
26.037000	-0.001500	-0.000385	0.001434	0.001372	6698.134419	43488.439678	3913.719282	22964.583259
26.535000	-0.001695	-0.000359	-0.001475	0.001055	6699.199073	43520.435464	3907.580352	22979.242510
27.035000	-0.000534	0.000573	0.003958	0.001888	6702.068320	43529.805825	3918.498840	22940.783825
27.535500	0.000655	0.001144	0.004151	0.001762	6713.572584	43595.022090	3919.262339	22946.607283
28.035500	0.002368	0.000684	0.007736	-0.002198	6763.582436	43923.999649	3937.433832	23130.223319
28.536000	0.000589	0.000541	0.004511	0.000447	6724.527772	43661.692259	3923.269912	23007.400955
29.046500	0.000884	0.000567	0.005783	0.001350	6719.183952	43579.542059	3924.153391	22965.636047
29.536500	-0.000420	-0.000492	0.000747	-0.000612	6724.963555	43664.156253	3916.804902	23056.485381
30.037000	0.001149	-0.000406	0.000320	-0.000376	6736.680720	43649.998950	3915.225917	23045.500595
30.534000	-0.000113	0.001061	0.001735	0.000943	6714.008811	43663.905232	3915.454395	22984.427416
31.037500	-0.001514	-0.000183	0.004797	0.000383	6706.652140	43599.787462	3924.107034	23010.323709
31.537500	0.000781	0.001173	-0.004413	0.003679	6697.917022	43418.564151	3894.535087	22858.311675
32.035500	0.000277	0.000154	-0.000035	0.002278	6705.745890	43454.159011	3908.093805	22922.777230
32.596000	-0.002049	-0.000160	0.003354	0.000360	6702.176772	43604.051012	3920.705559	23011.392985
33.035500	-0.001833	0.000135	0.004244	0.000263	6704.918051	43640.932069	3923.070731	23015.919007
33.536000	-0.000857	0.000100	0.005521	-0.000122	6716.830133	43673.733636	3927.059368	23033.754413
34.036500	-0.001490	0.000135	0.007741	0.000392	6706.787766	43628.739428	3931.171152	23009.931937
34.537000	0.000648	0.000176	0.004886	0.000365	6725.759871	43635.084188	3924.363915	23011.167292
35.036500	-0.001203	0.000297	0.002380	0.002272	6692.880868	43468.058428	3913.827178	22923.052199
35.540000	0.000510	0.000854	-0.003404	0.002554	6705.364358	43493.773395	3899.519454	22910.062421
36.037500	-0.001329	0.000120	-0.001525	0.002223	6692.209654	43456.114079	3904.709991	22925.313145
36.535000	-0.004108	-0.000434	0.002576	0.001567	6673.772149	43465.698328	3915.970326	22955.603168
37.035500	-0.000320	0.000361	0.002561	0.002605	6697.678577	43442.989516	3913.467961	22907.721785
37.536000	-0.001183	-0.000002	0.000682	0.002012	6695.325499	43464.479715	3910.419609	22935.070671
38.036000	-0.001634	-0.000482	-0.000896	0.001689	6694.203532	43449.738466	3907.450148	22949.946173
38.536500	-0.001825	0.000325	0.001086	0.002516	6685.344498	43447.942518	3910.182042	22911.801861
39.036500	-0.000671	-0.000861	0.001077	0.001872	6701.006187	43397.403452	3911.685596	22941.515419
39.537000	-0.001541	0.001225	0.003660	0.002870	6684.743642	43498.901722	3915.450935	22895.531100
40.037000	-0.001691	0.000483	0.003343	0.002663	6685.227400	43448.974196	3915.188202	22905.030863
40.534500	-0.000352	-0.000462	-0.000318	0.001872	6703.795294	43434.640597	3908.385699	22941.532199
41.034500	0.000491	0.000597	0.004617	0.002474	6705.900390	43477.226383	3918.674352	22913.766757
41.535500	-0.003499	-0.000405	0.006511	0.001846	6676.634826	43442.386527	3924.711479	22942.734675
42.035500	-0.002052	-0.000173	0.003854	0.001860	6689.077801	43462.675582	3918.317768	22942.051421
42.535500	-0.003662	0.000101	0.001436	0.002325	6671.064862	43444.792404	3911.462230	22920.604324
43.036000	0.001306	0.000027	-0.000894	0.002232	6715.147825	43446.582840	3906.174177	22924.900049
43.536500	-0.000971	0.000904	-0.001306	0.002362	6694.122947	43516.411546	3904.898412	22918.915208
44.036500	-0.001834	-0.000162	-0.002258	0.001793	6691.565467	43469.970429	3903.997427	22945.179328
44.536500	-0.001735	0.000173	0.004024	0.002251	6688.434404	43458.462863	3917.790270	22924.027831
45.034500	0.002542	0.000465	0.006906	-0.002309	6766.108394	43913.817263	3935.689474	23135.398960
45.534000	-0.000042	-0.000140	0.003513	-0.000258	6725.169983	43663.870625	3922.564870	23040.043278
46.035000	-0.000323	0.000330	-0.000475	0.001973	6703.163508	43499.074776	3907.773439	22936.833605
46.535500	-0.001152	-0.000073	0.004315	0.000314	6710.422153	43616.565720	3923.116193	23013.527956
47.035500	0.001063	0.000544	0.006015	0.001272	6721.437520	43584.628418	3924.897732	22969.228246
47.536000	0.000343	0.000518	0.006313	0.000559	6721.376600	43649.079131	3927.326319	23002.212017
48.038000	-0.003270	0.000231	-0.001899	0.003161	6667.221033	43379.021472	3901.624887	22882.108520
48.536500	-0.000037	-0.000176	0.003054	0.000096	6722.105819	43627.401668	3920.620953	23023.647413
49.036500	-0.004530	-0.000194	0.004743	0.002650	6660.744079	43387.072567	3918.553993	22905.644174
49.537000	-0.001909	0.000187	0.002372	0.001920	6689.805192	43490.693832	3914.645899	22939.314689
50.064500	-0.003691	0.000406	0.001302	0.005515	6643.283478	43176.630229	3903.615229	22774.088536
50.534500	0.000505	0.000029	0.006420	-0.000009	6727.791497	43656.426145	3928.952642	23028.492857
51.035000	-0.002238	0.001182	0.004652	0.000944	6695.431085	43675.141214	3922.414749	22984.380460
51.535500	0.001936	0.001356	0.004446	-0.002228	6760.012478	43990.342093	3929.543780	23131.628956
52.041500	-0.003877	-0.000592	0.005494	0.002941	6663.873265	43322.982923	3919.652576	22892.252762
52.535500	0.008460	0.000724	0.005927	-0.004891	6842.315792	44182.668139	3939.583298	23256.021557
53.036000	-0.034132	-0.023599	-0.003270	0.082690	5823.898651	34813.266552	3728.379760	19538.569523
53.536500	-0.029859	-0.021393	-0.005844	-0.074901	7140.000382	48991.749086	4091.313984	26816.685836
54.036500	-0.033123	-0.064532	-0.004996	-0.241479	9071.060014	64132.418787	4660.006739	37997.343686
54.537000	-0.020965	-0.032076	0.002428	-0.178720	8393.451998	60007.936167	4447.336089	33275.037478
55.034500	-0.023260	-0.028274	-0.005078	-0.167027	8219.647442	58980.169378	4379.654111	32468.112996
55.534500	-0.024991	-0.021836	-0.006322	-0.142872	7912.418177	56739.860419	4294.594489	30868.511360
56.038500	-0.022809	-0.017975	-0.010581	-0.134196	7838.174863	56146.646477	4253.151736	30315.353097
56.535500	-0.013730	-0.012331	-0.008165	-0.126371	7852.429597	55880.204755	4236.185380	29825.860339
57.036000	-0.011322	-0.010518	-0.010739	-0.115110	7752.696314	54740.735577	4193.734417	29136.669656
57.536000	-0.008348	-0.005006	-0.014845	-0.090891	7521.492872	52556.539747	4110.930057	27713.635592
58.036000	-0.026910	-0.012234	-0.009319	-0.044008	6876.397446	46743.563661	3999.323306	25174.537076
58.536000	-0.006970	-0.012609	-0.012402	-0.131111	7985.050183	56426.949436	4237.752263	30121.324539
59.036500	-0.009917	-0.010194	-0.014238	-0.120971	7834.395166	55483.837070	4200.886135	29493.141160
59.537500	-0.010327	-0.006392	-0.008381	-0.081770	7405.124159	51370.514387	4103.433322	27197.947506
60.034500	-0.020283	-0.008344	-0.011786	-0.060586	7094.097460	48857.724185	4036.217614	26041.230231
60.535000	-0.013491	-0.006584	-0.009077	-0.059956	7153.889295	48977.326131	4041.753906	26007.697399
61.038000	-0.012311	-0.005065	-0.016120	-0.066371	7228.750561	49826.191861	4040.078164	26351.532089
61.535500	-0.013871	-0.007132	-0.011736	-0.072866	7278.109703	50306.669922	4069.447178	26704.860264
62.038500	-0.019965	-0.007455	-0.019331	-0.066800	7157.493148	49614.927391	4032.684194	26374.675557
62.536000	-0.021983	-0.009742	-0.012854	-0.078156	7249.813186	50599.946894	4080.904594	26996.568713
63.036000	-0.023133	-0.010561	-0.015459	-0.079986	7256.614754	50711.042633	4078.766472	27098.318239
63.536500	-0.021677	-0.014205	-0.017532	-0.103899	7518.086258	52993.706535	4140.479024	28468.090826
64.037000	-0.021862	-0.013043	-0.013564	-0.100150	7476.530193	52696.326194	4141.109685	28248.289843
64.540000	-0.029255	-0.016404	-0.016441	-0.114201	7547.082300	53936.478323	4173.918871	29081.794470
65.034500	-0.026397	-0.015303	-0.017676	-0.113710	7572.418806	54008.108909	4168.796639	29052.205061
65.541000	-0.023985	-0.013023	-0.017833	-0.110216	7560.822000	53865.568700	4158.029013	28842.689242
66.036000	-0.023264	-0.011842	-0.015257	-0.106901	7533.130342	53615.952918	4155.859630	28645.428820
66.536000	-0.021457	-0.011427	-0.021637	-0.103050	7511.420663	53216.556573	4126.205711	28418.126965
67.036000	-0.025133	-0.010717	-0.022515	-0.100143	7442.193542	52962.847347	4115.412316	28247.906739
67.541500	-0.019902	-0.009144	-0.018060	-0.096025	7453.823600	52670.486732	4116.371157	28008.705882
68.036500	-0.016686	-0.007247	-0.013664	-0.092979	7455.604379	52539.073209	4120.210722	27833.197634
68.539500	-0.016505	-0.006413	-0.017453	-0.090429	7430.877623	52343.525326	4102.272374	27687.243029
69.038000	-0.016171	-0.004948	-0.016014	-0.087645	7405.436964	52193.557903	4098.501250	27528.838533
69.537500	-0.017489	-0.004178	-0.020635	-0.084994	7364.543318	51980.727908	4078.306279	27378.992852
70.035000	-0.019140	-0.004292	-0.019235	-0.077512	7271.845798	51130.445499	4061.673887	26960.899016
70.535500	-0.016143	-0.003711	-0.018421	-0.080499	7332.359640	51527.921328	4072.040157	27126.931803
71.036000	-0.013556	-0.003266	-0.018386	-0.077687	7330.079539	51263.921025	4064.458301	26970.603804
71.536000	-0.015446	-0.003449	-0.019398	-0.076309	7296.945589	51090.450894	4057.971050	26894.357507
72.036000	-0.017152	-0.003260	-0.021450	-0.069192	7208.710592	50328.309518	4033.406158	26504.320504
72.537000	-0.013769	-0.003360	-0.016231	-0.072283	7273.270788	50655.853277	4055.644041	26672.909911
73.037000	-0.011508	-0.002358	-0.013341	-0.070059	7273.641499	50521.788166	4057.446168	26551.495682
73.537000	-0.013608	-0.002991	-0.014346	-0.069223	7244.238628	50361.070416	4052.476381	26506.019908
74.037000	-0.016717	-0.003023	-0.020806	-0.062780	7149.953813	49659.235296	4018.220583	26158.398700
74.535000	-0.015146	-0.002701	-0.012725	-0.065811	7195.125787	50021.398909	4047.659486	26321.293390
75.034500	-0.017061	-0.003779	-0.018010	-0.065106	7169.358242	49828.479908	4031.697123	26283.340277
75.535000	-0.015459	-0.003571	-0.016323	-0.063874	7172.978004	49717.997376	4032.899384	26217.054301
76.036000	-0.019231	-0.004562	-0.025868	-0.058063	7079.949596	48991.018380	3992.928856	25907.181449
76.541500	-0.015501	-0.004535	-0.016468	-0.061887	7153.102219	49401.227711	4027.265042	26110.625518
77.036500	-0.014680	-0.004729	-0.019536	-0.060554	7148.111619	49238.089656	4015.721901	26039.508899
77.536500	-0.015534	-0.004821	-0.016556	-0.060093	7135.295561	49179.152563	4022.315911	26014.950804
78.037000	-0.019052	-0.004830	-0.019880	-0.053076	7034.024984	48437.073666	3995.490799	25644.482965
78.537000	-0.016980	-0.004786	-0.017038	-0.057788	7098.963550	48938.089899	4015.024812	25892.622785
79.037500	-0.016402	-0.004695	-0.015195	-0.056447	7091.609596	48805.875723	4016.334677	25821.737036
79.535000	-0.016429	-0.004592	-0.014468	-0.055500	7082.236417	48716.838475	4015.760151	25771.805841
80.035500	-0.016198	-0.005126	-0.015932	-0.055131	7080.911381	48621.770000	4010.985842	25752.378058
80.536000	-0.017847	-0.005562	-0.015028	-0.054124	7055.477046	48470.181240	4010.716120	25699.434436
81.038500	-0.017499	-0.005264	-0.019422	-0.052721	7045.428207	48354.552510	3995.755408	25625.932211
81.542000	-0.018820	-0.005773	-0.015651	-0.053156	7036.998631	48346.748939	4006.591339	25648.713143
82.036500	-0.018684	-0.005689	-0.014728	-0.051767	7025.103102	48210.482738	4005.385239	25576.042404
82.536500	-0.018622	-0.005390	-0.015053	-0.050454	7013.269531	48104.876284	4001.157899	25507.594572
83.037000	-0.019920	-0.005418	-0.014546	-0.049640	6993.367065	48017.365268	4000.366599	25465.263096
83.536500	-0.019484	-0.006280	-0.015378	-0.049094	6992.329784	47871.515752	3996.824935	25436.924014
84.034500	-0.018760	-0.005734	-0.016300	-0.047853	6987.469771	47799.593476	3991.285630	25372.594217
84.535000	-0.020833	-0.006902	-0.011704	-0.047881	6968.313076	47681.960514	4003.157846	25374.056824
85.038000	-0.020346	-0.005827	-0.013228	-0.046387	6958.921716	47638.946277	3995.397862	25296.915175
85.536000	-0.021581	-0.006092	-0.016034	-0.045806	6942.022888	47551.912711	3986.750317	25266.959863
86.036000	-0.021277	-0.006968	-0.014636	-0.046030	6946.921341	47484.934154	3990.881795	25278.461976
86.536500	-0.020265	-0.006291	-0.015507	-0.043979	6937.279282	47344.220197	3983.446600	25173.045798
87.036500	-0.020553	-0.006971	-0.017866	-0.044146	6936.162404	47291.798556	3977.905642	25181.645459
87.536500	-0.022348	-0.006647	-0.013315	-0.043161	6910.475740	47224.424250	3986.939359	25131.166585
88.037500	-0.025051	-0.007502	-0.014537	-0.039203	6849.575129	46736.188577	3973.840524	24929.451522
88.534500	-0.019458	-0.006761	-0.013196	-0.042324	6929.429069	47127.470087	3985.112359	25088.358757
89.035500	-0.020533	-0.006520	-0.011293	-0.041199	6909.111474	47037.499213	3987.089394	25030.918411
89.535500	-0.018799	-0.006246	-0.015969	-0.041261	6925.693000	47071.760196	3975.414707	25034.124765
90.035500	-0.017902	-0.006633	-0.009857	-0.040322	6925.302278	46937.193079	3988.512113	24986.295813
90.538500	-0.020189	-0.007017	-0.015050	-0.040887	6909.413063	46955.508591	3976.787745	25015.050069
91.036000	-0.018776	-0.006185	-0.010795	-0.039416	6908.874956	46890.815390	3983.825113	24940.261299
91.536500	-0.017988	-0.006712	-0.012828	-0.039418	6916.153315	46837.637316	3978.685977	24940.367959
92.036500	-0.017919	-0.006383	-0.013938	-0.038816	6911.245969	46810.113712	3974.373583	24909.846683
92.536500	-0.019113	-0.006910	-0.015612	-0.039236	6904.123839	46799.330736	3971.225529	24931.152576
93.034500	-0.019180	-0.005701	-0.014075	-0.037593	6888.423562	46755.464887	3970.957838	24847.951008
93.537500	-0.018606	-0.006333	-0.010209	-0.038130	6898.616279	46745.912884	3982.052818	24875.130568
94.035000	-0.021748	-0.005941	-0.011122	-0.033187	6825.041807	46289.148415	3967.322014	24626.400625
94.535500	-0.017196	-0.005846	-0.006657	-0.037126	6902.353929	46693.811240	3988.523680	24824.391410
95.036000	-0.017730	-0.005792	-0.009753	-0.036913	6895.484079	46677.750871	3980.127234	24813.629192
95.595500	-0.016117	-0.006262	-0.012365	-0.037404	6914.833665	46679.846766	3974.777573	24838.381910
96.036000	-0.019831	-0.006726	-0.014211	-0.033543	6845.590535	46246.322155	3960.514777	24644.225354
96.572000	-0.019329	-0.006345	-0.010990	-0.035210	6865.304458	46451.120099	3972.719770	24727.879940
97.036500	-0.015719	-0.005397	-0.008892	-0.036943	6914.251880	46720.525513	3982.379638	24815.107052
97.540000	-0.016421	-0.005130	-0.008437	-0.036852	6906.951682	46738.303112	3983.304225	24810.543819
98.034500	-0.017039	-0.005132	-0.015088	-0.032573	6862.136042	46308.690798	3955.938531	24595.720670
98.535000	-0.015266	-0.006454	-0.011536	-0.038168	6929.759810	46737.438483	3978.790705	24877.008386
99.035000	-0.016407	-0.005886	-0.016417	-0.037487	6912.934749	46726.177653	3964.838893	24842.600747
