sample name	sample
index	556
start time	 03-15-2021  12:22:59 PM
880	0.035524
Peak Time (s)	92.035
Peak Height 	0.03552
calc peak height	90,93
Baseline Time (s)	10.536
Baseline Value 	0.003252
subtract baseline	10,4
Abs	0.012700
Peak Time (s)	91.535
Peak Height 	0.0127
calc peak height	90,93
Baseline Time (s)	11.536
Baseline Value 	0.009015
subtract baseline	10,3
PK_550	0.008352
Peak Time (s)	92.536
Peak Height 	0.008352
calc peak height	90,93
Baseline Time (s)	11.036
Baseline Value 	0.003994
subtract baseline	10,2
PK_880	0.014672
Peak Time (s)	92.536
Peak Height 	0.01467
calc peak height	90,93
Baseline Time (s)	9.034
Baseline Value 	0.006705
subtract baseline	10,1


Time (s)	A880-A510	A880-A775	A880-A975	A880	I510	I775	I975	I880	
0.034500	-0.007129	-0.004127	-0.011202	-0.003160	6053.018242	39530.015739	3732.309801	20792.792009
0.535500	-0.003552	-0.003816	-0.010423	-0.001307	6065.867848	39400.078825	3730.006685	20716.281030
1.035500	-0.006054	-0.002640	-0.009742	-0.001493	6048.628894	39514.860760	3731.865910	20723.945126
1.536000	-0.006429	-0.003343	-0.008646	0.000891	6028.203094	39255.159584	3729.102084	20625.913439
2.036000	-0.002565	-0.002257	-0.005693	-0.003196	6087.400398	39691.356181	3744.306818	20794.287709
2.536500	-0.004537	-0.001670	-0.006526	-0.003030	6071.380843	39727.055924	3742.135490	20787.414314
3.037000	-0.002290	-0.001287	-0.003767	-0.005074	6103.621440	39933.732671	3752.627523	20872.205976
3.537000	-0.003019	-0.002249	-0.005628	-0.001976	6074.850453	39588.734697	3741.796637	20743.873839
4.034500	-0.004336	-0.001329	-0.001650	-0.002061	6065.642447	39673.830627	3750.660781	20747.380757
4.535000	-0.003316	-0.001510	-0.010202	-0.002140	6073.854873	39665.111778	3732.266526	20750.619327
5.037500	-0.001956	-0.001486	-0.002988	-0.001447	6078.848486	39608.444202	3746.390476	20722.030639
5.535500	-0.002808	-0.001591	-0.005665	-0.001701	6074.369116	39621.070000	3741.118569	20732.508836
6.038500	-0.002806	-0.001689	-0.003434	-0.001745	6074.718335	39616.530252	3746.068079	20734.333887
6.536000	-0.002416	-0.000976	-0.004469	-0.001582	6076.418430	39663.167477	3743.459177	20727.621699
7.036500	-0.000582	-0.000925	-0.008804	-0.001381	6088.665798	39650.416634	3733.641975	20719.318211
7.536500	-0.002349	-0.000262	0.000647	-0.000658	6070.002496	39645.290780	3752.622497	20689.534058
8.036500	-0.003148	-0.000150	0.004609	-0.000487	6062.761045	39640.272299	3760.984895	20682.492695
8.534500	0.000734	0.000121	0.003855	-0.000117	6089.062251	39631.951890	3758.500035	20667.310848
9.034500	0.000000	-0.000401	-0.004527	-0.000308	6084.976716	39603.865726	3740.564613	20675.135846
9.535500	-0.000069	0.000059	0.002486	0.000162	6080.935450	39603.061961	3754.863540	20655.834068
10.035500	-0.001338	-0.000730	0.000122	-0.000607	6077.187720	39601.402061	3751.357337	20687.447694
10.535500	-0.000493	-0.000105	-0.001422	0.000000	6078.967511	39602.918515	3746.650575	20662.485827
11.036000	0.001410	0.000000	-0.001453	0.000166	6092.013368	39597.723666	3746.221127	20655.659059
11.536000	0.001984	0.000375	0.000000	0.001071	6089.517698	39552.913059	3747.416846	20618.517034
12.036500	-0.000284	0.000242	-0.003084	0.006080	6035.266971	39120.924293	3729.902249	20414.405084
12.537000	0.000960	0.000025	-0.002784	0.000990	6082.441420	39530.166949	3741.531424	20621.845575
13.037000	0.001401	0.000418	0.002921	-0.000400	6096.205231	39681.100223	3757.061394	20678.924440
13.537000	-0.000573	0.000734	-0.000589	0.001298	6068.660019	39564.051939	3745.636065	20609.236860
14.034500	-0.001093	0.000318	-0.004689	0.006651	6025.083741	39079.669657	3725.249367	20391.295312
14.535000	-0.001073	0.000435	-0.004288	0.005014	6037.315593	39226.267421	3729.606602	20457.645324
15.035500	0.001889	0.001808	0.002341	0.002969	6074.573272	39513.652493	3748.385242	20540.906067
15.556000	0.002790	0.001793	0.001814	0.003388	6078.184190	39476.981166	3746.318419	20523.810282
16.036000	0.000094	0.000858	0.000314	0.007600	6026.833689	39045.501986	3733.938827	20352.919076
16.537000	0.001834	0.001527	-0.000150	0.003093	6073.232326	39479.480592	3742.684850	20535.846473
17.037000	0.003118	0.001072	-0.002328	0.002655	6086.142063	39478.002096	3738.910266	20553.713887
17.537000	0.002325	0.001556	-0.002958	0.004630	6065.413439	39352.434989	3733.287199	20473.231119
18.037000	0.001079	0.001284	0.001456	0.005642	6048.610958	39244.825842	3740.637651	20432.171880
18.537500	0.004495	0.002199	-0.000847	0.005614	6074.281466	39323.875495	3735.716010	20433.300440
19.040500	0.002655	0.001001	0.003087	0.005437	6061.859341	39238.280416	3744.627562	20440.484565
19.535500	0.003077	0.002658	0.005557	0.006418	6057.691738	39294.885552	3747.875026	20400.697130
20.036000	0.000591	0.001716	0.001362	0.007551	6030.859193	39121.155227	3736.302191	20354.890440
20.535500	0.003468	0.002186	0.006706	0.006721	6058.353663	39229.931094	3749.727554	20388.440778
21.035500	0.003058	0.001352	0.003796	0.006185	6059.290447	39204.935974	3744.542577	20410.146240
21.536000	0.003575	0.000849	0.005249	0.005653	6067.115955	39207.415259	3748.875248	20431.707520
22.037000	0.002559	0.001733	0.002227	0.007743	6044.003126	39106.631032	3737.759009	20347.164624
22.537000	0.001314	0.001645	0.000058	0.006682	6042.636982	39187.932202	3735.364987	20390.022509
23.037000	0.003642	0.002097	0.006048	0.007303	6055.318897	39173.791506	3747.017298	20364.933941
23.535000	0.001252	0.002271	0.000531	0.007140	6038.785989	39201.955930	3735.395490	20371.485533
24.035000	0.001498	0.002734	0.000632	0.009501	6023.167039	39043.429272	3730.534339	20276.321134
24.535500	0.004830	0.002313	0.002562	0.007227	6064.736000	39198.194001	3739.600590	20367.997442
25.038500	0.003369	0.002730	0.005944	0.008109	6047.295903	39159.297084	3745.030415	20332.382369
25.536000	0.001500	0.002247	0.008749	0.007882	6035.134111	39137.911421	3751.661693	20341.545984
26.036000	0.001130	0.001899	0.004125	0.009290	6022.015080	38991.474535	3738.518154	20284.833382
26.536500	0.003742	0.002149	0.004706	0.007788	6052.453553	39137.616307	3743.035047	20345.336534
27.036500	0.003352	0.003293	0.005380	0.008538	6043.992256	39170.530045	3742.870655	20315.095757
27.537000	0.002075	0.002717	0.003670	0.008530	6034.591606	39123.034855	3739.176994	20315.409015
28.037500	0.007439	0.003543	0.005607	0.005071	6100.480396	39482.661981	3750.932604	20455.311339
28.534000	0.004365	0.002566	0.005616	0.007393	6060.029647	39205.511095	3745.876490	20361.288591
29.035500	0.006106	0.003123	0.007324	0.007484	6072.342036	39244.439505	3749.408841	20357.592734
29.538500	0.007010	0.002854	0.006646	0.008419	6072.115547	39143.817255	3745.885578	20319.898491
30.036000	0.004018	0.003273	0.000780	0.007307	6058.082954	39271.950622	3735.574083	20364.766784
30.536000	0.004988	0.003159	0.007726	0.007413	6064.527595	39253.439369	3750.445523	20360.477498
31.036500	0.005189	0.003267	0.010710	0.008330	6059.184417	39185.683871	3754.986309	20323.461569
31.542000	0.006207	0.003109	0.002769	0.008085	6068.606608	39193.050495	3738.189147	20333.351661
32.037000	0.003555	0.003115	0.003874	0.011379	6024.484811	38918.862826	3733.465792	20200.976742
32.558500	0.003161	0.001690	0.005755	0.007128	6053.039339	39154.347635	3746.757869	20371.974195
33.035000	0.008168	0.003355	0.011150	0.008282	6081.813339	39197.110686	3756.061619	20325.408149
33.535000	0.005098	0.003553	0.004245	0.009250	6051.664598	39132.689838	3738.863307	20286.428586
34.035500	0.002894	0.002861	-0.002560	0.014046	6000.060879	38677.174010	3714.081435	20094.580419
34.535500	0.007597	0.003912	0.009303	0.008954	6072.501773	39187.466086	3750.524793	20298.328062
35.036000	0.008560	0.002820	0.004869	0.007975	6087.055872	39177.980751	3742.980651	20337.763646
35.536000	0.005235	0.003717	0.002478	0.011292	6037.534720	38976.148863	3730.652150	20204.474755
36.036500	0.004528	0.003180	0.005359	0.012392	6024.194734	38840.204381	3734.482781	20160.481842
36.536500	0.003533	0.003778	0.003180	0.011107	6026.333083	38996.640618	3732.556612	20211.871435
37.037000	0.004581	0.003123	-0.000774	0.011176	6033.554276	38936.426154	3723.947696	20209.115869
37.537000	0.005972	0.003817	0.004174	0.011591	6040.778237	38959.657735	3733.656021	20192.514551
38.035000	0.006619	0.003920	0.004180	0.012072	6042.004208	38928.196511	3732.631664	20173.259669
38.535500	0.004364	0.004314	0.006615	0.012418	6022.798501	38932.198255	3737.136387	20159.456543
39.038000	0.004466	0.003975	0.012569	0.011800	6028.103437	38955.424233	3751.445987	20184.156347
39.536000	0.006982	0.004341	0.007133	0.012583	6040.909416	38920.665896	3737.899284	20152.851107
40.036000	0.005196	0.003305	0.009350	0.013159	6023.462452	38787.025190	3741.453652	20129.875674
40.536500	0.005108	0.003788	0.010761	0.012091	6030.689179	38915.667154	3746.852303	20172.510601
41.036500	0.004856	0.005104	0.004109	0.012900	6022.864214	38957.771076	3730.702861	20140.212491
41.539500	0.006691	0.003869	0.009205	0.012102	6042.320175	38921.500039	3743.438366	20172.085383
42.037000	0.004481	0.004303	0.000210	0.013777	6013.661495	38818.563411	3720.509177	20105.270531
42.534500	0.007863	0.004819	0.007083	0.012932	6044.860857	38931.474452	3737.038940	20138.957918
43.035500	0.006525	0.004016	0.009892	0.012771	6036.143575	38878.134585	3743.476821	20145.372253
43.535000	0.007717	0.004993	0.006782	0.013559	6039.126907	38893.858807	3735.035378	20113.959681
44.035500	0.004710	0.003337	0.006989	0.013708	6015.852611	38744.311834	3735.160625	20108.025256
44.535500	0.006560	0.005213	0.005504	0.013116	6033.845638	38948.863169	3733.235730	20131.602274
45.036000	0.007431	0.004681	0.008470	0.011726	6050.604639	39020.305778	3742.658410	20187.130449
45.536000	0.006019	0.003948	0.004128	0.010596	6048.504977	39053.348039	3735.701362	20232.362269
46.037000	0.006197	0.004583	0.006616	0.015974	6010.131508	38660.197320	3729.487896	20018.058068
46.534500	0.007960	0.003882	-0.001410	0.010904	6060.653182	39022.214685	3723.174350	20220.034926
47.036500	0.006297	0.004402	0.007754	0.012943	6033.180946	38895.938735	3738.464429	20138.507611
47.535000	0.009490	0.004444	0.009056	0.011757	6065.700897	38997.989126	3743.862857	20185.871515
48.035000	0.007208	0.003996	0.002920	0.015773	6019.032638	38628.328719	3722.026020	20026.006995
48.562000	0.008314	0.004507	0.009786	0.011502	6058.834654	39024.407572	3746.009621	20196.057687
49.035500	0.007721	0.005412	0.012401	0.015613	6023.990480	38758.448777	3742.753981	20032.360023
49.535500	0.008068	0.004997	0.008282	0.015144	6030.004921	38762.851066	3734.852430	20050.945880
50.062000	0.004705	0.004573	0.005273	0.017485	5988.176516	38534.915750	3723.389901	19958.287021
50.537000	0.008710	0.004840	0.012631	0.012117	6057.199827	39000.933483	3750.886402	20171.465031
51.037000	0.008340	0.004196	0.007493	0.014372	6037.719211	38760.422539	3734.813975	20081.599607
51.537500	0.010413	0.005429	0.008251	0.011107	6077.461492	39134.296252	3743.525898	20211.886565
52.034500	0.004555	0.005205	0.007063	0.017740	5985.232612	38565.985272	3726.664115	19948.255641
52.535000	0.001757	-0.002560	0.001924	-0.034295	6364.707657	42398.521576	3832.475797	22128.789101
53.035500	-0.006776	-0.012468	-0.002845	0.160068	5043.257362	27559.652248	3452.275129	15161.214239
53.535500	-0.018959	-0.039180	-0.011609	-0.157759	7309.724195	51152.747576	4130.250464	28478.661698
54.036000	-0.013703	-0.120213	-0.016303	-0.351986	9924.816029	65535.000000	4858.808290	42950.742414
54.536000	-0.005788	-0.041060	-0.000648	-0.243459	8456.486610	61435.611395	4462.185668	34076.681395
55.036500	-0.016041	-0.032026	-0.014590	-0.221313	8051.594721	59693.269850	4329.542245	32522.624838
55.536500	-0.009415	-0.030205	-0.015139	-0.225562	8184.145345	60493.243193	4342.638619	32814.631810
56.037000	-0.011016	-0.024461	-0.015239	-0.201800	7880.080148	58150.722764	4260.095272	31217.451243
56.534000	-0.013085	-0.020283	-0.014197	-0.163299	7429.172735	53948.521915	4139.331520	28808.111894
57.037500	-0.016627	-0.017873	-0.016683	-0.126755	7023.149837	50086.291569	4024.102942	26710.570738
57.535000	-0.012243	-0.015046	-0.014305	-0.103156	6841.424514	47880.197852	3965.665877	25446.882417
58.038000	-0.008631	-0.013508	-0.011995	-0.085690	6715.301979	46258.736301	3925.645222	24554.879242
58.534500	-0.009569	-0.012264	-0.014792	-0.074246	6605.931183	45251.081961	3889.292186	23989.562511
59.036000	-0.012874	-0.011789	-0.010913	-0.052308	6392.390323	43206.614844	3844.872672	22946.636039
59.536000	-0.012585	-0.011875	-0.011580	-0.041277	6305.212124	42186.725437	3817.069181	22441.775839
60.036500	-0.012352	-0.010240	-0.011704	-0.025369	6181.817776	40915.007402	3780.161430	21735.965913
60.537000	-0.011400	-0.011313	-0.011385	-0.023323	6173.368634	40642.598506	3776.266109	21647.040688
61.037000	-0.011771	-0.011258	-0.012435	-0.016616	6119.223245	40068.114319	3758.961657	21358.478219
61.537000	-0.010947	-0.010836	-0.013990	-0.009011	6068.178583	39457.685758	3738.919131	21036.631293
62.035000	-0.010653	-0.010611	-0.011851	-0.001535	6014.971955	38851.576612	3727.435946	20725.682160
62.538000	-0.011959	-0.010474	-0.010716	0.003093	5971.667423	38481.181837	3719.996241	20535.852728
63.035500	-0.010274	-0.009304	-0.012068	0.006633	5958.248384	38287.239288	3709.674451	20391.987404
63.535500	-0.006485	-0.007953	-0.011605	0.003219	6010.663834	38678.147534	3717.845346	20530.699739
64.036000	-0.009379	-0.007074	-0.015874	0.003549	5987.099560	38723.541867	3708.163461	20517.267444
64.536500	-0.010499	-0.007285	-0.011412	-0.002174	6020.799633	39181.773900	3729.744467	20752.053636
65.039500	-0.011541	-0.007095	-0.016509	0.000665	5992.365612	38960.804460	3712.886076	20635.189251
65.548000	-0.007086	-0.006508	-0.005993	-0.004268	6061.588286	39422.674715	3745.988964	20838.706390
66.041000	-0.012348	-0.005296	-0.014173	0.002715	5971.590247	38939.950813	3713.487887	20551.280874
66.550000	-0.006203	-0.004372	-0.005563	-0.001403	6046.853253	39361.399055	3740.693544	20720.245114
67.035500	-0.008354	-0.005069	-0.010993	0.002866	5999.564819	38946.279349	3719.890531	20545.115189
67.536000	-0.004633	-0.004106	-0.006946	-0.000213	6049.670621	39283.689781	3735.129072	20671.230839
68.036000	-0.008679	-0.003476	-0.010723	0.006576	5970.202117	38770.734198	3712.622740	20394.332310
68.539000	-0.005155	-0.002072	-0.002851	0.002705	6024.228381	39209.709019	3737.671185	20551.696797
69.036000	-0.008307	-0.003639	-0.002381	0.006313	5974.797448	38778.952232	3730.909478	20404.945808
69.537500	-0.004407	-0.002158	-0.009855	0.003200	6026.084756	39161.050588	3721.595968	20531.470346
70.036500	-0.005353	-0.002334	-0.007539	0.008516	5980.252339	38704.791970	3715.242831	20315.979584
70.537000	-0.003068	-0.002352	-0.002359	0.004009	6029.996769	39077.269383	3735.916689	20498.496802
71.037500	-0.005000	-0.002805	-0.004325	0.008870	5980.246509	38636.725301	3721.300098	20301.721668
71.541500	-0.001677	-0.000966	-0.000782	0.005945	6025.980949	39031.402764	3735.141621	20419.870374
72.038000	-0.004415	-0.001598	-0.002036	0.011717	5963.852933	38501.803580	3720.114499	20187.465397
72.535500	-0.003545	-0.000107	-0.000158	0.007432	6001.335173	38979.112776	3733.282087	20359.693418
73.036000	0.000221	-0.000298	-0.003639	0.013199	5986.732851	38486.870342	3713.591341	20128.277400
73.536000	-0.000115	-0.000496	-0.002324	0.009082	6014.389627	38809.901197	3725.106234	20293.169621
74.036500	-0.005839	0.000144	-0.006096	0.015961	5923.142197	38297.058957	3702.663989	20018.550489
74.537000	0.001320	0.000863	0.002365	0.010520	6014.364774	38803.404605	3732.068843	20235.414757
75.037000	-0.002059	0.000644	-0.002233	0.017340	5940.321417	38225.414820	3707.848742	19964.018912
75.537500	0.000312	-0.000157	-0.001036	0.011134	6002.475470	38668.356760	3723.478707	20210.800082
76.035000	-0.002600	-0.000316	-0.005744	0.017761	5933.424837	38113.121051	3699.654471	19947.413897
76.535000	0.004368	0.001737	0.004659	0.014037	6010.927873	38585.256913	3729.443863	20094.941565
77.035500	-0.000733	0.001462	-0.005654	0.019277	5935.943136	38134.381708	3696.701243	19887.717746
77.535500	0.003389	0.002003	0.004625	0.015231	5995.013114	38508.972943	3726.815579	20047.481617
78.036000	-0.000299	0.001280	0.000378	0.020896	5927.456197	37988.275293	3705.872601	19824.184333
78.536000	0.005270	0.002693	0.002740	0.016415	6000.111721	38468.452107	3720.281370	20000.595302
79.036500	0.003773	0.001882	0.009488	0.016647	5987.492209	38383.060075	3734.211630	19991.412348
79.537000	0.002761	0.002279	0.003977	0.016644	5980.151052	38415.793672	3722.423331	19991.538659
80.034500	0.005338	0.003591	0.008639	0.018908	5982.420777	38337.828469	3727.534667	19902.210924
80.535000	0.005521	0.003012	0.003172	0.018187	5989.004058	38349.489405	3717.440530	19930.607158
81.035000	0.006662	0.003812	0.012176	0.019510	5987.681246	38306.779345	3733.835285	19878.572873
81.535000	0.006989	0.004304	0.008307	0.019982	5986.624547	38308.372539	3724.533722	19860.023684
82.035500	0.006286	0.003352	0.005981	0.020311	5979.122368	38203.964648	3718.890962	19847.125503
82.535500	0.008103	0.004764	0.010893	0.020996	5987.357374	38263.254459	3727.892903	19820.297404
83.035500	0.007057	0.004358	0.007447	0.021763	5974.177718	38167.640382	3718.919899	19790.273720
83.536000	0.008135	0.004864	0.008360	0.022100	5979.554642	38181.373738	3720.140423	19777.098584
84.036000	0.004844	0.004603	0.010295	0.022496	5952.879760	38128.006058	3723.412073	19761.641414
84.537000	0.006241	0.005041	0.010929	0.023128	5958.390829	38112.217419	3723.416583	19737.000053
85.037000	0.004540	0.005484	0.001697	0.029636	5899.713400	37623.236465	3690.503029	19485.360081
85.534000	0.007312	0.005998	0.006346	0.024545	5955.897283	38074.923218	3710.729242	19681.896585
86.035000	0.010661	0.005326	0.009195	0.024501	5980.460892	38024.060017	3716.826257	19683.608141
86.535500	0.007723	0.005759	0.007275	0.024842	5956.725121	38031.522277	3712.058111	19670.377661
87.035500	0.005068	0.005415	0.006104	0.030627	5896.428726	37538.456467	3697.543925	19447.353086
87.535500	0.009322	0.006410	0.018861	0.025948	5960.283469	37994.691391	3734.367070	19627.515263
88.036000	0.005475	0.006808	0.008897	0.032749	5884.323952	37480.286317	3698.935762	19366.312357
88.536500	0.011307	0.006235	0.008927	0.026705	5969.156535	37919.316985	3711.613635	19598.217306
89.036500	0.009163	0.006837	0.005578	0.033093	5907.977903	37455.196384	3691.374493	19353.203461
89.537000	0.008238	0.006649	0.014003	0.027570	5940.802260	37882.940112	3720.510227	19564.856022
90.037500	0.006999	0.006768	0.006796	0.033666	5888.602675	37404.066524	3692.699746	19331.396899
90.535000	0.009200	0.008136	0.009052	0.029235	5935.759929	37868.530707	3706.571256	19500.742891
91.038000	0.007680	0.005842	0.007429	0.032998	5898.142953	37383.584071	3695.384544	19356.836240
91.535500	0.011411	0.006699	0.012700	0.029038	5953.061831	37768.777409	3714.646580	19508.345863
92.035500	0.007636	0.007650	0.007884	0.035524	5880.003331	37326.462500	3691.117388	19260.894797
92.536000	0.014672	0.008352	0.010525	0.030991	5962.502748	37744.681673	3705.983337	19433.456109
93.036000	0.009016	0.007747	0.008126	0.036237	5884.698271	37277.607761	3690.150800	19233.927242
93.536500	0.011742	0.007489	0.017642	0.030263	5946.631024	37733.765268	3722.519797	19461.327737
94.036500	0.009470	0.009027	0.013810	0.037630	5878.094040	37268.745704	3699.003378	19181.374369
94.537000	0.013081	0.008755	0.014518	0.032184	5942.444053	37681.195365	3711.851270	19387.865396
95.037500	0.010925	0.009052	0.013296	0.037720	5887.706405	37263.580481	3697.751971	19177.979319
95.538000	0.013601	0.008749	0.015292	0.032823	5941.588397	37629.456620	3712.132423	19363.487273
96.035000	0.014318	0.008377	0.017669	0.032141	5951.649589	37654.351251	3718.589687	19389.488698
96.535500	0.015401	0.008901	0.017414	0.033169	5952.049797	37613.983237	3715.877778	19350.329016
97.036000	0.011359	0.009396	0.014142	0.039127	5880.846783	37179.414807	3696.591315	19125.063887
97.535500	0.016266	0.008992	0.017005	0.033738	5954.172977	37575.702493	3713.811781	19328.653790
98.036500	0.015166	0.010329	0.022518	0.035658	5932.487756	37529.172330	3721.416773	19255.840739
98.536500	0.016057	0.010154	0.018136	0.035268	5941.672392	37546.302483	3712.974572	19270.609605
99.037000	0.016402	0.009085	0.017250	0.037265	5929.830965	37302.247141	3706.924001	19195.117279
99.537500	0.015081	0.009293	0.019830	0.034960	5936.874041	37502.135552	3717.195974	19282.264646
100.035000	0.014586	0.009822	0.014837	0.036095	5925.218587	37453.899494	3704.328922	19239.318325
100.538000	0.015771	0.010346	0.021820	0.036504	5930.760239	37463.000322	3718.140769	19223.834769
101.035500	0.016235	0.010155	0.012221	0.040677	5904.347617	37116.940750	3689.442385	19066.946671
101.536000	0.017814	0.010480	0.018097	0.037332	5939.466502	37407.750231	3708.556107	19192.581631
102.036000	0.016077	0.010480	0.018288	0.037583	5925.240771	37387.808180	3708.431462	19183.138058
102.535500	0.017486	0.010818	0.021628	0.038053	5931.950439	37377.314093	3714.463253	19165.426734
103.036500	0.015964	0.010968	0.018284	0.040764	5901.807578	37174.300488	3701.784107	19063.710415
103.536500	0.015317	0.010815	0.016900	0.038660	5912.148618	37328.853289	3703.282256	19142.606757
104.037000	0.014242	0.009547	0.015003	0.044408	5864.017128	36776.368375	3687.498847	18927.963825
104.537500	0.018906	0.012511	0.017879	0.040331	5925.817911	37330.804951	3701.842565	19079.914095
105.037500	0.017546	0.011999	0.018903	0.044906	5883.721712	36929.340269	3694.488584	18909.500783
105.535000	0.019596	0.011224	0.017815	0.040239	5931.413468	37236.119993	3701.901987	19083.363685
106.035500	0.020720	0.012188	0.022717	0.040761	5935.716154	37271.092693	3711.055615	19063.802251
106.535500	0.020856	0.011556	0.020058	0.040891	5935.760374	37210.703618	3705.214588	19058.949436
107.036000	0.020022	0.011084	0.022332	0.043585	5910.581827	36961.119623	3704.337942	18958.494817
107.539000	0.020605	0.013056	0.024247	0.042605	5921.713205	37193.762395	3710.395502	18994.961982
108.036500	0.015031	0.011581	0.018785	0.048105	5843.727053	36646.641778	3687.671277	18791.373377
108.534000	0.019315	0.012686	0.016058	0.043063	5909.271712	37128.438428	3692.424017	18977.932827
109.037000	0.019287	0.012249	0.026121	0.045284	5893.340945	36919.271868	3708.708845	18895.499964
109.537500	0.020383	0.013513	0.019557	0.044124	5909.320923	37109.906245	3697.453622	18938.484069
110.037500	0.017090	0.011567	0.018774	0.048278	5856.868170	36632.123131	3687.295398	18785.027957
110.535500	0.022326	0.013324	0.019199	0.044558	5920.057973	37060.820791	3695.816403	18922.396046
111.035500	0.020983	0.012886	0.024667	0.047573	5889.150318	36789.920053	3700.900249	18810.984800
111.535500	0.021368	0.014047	0.023062	0.045736	5904.875596	37025.041524	3701.380272	18878.775796
112.036500	0.017214	0.013981	0.018783	0.051647	5834.295819	36557.961917	3680.447812	18661.651658
112.536500	0.021982	0.013508	0.027420	0.046159	5906.229387	36949.424996	3709.598263	18863.139975
113.036500	0.024642	0.013029	0.026316	0.046257	5924.459179	36904.143750	3707.079304	18859.513519
113.537000	0.022858	0.013146	0.025384	0.046341	5911.155756	36906.718488	3704.956588	18856.422433
114.037000	0.019533	0.013189	0.021683	0.052547	5844.149199	36426.872841	3684.518042	18628.855505
114.537500	0.023015	0.014508	0.025722	0.048152	5899.414627	36871.515604	3701.887717	18789.647051
115.037000	0.022387	0.013636	0.023374	0.048934	5889.452599	36742.197390	3695.401672	18760.932144
115.535500	0.027074	0.014099	0.019025	0.048181	5928.091145	36837.238655	3688.008323	18788.612756
116.035500	0.023356	0.013710	0.023389	0.048224	5901.322831	36803.434213	3696.898616	18787.004316
116.536000	0.024948	0.013477	0.026995	0.048396	5911.405318	36771.777906	3704.030194	18780.694364
117.036000	0.025138	0.014333	0.026166	0.051107	5893.535170	36627.226782	3696.680052	18681.355916
117.536500	0.026333	0.014278	0.027794	0.049940	5910.268281	36713.795605	3702.476978	18724.021195
118.037000	0.021932	0.014971	0.022873	0.056606	5832.626703	36251.281949	3678.685500	18481.761656
118.537000	0.025193	0.015523	0.025478	0.051279	5892.706590	36706.475197	3694.903987	18675.057092
119.035000	0.024390	0.015293	0.026038	0.053534	5871.177697	36513.321454	3691.414308	18592.957253
119.535000	0.028123	0.015744	0.028106	0.051595	5911.230412	36699.069169	3699.688589	18663.539581
120.035500	0.028455	0.016026	0.029885	0.052248	5908.952534	36670.220658	3702.028439	18639.736840
120.535500	0.027617	0.015341	0.025869	0.052293	5902.682107	36613.359465	3693.618549	18638.074585
121.036000	0.025741	0.015746	0.030330	0.054564	5873.424991	36468.602492	3698.143188	18555.557617
121.536000	0.027195	0.015610	0.029994	0.052798	5896.121208	36595.025935	3701.110463	18619.694540
122.036500	0.029506	0.015872	0.027637	0.053147	5910.030577	36588.253126	3695.504300	18607.009205
122.536500	0.030343	0.017119	0.033094	0.054586	5905.754177	36573.343876	3703.840860	18554.772666
123.036500	0.026969	0.015871	0.030542	0.054866	5879.939792	36454.924251	3697.958433	18544.642891
123.534500	0.029931	0.016906	0.030237	0.054870	5900.822274	36534.755458	3697.318081	18544.488336
124.038000	0.033354	0.017516	0.036819	0.056053	5916.735353	36490.346056	3708.557984	18501.708240
124.535500	0.028250	0.016555	0.030350	0.055362	5885.473687	36469.472249	3696.534217	18526.698053
125.035500	0.028397	0.016621	0.026415	0.056741	5876.797612	36367.944866	3685.614456	18476.880682
125.535500	0.030502	0.017295	0.031000	0.056449	5893.689423	36442.648534	3695.631803	18487.410318
126.036000	0.028981	0.017318	0.029963	0.062772	5838.749398	35958.860177	3680.558858	18260.921596
126.536500	0.031402	0.017237	0.033626	0.057388	5893.408190	36365.570392	3699.121034	18453.551260
127.036500	0.030606	0.018259	0.032018	0.059378	5873.794418	36291.010427	3691.693654	18382.097737
127.537000	0.032417	0.018411	0.030662	0.058988	5889.287377	36332.789352	3689.709629	18396.077529
128.037000	0.030662	0.017579	0.034322	0.058590	5879.717750	36299.264240	3698.073610	18410.352263
128.537500	0.031493	0.018344	0.032514	0.059457	5879.468435	36291.486156	3692.552414	18379.263992
129.035000	0.032390	0.018827	0.037107	0.062023	5867.748701	36131.412411	3696.733243	18287.575290
129.537500	0.031667	0.018927	0.034047	0.060225	5875.291395	36277.170355	3694.126217	18351.748942
130.038500	0.031150	0.017944	0.030963	0.066145	5830.407769	35750.116026	3675.754426	18141.458369
130.536000	0.034012	0.019475	0.034593	0.061811	5880.624643	36197.370990	3691.984411	18295.120353
131.035500	0.034598	0.019311	0.030718	0.063169	5875.203004	36080.800524	3681.286966	18246.822687
131.536000	0.031402	0.019100	0.031099	0.061669	5863.315380	36179.550398	3685.117976	18300.210537
132.036500	0.031012	0.018295	0.035278	0.067619	5819.262557	35665.069406	3681.508076	18089.505065
132.534000	0.034837	0.020044	0.041392	0.063633	5873.617338	36101.329358	3702.280432	18230.328305
133.038500	0.033422	0.019881	0.034111	0.064749	5855.900060	36003.546032	3684.978527	18190.791591
133.538000	0.036244	0.019559	0.036367	0.064042	5880.635414	36032.955857	3691.045779	18215.837143
134.046000	0.030561	0.019425	0.030882	0.069621	5802.400292	35599.342036	3668.599178	18019.289450
134.535500	0.036519	0.019492	0.041052	0.064434	5879.810391	35997.915902	3699.909855	18201.931803
135.035500	0.036194	0.021647	0.040416	0.067270	5857.653665	35945.932325	3692.734312	18101.785782
135.536000	0.035391	0.020454	0.037738	0.066162	5859.784849	35939.509067	3689.509622	18140.856516
136.036500	0.032946	0.019721	0.032002	0.071066	5808.854617	35512.807839	3667.950477	17968.799746
136.536000	0.037148	0.021276	0.040542	0.067126	5865.329762	35928.653801	3693.290213	18106.865166
137.056500	0.034515	0.020404	0.039348	0.067454	5844.664578	35837.360714	3690.159889	18095.319411
137.537000	0.037283	0.020432	0.041675	0.067462	5863.920929	35838.908314	3694.931942	18095.034665
138.037500	0.035988	0.021435	0.031444	0.074247	5807.891695	35402.683097	3660.498533	17858.215449
138.540500	0.041038	0.021483	0.042124	0.068888	5880.270582	35810.390824	3692.917862	18044.945096
139.035000	0.036966	0.022073	0.039751	0.070065	5843.559558	35765.904976	3685.639020	18003.749856
139.538000	0.038864	0.022121	0.041038	0.070009	5857.168375	35773.782431	3688.386544	18005.706273
140.041500	0.034331	0.021875	0.042735	0.075623	5787.133624	35332.605073	3680.397926	17810.636889
140.536000	0.036387	0.021107	0.039815	0.069774	5841.555947	35714.791596	3686.365407	18013.919247
141.036500	0.038732	0.022196	0.044630	0.071565	5845.403333	35661.700608	3692.567286	17951.367545
141.537000	0.037250	0.022633	0.042214	0.071599	5834.874195	35692.167251	3687.537699	17950.187631
142.037000	0.037976	0.023002	0.035074	0.078405	5793.022716	35209.056462	3659.451488	17714.908841
142.537000	0.042139	0.023135	0.040529	0.073090	5858.529529	35617.466183	3681.063669	17898.336236
143.035000	0.042330	0.023769	0.040043	0.074361	5850.989651	35569.473621	3677.499454	17854.249647
143.535000	0.043804	0.023345	0.046136	0.073650	5866.257406	35591.075515	3691.376438	17878.895186
144.035500	0.040361	0.023749	0.039524	0.074606	5835.597337	35549.497806	3675.955104	17845.789923
144.535500	0.042067	0.022908	0.044125	0.074252	5849.915511	35512.869802	3686.021820	17858.038844
145.036000	0.042175	0.023337	0.046204	0.075478	5842.143265	35453.020599	3687.767898	17815.650636
145.536000	0.041225	0.024762	0.046146	0.075700	5834.002136	35543.395498	3687.193217	17807.957578
146.036500	0.042281	0.022961	0.045635	0.075904	5839.914252	35392.800788	3685.730081	17800.917147
146.537000	0.044151	0.024672	0.044956	0.076801	5846.684149	35453.901251	3682.519816	17770.032435
147.037000	0.043964	0.024844	0.050835	0.077640	5839.546752	35403.823780	3692.835374	17741.164355
147.540000	0.045155	0.024516	0.044571	0.077533	5848.574467	35387.325859	3680.247873	17744.845984
148.035000	0.046257	0.024523	0.050233	0.077937	5853.435023	35357.554783	3690.984773	17730.949427
148.535000	0.044390	0.024897	0.040892	0.078627	5835.658060	35333.935271	3670.614153	17707.285507
149.035500	0.043203	0.026046	0.055061	0.079961	5818.225819	35320.073172	3696.767429	17661.628377
149.535500	0.044603	0.026302	0.041902	0.080625	5823.303575	35289.584776	3668.632228	17638.933146
150.036000	0.046957	0.026433	0.053647	0.080975	5837.171786	35273.233138	3691.758635	17626.989394
150.536000	0.048329	0.026805	0.048437	0.082058	5839.179104	35220.173168	3678.912171	17590.112981
151.036500	0.046243	0.026059	0.048130	0.081305	5829.945059	35220.758964	3679.816996	17615.764687
151.537000	0.044695	0.026094	0.050041	0.081246	5819.651006	35227.791088	3683.823363	17617.771696
152.037000	0.045752	0.026219	0.050473	0.088428	5777.704169	34705.881766	3670.170727	17375.011281
152.534500	0.050981	0.027442	0.053804	0.084018	5843.987633	35121.748401	3685.842624	17523.580134
153.038000	0.046222	0.026534	0.048123	0.083457	5814.942430	35095.997014	3675.447280	17542.609110
153.535000	0.046666	0.027011	0.052323	0.083791	5815.695069	35106.608857	3683.285639	17531.283694
154.035500	0.048189	0.027171	0.046589	0.084519	5821.172638	35064.396061	3670.221954	17506.635176
154.535500	0.049220	0.028382	0.049103	0.086409	5815.259385	35014.133706	3671.475324	17442.857627
155.036500	0.048394	0.025608	0.047643	0.084431	5823.200361	34955.242334	3672.517566	17509.627387
155.536000	0.050813	0.027692	0.052307	0.085728	5830.953881	35013.432077	3679.317211	17465.789777
156.036500	0.045719	0.027722	0.048792	0.091948	5753.640276	34558.310882	3659.797847	17257.498301
156.542500	0.049126	0.028027	0.051420	0.088579	5799.698638	34827.607238	3671.769696	17369.938366
157.040000	0.049852	0.027749	0.049647	0.087748	5810.389342	34868.407952	3669.878832	17397.819557
157.537500	0.055328	0.029899	0.057749	0.089621	5835.268474	34888.816851	3682.463097	17335.079427
158.035000	0.048480	0.028251	0.050472	0.094061	5758.008725	34442.789159	3658.937950	17187.398136
158.534500	0.049640	0.029034	0.056832	0.091400	5783.935662	34694.345434	3676.994265	17275.726289
159.035500	0.053077	0.028483	0.053374	0.089638	5819.582625	34783.285563	3673.570102	17334.497370
159.539500	0.051300	0.028701	0.054539	0.089691	5806.984606	34795.408001	3675.814158	17332.724356
160.036500	0.050141	0.029180	0.053207	0.096343	5753.815084	34344.539168	3659.836388	17112.091856
160.539000	0.052031	0.028556	0.054291	0.093540	5785.644947	34502.968742	3667.578350	17204.650035
161.037000	0.052748	0.029515	0.053581	0.092209	5799.644783	34670.324352	3668.822165	17248.812129
161.539500	0.055325	0.029612	0.059909	0.092800	5813.287296	34634.208241	3680.392211	17229.210269
162.037500	0.050347	0.029763	0.055455	0.098769	5738.884838	34211.203060	3659.484539	17032.473155
162.535000	0.051672	0.029975	0.057029	0.095818	5767.725094	34440.502613	3668.500526	17129.405634
163.035500	0.055854	0.031208	0.058483	0.094732	5803.641185	34609.521345	3673.600226	17165.212289
163.535500	0.052513	0.030725	0.062243	0.094207	5784.387403	34612.703246	3682.278186	17182.595524
164.036000	0.052925	0.030314	0.053433	0.101023	5741.059847	34088.547094	3651.051582	16958.902618
164.536000	0.056342	0.031210	0.059535	0.098785	5779.289241	34314.745222	3667.576474	17031.948488
165.036500	0.056651	0.031339	0.055587	0.096478	5797.138638	34491.630770	3664.298059	17107.645578
165.536000	0.055034	0.031601	0.058490	0.096505	5785.913433	34508.850022	3670.052089	17106.788552
166.034000	0.053822	0.031831	0.061285	0.102686	5735.913364	34077.987363	3663.282568	16904.832331
166.554500	0.051909	0.031325	0.063647	0.101200	5733.059482	34148.573966	3670.978775	16953.131288
167.037500	0.056318	0.031794	0.056671	0.098478	5781.218246	34379.380672	3662.477153	17042.016116
167.534500	0.057512	0.032942	0.064025	0.099383	5783.182825	34396.984283	3675.398376	17012.393286
168.035000	0.059580	0.033503	0.057713	0.100218	5791.597727	34377.113718	3661.089000	16985.136929
168.538500	0.055398	0.032855	0.066064	0.103948	5738.024735	34060.860818	3670.312791	16863.953869
169.069000	0.058495	0.033368	0.062559	0.100945	5779.239685	34314.561658	3669.306854	16961.430262
