sample name	sample
index	1037
start time	 04-19-2021  01:55:48 PM
880	0.053691
Peak Time (s)	101.536
Peak Height 	0.05369
calc peak height	100,103
Baseline Time (s)	10.036
Baseline Value 	-0.006568
subtract baseline	10,4
Abs	0.039287
Peak Time (s)	100.035
Peak Height 	0.03929
calc peak height	100,103
Baseline Time (s)	9.535
Baseline Value 	3.7644E-4
subtract baseline	10,3
PK_550	0.031326
Peak Time (s)	100.535
Peak Height 	0.03133
calc peak height	100,103
Baseline Time (s)	11.036
Baseline Value 	2.1923E-4
subtract baseline	10,2
PK_880	0.037935
Peak Time (s)	100.535
Peak Height 	0.03794
calc peak height	100,103
Baseline Time (s)	11.036
Baseline Value 	0.001536
subtract baseline	10,1


Time (s)	A880-A510	A880-A775	A880-A975	A880	I510	I775	I975	I880	
0.035000	-0.001288	-0.000384	-0.001286	0.003022	6567.290759	45919.322406	3980.616880	24329.683777
0.535500	-0.001038	-0.000203	0.002106	0.004685	6555.454371	45773.083147	3984.986887	24247.836736
1.035500	0.000125	0.000028	0.002217	0.004521	6566.560749	45812.035856	3985.686145	24255.893682
1.537500	-0.003850	-0.000297	0.001403	0.005502	6525.241795	45683.477279	3981.143552	24207.789072
2.036500	0.002406	0.000226	0.006585	0.002260	6604.847309	46055.101946	4002.623358	24367.249517
2.536500	-0.001505	-0.000584	0.005515	0.001124	6581.411052	46087.432690	4002.792931	24423.430173
3.037000	0.000486	0.000120	0.005458	-0.000249	6609.839687	46293.893792	4006.186368	24491.486813
3.537500	-0.000363	-0.000791	-0.001098	0.001395	6588.747121	46039.964160	3985.205830	24409.981310
4.040000	-0.001385	0.000006	0.006930	0.001185	6581.906520	46139.982670	4006.287051	24420.420969
4.535000	0.002263	-0.000318	0.001208	0.000796	6616.056802	46146.368831	3992.593016	24439.651006
5.035500	0.000070	-0.000006	0.001491	0.001079	6595.071501	46149.223520	3992.594358	24425.647629
5.535500	0.000688	0.000142	-0.002506	0.001045	6600.581087	46167.264482	3982.527057	24427.309104
6.036000	0.001243	0.000358	0.000244	0.001065	6605.120192	46186.837224	3989.451864	24426.344808
6.536000	0.000150	0.000608	0.003493	0.001050	6595.996724	46213.202953	3997.788355	24427.096038
7.036500	0.000673	0.000202	0.001183	0.000549	6604.663905	46222.703723	3993.159813	24451.913400
7.537000	0.003187	0.000094	0.005509	0.000584	6625.728507	46208.418794	4004.169585	24450.187677
8.037000	0.002280	0.000198	-0.003525	0.000517	6618.571742	46225.408797	3981.286684	24453.487219
8.540000	-0.000123	0.000933	-0.001174	0.000869	6595.222444	46263.592384	3986.348893	24436.057058
9.035000	0.000874	0.000980	-0.002755	0.001475	6598.527721	46207.946305	3980.812979	24406.058853
9.535000	-0.000108	-0.000362	0.000000	-0.000294	6605.189957	46250.435539	3992.293083	24493.737417
10.035500	-0.000442	-0.000012	0.000707	0.000000	6599.865603	46255.998451	3993.347564	24479.134173
10.536000	0.001411	0.000350	0.000829	0.000510	6611.248224	46241.295325	3992.355517	24453.832485
11.036000	0.000000	0.000000	0.001704	-0.000006	6603.663335	46257.820913	3995.911848	24479.446139
11.536000	0.001180	-0.000192	-0.000577	-0.000194	6615.265180	46257.398998	3990.566076	24488.765662
12.036500	-0.001388	-0.000254	0.005374	0.000104	6591.000294	46221.639965	4005.060364	24473.993122
12.534000	-0.002235	-0.000328	0.004243	-0.000454	6588.553390	46269.802451	4003.581752	24501.683395
13.040500	-0.001182	0.000927	0.004062	0.001150	6583.909292	46234.971622	3998.991218	24422.118539
13.540000	-0.002084	0.000271	-0.001161	0.005558	6539.445193	45733.812766	3974.546392	24205.018766
14.035000	-0.001361	-0.000318	-0.000637	0.002256	6573.100847	46001.616143	3984.192214	24367.447690
14.535500	-0.001522	-0.000682	0.004907	0.001852	6575.142701	46005.537723	3999.358096	24387.391930
15.035500	-0.000104	0.000728	0.004351	0.001235	6592.284914	46206.731264	3999.513243	24417.910258
15.536000	-0.002516	-0.000680	0.003190	0.004985	6540.624178	45696.635919	3986.976025	24233.130529
16.035500	-0.000343	0.000205	0.010331	0.000402	6597.300959	46237.610831	4017.144533	24459.186175
16.537000	0.001394	0.000751	0.002396	0.000400	6612.037030	46292.090886	3996.641006	24459.274343
17.037000	0.004761	0.000345	0.006405	-0.002593	6666.429658	46550.801656	4014.718803	24608.206266
17.537000	0.000214	0.001196	-0.002390	0.002838	6581.451518	46093.922360	3978.294759	24338.727788
18.037500	-0.000162	0.000278	0.004985	0.001583	6588.864218	46127.414111	4000.250974	24400.727121
18.535000	-0.001388	0.000046	-0.004362	0.001403	6580.044958	46122.238451	3976.944701	24409.626688
19.038000	-0.000097	-0.000332	0.001131	0.001035	6594.036394	46121.302647	3991.788496	24427.845892
19.535500	-0.001255	0.000153	0.004778	0.002526	6571.725810	46021.566652	3997.298864	24354.142278
20.035500	0.000063	-0.000260	0.002769	0.001233	6593.717166	46108.779205	3995.467887	24418.044901
20.536500	-0.001081	0.000711	0.006813	0.001679	6580.308997	46160.875301	4004.708290	24395.965240
21.036000	-0.001428	0.000492	0.002825	0.001880	6575.696422	46119.194191	3993.955916	24386.040978
21.537000	-0.001405	-0.000127	0.001087	0.001995	6574.923327	46046.343820	3989.230753	24380.345871
22.039500	-0.000038	0.000450	0.007065	0.001587	6589.871410	46144.117972	4005.594851	24400.512648
22.537000	-0.000554	0.000552	0.003457	0.001663	6584.877352	46146.633109	3996.124317	24396.726941
23.034500	-0.001767	-0.000673	0.005060	0.000697	6582.799380	46120.961519	4002.720806	24444.560224
23.537500	-0.000927	0.000219	-0.000099	0.002354	6575.927011	46045.063446	3985.308905	24362.612466
24.035500	0.000163	-0.000466	-0.000974	0.001239	6594.511802	46087.796010	3985.916052	24417.745391
24.536000	-0.000138	0.000299	0.002413	0.001495	6589.809797	46138.310960	3993.887250	24405.076630
25.036000	0.000314	0.000723	0.006305	0.002583	6584.441816	46072.364484	4001.070745	24351.298818
25.536000	-0.000076	-0.000333	0.007519	0.001009	6594.432304	46123.691532	4008.263106	24429.100587
26.036500	-0.000758	0.000620	0.004430	0.001468	6584.806401	46172.786709	3999.118497	24406.387966
26.539500	0.000751	0.000064	0.003667	0.000898	6602.367647	46174.228180	3998.623670	24434.609191
27.036500	0.002448	0.000642	0.005001	-0.001200	6634.640556	46441.045691	4007.463475	24538.767184
27.537000	0.000182	0.000441	-0.000641	-0.000065	6605.706967	46307.608105	3990.075622	24482.363387
28.035000	0.000047	0.000582	-0.002147	0.000127	6602.933572	46302.525812	3985.761128	24472.813062
28.535000	0.001945	0.000283	0.005582	-0.000017	6620.264624	46287.012804	4005.908228	24479.966262
29.035500	-0.003448	0.000145	0.001494	0.002912	6550.130413	45982.419466	3987.934040	24335.073234
29.536000	0.000620	0.000761	0.004543	0.000551	6604.191610	46278.046760	4001.766474	24451.788174
30.036000	-0.000408	0.000183	-0.001633	0.000101	6599.301754	46265.375313	3987.133427	24474.141331
30.536500	-0.000105	-0.000490	-0.000271	0.001804	6587.476928	46029.317197	3986.265715	24389.771487
31.039000	-0.001717	0.000334	0.001506	0.003708	6557.945644	45922.488103	3985.944679	24295.887202
31.539000	-0.003724	-0.000329	-0.000218	0.004982	6530.603946	45731.456951	3978.365232	24233.266524
32.037000	0.002392	-0.000169	-0.000920	-0.000094	6624.722946	46249.717523	3989.438575	24483.779105
32.540000	0.000105	-0.000630	0.004311	-0.000463	6608.424580	46240.594447	4003.780554	24502.123025
33.035000	-0.002015	-0.000190	0.003687	0.002926	6561.994568	45947.880033	3993.484155	24334.371786
33.536000	-0.001209	-0.000403	0.002753	-0.001712	6607.875257	46387.759072	4002.984676	24564.281633
34.036000	-0.002247	0.000283	0.000160	0.002308	6565.231909	46055.979320	3986.081046	24364.877719
34.536500	-0.000076	0.000480	0.003989	0.002551	6581.432594	46051.442538	3995.214758	24352.904066
35.036000	0.000145	0.000769	0.000864	0.003526	6575.080002	45983.487656	3984.778549	24304.837361
35.539500	-0.001530	0.000641	0.002172	0.002611	6568.704483	46061.457545	3990.426714	24349.944887
36.037000	-0.000356	0.000284	0.003961	0.001731	6585.976245	46113.322561	3997.243866	24393.396323
36.537000	-0.001843	0.000284	0.000201	0.001689	6573.818801	46117.568642	3987.758149	24395.486896
37.037500	-0.000859	0.000349	0.005358	0.003893	6563.575293	45905.706274	3995.283511	24286.775056
37.535000	-0.002767	0.000058	0.000056	0.002199	6561.784385	46044.509108	3986.093888	24370.258216
38.035000	0.001478	0.000665	0.003744	0.002252	6597.053571	46099.363470	3995.351281	24367.629649
38.535500	0.000106	0.000321	-0.001033	0.002027	6587.372133	46087.625867	3983.769444	24378.750155
39.035500	-0.001116	0.000438	0.000583	0.002052	6576.874022	46096.770165	3987.804437	24377.522773
39.536000	-0.001134	0.000353	0.004596	0.002344	6574.270049	46059.304649	3997.297435	24363.098272
40.039000	0.000001	0.000484	0.004808	0.002067	6586.145519	46099.831362	3998.551252	24376.767090
40.536500	-0.002356	0.000100	0.003698	0.002116	6565.918983	46056.866509	3995.582238	24374.345839
41.037000	-0.000313	0.000743	0.000059	0.002402	6580.678967	46092.258524	3985.585772	24360.221451
41.537500	0.000355	0.000585	0.004464	0.002205	6587.972544	46096.121509	3997.314787	24369.953199
42.035000	-0.000615	-0.000264	0.001830	0.001533	6585.459235	46078.652536	3992.300072	24403.194397
42.535000	0.000612	0.000570	0.000015	0.001663	6594.714179	46148.486955	3987.348909	24396.745891
43.035000	-0.001735	0.000225	0.000994	0.001067	6579.951477	46173.451166	3991.356705	24426.245511
43.535500	-0.001538	0.000305	0.001128	0.003907	6557.771578	45899.859857	3984.481766	24286.072073
44.036000	0.001460	0.000491	0.002980	-0.003307	6644.203661	46637.064067	4007.685343	24643.880361
44.539000	0.000956	0.000848	0.003092	-0.000135	6612.862842	46355.151983	3999.799577	24485.830031
45.036500	-0.002982	0.000214	-0.000224	0.005285	6534.247375	45755.023160	3977.586929	24218.381757
45.536500	-0.001800	0.000266	-0.001908	0.005308	6543.887655	45757.914362	3973.300098	24217.257850
46.037000	0.001817	0.000998	0.003369	0.000888	6611.493734	46268.195634	3997.887007	24435.121913
46.537000	0.001909	0.000768	0.003865	0.000471	6615.809513	46286.776523	4000.228665	24455.777743
47.035000	-0.001666	0.000797	-0.001427	0.005763	6541.214016	45765.353057	3973.363651	24194.961548
47.535000	-0.000054	0.000243	0.008859	0.005349	6558.126677	45751.666813	4000.526480	24215.281223
48.035500	0.000750	0.000797	-0.000282	0.000695	6604.071448	46267.347025	3989.053744	24444.646644
48.535500	0.001333	0.000396	0.002304	0.000042	6614.565853	46292.441682	3997.325167	24477.054186
49.039000	-0.000769	0.000802	0.002892	0.004813	6556.632318	45859.588468	3986.657088	24241.565255
49.536000	-0.002404	-0.000271	0.001928	0.005147	6540.208504	45720.918771	3983.368982	24225.191226
50.036000	0.003287	0.000140	0.006414	-0.000586	6636.558592	46329.516264	4009.531192	24508.221330
50.537000	0.007398	-0.000372	0.007706	0.014438	6544.461337	44807.019445	3974.514392	23774.285534
51.037000	0.022144	-0.004773	0.012920	0.543564	4032.287655	15239.843174	3210.699702	9089.183678
51.537500	-0.009832	-0.009652	-0.038566	0.135016	5560.326398	34002.619017	3626.792027	18719.317727
52.034500	-0.030980	-0.042673	-0.051103	-0.178180	8087.797134	62096.278397	4367.856189	35413.026677
52.535000	-0.028568	-0.073800	-0.029608	-0.229870	8772.713697	64961.391833	4640.125455	39519.436868
53.035500	-0.019595	-0.062232	-0.020470	-0.217504	8727.206043	64847.757465	4627.124154	38492.109817
53.538000	-0.009803	-0.037484	-0.003528	-0.178600	8351.010780	62864.405625	4541.190209	35444.416047
54.036000	-0.011432	-0.017486	-0.007715	-0.125015	7703.234946	58409.326288	4334.835876	31669.523132
54.536500	-0.010835	-0.019743	-0.009355	-0.143218	7914.617150	60481.412792	4391.215653	32899.962222
55.037000	-0.003105	-0.018369	-0.005819	-0.144910	8024.056673	60888.692726	4409.464005	33017.002571
55.537000	0.002381	-0.011321	-0.005956	-0.118368	7782.727513	58347.878544	4318.602586	31232.905312
56.037500	0.002612	-0.004658	-0.004970	-0.089851	7476.420852	55631.804912	4230.511584	29433.717061
56.537500	0.000243	-0.005079	-0.000727	-0.083163	7382.491580	54777.310919	4222.953396	29028.596278
57.035000	-0.003176	-0.002139	-0.009099	-0.064776	7164.193724	52968.023886	4142.971165	27946.375877
57.535500	0.007510	-0.003218	-0.003491	-0.075168	7375.014302	54051.052265	4190.201531	28552.366787
58.038500	0.003710	0.000109	-0.000664	-0.013660	6753.714283	47650.509434	4025.171848	25167.894521
58.536000	0.005388	0.001417	-0.000940	0.003735	6617.636193	46026.862137	3979.688094	24294.520036
59.036000	-0.000215	0.002889	-0.003088	0.013714	6487.497641	45192.288130	3949.528898	23809.065118
59.536500	0.004411	0.002751	0.002000	0.026945	6417.601579	43913.354187	3929.744321	23182.361073
60.037000	0.006453	0.004899	0.009331	0.033863	6378.614012	43466.507367	3930.741325	22862.230941
60.537000	0.007127	0.006109	0.007897	0.028242	6429.040327	44108.053186	3940.878582	23121.986485
61.037000	0.008492	0.008795	0.005159	0.044658	6309.682847	42828.858242	3895.297673	22372.733937
61.535000	0.012840	0.011099	0.011210	0.042692	6359.244614	43222.224441	3914.128453	22460.945081
62.035000	0.011805	0.011040	0.009497	0.043008	6348.582813	43187.538285	3909.329357	22446.739773
62.538500	0.015298	0.011617	0.011338	0.035701	6434.789495	43923.821815	3931.148241	22778.030996
63.036000	0.012480	0.012971	0.004317	0.038960	6386.015744	43744.661275	3906.661705	22629.565558
63.535500	0.020157	0.015181	0.015284	0.037594	6458.841035	44081.526250	3936.106684	22691.657567
64.036500	0.025554	0.016801	0.014659	0.034742	6526.602998	44506.686653	3941.513753	22821.902052
64.536500	0.018900	0.017320	0.013063	0.058118	6285.972127	42378.743937	3882.446476	21779.156912
65.036000	0.020335	0.015939	0.015458	0.056406	6310.420417	42408.866120	3891.930764	21853.649991
65.537500	0.017153	0.017780	0.014111	0.057636	6276.206151	42464.359542	3885.971925	21800.125695
66.037500	0.021369	0.017786	0.023619	0.064481	6255.976058	41847.738694	3892.129100	21504.895886
66.535000	0.017903	0.014777	0.023559	0.058142	6278.086933	42146.744950	3906.804906	21778.139916
67.038000	0.023499	0.016811	0.024318	0.048662	6396.528627	43198.453628	3931.193840	22194.230081
67.536000	0.024738	0.018683	0.028132	0.037935	6493.510896	44381.583264	3966.832678	22676.140656
68.036000	0.024186	0.017491	0.021371	0.032581	6533.191911	44780.120032	3963.334805	22921.186899
68.536000	0.023901	0.018268	0.031064	0.029573	6555.881755	45145.801273	3995.351797	23060.163970
69.036500	0.021041	0.019616	0.024285	0.025988	6561.942146	45627.225520	3987.210821	23227.066844
69.537000	0.019032	0.020809	0.018320	0.022724	6572.471136	46066.830961	3980.373529	23380.225730
70.036500	0.023286	0.020641	0.022318	0.013799	6684.852291	46944.020124	4013.474541	23804.999270
70.538000	0.021874	0.020142	0.021948	0.011365	6693.711968	47140.246289	4018.851399	23922.342115
71.035000	0.020270	0.021849	0.026321	0.011512	6678.543128	47299.024408	4029.944572	23915.238843
71.538000	0.019564	0.021848	0.021888	0.014868	6643.600483	46957.998935	4009.582146	23753.645261
72.035000	0.023416	0.023137	0.030052	0.010653	6713.326777	47518.621902	4042.115895	23956.823382
72.535500	0.023052	0.023557	0.024364	0.009658	6718.826827	47663.889046	4029.672060	24005.038752
73.036000	0.020852	0.023815	0.024653	0.012627	6673.938507	47385.921907	4022.628014	23861.420963
73.536500	0.022906	0.023913	0.028247	0.006377	6746.316208	48039.523843	4048.721782	24164.950648
74.037000	0.024133	0.024673	0.025960	0.005864	6761.656149	48171.715937	4043.974156	24190.038856
74.537000	0.027119	0.025492	0.027106	0.005918	6787.641931	48251.381102	4046.894713	24187.390737
75.037000	0.023015	0.024699	0.026455	0.007722	6735.457317	47981.561629	4040.342928	24099.265989
75.535000	0.024296	0.024611	0.020594	0.008170	6742.770805	47926.147656	4023.671909	24077.433108
76.038000	0.026614	0.025324	0.029101	0.005604	6785.950383	48266.572740	4053.089982	24202.783987
76.535000	0.027217	0.025922	0.025407	0.006941	6779.423379	48189.556122	4039.630588	24137.345084
77.035500	0.025552	0.025924	0.026723	0.011214	6727.084660	47747.410478	4031.793210	23929.656370
77.536000	0.027434	0.026671	0.029805	0.008570	6766.913801	48098.118692	4047.019874	24057.930185
78.035500	0.026658	0.026536	0.024047	0.009303	6753.587748	48008.113046	4029.772520	24022.294568
78.536500	0.029133	0.027296	0.033361	0.010998	6760.467184	47911.315238	4050.043059	23940.102649
79.036500	0.027369	0.027037	0.024617	0.016258	6698.937949	47344.148932	4013.055970	23687.082787
79.537000	0.029862	0.027118	0.034765	0.013111	6748.270905	47675.026169	4048.142504	23838.099782
80.037000	0.029138	0.027694	0.032536	0.014802	6727.069788	47560.493003	4037.684347	23756.825747
80.537500	0.029034	0.027929	0.028259	0.015968	6715.962224	47465.008199	4023.320507	23700.944844
81.035500	0.027452	0.028131	0.033305	0.019161	6674.513325	47159.913752	4028.191126	23548.773352
81.535500	0.026226	0.027133	0.030991	0.021724	6641.939074	46799.232334	4015.418663	23427.381684
82.035500	0.029514	0.026919	0.027783	0.019048	6693.337205	47048.310405	4014.035623	23554.121840
82.536000	0.026758	0.027914	0.029251	0.021522	6648.225410	46898.517905	4011.420025	23436.917756
83.036000	0.025447	0.026583	0.024698	0.024562	6611.114426	46459.044392	3991.891950	23293.870385
83.536500	0.025909	0.027507	0.025527	0.028581	6581.046912	46150.370208	3983.784248	23106.189616
84.037000	0.029462	0.027530	0.032475	0.025991	6633.127472	46410.750326	4008.194216	23226.912953
84.537000	0.030956	0.027820	0.034254	0.027961	6629.067629	46243.147724	4007.703073	23135.052549
85.037000	0.028401	0.027093	0.029418	0.030692	6584.254706	45900.217117	3988.300383	23008.320129
85.537500	0.026416	0.026567	0.026986	0.033162	6546.916739	45605.341476	3975.911702	22894.446060
86.035500	0.027800	0.026743	0.033945	0.031881	6569.205040	45748.536639	3996.818238	22953.439015
86.535500	0.031762	0.026691	0.024247	0.032480	6597.534117	45684.474844	3970.753476	22925.832130
87.035500	0.031222	0.027407	0.031043	0.034738	6573.946176	45533.123721	3982.163261	22822.081575
87.536000	0.026081	0.028013	0.029360	0.039262	6493.640791	45151.207592	3966.587743	22615.901132
88.036000	0.032138	0.027391	0.035206	0.037001	6562.647106	45310.501522	3986.977454	22718.661759
88.536500	0.031724	0.028363	0.030711	0.038652	6545.389573	45244.493394	3971.483839	22643.555485
89.037000	0.030887	0.030034	0.035861	0.040401	6523.902381	45236.927605	3980.031147	22564.308103
89.537000	0.031202	0.029595	0.027831	0.043722	6499.068260	44872.792628	3951.765070	22414.660588
90.035000	0.033728	0.029011	0.034512	0.041579	6537.707399	45023.368569	3973.675530	22511.104435
90.535000	0.034543	0.029795	0.035901	0.042769	6534.584884	44984.067939	3974.172234	22457.486349
91.035500	0.032785	0.029113	0.030727	0.042101	6525.542248	44982.814042	3962.926547	22487.578588
91.535500	0.034317	0.030250	0.036341	0.044211	6520.750319	44888.818116	3971.662208	22392.729281
92.035500	0.032869	0.029280	0.031021	0.043621	6513.656501	44852.132012	3959.884047	22419.206254
92.536000	0.034182	0.030026	0.036056	0.045024	6512.915325	44788.966050	3968.917989	22356.340057
93.037000	0.033210	0.030961	0.034033	0.047385	6485.483357	44651.956050	3958.025407	22250.975709
93.537000	0.032835	0.030793	0.034497	0.046149	6492.545208	44754.480999	3962.235086	22306.057249
94.040000	0.036629	0.030559	0.032851	0.046787	6518.566268	44670.775821	3956.580846	22277.605397
94.537500	0.033774	0.030765	0.036356	0.046891	6494.172723	44680.550500	3965.011014	22272.991359
95.035000	0.032978	0.030069	0.036744	0.047693	6481.053099	44536.983538	3963.982078	22237.264418
95.535500	0.033546	0.030807	0.031530	0.047799	6484.844901	44597.533857	3950.837712	22232.555718
96.035500	0.033992	0.030634	0.035356	0.047744	6488.957562	44586.239776	3960.411477	22235.022506
96.536000	0.035018	0.030692	0.032276	0.048691	6489.595919	44501.087248	3950.477979	22192.924580
97.036000	0.035252	0.031275	0.037648	0.050523	6476.506780	44381.922818	3959.204843	22111.813791
97.536500	0.036287	0.031341	0.037541	0.049621	6492.383988	44474.330915	3961.172877	22151.703532
98.037000	0.035536	0.031239	0.039335	0.050040	6482.787681	44424.594316	3964.588846	22133.188423
98.540000	0.035203	0.030216	0.032792	0.049131	6487.506287	44413.654308	3950.664077	22173.406161
99.037500	0.033869	0.030903	0.039069	0.050993	6461.384977	44301.793934	3961.560479	22091.067960
99.537500	0.033632	0.030307	0.032877	0.054129	6434.029197	43948.518929	3938.674789	21953.179059
100.035000	0.035595	0.031247	0.039287	0.050492	6479.573810	44382.302947	3963.347578	22113.215427
100.535500	0.037935	0.031326	0.036621	0.051090	6493.853099	44332.787723	3955.265800	22086.778795
101.036000	0.036711	0.031134	0.038825	0.051986	6476.472787	44229.446356	3958.495963	22047.280796
101.536000	0.033635	0.030663	0.037383	0.053691	6437.596092	44023.375839	3950.742589	21972.368694
102.036500	0.034631	0.030748	0.036538	0.051461	6463.782177	44242.686661	3954.148798	22070.430940
102.536500	0.034480	0.030895	0.036035	0.051744	6460.248188	44229.700215	3952.214882	22057.961497
103.039500	0.036421	0.031111	0.034642	0.052879	6466.813682	44142.560686	3946.016376	22008.004701
103.536500	0.035142	0.030961	0.035816	0.056271	6428.925700	43808.454434	3940.610736	21859.539416
104.037500	0.037152	0.031088	0.041009	0.052408	6476.630301	44185.084306	3962.865523	22028.739727
104.534500	0.037762	0.031024	0.040811	0.053072	6476.190912	44116.107083	3960.726438	21999.537126
105.035000	0.035926	0.030371	0.038168	0.052871	6462.841835	44073.299720	3954.689000	22008.346661
105.535500	0.035483	0.030573	0.035627	0.052756	6460.174026	44103.212392	3948.727012	22013.398580
106.036000	0.037003	0.031420	0.040780	0.053892	6463.297727	44075.853620	3958.616855	21963.525439
106.536000	0.037220	0.031249	0.038146	0.053788	6465.919586	44069.613762	3952.377777	21968.107652
107.036500	0.039713	0.030539	0.032573	0.054810	6477.931720	43906.112954	3936.284451	21923.339465
107.539500	0.037201	0.030483	0.034632	0.056065	6447.247194	43782.861617	3938.233997	21868.526456
108.037000	0.038311	0.030689	0.036277	0.054849	6466.160255	43916.571281	3945.198257	21921.622793
108.537500	0.036777	0.031051	0.039477	0.055661	6447.082120	43874.155235	3951.045672	21886.132978
109.037000	0.038728	0.031987	0.034628	0.056697	6454.515078	43864.859471	3936.691591	21840.969926
109.537500	0.036518	0.031381	0.038346	0.057099	6433.341234	43770.024696	3944.755347	21823.443989
110.035500	0.038439	0.031498	0.037093	0.057576	6445.031274	43736.335025	3940.541984	21802.722674
110.536000	0.037062	0.031542	0.042343	0.058436	6426.950695	43659.889939	3951.271895	21765.372943
111.039000	0.039086	0.032545	0.038024	0.059288	6436.414242	43674.060829	3938.644131	21728.452943
111.536500	0.040133	0.030799	0.040412	0.058741	6449.318939	43561.801301	3945.790600	21752.119780
112.038500	0.039143	0.032265	0.035750	0.059969	6431.371072	43584.054506	3931.493928	21698.961234
