sample name	sample
index	463
start time	 03-11-2021  11:58:01 AM


Wavelength (nm)	Absorbance
494.344910	-0.261348
494.563924	-0.261348
494.782919	-0.261348
495.001897	NaN
495.220856	-0.188605
495.439797	-0.185601
495.658719	-0.183873
495.877624	-0.184582
496.096510	-0.265968
496.315378	-0.141263
496.534227	-0.234083
496.753059	-0.283623
496.971872	-0.216904
497.190667	0.014653
497.409444	0.029881
497.628203	0.031778
497.846943	0.034749
498.065665	0.034153
498.284369	0.034607
498.503055	0.035526
498.721723	0.035078
498.940372	0.034903
499.159003	0.034593
499.377616	0.034395
499.596210	0.034174
499.814787	0.033406
500.033345	0.033818
500.251885	0.033131
500.470406	0.032240
500.688910	0.033608
500.907395	0.033221
501.125862	0.033372
501.344311	0.032216
501.562742	0.032266
501.781154	0.032504
501.999548	0.032031
502.217924	0.031271
502.436282	0.030732
502.654621	0.029732
502.872942	0.029677
503.091245	0.029880
503.309530	0.030644
503.527797	0.030400
503.746045	0.029293
503.964275	0.029622
504.182487	0.030348
504.400681	0.031763
504.618856	0.031659
504.837013	0.031987
505.055152	0.031751
505.273273	0.031309
505.491376	0.031552
505.709460	0.032506
505.927526	0.032896
506.145574	0.032693
506.363604	0.032322
506.581615	0.032295
506.799608	0.032605
507.017583	0.032472
507.235540	0.033357
507.453478	0.033624
507.671399	0.033291
507.889301	0.032544
508.107185	0.032897
508.325050	0.033003
508.542898	0.032960
508.760727	0.032626
508.978538	0.031812
509.196330	0.031200
509.414105	0.030470
509.631861	0.031069
509.849599	0.031682
510.067319	0.031279
510.285021	0.031047
510.502704	0.030751
510.720369	0.030817
510.938016	0.031255
511.155645	0.031738
511.373255	0.032427
511.590848	0.032600
511.808422	0.032088
512.025977	0.032495
512.243515	0.032008
512.461034	0.032723
512.678536	0.033192
512.896018	0.033727
513.113483	0.033622
513.330930	0.033667
513.548358	0.032904
513.765768	0.032663
513.983160	0.032500
514.200533	0.032705
514.417889	0.032870
514.635226	0.032270
514.852545	0.031736
515.069845	0.031457
515.287128	0.031348
515.504392	0.030863
515.721638	0.031476
515.938866	0.031214
516.156075	0.031410
516.373267	0.030967
516.590440	0.030888
516.807594	0.031149
517.024731	0.030454
517.241850	0.030372
517.458950	0.031219
517.676032	0.031314
517.893095	0.031812
518.110141	0.032198
518.327168	0.032516
518.544177	0.032499
518.761168	0.032446
518.978141	0.033034
519.195095	0.032930
519.412031	0.032253
519.628949	0.031944
519.845849	0.031761
520.062731	0.031224
520.279594	0.030940
520.496439	0.031507
520.713266	0.031501
520.930074	0.031441
521.146865	0.031326
521.363637	0.031743
521.580391	0.031608
521.797127	0.030841
522.013844	0.031113
522.230543	0.031187
522.447224	0.030476
522.663887	0.030711
522.880532	0.030675
523.097158	0.030553
523.313766	0.030398
523.530356	0.030558
523.746928	0.031257
523.963481	0.031184
524.180017	0.031097
524.396534	0.031960
524.613032	0.032104
524.829513	0.032011
525.045975	0.032115
525.262420	0.032760
525.478845	0.032425
525.695253	0.032495
525.911643	0.032242
526.128014	0.032597
526.344367	0.032141
526.560702	0.031951
526.777018	0.032223
526.993316	0.032456
527.209597	0.031510
527.425858	0.031731
527.642102	0.031493
527.858328	0.031427
528.074535	0.031414
528.290724	0.031308
528.506894	0.031313
528.723047	0.031641
528.939181	0.031391
529.155297	0.032507
529.371395	0.032430
529.587475	0.032580
529.803536	0.033811
530.019579	0.033834
530.235604	0.034264
530.451611	0.034146
530.667600	0.033843
530.883570	0.034232
531.099522	0.033797
531.315456	0.034232
531.531372	0.034719
531.747269	0.034175
531.963148	0.033838
532.179009	0.033308
532.394852	0.033772
532.610676	0.033984
532.826482	0.034252
533.042271	0.034026
533.258040	0.033900
533.473792	0.033474
533.689525	0.033625
533.905240	0.033703
534.120937	0.034151
534.336616	0.034073
534.552277	0.033763
534.767919	0.033684
534.983543	0.033512
535.199149	0.033516
535.414736	0.033794
535.630306	0.033305
535.845857	0.033553
536.061390	0.033483
536.276904	0.033419
536.492401	0.033718
536.707879	0.033667
536.923339	0.033999
537.138781	0.034057
537.354204	0.033944
537.569610	0.033978
537.784997	0.033956
538.000366	0.034135
538.215716	0.034140
538.431049	0.033876
538.646363	0.033757
538.861659	0.033848
539.076937	0.033936
539.292196	0.033817
539.507438	0.033778
539.722661	0.033605
539.937866	0.033452
540.153052	0.033276
540.368221	0.033564
540.583371	0.033520
540.798503	0.033251
541.013617	0.033095
541.228712	0.033092
541.443789	0.033796
541.658848	0.034198
541.873889	0.034534
542.088912	0.034871
542.303916	0.034827
542.518902	0.035429
542.733870	0.035541
542.948820	0.035520
543.163752	0.035826
543.378665	0.035728
543.593560	0.035643
543.808437	0.035432
544.023295	0.034911
544.238136	0.034965
544.452958	0.034350
544.667762	0.034558
544.882548	0.034638
545.097315	0.034545
545.312064	0.033996
545.526795	0.034229
545.741508	0.034052
545.956203	0.034710
546.170879	0.034817
546.385537	0.034835
546.600177	0.034912
546.814799	0.034950
547.029402	0.035095
547.243988	0.035606
547.458555	0.035499
547.673103	0.035790
547.887634	0.035375
548.102146	0.035454
548.316640	0.035878
548.531116	0.035938
548.745574	0.036031
548.960013	0.035555
549.174435	0.035565
549.388838	0.035342
549.603222	0.035345
549.817589	0.035506
550.031937	0.035393
550.246267	0.035020
550.460579	0.034760
550.674873	0.034542
550.889148	0.034949
551.103405	0.034556
551.317644	0.034649
551.531865	0.034978
551.746068	0.035173
551.960252	0.035221
552.174418	0.035086
552.388566	0.035106
552.602696	0.035337
552.816807	0.035102
553.030900	0.035470
553.244975	0.035335
553.459032	0.035215
553.673070	0.035235
553.887091	0.035049
554.101093	0.035253
554.315077	0.035221
554.529042	0.035372
554.742990	0.035758
554.956919	0.035395
555.170830	0.035662
555.384722	0.035329
555.598597	0.035631
555.812453	0.035790
556.026291	0.035719
556.240111	0.035989
556.453913	0.035831
556.667696	0.035654
556.881461	0.036086
557.095208	0.035712
557.308937	0.035943
557.522647	0.035816
557.736339	0.035954
557.950013	0.036257
558.163669	0.036083
558.377307	0.036160
558.590926	0.036526
558.804527	0.036052
559.018110	0.036076
559.231675	0.035943
559.445221	0.035787
559.658749	0.035782
559.872259	0.035605
560.085751	0.035791
560.299225	0.035806
560.512680	0.035799
560.726117	0.035802
560.939536	0.036247
561.152937	0.036522
561.366319	0.036646
561.579683	0.036648
561.793029	0.036659
562.006357	0.036584
562.219667	0.036580
562.432958	0.036350
562.646231	0.036731
562.859486	0.036500
563.072723	0.036303
563.285941	0.036219
563.499141	0.036443
563.712323	0.036113
563.925487	0.035807
564.138632	0.035841
564.351760	0.035512
564.564869	0.035456
564.777960	0.035630
564.991032	0.035695
565.204087	0.035609
565.417123	0.035412
565.630141	0.035938
565.843140	0.036456
566.056122	0.036439
566.269085	0.036638
566.482030	0.036356
566.694957	0.036088
566.907866	0.036176
567.120756	0.036329
567.333628	0.035940
567.546482	0.035826
567.759318	0.035680
567.972135	0.035768
568.184935	0.035956
568.397716	0.036182
568.610478	0.036492
568.823223	0.036438
569.035949	0.036473
569.248657	0.036901
569.461347	0.036899
569.674019	0.036832
569.886672	0.036863
570.099308	0.036829
570.311925	0.036843
570.524523	0.036791
570.737104	0.036771
570.949666	0.036783
571.162210	0.036605
571.374736	0.036533
571.587244	0.036548
571.799733	0.036406
572.012205	0.035905
572.224658	0.035768
572.437092	0.035906
572.649509	0.035728
572.861907	0.035614
573.074287	0.035779
573.286649	0.036256
573.498993	0.036451
573.711318	0.036419
573.923625	0.036944
574.135914	0.036874
574.348185	0.036663
574.560438	0.036616
574.772672	0.036489
574.984888	0.036389
575.197086	0.035921
575.409266	0.035580
575.621427	0.035457
575.833570	0.035287
576.045695	0.035574
576.257802	0.035500
576.469890	0.035506
576.681961	0.035429
576.894013	0.035394
577.106046	0.035548
577.318062	0.035907
577.530059	0.036209
577.742039	0.036108
577.954000	0.035881
578.165942	0.036247
578.377867	0.036320
578.589773	0.036606
578.801661	0.036910
579.013531	0.036856
579.225382	0.036758
579.437216	0.036841
579.649031	0.036869
579.860828	0.036837
580.072606	0.036469
580.284367	0.036502
580.496109	0.036317
580.707833	0.036115
580.919539	0.035997
581.131227	0.035995
581.342896	0.035650
581.554547	0.035639
581.766180	0.035773
581.977795	0.035927
582.189391	0.035753
582.400969	0.036016
582.612529	0.036029
582.824071	0.036014
583.035595	0.035906
583.247100	0.036225
583.458587	0.036324
583.670056	0.036595
583.881506	0.036338
584.092939	0.036758
584.304353	0.036942
584.515749	0.037008
584.727127	0.036985
584.938486	0.037197
585.149828	0.037350
585.361151	0.037252
585.572456	0.036849
585.783742	0.036947
585.995011	0.036639
586.206261	0.035925
586.417493	0.036015
586.628706	0.036397
586.839902	0.036150
587.051079	0.035716
587.262238	0.035626
587.473379	0.036023
587.684502	0.036094
587.895606	0.036109
588.106692	0.036644
588.317760	0.036282
588.528810	0.036135
588.739841	0.036333
588.950855	0.036684
589.161850	0.036616
589.372827	0.036593
589.583785	0.036775
589.794726	0.036861
590.005648	0.036712
590.216552	0.036938
590.427437	0.036904
590.638305	0.036628
590.849154	0.036404
591.059985	0.036696
591.270798	0.036766
591.481592	0.036598
591.692369	0.036354
591.903127	0.036355
592.113867	0.036281
592.324588	0.036401
592.535292	0.036535
592.745977	0.036199
592.956644	0.035970
593.167293	0.035583
593.377923	0.035637
593.588536	0.035667
593.799130	0.035713
594.009706	0.035658
594.220263	0.035504
594.430803	0.035581
594.641324	0.035956
594.851827	0.036194
595.062312	0.036485
595.272778	0.036520
595.483227	0.036729
595.693657	0.036602
595.904069	0.036716
596.114462	0.036776
596.324838	0.036719
596.535195	0.036691
596.745534	0.036643
596.955855	0.036416
597.166157	0.036212
597.376441	0.036206
597.586707	0.036645
597.796955	0.036646
598.007185	0.036592
598.217396	0.036711
598.427589	0.036624
598.637764	0.036617
598.847921	0.036667
599.058060	0.037156
599.268180	0.037387
599.478282	0.037085
599.688366	0.037235
599.898431	0.037317
600.108479	0.037193
600.318508	0.037427
600.528519	0.037567
600.738511	0.037657
600.948486	0.037288
601.158442	0.037198
601.368380	0.037282
601.578300	0.037174
601.788202	0.037120
601.998085	0.037190
602.207950	0.037154
602.417797	0.037076
602.627626	0.037394
602.837436	0.037587
603.047228	0.037586
603.257002	0.037509
603.466758	0.037430
603.676496	0.037745
603.886215	0.038068
604.095916	0.038035
604.305599	0.038136
604.515264	0.037883
604.724910	0.037625
604.934538	0.037705
605.144148	0.037812
605.353740	0.037993
605.563314	0.037617
605.772869	0.037446
605.982406	0.037227
606.191925	0.036973
606.401425	0.036762
606.610908	0.037103
606.820372	0.036826
607.029818	0.036883
607.239246	0.036724
607.448655	0.036803
607.658047	0.036715
607.867420	0.036755
608.076775	0.036932
608.286111	0.037106
608.495430	0.037067
608.704730	0.037419
608.914012	0.037507
609.123275	0.037831
609.332521	0.037784
609.541748	0.037876
609.750957	0.038255
609.960148	0.038305
610.169321	0.038471
610.378475	0.038239
610.587611	0.038188
610.796729	0.037903
611.005829	0.037655
611.214910	0.037763
611.423974	0.037751
611.633019	0.037457
611.842045	0.037549
612.051054	0.037553
612.260044	0.037530
612.469017	0.037675
612.677970	0.037840
612.886906	0.037810
613.095824	0.037688
613.304723	0.037685
613.513604	0.037792
613.722467	0.037826
613.931311	0.037777
614.140138	0.037710
614.348946	0.037628
614.557736	0.037462
614.766507	0.037610
614.975261	0.037940
615.183996	0.037917
615.392713	0.037994
615.601412	0.038072
615.810092	0.038113
616.018754	0.038365
616.227399	0.038395
616.436024	0.038527
616.644632	0.038537
616.853222	0.038513
617.061793	0.038459
617.270346	0.038385
617.478880	0.038295
617.687397	0.038244
617.895895	0.038116
618.104375	0.038015
618.312837	0.038017
618.521281	0.037933
618.729706	0.037878
618.938113	0.037897
619.146502	0.037980
619.354873	0.037777
619.563226	0.037797
619.771560	0.038053
619.979876	0.037956
620.188174	0.038391
620.396453	0.038553
620.604715	0.038627
620.812958	0.038702
621.021183	0.038872
621.229390	0.039297
621.437578	0.039340
621.645748	0.039526
621.853900	0.039804
622.062034	0.039421
622.270150	0.039304
622.478247	0.039248
622.686326	0.039393
622.894387	0.039261
623.102430	0.039183
623.310454	0.039137
623.518461	0.039081
623.726449	0.038912
623.934418	0.039051
624.142370	0.039003
624.350303	0.039037
624.558218	0.039154
624.766115	0.039443
624.973994	0.039594
625.181855	0.039648
625.389697	0.039469
625.597521	0.039557
625.805327	0.039439
626.013114	0.039653
626.220883	0.039706
626.428634	0.039489
626.636367	0.039331
626.844082	0.039094
627.051778	0.039079
627.259457	0.039118
627.467117	0.039055
627.674758	0.039050
627.882382	0.038949
628.089987	0.039061
628.297574	0.039034
628.505143	0.038914
628.712694	0.039121
628.920226	0.039146
629.127740	0.039269
629.335236	0.039405
629.542714	0.039527
629.750174	0.039558
629.957615	0.039564
630.165038	0.039713
630.372443	0.040025
630.579829	0.039856
630.787198	0.039965
630.994548	0.039872
631.201880	0.039616
631.409194	0.039737
631.616489	0.039681
631.823766	0.039659
632.031025	0.039635
632.238266	0.039287
632.445489	0.039233
632.652693	0.039229
632.859879	0.039271
633.067047	0.039503
633.274197	0.039385
633.481329	0.039276
633.688442	0.039121
633.895537	0.039140
634.102614	0.039153
634.309672	0.039238
634.516713	0.039106
634.723735	0.039090
634.930739	0.039200
635.137724	0.039296
635.344692	0.039511
635.551641	0.039631
635.758572	0.039564
635.965485	0.039628
636.172379	0.040025
636.379256	0.040290
636.586114	0.040368
636.792954	0.040388
636.999775	0.040447
637.206579	0.040535
637.413364	0.040624
637.620131	0.040737
637.826880	0.040823
638.033610	0.040472
638.240323	0.040340
638.447017	0.040350
638.653692	0.040290
638.860350	0.040121
639.066990	0.040139
639.273611	0.040202
639.480214	0.040435
639.686798	0.040633
639.893365	0.040732
640.099913	0.040798
640.306443	0.040917
640.512955	0.041090
640.719449	0.041313
640.925924	0.041291
641.132381	0.041220
641.338820	0.041274
641.545241	0.041024
641.751644	0.041079
641.958028	0.040971
642.164394	0.040984
642.370742	0.040825
642.577071	0.040858
642.783383	0.040929
642.989676	0.040766
643.195951	0.040458
643.402207	0.040577
643.608446	0.040718
643.814666	0.040942
644.020868	0.040926
644.227052	0.040939
644.433218	0.041073
644.639365	0.040990
644.845494	0.041198
645.051605	0.041163
645.257698	0.041044
645.463772	0.041067
645.669828	0.041029
645.875866	0.040958
646.081886	0.040889
646.287888	0.040545
646.493871	0.040540
646.699836	0.040526
646.905783	0.040677
647.111712	0.040850
647.317622	0.040569
647.523514	0.040474
647.729388	0.040434
647.935244	0.040471
648.141082	0.040549
648.346901	0.040729
648.552702	0.040532
648.758485	0.040791
648.964250	0.040892
649.169996	0.041080
649.375724	0.041116
649.581434	0.041233
649.787126	0.041280
649.992800	0.041366
650.198455	0.041194
650.404092	0.041419
650.609711	0.041081
650.815311	0.040919
651.020894	0.040861
651.226458	0.040905
651.432004	0.040752
651.637532	0.040731
651.843041	0.040615
652.048532	0.040730
652.254006	0.040767
652.459460	0.040832
652.664897	0.040762
652.870315	0.040648
653.075716	0.040799
653.281097	0.041124
653.486461	0.041000
653.691807	0.041064
653.897134	0.040964
654.102443	0.041061
654.307734	0.041062
654.513006	0.041270
654.718261	0.041397
654.923497	0.041254
655.128715	0.040874
655.333915	0.041056
655.539096	0.041102
655.744259	0.041195
655.949404	0.041208
656.154531	0.041288
656.359640	0.041138
656.564730	0.041006
656.769802	0.041109
656.974856	0.041413
657.179892	0.041592
657.384909	0.041643
657.589908	0.041551
657.794889	0.041413
657.999852	0.041467
658.204797	0.041498
658.409723	0.041630
658.614631	0.041570
658.819521	0.041511
659.024393	0.041488
659.229246	0.041450
659.434081	0.041579
659.638898	0.041652
659.843697	0.041592
660.048478	0.041824
660.253240	0.041622
660.457984	0.041706
660.662710	0.041624
660.867417	0.041666
661.072107	0.041731
661.276778	0.041865
661.481431	0.041952
661.686066	0.042059
661.890682	0.042004
662.095281	0.042377
662.299861	0.042368
662.504422	0.042478
662.708966	0.042347
662.913491	0.042464
663.117999	0.042396
663.322488	0.042436
663.526958	0.042401
663.731411	0.042391
663.935845	0.042230
664.140261	0.042308
664.344659	0.042455
664.549038	0.042672
664.753400	0.042560
664.957743	0.042587
665.162068	0.042473
665.366375	0.042487
665.570663	0.042599
665.774933	0.042754
665.979185	0.042626
666.183419	0.042511
666.387635	0.042391
666.591832	0.042565
666.796011	0.042653
667.000172	0.042736
667.204315	0.042787
667.408439	0.042693
667.612545	0.042695
667.816634	0.043057
668.020703	0.043248
668.224755	0.043341
668.428788	0.043488
668.632803	0.043533
668.836800	0.043561
669.040779	0.043710
669.244739	0.043704
669.448681	0.043754
669.652605	0.043601
669.856511	0.043469
670.060399	0.043399
670.264268	0.043179
670.468119	0.043196
670.671952	0.043143
670.875767	0.042909
671.079563	0.043049
671.283341	0.043000
671.487101	0.042857
671.690843	0.042946
671.894567	0.042879
672.098272	0.042895
672.301959	0.042700
672.505628	0.042733
672.709278	0.042868
672.912911	0.042776
673.116525	0.042835
673.320121	0.042919
673.523699	0.042805
673.727258	0.042864
673.930799	0.042989
674.134322	0.043179
674.337827	0.043229
674.541314	0.043215
674.744782	0.043439
674.948232	0.043402
675.151664	0.043439
675.355078	0.043479
675.558474	0.043616
675.761851	0.043567
675.965210	0.043665
676.168551	0.043649
676.371873	0.043797
676.575178	0.043747
676.778464	0.043690
676.981732	0.043824
677.184981	0.044143
677.388213	0.044150
677.591426	0.044060
677.794621	0.044125
677.997798	0.044072
678.200956	0.043977
678.404097	0.044083
678.607219	0.044190
678.810323	0.044149
679.013408	0.043924
679.216476	0.043791
679.419525	0.044030
679.622556	0.043934
679.825569	0.044126
680.028563	0.044185
680.231540	0.043960
680.434498	0.044005
680.637438	0.044009
680.840359	0.044149
681.043263	0.044304
681.246148	0.044184
681.449015	0.044162
681.651864	0.044188
681.854694	0.044395
682.057506	0.044514
682.260301	0.044670
682.463076	0.044788
682.665834	0.044846
682.868573	0.044773
683.071295	0.044746
683.273998	0.044921
683.476682	0.044974
683.679349	0.044873
683.881997	0.044931
684.084627	0.044902
684.287239	0.044862
684.489833	0.044809
684.692408	0.044816
684.894965	0.044847
685.097504	0.044756
685.300025	0.044606
685.502527	0.044672
685.705012	0.044684
685.907478	0.044554
686.109925	0.044582
686.312355	0.044651
686.514766	0.044701
686.717159	0.044783
686.919534	0.044871
687.121891	0.044969
687.324230	0.044908
687.526550	0.044907
687.728852	0.044947
687.931136	0.045049
688.133401	0.045032
688.335649	0.045223
688.537878	0.045096
688.740089	0.044924
688.942281	0.044926
689.144456	0.044923
689.346612	0.044820
689.548750	0.044868
689.750870	0.044834
689.952971	0.044759
690.155055	0.044495
690.357120	0.044497
690.559167	0.044506
690.761195	0.044453
690.963206	0.044439
691.165198	0.044579
691.367172	0.044606
691.569128	0.044573
691.771065	0.044555
691.972984	0.044823
692.174885	0.044902
692.376768	0.045074
692.578633	0.045171
692.780479	0.045162
692.982308	0.045315
693.184118	0.045262
693.385909	0.045302
693.587683	0.045337
693.789438	0.045282
693.991175	0.045361
694.192894	0.045368
694.394595	0.045406
694.596277	0.045485
694.797941	0.045407
694.999587	0.045433
695.201215	0.045353
695.402824	0.045432
695.604416	0.045523
695.805989	0.045602
696.007543	0.045548
696.209080	0.045601
696.410598	0.045651
696.612099	0.045671
696.813580	0.045789
697.015044	0.045929
697.216490	0.045875
697.417917	0.045681
697.619326	0.045701
697.820717	0.045640
698.022089	0.045533
698.223444	0.045580
698.424780	0.045658
698.626098	0.045615
698.827397	0.045447
699.028679	0.045413
699.229942	0.045622
699.431187	0.045428
699.632414	0.045458
699.833622	0.045538
700.034813	0.045308
700.235985	0.045277
700.437139	0.045333
700.638274	0.045343
700.839392	0.045404
701.040491	0.045349
701.241572	0.045526
701.442635	0.045534
701.643679	0.045644
701.844706	0.045957
702.045714	0.045920
702.246704	0.045913
702.447675	0.046126
702.648629	0.046213
702.849564	0.046109
703.050481	0.046221
703.251380	0.046351
703.452260	0.046365
703.653122	0.046149
703.853966	0.046024
704.054792	0.046025
704.255600	0.046006
704.456389	0.045929
704.657160	0.046099
704.857913	0.046022
705.058648	0.045962
705.259365	0.045694
705.460063	0.045606
705.660743	0.045619
705.861405	0.045760
706.062048	0.045666
706.262674	0.045711
706.463281	0.045591
706.663870	0.045654
706.864441	0.045674
707.064993	0.045709
707.265527	0.045803
707.466043	0.045796
707.666541	0.045551
707.867021	0.045662
708.067482	0.045690
708.267925	0.045818
708.468350	0.045728
708.668757	0.045665
708.869145	0.045861
709.069516	0.045808
709.269868	0.045912
709.470201	0.046075
709.670517	0.046242
709.870814	0.046368
710.071093	0.046403
710.271354	0.046375
710.471597	0.046415
710.671821	0.046377
710.872028	0.046383
711.072216	0.046447
711.272385	0.046606
711.472537	0.046398
711.672670	0.046098
711.872785	0.046053
712.072882	0.046191
712.272961	0.046376
712.473021	0.046445
712.673063	0.046634
712.873087	0.046701
713.073093	0.046541
713.273081	0.046520
713.473050	0.046624
713.673001	0.046664
713.872934	0.046590
714.072849	0.046505
714.272745	0.046449
714.472623	0.046413
714.672483	0.046327
714.872325	0.046247
715.072148	0.046348
715.271954	0.046430
715.471741	0.046358
715.671509	0.046437
715.871260	0.046416
716.070992	0.046497
716.270707	0.046434
716.470403	0.046481
716.670080	0.046592
716.869740	0.046472
717.069381	0.046466
717.269004	0.046512
717.468609	0.046440
717.668195	0.046294
717.867764	0.046092
718.067314	0.046072
718.266846	0.045985
718.466360	0.045875
718.665855	0.045729
718.865332	0.045684
719.064791	0.045490
719.264232	0.045264
719.463655	0.045333
719.663059	0.045497
719.862445	0.045523
720.061813	0.045444
720.261163	0.045643
720.460494	0.045893
720.659807	0.045890
720.859102	0.045885
721.058379	0.046018
721.257638	0.046088
721.456878	0.046055
721.656100	0.046203
721.855304	0.046199
722.054490	0.046023
722.253657	0.046006
722.452806	0.046026
722.651937	0.046130
722.851050	0.046250
723.050145	0.046082
723.249221	0.046080
723.448279	0.045909
723.647319	0.045920
723.846340	0.045955
724.045344	0.045721
724.244329	0.045606
724.443296	0.045619
724.642245	0.045333
724.841175	0.045312
725.040088	0.045277
725.238982	0.045231
725.437857	0.045141
725.636715	0.044844
725.835554	0.044856
726.034376	0.044820
726.233179	0.044752
726.431963	0.044919
726.630730	0.045152
726.829478	0.045045
727.028208	0.045028
727.226920	0.044930
727.425614	0.044995
727.624289	0.044919
727.822946	0.045091
728.021585	0.045070
728.220206	0.044998
728.418808	0.045004
728.617392	0.045106
728.815958	0.045069
729.014506	0.045316
729.213036	0.045478
729.411547	0.045650
729.610040	0.045628
729.808515	0.045579
730.006972	0.045753
730.205410	0.045765
730.403831	0.045692
730.602233	0.045756
730.800616	0.045605
730.998982	0.045617
731.197329	0.045629
731.395658	0.045701
731.593969	0.045772
731.792262	0.045691
731.990536	0.045511
732.188793	0.045514
732.387031	0.045560
732.585250	0.045558
732.783452	0.045511
732.981635	0.045412
733.179800	0.045147
733.377947	0.045134
733.576076	0.045004
733.774186	0.044904
733.972278	0.044748
734.170352	0.044419
734.368408	0.044312
734.566446	0.044244
734.764465	0.044235
734.962466	0.044269
735.160449	0.044085
735.358413	0.044118
735.556360	0.044037
735.754288	0.044042
735.952198	0.044239
736.150090	0.044391
736.347963	0.044308
736.545818	0.044341
736.743655	0.044148
736.941474	0.044085
737.139275	0.043984
737.337057	0.044194
737.534821	0.044166
737.732567	0.044217
737.930295	0.044099
738.128005	0.044111
738.325696	0.043986
738.523369	0.044116
738.721024	0.044145
738.918660	0.044028
739.116279	0.043758
739.313879	0.043916
739.511461	0.043926
739.709024	0.043826
739.906570	0.043863
740.104097	0.044019
740.301606	0.043806
740.499097	0.043888
740.696569	0.043933
740.894024	0.043723
741.091460	0.043527
741.288878	0.043477
741.486277	0.043498
741.683659	0.043425
741.881022	0.043250
742.078367	0.043418
742.275694	0.043360
742.473002	0.043331
742.670293	0.043505
742.867565	0.043495
743.064819	0.043425
743.262054	0.043660
743.459272	0.043600
743.656471	0.043605
743.853652	0.043572
744.050815	0.043904
744.247959	0.043939
744.445085	0.044070
744.642194	0.044084
744.839283	0.044104
745.036355	0.043862
745.233408	0.043922
745.430444	0.043829
745.627461	0.043926
745.824459	0.043528
746.021440	0.043542
746.218402	0.043486
746.415346	0.043540
746.612272	0.043364
746.809180	0.043584
747.006069	0.043498
747.202940	0.043577
747.399793	0.043429
747.596628	0.043626
747.793444	0.043585
747.990243	0.043402
748.187023	0.043247
748.383784	0.043194
748.580528	0.043045
748.777253	0.043165
748.973960	0.043288
749.170649	0.043323
749.367320	0.043176
749.563973	0.043273
749.760607	0.043561
749.957223	0.043668
750.153821	0.043673
750.350400	0.043743
750.546962	0.043706
750.743505	0.043486
750.940030	0.043557
751.136536	0.043802
751.333025	0.043815
751.529495	0.043952
751.725947	0.043898
751.922381	0.044085
752.118796	0.044050
752.315194	0.044023
752.511573	0.044131
752.707934	0.044191
752.904276	0.044094
753.100601	0.044275
753.296907	0.044049
753.493195	0.044179
753.689465	0.044130
753.885716	0.044139
754.081949	0.044272
754.278164	0.044118
754.474361	0.043968
754.670540	0.043820
754.866700	0.043546
755.062843	0.043505
755.258967	0.043399
755.455072	0.043442
755.651160	0.043301
755.847229	0.043116
756.043280	0.043319
756.239313	0.043366
756.435328	0.043230
756.631324	0.043162
756.827302	0.043211
757.023262	0.043274
757.219204	0.043279
757.415127	0.043217
757.611033	0.043289
757.806920	0.043044
758.002788	0.042974
758.198639	0.043049
758.394471	0.043080
758.590286	0.043032
758.786081	0.042862
758.981859	0.042856
759.177619	0.043031
759.373360	0.042879
759.569083	0.043033
759.764788	0.043234
759.960474	0.043372
760.156143	0.043287
760.351793	0.043239
760.547425	0.043417
760.743038	0.043266
760.938634	0.043317
761.134211	0.043307
761.329770	0.043455
761.525311	0.043379
761.720833	0.043521
761.916338	0.043744
762.111824	0.043895
762.307292	0.043930
762.502741	0.044134
762.698173	0.043985
762.893586	0.044315
763.088981	0.044358
763.284358	0.044419
763.479716	0.044128
763.675057	0.043901
763.870379	0.043754
764.065683	0.043696
764.260968	0.043404
764.456236	0.043207
764.651485	0.042990
764.846716	0.042829
765.041929	0.042485
765.237123	0.042597
765.432299	0.042666
765.627457	0.042681
765.822597	0.042599
766.017719	0.042644
766.212822	0.042912
766.407907	0.042876
766.602974	0.042615
766.798023	0.042718
766.993054	0.042548
767.188066	0.042580
767.383060	0.042356
767.578036	0.042380
767.772993	0.042395
767.967933	0.042345
768.162854	0.042449
768.357757	0.042743
768.552642	0.042904
768.747508	0.042966
768.942356	0.042987
769.137186	0.043179
769.331998	0.043169
769.526792	0.043350
769.721567	0.043391
769.916324	0.043239
770.111063	0.042994
770.305784	0.042913
770.500486	0.042788
770.695171	0.042848
770.889837	0.042744
771.084484	0.042782
771.279114	0.042521
771.473725	0.042541
771.668318	0.042637
771.862893	0.042752
772.057450	0.042745
772.251988	0.042973
772.446509	0.043004
772.641011	0.043014
772.835494	0.042968
773.029960	0.043199
773.224407	0.043135
773.418836	0.043134
773.613247	0.043102
773.807640	0.042935
774.002014	0.042833
774.196370	0.042646
774.390708	0.042734
774.585028	0.042662
774.779330	0.042472
774.973613	0.042267
775.167878	0.042178
775.362125	0.042307
775.556354	0.042538
775.750564	0.042355
775.944756	0.042256
776.138930	0.042187
776.333086	0.042297
776.527223	0.042460
776.721343	0.042454
776.915444	0.042506
777.109526	0.042345
777.303591	0.042303
777.497637	0.042469
777.691666	0.042555
777.885676	0.042573
778.079667	0.042423
778.273641	0.042497
778.467596	0.042656
778.661533	0.042577
778.855452	0.042675
779.049352	0.042729
779.243235	0.042829
779.437099	0.042953
779.630945	0.042949
779.824773	0.043287
780.018582	0.043049
780.212373	0.043112
780.406146	0.043240
780.599901	0.043223
780.793638	0.043282
780.987356	0.043132
781.181056	0.043092
781.374738	0.043212
781.568402	0.043052
781.762047	0.043278
781.955674	0.043258
782.149283	0.043248
782.342874	0.043185
782.536447	0.043148
782.730001	0.043217
782.923537	0.043247
783.117055	0.043182
783.310555	0.043051
783.504036	0.042852
783.697499	0.042758
783.890944	0.042686
784.084371	0.042801
784.277780	0.042653
784.471170	0.042715
784.664542	0.042685
784.857896	0.042846
785.051231	0.043027
785.244549	0.043085
785.437848	0.043222
785.631129	0.043110
785.824392	0.042970
786.017636	0.042993
786.210863	0.042918
786.404071	0.042804
786.597260	0.042584
786.790432	0.042389
786.983585	0.042357
787.176721	0.042326
787.369838	0.042477
787.562936	0.042400
787.756017	0.042469
787.949079	0.042531
788.142123	0.042513
788.335149	0.042573
788.528156	0.042601
788.721146	0.042564
788.914117	0.042513
789.107070	0.042253
789.300005	0.042338
789.492921	0.042266
789.685819	0.042050
789.878699	0.042200
790.071561	0.042131
790.264405	0.042029
790.457230	0.042143
790.650037	0.042171
790.842826	0.042399
791.035597	0.042346
791.228349	0.042250
791.421084	0.042305
791.613800	0.042241
791.806497	0.042252
791.999177	0.042490
792.191838	0.042464
792.384481	0.042391
792.577106	0.042348
792.769713	0.042450
792.962301	0.042560
793.154871	0.042777
793.347423	0.042581
793.539957	0.042488
793.732473	0.042202
793.924970	0.042206
794.117449	0.042178
794.309910	0.042219
794.502353	0.042042
794.694777	0.041722
794.887183	0.041492
795.079571	0.041655
795.271941	0.041732
795.464293	0.041845
795.656626	0.041685
795.848941	0.041520
796.041238	0.041276
796.233516	0.041257
796.425777	0.041406
796.618019	0.041492
796.810243	0.041569
797.002449	0.041589
797.194636	0.041706
797.386805	0.041797
797.578956	0.041927
797.771089	0.042027
797.963204	0.042172
798.155300	0.042140
798.347378	0.042006
798.539438	0.041975
798.731480	0.042031
798.923503	0.042066
799.115509	0.041981
799.307496	0.042181
799.499465	0.042200
799.691415	0.042342
799.883348	0.042559
800.075262	0.042630
800.267158	0.042767
800.459035	0.042581
800.650895	0.042530
800.842736	0.042474
801.034559	0.042321
801.226364	0.042417
801.418150	0.042345
801.609919	0.042302
801.801669	0.042449
801.993401	0.042352
802.185114	0.042604
802.376810	0.042216
802.568487	0.042403
802.760146	0.042428
802.951787	0.042414
803.143409	0.042426
803.335014	0.042251
803.526600	0.042048
803.718168	0.041976
803.909717	0.041983
804.101249	0.042165
804.292762	0.042116
804.484257	0.042260
804.675734	0.042425
804.867192	0.042497
805.058632	0.042592
805.250054	0.042761
805.441458	0.042758
805.632844	0.042689
805.824211	0.042919
806.015561	0.043030
806.206891	0.043156
806.398204	0.043288
806.589499	0.043326
806.780775	0.043709
806.972033	0.043912
807.163273	0.044043
807.354495	0.044167
807.545698	0.044212
807.736883	0.044334
807.928050	0.044217
808.119199	0.044068
808.310329	0.044090
808.501441	0.043889
808.692535	0.043867
808.883611	0.043896
809.074669	0.043915
809.265708	0.043999
809.456729	0.043956
809.647732	0.044282
809.838717	0.044600
810.029683	0.044619
810.220632	0.044897
810.411562	0.044904
810.602474	0.045110
810.793367	0.045040
810.984242	0.045233
811.175100	0.045280
811.365938	0.045288
811.556759	0.045046
811.747562	0.045019
811.938346	0.044851
812.129112	0.044884
812.319860	0.044862
812.510589	0.044976
812.701300	0.044817
812.891994	0.044870
813.082668	0.044721
813.273325	0.044685
813.463964	0.044775
813.654584	0.044657
813.845186	0.044449
814.035769	0.044451
814.226335	0.044385
814.416882	0.044272
814.607411	0.044158
814.797922	0.043919
814.988415	0.044031
815.178889	0.043863
815.369345	0.043970
815.559783	0.044265
815.750203	0.044075
815.940605	0.044062
816.130988	0.044166
816.321353	0.044161
816.511700	0.044253
816.702028	0.044093
816.892339	0.044231
817.082631	0.044272
817.272905	0.044072
817.463161	0.044104
817.653398	0.044077
817.843617	0.044083
818.033819	0.044098
818.224001	0.044027
818.414166	0.044118
818.604312	0.044061
818.794440	0.044068
818.984550	0.044133
819.174642	0.044043
819.364716	0.044032
819.554771	0.043859
819.744808	0.043793
819.934827	0.043653
820.124827	0.043571
820.314810	0.043571
820.504774	0.043417
820.694720	0.043507
820.884647	0.043459
821.074557	0.043656
821.264448	0.043590
821.454321	0.043826
821.644176	0.044058
821.834012	0.044122
822.023831	0.044202
822.213631	0.044266
822.403413	0.044138
822.593176	0.044350
822.782922	0.044222
822.972649	0.044372
823.162358	0.044212
823.352049	0.044085
823.541721	0.044093
823.731376	0.044054
823.921012	0.044245
824.110629	0.044442
824.300229	0.044230
824.489811	0.044464
824.679374	0.044445
824.868919	0.044602
825.058445	0.044666
825.247954	0.044670
825.437444	0.044824
825.626916	0.044761
825.816370	0.044676
826.005806	0.045011
826.195223	0.044937
826.384622	0.045098
826.574003	0.045074
826.763366	0.045387
826.952711	0.045404
827.142037	0.045491
827.331345	0.045595
827.520635	0.045705
827.709906	0.045556
827.899160	0.045609
828.088395	0.045724
828.277612	0.045800
828.466810	0.045693
828.655991	0.045784
828.845153	0.045514
829.034297	0.045524
829.223423	0.045560
829.412531	0.045670
829.601620	0.045469
829.790691	0.045280
829.979744	0.045339
830.168779	0.045453
830.357795	0.045470
830.546793	0.045724
830.735773	0.045722
830.924735	0.045815
831.113679	0.045897
831.302604	0.046161
831.491511	0.046319
831.680400	0.046175
831.869271	0.046015
832.058123	0.046260
832.246957	0.046083
832.435773	0.046177
832.624571	0.046322
832.813351	0.046372
833.002112	0.046305
833.190855	0.046405
833.379580	0.046456
833.568287	0.046657
833.756975	0.046623
833.945645	0.046763
834.134297	0.046699
834.322931	0.046354
834.511547	0.046364
834.700144	0.046524
834.888723	0.046491
835.077284	0.046431
835.265826	0.046233
835.454351	0.046055
835.642857	0.045988
835.831345	0.046104
836.019815	0.046358
836.208266	0.046348
836.396699	0.046239
836.585114	0.046453
836.773511	0.046655
836.961890	0.046772
837.150250	0.046962
837.338592	0.047001
837.526916	0.046804
837.715222	0.046576
837.903510	0.046750
838.091779	0.046870
838.280030	0.046702
838.468263	0.046785
838.656477	0.046990
838.844674	0.046994
839.032852	0.047179
839.221012	0.047232
839.409153	0.047254
839.597277	0.047140
839.785382	0.047190
839.973469	0.047313
840.161538	0.047473
840.349589	0.047421
840.537621	0.047299
840.725635	0.047341
840.913631	0.047417
841.101609	0.047542
841.289568	0.047556
841.477509	0.047436
841.665432	0.047652
841.853337	0.047495
842.041224	0.047495
842.229092	0.047709
842.416942	0.047675
842.604774	0.047720
842.792588	0.047673
842.980383	0.047678
843.168160	0.047745
843.355919	0.047588
843.543660	0.047688
843.731382	0.047835
843.919087	0.048054
844.106773	0.047989
844.294441	0.048295
844.482090	0.048413
844.669722	0.048472
844.857335	0.048591
845.044930	0.048513
845.232507	0.048561
845.420065	0.048776
845.607605	0.048511
845.795127	0.048775
845.982631	0.048859
846.170117	0.049195
846.357584	0.049612
846.545033	0.049794
846.732464	0.050187
846.919877	0.050519
847.107272	0.050446
847.294648	0.050707
847.482006	0.050615
847.669346	0.050546
847.856667	0.050665
848.043971	0.050578
848.231256	0.050765
848.418523	0.050595
848.605771	0.050595
848.793002	0.050564
848.980214	0.050558
849.167408	0.050865
849.354584	0.050999
849.541742	0.050933
849.728881	0.050838
849.916002	0.050710
850.103105	0.050766
850.290190	0.050912
850.477256	0.050913
850.664304	0.050977
850.851334	0.050747
851.038346	0.050631
851.225340	0.050728
851.412315	0.050874
851.599272	0.050911
851.786211	0.051153
851.973132	0.050956
852.160034	0.051117
852.346918	0.051208
852.533784	0.051766
852.720632	0.051925
852.907462	0.052086
853.094273	0.052403
853.281066	0.052669
853.467841	0.052464
853.654598	0.052684
853.841336	0.052572
854.028056	0.052608
854.214758	0.052604
854.401442	0.052883
854.588107	0.052788
854.774755	0.052686
854.961384	0.052618
855.147995	0.052824
855.334587	0.052852
855.521162	0.053254
855.707718	0.053253
855.894256	0.053233
856.080775	0.053165
856.267277	0.053154
856.453760	0.053147
856.640225	0.053087
856.826672	0.053305
857.013101	0.053261
857.199511	0.053004
857.385903	0.053190
857.572277	0.053126
857.758633	0.053075
857.944970	0.053175
858.131290	0.053193
858.317591	0.053551
858.503873	0.053517
858.690138	0.053638
858.876384	0.054231
859.062612	0.054152
859.248822	0.054139
859.435014	0.054323
859.621188	0.054536
859.807343	0.054726
859.993480	0.054777
860.179599	0.054684
860.365699	0.054683
860.551781	0.054269
860.737846	0.054518
860.923891	0.054606
861.109919	0.054729
861.295929	0.054803
861.481920	0.054665
861.667893	0.054354
861.853848	0.054597
862.039784	0.054605
862.225702	0.054820
862.411603	0.054720
862.597484	0.054705
862.783348	0.054502
862.969193	0.054470
863.155021	0.054516
863.340830	0.054673
863.526620	0.054541
863.712393	0.054555
863.898147	0.054600
864.083883	0.054828
864.269601	0.054942
864.455301	0.055283
864.640982	0.055519
864.826645	0.055508
865.012290	0.055605
865.197917	0.055832
865.383526	0.055844
865.569116	0.055848
865.754688	0.055680
865.940242	0.055761
866.125777	0.055670
866.311295	0.055401
866.496794	0.055375
866.682275	0.055413
866.867737	0.055252
867.053182	0.055346
867.238608	0.055356
867.424016	0.055560
867.609406	0.055565
867.794778	0.055265
867.980131	0.055066
868.165466	0.055166
868.350783	0.055152
868.536082	0.055125
868.721362	0.055309
868.906625	0.055410
869.091869	0.055533
869.277094	0.055707
869.462302	0.056034
869.647491	0.056277
869.832662	0.056551
870.017815	0.056566
870.202950	0.056474
870.388066	0.056172
870.573165	0.056160
870.758245	0.056049
870.943306	0.055982
871.128350	0.056164
871.313375	0.056161
871.498382	0.056031
871.683371	0.056156
871.868342	0.056656
872.053294	0.056891
872.238229	0.057069
872.423144	0.057051
872.608042	0.057047
872.792922	0.056911
872.977783	0.057144
873.162626	0.057207
873.347451	0.057313
873.532258	0.056872
873.717046	0.057010
873.901816	0.056803
874.086568	0.056734
874.271302	0.056680
874.456017	0.056666
874.640715	0.056572
874.825394	0.056817
875.010055	0.056671
875.194697	0.056641
875.379322	0.056498
875.563928	0.056446
875.748516	0.056546
875.933085	0.056543
876.117637	0.056319
876.302170	0.056323
876.486685	0.055934
876.671182	0.055740
876.855661	0.055723
877.040121	0.055705
877.224563	0.055855
877.408987	0.055884
877.593393	0.055859
877.777780	0.056099
877.962150	0.056080
878.146501	0.056459
878.330833	0.056889
878.515148	0.057234
878.699444	0.057069
878.883722	0.057148
879.067982	0.057199
879.252224	0.057197
879.436447	0.057287
879.620653	0.057293
879.804840	0.057178
879.989008	0.056993
880.173159	0.057091
880.357291	0.057590
880.541405	0.057588
880.725501	0.057477
880.909579	0.057565
881.093638	0.057815
881.277680	0.057831
881.461703	0.057766
881.645707	0.057804
881.829694	0.057756
882.013662	0.057830
882.197612	0.057569
882.381544	0.057579
882.565458	0.057711
882.749353	0.057312
882.933230	0.057659
883.117089	0.057489
883.300930	0.057374
883.484753	0.057273
883.668557	0.057150
883.852343	0.057310
884.036111	0.057271
884.219861	0.057369
884.403592	0.057486
884.587305	0.057071
884.771000	0.057418
884.954677	0.057253
885.138335	0.057490
885.321976	0.057143
885.505598	0.057344
885.689201	0.057592
885.872787	0.057233
886.056354	0.057319
886.239904	0.057291
886.423434	0.056954
886.606947	0.057189
886.790442	0.057100
886.973918	0.057265
887.157376	0.057235
887.340816	0.056972
887.524237	0.057277
887.707641	0.057171
887.891026	0.057338
888.074393	0.057569
888.257741	0.057483
888.441072	0.057579
888.624384	0.057694
888.807678	0.057264
888.990954	0.057454
889.174211	0.057156
889.357451	0.056930
889.540672	0.056771
889.723875	0.056784
889.907059	0.056826
890.090226	0.056611
890.273374	0.056488
890.456504	0.056991
890.639616	0.056938
890.822709	0.057069
891.005785	0.057303
891.188842	0.057538
891.371881	0.057204
891.554901	0.057290
891.737904	0.057475
891.920888	0.057473
892.103854	0.057252
892.286802	0.057222
892.469731	0.057481
892.652643	0.057432
892.835536	0.057181
893.018410	0.057411
893.201267	0.057403
893.384106	0.056885
893.566926	0.056977
893.749728	0.056784
893.932511	0.056818
894.115277	0.056351
894.298024	0.056542
894.480753	0.056365
894.663464	0.056665
894.846157	0.056474
895.028831	0.056978
895.211487	0.056944
895.394125	0.057371
895.576745	0.057385
895.759346	0.057290
895.941930	0.056965
896.124495	0.057415
896.307041	0.056866
896.489570	0.056931
896.672080	0.056918
896.854573	0.056898
897.037046	0.056398
897.219502	0.056082
897.401940	0.056078
897.584359	0.055925
897.766760	0.055614
897.949143	0.055656
898.131507	0.055905
898.313854	0.055736
898.496182	0.055543
898.678492	0.055585
898.860783	0.055592
899.043057	0.055869
899.225312	0.055634
899.407549	0.055460
899.589768	0.055235
899.771968	0.054927
899.954151	0.054508
900.136315	0.054416
900.318461	0.054311
900.500588	0.054261
900.682698	0.053749
900.864789	0.053998
901.046862	0.054194
901.228917	0.054588
901.410953	0.054494
901.592971	0.054845
901.774972	0.054877
901.956953	0.055141
902.138917	0.055179
902.320862	0.055442
902.502790	0.055265
902.684699	0.055013
902.866589	0.054761
903.048462	0.054512
903.230316	0.054205
903.412152	0.053974
903.593970	0.053744
903.775770	0.053753
903.957551	0.053959
904.139314	0.053827
904.321059	0.054000
904.502786	0.054002
904.684494	0.054102
904.866185	0.054194
905.047857	0.054299
905.229510	0.054111
905.411146	0.054005
905.592763	0.053607
905.774363	0.054017
905.955943	0.054042
906.137506	0.053758
906.319051	0.053896
906.500577	0.053601
906.682085	0.053541
906.863575	0.053474
907.045046	0.053464
907.226500	0.053638
907.407935	0.053149
907.589352	0.052821
907.770750	0.052451
907.952131	0.052055
908.133493	0.052096
908.314837	0.052070
908.496163	0.052380
908.677470	0.052243
908.858760	0.052076
909.040031	0.052113
909.221284	0.052103
909.402518	0.052599
909.583735	0.052557
909.764933	0.052335
909.946113	0.052185
910.127275	0.051418
910.308418	0.051312
910.489544	0.050892
910.670651	0.050849
910.851740	0.050247
911.032810	0.049885
911.213863	0.049795
911.394897	0.049824
911.575913	0.049352
911.756911	0.049649
911.937890	0.049076
912.118851	0.048911
912.299794	0.049104
912.480719	0.049410
912.661626	0.049500
912.842514	0.049258
913.023384	0.049036
913.204236	0.048992
913.385070	0.048938
913.565886	0.049006
913.746683	0.049292
913.927462	0.048606
914.108223	0.048495
914.288965	0.048176
914.469690	0.048272
914.650396	0.048035
914.831084	0.048217
915.011754	0.047802
915.192405	0.047897
915.373038	0.047519
915.553653	0.047515
915.734250	0.047325
915.914829	0.047333
916.095389	0.046997
916.275931	0.047159
916.456455	0.046718
916.636961	0.046707
916.817448	0.046517
916.997917	0.046233
917.178368	0.046086
917.358801	0.046112
917.539216	0.046235
917.719612	0.046337
917.899990	0.046402
918.080350	0.046262
918.260692	0.046054
918.441015	0.045730
918.621320	0.045971
918.801607	0.046180
918.981876	0.045891
919.162127	0.045499
919.342359	0.045224
919.522573	0.044720
919.702769	0.044804
919.882947	0.044312
920.063106	0.044365
920.243247	0.044251
920.423370	0.043824
920.603475	0.043780
920.783562	0.043449
920.963630	0.043379
921.143680	0.043419
921.323712	0.043334
921.503725	0.043572
921.683721	0.043205
921.863698	0.042731
922.043657	0.042600
922.223598	0.042048
922.403520	0.042121
922.583424	0.041746
922.763311	0.041239
922.943178	0.040950
923.123028	0.040907
923.302859	0.040923
923.482673	0.040915
923.662467	0.040502
923.842244	0.040737
924.022003	0.040836
924.201743	0.040697
924.381465	0.040765
924.561169	0.040291
924.740854	0.039868
924.920522	0.039605
925.100171	0.039366
925.279802	0.039285
925.459414	0.038751
925.639009	0.038230
925.818585	0.038351
925.998143	0.037687
926.177683	0.037275
926.357205	0.036658
926.536708	0.036531
926.716193	0.035840
926.895660	0.035427
927.075109	0.035391
927.254539	0.034501
927.433951	0.033694
927.613345	0.034077
927.792721	0.034286
927.972079	0.034404
928.151418	0.033839
928.330739	0.033916
928.510042	0.033923
928.689327	0.033942
928.868593	0.033694
929.047841	0.033492
929.227071	0.032834
929.406283	0.032605
929.585476	0.032220
929.764652	0.032459
929.943809	0.032180
930.122948	0.032260
930.302068	0.031842
930.481171	0.032142
930.660255	0.032224
930.839321	0.032217
931.018369	0.031841
931.197398	0.032094
931.376409	0.031451
931.555402	0.031221
931.734377	0.030583
931.913334	0.029899
932.092272	0.029686
932.271192	0.029275
932.450094	0.028889
932.628978	0.028549
932.807844	0.028141
932.986691	0.028263
933.165520	0.028169
933.344331	0.028245
933.523123	0.028326
933.701898	0.028123
933.880654	0.028748
934.059392	0.028746
934.238111	0.029058
934.416813	0.028823
934.595496	0.028436
934.774161	0.028421
934.952808	0.028199
935.131437	0.028198
935.310047	0.027443
935.488639	0.026087
935.667213	0.025315
935.845769	0.025606
936.024306	0.025858
936.202825	0.025443
936.381326	0.025397
936.559809	0.024596
936.738274	0.024485
936.916720	0.024498
937.095148	0.024660
937.273558	0.025159
937.451950	0.023676
937.630323	0.023353
937.808678	0.023380
937.987015	0.022597
938.165334	0.023065
938.343635	0.022726
938.521917	0.022488
938.700181	0.022129
938.878427	0.021331
939.056655	0.021893
939.234864	0.020782
939.413055	0.020792
939.591228	0.020486
939.769383	0.019851
939.947519	0.018863
940.125638	0.018779
940.303738	0.019219
940.481820	0.019313
940.659883	0.018715
940.837929	0.019160
941.015956	0.018574
941.193965	0.018862
941.371955	0.018662
941.549928	0.018320
941.727882	0.018404
941.905818	0.017767
942.083736	0.017996
942.261636	0.017404
942.439517	0.017325
942.617380	0.016572
942.795225	0.015381
942.973052	0.015205
943.150860	0.014771
943.328651	0.014172
943.506423	0.013803
943.684176	0.013144
943.861912	0.013100
944.039629	0.012844
944.217328	0.013952
944.395009	0.013818
944.572672	0.013128
944.750317	0.013434
944.927943	0.013640
945.105551	0.013170
945.283141	0.012373
945.460712	0.012372
945.638265	0.011076
945.815801	0.010107
945.993317	0.010787
946.170816	0.010608
946.348297	0.010972
946.525759	0.010512
946.703203	0.009899
946.880629	0.010729
947.058036	0.009841
947.235425	0.010171
947.412797	0.009780
947.590149	0.010547
947.767484	0.010618
947.944800	0.010149
948.122099	0.010349
948.299379	0.010997
948.476640	0.011364
948.653884	0.012025
948.831109	0.011874
949.008316	0.012338
949.185505	0.011420
949.362676	0.010647
949.539828	0.011725
949.716962	0.011979
949.894078	0.011013
950.071176	0.008729
950.248256	0.009092
950.425317	0.009730
950.602360	0.008415
950.779385	0.008315
950.956391	0.009864
951.133380	0.008390
951.310350	0.006669
951.487302	0.007911
951.664235	0.008682
951.841151	0.008872
952.018048	0.006955
952.194927	0.007175
952.371788	0.006725
952.548631	0.005867
952.725455	0.006313
952.902261	0.007647
953.079049	0.007668
953.255819	0.007159
953.432570	0.006382
953.609303	0.008165
953.786018	0.009056
953.962715	0.008881
954.139394	0.008549
954.316054	0.007832
954.492696	0.007581
954.669320	0.006736
954.845926	0.007670
955.022513	0.007582
955.199083	0.007279
955.375634	0.007547
955.552166	0.007448
955.728681	0.008616
955.905177	0.009732
956.081655	0.008365
956.258115	0.010173
956.434557	0.010770
956.610980	0.010437
956.787385	0.011598
956.963772	0.012101
957.140141	0.012645
957.316492	0.012076
957.492824	0.012478
957.669138	0.014308
957.845434	0.012841
958.021712	0.012680
958.197971	0.013731
958.374212	0.012922
958.550435	0.012171
958.726640	0.011594
958.902826	0.012485
959.078995	0.011875
959.255145	0.010861
959.431277	0.011752
959.607390	0.012067
959.783486	0.012231
959.959563	0.011984
960.135622	0.012715
960.311662	0.013857
960.487685	0.014481
960.663689	0.015731
960.839675	0.016846
961.015643	0.016760
961.191593	0.016874
961.367524	0.016125
961.543437	0.016452
961.719332	0.016603
961.895209	0.017182
962.071067	0.018184
962.246907	0.019027
962.422730	0.019578
962.598533	0.019444
962.774319	0.018306
962.950086	0.020548
963.125835	0.022238
963.301566	0.022822
963.477279	0.022358
963.652973	0.021608
963.828650	0.021148
964.004308	0.020227
964.179947	0.019807
964.355569	0.019790
964.531172	0.017712
964.706757	0.017126
964.882324	0.018170
965.057873	0.019672
965.233403	0.019280
965.408916	0.017060
965.584410	0.016537
965.759885	0.018049
965.935343	0.018158
966.110782	0.019158
966.286203	0.019944
966.461606	0.019520
966.636991	0.018587
966.812357	0.017771
966.987705	0.017827
967.163035	0.019830
967.338347	0.020790
967.513641	0.022348
967.688916	0.021614
967.864173	0.023064
968.039412	0.023318
968.214632	0.023356
968.389835	0.025093
968.565019	0.026561
968.740185	0.026843
968.915333	0.025532
969.090462	0.027268
969.265573	0.029838
969.440667	0.029298
969.615741	0.030325
969.790798	0.029034
969.965836	0.029584
970.140856	0.030264
970.315858	0.029279
970.490842	0.028878
970.665808	0.025402
970.840755	0.024501
971.015684	0.024377
971.190595	0.021013
971.365487	0.022107
971.540362	0.020172
971.715218	0.020257
971.890056	0.021088
972.064875	0.023799
972.239677	0.025672
972.414460	0.025030
972.589225	0.023741
972.763972	0.027955
972.938700	0.027380
973.113411	0.027543
973.288103	0.026365
973.462777	0.026329
973.637432	0.025809
973.812070	0.024859
973.986689	0.025890
974.161290	0.026657
974.335873	0.024224
974.510437	0.025493
974.684984	0.027277
974.859512	0.027732
975.034022	0.026385
975.208513	0.026478
975.382987	0.026700
975.557442	0.024681
975.731879	0.024845
975.906298	0.024562
976.080698	0.025225
976.255080	0.023868
976.429445	0.024441
976.603790	0.025433
976.778118	0.025099
976.952427	0.024709
977.126719	0.027695
977.300992	0.027207
977.475246	0.027219
977.649483	0.027389
977.823701	0.026991
977.997901	0.026325
978.172083	0.027118
978.346247	0.026589
978.520392	0.027518
978.694519	0.026247
978.868628	0.026271
979.042719	0.028061
979.216791	0.026206
979.390845	0.026292
979.564882	0.026652
979.738899	0.026308
979.912899	0.026174
980.086880	0.025939
980.260843	0.027287
980.434788	0.028198
980.608715	0.027488
980.782623	0.026886
980.956514	0.027645
981.130386	0.027592
981.304240	0.025897
981.478075	0.025075
981.651892	0.026122
981.825692	0.024962
981.999472	0.025084
982.173235	0.024131
982.346980	0.025106
982.520706	0.026086
982.694414	0.026653
982.868104	0.026816
983.041775	0.027548
983.215428	0.028556
983.389064	0.028539
983.562680	0.026528
983.736279	0.027646
983.909860	0.030013
984.083422	0.029727
984.256966	0.029559
984.430491	0.032419
984.603999	0.032578
984.777488	0.031352
984.950959	0.029976
985.124412	0.030514
985.297847	0.028786
985.471263	0.026307
985.644661	0.025517
985.818041	0.026411
985.991403	0.024188
986.164747	0.023951
986.338072	0.023355
986.511379	0.024592
986.684668	0.025056
986.857938	0.026176
987.031191	0.027376
987.204425	0.028494
987.377641	0.027188
987.550839	0.027874
987.724018	0.028071
987.897179	0.029122
988.070322	0.029540
988.243447	0.029670
988.416554	0.029449
988.589642	0.028648
988.762712	0.027917
988.935764	0.028265
989.108798	0.028481
989.281813	0.027744
989.454811	0.027077
989.627790	0.027415
989.800751	0.026246
989.973693	0.025543
990.146617	0.025734
990.319524	0.025497
990.492412	0.025647
990.665281	0.025776
990.838133	0.026702
991.010966	0.027578
991.183781	0.026099
991.356578	0.028056
991.529356	0.028099
991.702117	0.028663
991.874859	0.028137
992.047583	0.027806
992.220288	0.027412
992.392976	0.027201
992.565645	0.024764
992.738296	0.024637
992.910929	0.024112
993.083543	0.024821
993.256139	0.024516
993.428718	0.026555
993.601277	0.028123
993.773819	0.029037
993.946342	0.027751
994.118848	0.029717
994.291335	0.028533
994.463803	0.028075
994.636254	0.028720
994.808686	0.029173
994.981100	0.029036
995.153496	0.028281
995.325874	0.027727
995.498233	0.030047
995.670574	0.028223
995.842897	0.029383
996.015202	0.029602
996.187488	0.028808
996.359757	0.029378
996.532007	0.027961
996.704239	0.027899
996.876452	0.027276
997.048648	0.027587
997.220825	0.028445
997.392984	0.028930
997.565124	0.028695
997.737247	0.027622
997.909351	0.025775
998.081437	0.027244
998.253505	0.027807
998.425554	0.028495
998.597586	0.026255
998.769599	0.026133
998.941594	0.025733
999.113571	0.024455
999.285529	0.025095
999.457469	0.026781
999.629391	0.024167
999.801295	0.023267
999.973181	0.022584
1000.145048	0.023754
1000.316897	0.024466
1000.488728	0.025564
1000.660541	0.026905
1000.832335	0.028980
1001.004111	0.028261
1001.175869	0.028372
1001.347609	0.027006
1001.519331	0.028440
1001.691034	0.027551
1001.862719	0.026709
1002.034386	0.026313
1002.206035	0.025674
1002.377665	0.024645
1002.549277	0.023626
1002.720871	0.025846
1002.892447	0.026620
1003.064004	0.025772
1003.235544	0.027052
1003.407065	0.026865
1003.578568	0.027746
1003.750052	0.028260
1003.921519	0.028123
1004.092967	0.028674
1004.264397	0.028539
1004.435809	0.028925
1004.607202	0.029525
1004.778577	0.029537
1004.949934	0.030705
1005.121273	0.029319
1005.292594	0.029961
1005.463896	0.029385
1005.635180	0.029998
1005.806446	0.027766
1005.977694	0.027727
1006.148923	0.027414
1006.320135	0.026328
1006.491328	0.025449
1006.662503	0.027224
1006.833659	0.026093
1007.004798	0.026306
1007.175918	0.024545
1007.347020	0.025127
1007.518103	0.025206
1007.689169	0.024576
1007.860216	0.026075
1008.031245	0.025554
1008.202256	0.023036
1008.373248	0.023167
1008.544223	0.022729
1008.715179	0.024546
1008.886117	0.025335
1009.057036	0.026171
1009.227938	0.025458
1009.398821	0.023746
1009.569686	0.024244
1009.740533	0.025692
1009.911361	0.025726
1010.082172	0.026636
1010.252964	0.026546
1010.423738	0.025673
1010.594493	0.024606
1010.765231	0.025126
1010.935950	0.025346
1011.106651	0.026500
1011.277334	0.025977
1011.447998	0.027500
1011.618645	0.026601
1011.789273	0.025914
1011.959882	0.025887
1012.130474	0.024396
1012.301048	0.023635
1012.471603	0.024235
1012.642140	0.023492
1012.812658	0.023803
1012.983159	0.022373
1013.153641	0.022008
1013.324105	0.022192
1013.494551	0.024761
1013.664979	0.027357
1013.835388	0.028452
1014.005779	0.029032
1014.176152	0.028589
1014.346507	0.028920
1014.516843	0.029725
1014.687162	0.031018
1014.857462	0.031575
1015.027744	0.030303
1015.198007	0.028345
1015.368252	0.028724
1015.538480	0.026661
1015.708689	0.026464
1015.878879	0.026274
1016.049052	0.026451
1016.219206	0.024383
1016.389342	0.024917
1016.559460	0.023798
1016.729559	0.021524
1016.899641	0.021044
1017.069704	0.021215
1017.239749	0.022393
1017.409775	0.020931
1017.579784	0.019753
1017.749774	0.020429
1017.919746	0.019082
1018.089700	0.018703
1018.259635	0.021088
1018.429553	0.021548
1018.599452	0.023495
1018.769333	0.023640
1018.939195	0.024059
1019.109040	0.024807
1019.278866	0.026599
1019.448674	0.026618
1019.618464	0.026159
1019.788235	0.026341
1019.957989	0.026248
1020.127724	0.023280
1020.297441	0.023952
1020.467139	0.024829
1020.636820	0.026148
1020.806482	0.024720
1020.976126	0.025257
1021.145752	0.025511
1021.315359	0.025875
1021.484948	0.024419
1021.654519	0.027566
1021.824072	0.026169
1021.993607	0.024846
1022.163123	0.022514
1022.332621	0.023591
1022.502101	0.022725
1022.671563	0.023784
1022.841007	0.023717
1023.010432	0.025199
1023.179839	0.022581
1023.349228	0.021424
1023.518598	0.022729
1023.687951	0.022647
1023.857285	0.022243
1024.026601	0.022425
1024.195899	0.021987
1024.365178	0.022326
1024.534439	0.022163
1024.703682	0.024800
1024.872907	0.025977
1025.042114	0.025968
1025.211302	0.025512
1025.380472	0.024083
1025.549624	0.025022
1025.718758	0.023479
1025.887873	0.023680
1026.056970	0.024680
1026.226049	0.024108
1026.395110	0.025247
1026.564153	0.025609
1026.733177	0.026179
1026.902183	0.026560
1027.071171	0.027320
1027.240141	0.028510
1027.409092	0.027174
1027.578026	0.025497
1027.746940	0.025475
1027.915837	0.023477
1028.084716	0.022583
1028.253576	0.024120
1028.422418	0.024073
1028.591242	0.021385
1028.760048	0.021590
1028.928835	0.022005
1029.097604	0.023239
1029.266355	0.022006
1029.435088	0.022643
1029.603803	0.022566
1029.772499	0.020686
1029.941177	0.021673
1030.109837	0.023420
1030.278478	0.023760
1030.447102	0.025820
1030.615707	0.023642
1030.784294	0.024016
1030.952863	0.023546
1031.121413	0.022863
1031.289945	0.023207
1031.458460	0.021866
1031.626955	0.021094
1031.795433	0.021156
1031.963892	0.018500
1032.132334	0.019653
1032.300756	0.019030
1032.469161	0.020194
1032.637548	0.020636
1032.805916	0.020458
1032.974266	0.020367
1033.142598	0.021295
1033.310911	0.020788
1033.479207	0.022672
1033.647484	0.023443
1033.815743	0.021822
1033.983983	0.021762
1034.152206	0.021836
1034.320410	0.021121
1034.488596	0.021925
1034.656764	0.021023
1034.824914	0.020680
1034.993045	0.019085
1035.161158	0.018146
1035.329253	0.019838
1035.497330	0.019752
1035.665388	0.020105
1035.833428	0.021780
1036.001450	0.022500
1036.169454	0.023044
1036.337440	0.023528
1036.505407	0.023168
1036.673356	0.023787
1036.841287	0.024353
1037.009200	0.023675
1037.177094	0.023725
1037.344970	0.022778
1037.512828	0.021320
1037.680668	0.021501
1037.848489	0.020377
1038.016293	0.021361
1038.184078	0.022344
1038.351845	0.021154
1038.519593	0.020210
1038.687324	0.019724
1038.855036	0.019956
1039.022730	0.019454
1039.190406	0.019704
1039.358063	0.020700
1039.525702	0.020139
1039.693323	0.019265
1039.860926	0.021385
1040.028511	0.022535
1040.196077	0.023046
1040.363625	0.021403
1040.531155	0.023009
1040.698667	0.021853
1040.866161	0.022114
1041.033636	0.022258
1041.201093	0.023308
1041.368532	0.021637
1041.535952	0.021270
1041.703355	0.021284
1041.870739	0.021701
1042.038105	0.021892
1042.205452	0.022571
1042.372782	0.023112
1042.540093	0.024174
1042.707386	0.022447
1042.874661	0.022287
1043.041918	0.023158
1043.209156	0.021880
1043.376376	0.021902
1043.543578	0.022320
1043.710762	0.021135
1043.877927	0.018927
1044.045074	0.017095
1044.212203	0.015722
1044.379314	0.014629
1044.546407	0.014114
1044.713481	0.014440
1044.880537	0.017283
1045.047575	0.015235
1045.214595	0.015727
1045.381596	0.015308
1045.548579	0.016708
1045.715544	0.017445
1045.882491	0.019918
1046.049420	0.019703
1046.216330	0.020699
1046.383222	0.019579
1046.550096	0.021029
1046.716951	0.021393
1046.883789	0.023124
1047.050608	0.023328
1047.217409	0.023681
1047.384192	0.022411
1047.550956	0.022013
1047.717703	0.022241
1047.884431	0.021298
1048.051140	0.020280
1048.217832	0.019723
1048.384505	0.019140
1048.551161	0.018400
1048.717798	0.018388
1048.884416	0.018692
1049.051017	0.019023
1049.217599	0.018315
1049.384163	0.018488
1049.550709	0.018436
1049.717237	0.017256
1049.883746	0.017955
1050.050237	0.018239
1050.216710	0.016800
1050.383165	0.018030
1050.549601	0.017289
1050.716019	0.016589
1050.882420	0.016787
1051.048801	0.018676
1051.215165	0.019600
1051.381510	0.019451
1051.547837	0.020017
1051.714146	0.020626
1051.880437	0.019268
1052.046709	0.019299
1052.212964	0.019805
1052.379200	0.020478
1052.545417	0.020603
1052.711617	0.019640
1052.877798	0.020023
1053.043961	0.017864
1053.210106	0.017770
1053.376233	0.017765
1053.542341	0.018664
1053.708432	0.018618
1053.874504	0.018798
1054.040557	0.017603
1054.206593	0.019439
1054.372610	0.018663
1054.538609	0.020421
1054.704590	0.022453
1054.870553	0.023341
1055.036497	0.022506
1055.202424	0.022580
1055.368331	0.020192
1055.534221	0.020064
1055.700093	0.020362
1055.865946	0.020015
1056.031781	0.020546
1056.197598	0.019891
1056.363397	0.019181
1056.529177	0.020195
1056.694939	0.021595
1056.860683	0.023249
1057.026409	0.021886
1057.192116	0.021348
1057.357806	0.022248
1057.523477	0.021583
1057.689130	0.021862
1057.854764	0.022917
1058.020381	0.023652
1058.185979	0.021820
1058.351559	0.020719
1058.517120	0.021300
1058.682664	0.022581
1058.848189	0.022990
1059.013696	0.023065
1059.179185	0.022944
1059.344656	0.021422
1059.510108	0.020641
1059.675542	0.020966
1059.840958	0.022870
1060.006356	0.023696
1060.171735	0.021765
1060.337096	0.022049
1060.502439	0.022392
1060.667764	0.022611
1060.833071	0.024729
1060.998359	0.023460
1061.163629	0.024113
1061.328881	0.022921
1061.494115	0.022237
1061.659330	0.024964
1061.824527	0.023748
1061.989706	0.023553
1062.154867	0.021355
1062.320010	0.020277
1062.485134	0.020533
1062.650240	0.020834
1062.815328	0.020465
1062.980398	0.022370
1063.145449	0.020298
1063.310482	0.020812
1063.475497	0.020630
1063.640494	0.021872
1063.805473	0.022501
1063.970433	0.022052
1064.135375	0.021226
1064.300299	0.021962
1064.465204	0.020423
1064.630092	0.019592
1064.794961	0.018466
1064.959812	0.018166
1065.124645	0.017996
1065.289459	0.016585
1065.454256	0.015511
1065.619034	0.014581
1065.783793	0.014216
1065.948535	0.013814
1066.113258	0.014543
1066.277964	0.017342
1066.442651	0.017000
1066.607319	0.017960
1066.771970	0.017894
1066.936602	0.019388
1067.101216	0.019547
1067.265812	0.020415
1067.430389	0.020672
1067.594949	0.019357
1067.759490	0.018800
1067.924013	0.019294
1068.088518	0.019052
1068.253004	0.018343
1068.417472	0.019153
1068.581922	0.020354
1068.746354	0.021116
1068.910768	0.021394
1069.075163	0.024566
1069.239540	0.023801
1069.403899	0.023907
1069.568240	0.025243
1069.732562	0.026923
1069.896866	0.026790
1070.061152	0.025070
1070.225420	0.022440
1070.389670	0.022706
1070.553901	0.019036
1070.718114	0.016649
1070.882309	0.017016
1071.046486	0.016144
1071.210644	0.014242
1071.374784	0.014656
1071.538906	0.016387
1071.703010	0.018118
1071.867096	0.017684
1072.031163	0.020521
1072.195212	0.021929
1072.359243	0.021627
1072.523256	0.019149
1072.687250	0.020305
1072.851226	0.019695
1073.015184	0.020295
1073.179124	0.018063
1073.343045	0.018941
1073.506949	0.017462
1073.670834	0.017996
1073.834701	0.017291
1073.998549	0.017855
1074.162380	0.016841
1074.326192	0.018316
1074.489986	0.017523
1074.653761	0.020508
1074.817519	0.020906
1074.981258	0.021674
1075.144979	0.021471
1075.308682	0.023118
1075.472367	0.023892
1075.636033	0.026181
1075.799681	0.024013
1075.963311	0.025513
1076.126923	0.025397
1076.290516	0.024114
1076.454092	0.023860
1076.617649	0.024415
1076.781187	0.025022
1076.944708	0.026474
1077.108210	0.025025
1077.271695	0.025412
1077.435160	0.024055
1077.598608	0.021264
1077.762038	0.021802
1077.925449	0.022409
1078.088842	0.021759
1078.252217	0.018241
1078.415573	0.017469
1078.578912	0.017909
1078.742232	0.019784
1078.905534	0.019868
1079.068817	0.022613
1079.232083	0.020572
1079.395330	0.018356
1079.558559	0.019404
1079.721770	0.020778
1079.884962	0.020868
1080.048136	0.019687
1080.211293	0.016944
1080.374430	0.015629
1080.537550	0.015251
1080.700651	0.018815
1080.863735	0.020775
1081.026800	0.020548
1081.189846	0.020620
1081.352875	0.021015
1081.515885	0.021469
1081.678877	0.020524
1081.841851	0.020328
1082.004807	0.017543
1082.167744	0.014481
1082.330663	0.018017
1082.493564	0.015383
1082.656447	0.015760
1082.819312	0.015386
1082.982158	0.017551
1083.144986	0.019240
1083.307796	0.019214
1083.470587	0.022312
1083.633361	0.022373
1083.796116	0.019907
1083.958853	0.021582
1084.121571	0.020698
1084.284272	0.021045
1084.446954	0.019984
1084.609618	0.021096
1084.772264	0.023485
1084.934892	0.022747
1085.097501	0.023148
1085.260092	0.022587
1085.422665	0.024082
1085.585220	0.022619
1085.747756	0.022263
1085.910274	0.022233
1086.072774	0.020522
1086.235256	0.020074
1086.397720	0.022770
1086.560165	0.024230
1086.722592	0.024125
1086.885001	0.023117
1087.047392	0.025620
1087.209764	0.022223
1087.372119	0.020217
1087.534455	0.019623
1087.696772	0.018202
1087.859072	0.015628
1088.021353	0.016120
1088.183616	0.015149
1088.345861	0.016189
1088.508088	0.014269
1088.670296	0.016912
1088.832486	0.018463
1088.994658	0.018954
1089.156812	0.017399
1089.318948	0.016241
1089.481065	0.016241
1089.643164	0.016948
1089.805245	0.016507
1089.967308	0.016373
1090.129352	0.016908
1090.291378	0.015717
1090.453386	0.017474
1090.615376	0.023214
1090.777347	0.023678
1090.939301	0.024094
1091.101236	0.024045
1091.263153	0.022418
1091.425051	0.023803
1091.586932	0.022640
1091.748794	0.023201
1091.910638	0.022343
1092.072463	0.017251
1092.234271	0.017946
1092.396060	0.017285
1092.557831	0.015497
1092.719584	0.016610
1092.881319	0.014986
1093.043035	0.015651
1093.204733	0.012891
1093.366413	0.012907
1093.528075	0.013972
1093.689718	0.013588
1093.851343	0.009914
1094.012950	0.011065
1094.174539	0.008815
1094.336110	0.009626
1094.497662	0.006776
1094.659196	0.007598
1094.820712	0.008796
1094.982210	0.007506
1095.143689	0.006740
1095.305151	0.009535
1095.466594	0.012027
1095.628018	0.013128
1095.789425	0.012180
1095.950813	0.014404
1096.112183	0.016062
1096.273535	0.014187
1096.434869	0.014354
1096.596184	0.015659
1096.757482	0.016381
1096.918761	0.012622
1097.080021	0.014058
1097.241264	0.015598
1097.402488	0.015740
1097.563694	0.015701
1097.724882	0.018255
1097.886052	0.020682
1098.047203	0.021329
1098.208336	0.023352
1098.369451	0.026473
1098.530548	0.024608
1098.691627	0.024026
1098.852687	0.023050
1099.013729	0.022795
1099.174753	0.020473
1099.335758	0.020236
1099.496746	0.018548
1099.657715	0.018040
1099.818666	0.017193
1099.979599	0.019836
1100.140513	0.023230
1100.301409	0.022887
1100.462287	0.027117
1100.623147	0.029179
1100.783989	0.029316
1100.944812	0.030258
1101.105617	0.028069
1101.266404	0.027978
1101.427173	0.025239
1101.587923	0.025271
1101.748656	0.027942
1101.909370	0.021505
1102.070066	0.021464
1102.230743	0.018149
1102.391403	0.018466
1102.552044	0.016914
1102.712667	0.015266
1102.873271	0.015445
1103.033858	0.013365
1103.194426	0.013121
1103.354976	0.017055
1103.515508	0.016255
1103.676021	0.020219
1103.836517	0.019678
1103.996994	0.020741
1104.157453	0.020778
1104.317893	0.020510
1104.478316	0.020196
1104.638720	0.020903
1104.799106	0.019538
1104.959474	0.021177
1105.119823	0.019085
1105.280155	0.019319
1105.440468	0.016010
1105.600763	0.013668
1105.761039	0.015510
1105.921298	0.018081
1106.081538	0.016038
1106.241760	0.014217
1106.401964	0.011714
1106.562149	0.008092
1106.722316	0.006555
1106.882465	0.011225
1107.042596	0.016739
1107.202709	0.015460
1107.362803	0.011285
1107.522879	0.014942
1107.682937	0.017986
1107.842977	0.019819
1108.002999	0.023605
1108.163002	0.024157
1108.322987	0.021076
1108.482954	0.021141
1108.642902	0.021992
1108.802833	0.024371
1108.962745	0.021866
1109.122639	0.018936
1109.282515	0.016989
1109.442372	0.016477
1109.602211	0.018522
1109.762032	0.019837
1109.921835	0.017482
1110.081620	0.017038
1110.241386	0.016479
1110.401134	0.016147
1110.560864	0.018109
1110.720576	0.018807
1110.880269	0.018904
1111.039945	0.015966
1111.199602	0.015836
1111.359240	0.014820
1111.518861	0.015052
1111.678463	0.014936
1111.838047	0.016975
1111.997613	0.017883
1112.157161	0.018994
1112.316690	0.019022
1112.476202	0.022495
1112.635695	0.022248
1112.795169	0.023617
1112.954626	0.020552
1113.114064	0.021341
1113.273484	0.018715
1113.432886	0.021133
1113.592270	0.017906
1113.751635	0.020785
1113.910983	0.021008
1114.070312	0.023851
1114.229622	0.022573
1114.388915	0.027344
1114.548189	0.027866
1114.707445	0.029545
1114.866683	0.028062
1115.025903	0.030147
1115.185104	0.028693
1115.344287	0.026056
1115.503452	0.023795
1115.662599	0.027039
1115.821727	0.024457
1115.980838	0.022790
1116.139930	0.019775
1116.299004	0.018687
1116.458059	0.021775
1116.617097	0.020863
1116.776116	0.019956
1116.935117	0.020203
1117.094099	0.015399
1117.253064	0.016665
1117.412010	0.017458
1117.570938	0.018288
1117.729848	0.017655
1117.888740	0.017090
1118.047613	0.018460
1118.206468	0.021753
1118.365305	0.021748
1118.524124	0.025356
1118.682924	0.028338
1118.841707	0.026986
1119.000471	0.025066
1119.159216	0.024473
1119.317944	0.022433
1119.476653	0.021949
1119.635344	0.019129
1119.794017	0.019355
1119.952672	0.017476
1120.111308	0.016841
1120.269927	0.016423
1120.428527	0.020595
1120.587108	0.020154
1120.745672	0.017286
1120.904217	0.017089
1121.062744	0.020200
1121.221253	0.020955
1121.379744	0.019904
1121.538216	0.013694
1121.696671	0.013257
1121.855107	0.012444
1122.013524	0.015190
1122.171924	0.021690
1122.330305	0.020145
1122.488668	0.018940
1122.647013	0.018337
1122.805340	0.020733
1122.963648	0.021086
1123.121938	0.023023
1123.280210	0.020876
1123.438464	0.019032
1123.596700	0.014671
1123.754917	0.015893
1123.913116	0.013238
1124.071297	0.009940
1124.229459	0.012629
1124.387604	0.014896
1124.545730	0.014054
1124.703838	0.016977
1124.861928	0.018284
1125.019999	0.017219
1125.178052	0.019457
1125.336088	0.022149
1125.494104	0.022592
1125.652103	0.019324
1125.810083	0.024144
1125.968045	0.023667
1126.125989	0.019191
1126.283915	0.018487
1126.441823	0.019530
1126.599712	0.022058
1126.757583	0.017851
1126.915436	0.019835
1127.073270	0.017958
1127.231087	0.014580
1127.388885	0.015357
1127.546665	0.018193
1127.704426	0.014692
1127.862170	0.016836
1128.019895	0.011098
1128.177602	0.014043
1128.335291	0.011780
1128.492961	0.016313
1128.650614	0.017450
1128.808248	0.019323
1128.965864	0.020034
1129.123461	0.023152
1129.281041	0.017651
1129.438602	0.019200
1129.596145	0.019838
1129.753670	0.025862
1129.911176	0.021218
1130.068665	0.016883
1130.226135	0.013533
1130.383587	0.014564
1130.541020	0.017812
1130.698436	0.022522
1130.855833	0.021650
1131.013212	0.019990
1131.170573	0.016548
1131.327915	0.019213
1131.485239	0.022398
1131.642545	0.023400
1131.799833	0.021256
1131.957103	0.019635
1132.114354	0.019605
1132.271588	0.020837
1132.428803	0.020346
1132.585999	0.021149
1132.743178	0.017478
1132.900338	0.019370
1133.057480	0.024921
1133.214604	0.029392
1133.371710	0.027790
1133.528797	0.025865
1133.685866	0.023683
1133.842917	0.023382
1133.999950	0.020567
1134.156964	0.025115
1134.313960	0.027664
1134.470938	0.021584
1134.627898	0.021046
1134.784840	0.022486
1134.941763	0.026056
1135.098668	0.027364
1135.255555	0.027925
1135.412424	0.029934
1135.569274	0.027272
1135.726107	0.018252
1135.882921	0.018165
1136.039716	0.017415
1136.196494	0.022373
1136.353253	0.015216
1136.509995	0.016692
1136.666717	0.017884
1136.823422	0.018051
1136.980109	0.016193
1137.136777	0.019827
1137.293427	0.019554
1137.450059	0.019207
1137.606672	0.009664
1137.763267	0.009481
1137.919844	0.007680
1138.076403	0.009884
1138.232944	0.012013
1138.389466	0.014142
1138.545971	0.012654
1138.702457	0.017820
1138.858924	0.016460
1139.015374	0.017742
1139.171805	0.022481
1139.328218	0.024949
1139.484613	0.023340
1139.640990	0.023842
1139.797348	0.024691
1139.953688	0.030151
1140.110010	0.028461
1140.266314	0.025985
1140.422600	0.022389
1140.578867	0.024542
1140.735116	0.025130
1140.891347	0.025513
1141.047559	0.018308
1141.203754	0.016226
1141.359930	0.008793
1141.516088	0.008383
1141.672228	0.014825
1141.828349	0.019770
1141.984452	0.019089
1142.140537	0.014983
1142.296604	0.009422
1142.452653	0.013770
1142.608683	0.015978
1142.764695	0.024656
1142.920689	0.019222
1143.076665	0.012823
1143.232622	0.013861
1143.388562	0.013983
1143.544483	0.021131
1143.700385	0.021136
1143.856270	0.027136
1144.012136	0.025997
1144.167985	0.022571
1144.323814	0.027812
1144.479626	0.035168
1144.635420	0.032146
1144.791195	0.034373
1144.946952	0.027887
1145.102691	0.035153
1145.258411	0.028784
1145.414113	0.031726
1145.569798	0.030112
1145.725463	0.032622
1145.881111	0.028511
1146.036741	0.029573
1146.192352	0.027084
1146.347945	0.029104
1146.503519	0.025129
1146.659076	0.018242
1146.814614	0.015261
1146.970134	0.012776
1147.125636	0.008662
1147.281120	0.007104
1147.436585	0.008030
1147.592032	0.004467
1147.747461	-0.001295
1147.902872	-0.000334
1148.058265	0.007298
1148.213639	0.013859
1148.368995	0.014312
1148.524333	0.015182
1148.679653	0.013943
1148.834954	0.013571
1148.990237	0.013319
1149.145502	0.017063
1149.300749	0.016249
1149.455977	0.017429
1149.611188	0.006761
1149.766380	0.008671
1149.921553	0.005581
1150.076709	0.010091
1150.231846	0.008796
1150.386966	0.004233
1150.542066	0.006712
1150.697149	0.008479
1150.852214	0.005899
1151.007260	0.011012
1151.162288	0.014350
1151.317298	0.018692
1151.472289	0.009922
1151.627263	0.021023
1151.782218	0.030185
1151.937155	0.031725
1152.092073	0.029584
1152.246974	0.036424
1152.401856	0.041343
1152.556720	0.041284
1152.711566	0.040434
1152.866393	0.049125
1153.021203	0.033610
1153.175994	0.031471
1153.330767	0.024901
1153.485521	0.024043
1153.640258	0.014474
1153.794976	0.010928
1153.949676	0.015924
1154.104358	0.018176
1154.259021	0.018992
1154.413667	0.019243
1154.568294	0.026054
1154.722903	0.031401
1154.877493	0.035020
1155.032066	0.040791
1155.186620	0.041104
1155.341156	0.034924
1155.495674	0.029971
1155.650173	0.022235
1155.804654	0.025058
1155.959118	0.026162
1156.113562	0.017337
1156.267989	0.013416
1156.422397	0.008165
1156.576788	0.003710
1156.731160	0.002931
1156.885513	0.005204
1157.039849	0.003139
1157.194166	0.008434
1157.348465	0.002027
1157.502746	0.007508
1157.657009	0.011205
1157.811253	0.016013
1157.965479	0.017451
1158.119687	0.019827
1158.273877	0.017269
1158.428048	0.027824
1158.582201	0.026987
1158.736337	0.029920
1158.890453	0.030282
1159.044552	0.033816
1159.198632	0.034653
1159.352694	0.027321
1159.506738	0.020444
1159.660764	0.016314
1159.814771	0.014829
1159.968761	0.009489
1160.122732	0.006930
1160.276685	0.004465
1160.430619	0.000984
1160.584535	0.002717
1160.738434	0.006342
1160.892313	0.007854
1161.046175	0.019691
1161.200019	0.023924
1161.353844	0.032063
1161.507651	0.031051
1161.661440	0.034949
1161.815210	0.031590
1161.968962	0.030080
1162.122697	0.026466
1162.276412	0.029440
1162.430110	0.024129
1162.583789	0.009380
1162.737451	0.007392
1162.891094	0.011924
1163.044718	0.009645
1163.198325	0.007963
1163.351913	0.008100
1163.505483	0.023666
1163.659035	0.021664
1163.812569	0.015461
1163.966084	0.023319
1164.119581	0.026035
1164.273060	0.019761
1164.426521	0.020221
1164.579964	0.027537
1164.733388	0.018381
1164.886794	0.018520
1165.040182	0.015388
1165.193551	0.021661
1165.346903	0.010764
1165.500236	0.010923
1165.653551	0.006078
1165.806848	0.014515
1165.960126	0.016459
1166.113386	0.025340
1166.266628	0.028161
1166.419852	0.036544
1166.573058	0.031538
1166.726245	0.044301
1166.879414	0.044795
1167.032565	0.051277
1167.185698	0.050346
1167.338812	0.039992
1167.491909	0.036619
1167.644987	0.027806
1167.798046	0.024195
1167.951088	0.025405
1168.104111	0.028031
1168.257117	0.021245
1168.410103	0.021432
1168.563072	0.011372
1168.716023	0.016383
1168.868955	0.023063
1169.021869	0.016913
1169.174765	0.023921
1169.327642	0.030820
1169.480501	0.022228
1169.633343	0.030484
1169.786165	0.026278
1169.938970	0.026544
1170.091757	0.032926
1170.244525	0.025907
1170.397275	0.038528
1170.550007	0.034329
1170.702720	0.036502
1170.855415	0.042221
1171.008092	0.040764
1171.160751	0.050558
1171.313392	0.060933
1171.466014	0.007500
1171.618619	0.075795
1171.771205	0.075795
1171.923772	0.075795
