sample name	sample
index	1194
start time	 04-26-2021  12:24:10 PM
880	-0.009814
Peak Time (s)	92.036
Peak Height 	-0.009814
calc peak height	90,93
Baseline Time (s)	10.535
Baseline Value 	-0.004032
subtract baseline	10,4
Abs	-0.011048
Peak Time (s)	91.035
Peak Height 	-0.01105
calc peak height	90,93
Baseline Time (s)	10.535
Baseline Value 	-0.001079
subtract baseline	10,3
PK_550	-0.001188
Peak Time (s)	92.536
Peak Height 	-0.001188
calc peak height	90,93
Baseline Time (s)	10.535
Baseline Value 	7.0408E-4
subtract baseline	10,2
PK_880	-0.015661
Peak Time (s)	91.035
Peak Height 	-0.01566
calc peak height	90,93
Baseline Time (s)	10.535
Baseline Value 	7.4035E-4
subtract baseline	10,1


Time (s)	A880-A510	A880-A775	A880-A975	A880	I510	I775	I975	I880	
0.038000	0.000465	-0.000677	-0.002353	0.002375	6153.247338	43510.256375	3857.413730	22533.224827
0.535500	-0.003258	-0.000527	-0.000690	0.007192	6090.095925	43076.512695	3850.367118	22316.688856
1.035500	0.001447	-0.000752	0.001497	0.003825	6149.754358	43367.948913	3862.810126	22467.794257
1.538000	-0.000641	0.000180	0.001411	0.001232	6153.527978	43697.577178	3868.479997	22584.983058
2.036000	0.001537	-0.000261	0.007218	0.000360	6176.388824	43737.989340	3883.741760	22624.527806
2.536500	-0.004123	-0.000018	-0.001875	0.007125	6084.256044	43129.783494	3847.881433	22319.685458
3.036500	0.002143	-0.000217	0.003175	-0.001322	6193.640329	43900.452501	3878.317495	22701.034333
3.537000	-0.001127	-0.000475	0.005670	0.000727	6153.668693	43683.510641	3879.342747	22607.877486
4.037000	-0.000230	-0.000845	0.002912	-0.000252	6167.711465	43740.697032	3875.271535	22652.332744
4.537500	-0.001682	-0.000560	0.002341	0.001749	6141.914670	43579.734321	3869.416306	22561.563818
5.038000	-0.000441	-0.000717	0.001007	0.000045	6163.898022	43724.754254	3870.255615	22638.825851
5.535000	0.002981	-0.000038	-0.001041	0.000442	6186.639892	43751.198700	3864.716689	22620.780272
6.036000	0.004244	0.000460	0.005953	0.001005	6191.932624	43745.162732	3879.353488	22595.261608
6.536000	0.001090	-0.000026	0.005582	0.000513	6171.881835	43745.803532	3879.631181	22617.595121
7.036500	0.001344	-0.000052	0.003589	0.000724	6172.198790	43723.512973	3874.589337	22608.007945
7.536500	-0.000482	-0.000381	0.008345	-0.000087	6164.588455	43768.845635	3887.374124	22644.854669
8.036500	0.002682	-0.000005	0.003130	-0.000043	6188.052974	43799.994113	3875.291831	22642.850547
8.534000	-0.000517	0.000392	-0.002992	0.000340	6161.123490	43801.331012	3860.550217	22625.435724
9.040500	-0.001045	-0.000599	-0.000501	-0.000427	6162.908963	43780.222701	3867.905161	22660.281731
9.535000	0.001460	-0.000079	-0.000020	-0.000193	6179.968318	43807.083733	3868.463404	22649.637339
10.035500	-0.002472	-0.000016	0.003458	0.001664	6136.665911	43638.564536	3872.146324	22565.379998
10.535000	0.000000	0.000000	0.000000	0.000000	6167.545897	43796.418880	3868.072857	22640.878098
11.036000	0.000663	0.000459	0.001903	0.000036	6172.251410	43836.193940	3872.311921	22639.222252
11.536500	0.002898	0.000288	0.007053	-0.000014	6189.458546	43824.816142	3884.222386	22641.492676
12.036500	0.000562	-0.000598	0.003681	-0.000689	6176.944175	43804.905476	3878.027701	22672.201180
12.537000	0.001861	0.000133	0.007807	-0.000069	6182.048859	43815.392112	3886.087394	22643.997101
13.037000	0.000225	0.000158	0.000781	-0.000895	6175.955710	43895.624927	3871.879459	22681.601256
13.537500	0.001547	0.000340	0.007477	-0.000686	6184.338595	43893.096698	3886.751794	22672.087898
14.037500	-0.001127	0.000326	0.002533	0.002819	6138.083044	43562.511975	3867.426343	22513.191280
14.535500	-0.000760	-0.000441	0.001242	0.001404	6151.357119	43623.161172	3867.706893	22577.174641
15.039500	0.001248	0.001197	0.007117	-0.000319	6179.318251	43939.305545	3885.072505	22655.366793
15.535500	0.002303	0.000165	-0.001958	-0.000617	6189.520356	43870.039947	3865.036607	22668.925156
16.036000	-0.001363	-0.000224	-0.001376	0.001517	6146.015275	43632.919463	3861.536635	22572.041290
16.536000	0.001025	0.000500	0.005557	-0.000558	6179.442415	43896.114646	3882.031744	22666.272919
17.037000	0.002098	0.000284	0.004632	-0.003256	6207.957218	44130.911230	3886.116400	22789.432095
17.537000	0.000646	-0.000450	0.002434	-0.000159	6173.591565	43769.034052	3873.968436	22648.094805
18.034500	0.000971	-0.000348	0.003208	0.001221	6165.671390	43649.030956	3872.586377	22585.449519
18.537500	0.001516	0.000215	0.001792	0.001527	6167.461013	43673.154359	3868.672723	22571.594052
19.035000	-0.000770	-0.000468	0.001923	0.000381	6158.918737	43716.557186	3871.574414	22623.560477
19.535000	0.002163	0.000270	0.003902	0.001343	6173.701844	43695.620207	3873.890303	22579.945063
20.035500	-0.000231	0.000543	0.004443	0.001177	6156.998823	43736.811945	3875.503095	22587.457613
20.536000	0.000806	0.000998	0.003595	0.001815	6159.980771	43719.606389	3872.114237	22558.543539
21.035500	0.002178	0.000215	0.003994	0.001157	6175.207765	43707.884571	3874.524424	22588.347519
21.536500	0.001219	0.000888	-0.000047	0.001302	6166.927254	43757.473330	3865.019169	22581.799235
22.036500	0.000549	0.000163	0.000828	0.000995	6164.203119	43718.175886	3867.693294	22595.693959
22.537000	-0.000030	-0.000100	0.000793	0.000535	6163.307097	43736.694592	3868.656267	22616.565224
23.037500	-0.000620	0.000047	0.005874	0.000918	6156.026218	43714.486925	3879.369342	22599.185869
23.534500	-0.001118	0.000040	0.008140	0.001048	6151.336219	43701.725353	3884.279484	22593.309681
24.035000	0.000164	0.000695	0.005473	0.001290	6159.113406	43740.423232	3877.599750	22582.334641
24.535500	-0.000884	0.000496	0.002652	0.000883	6154.320144	43760.005331	3872.090276	22600.789198
25.035000	0.000436	-0.000741	0.001080	0.000403	6167.789283	43688.872026	3869.606622	22622.554006
25.536000	0.001039	0.000746	0.006439	0.001356	6165.164558	43739.059215	3879.661236	22579.323871
26.036000	0.000909	0.000075	0.000166	0.001352	6164.228762	43676.488569	3865.388749	22579.547669
26.536500	0.000210	0.000622	0.004680	0.001184	6160.247379	43743.553699	3876.028735	22587.148594
27.037000	0.001752	0.000406	0.005906	-0.001177	6189.594962	43945.630383	3884.259275	22694.452573
27.539500	0.001612	0.001006	0.007922	-0.000958	6186.879523	43981.687606	3888.408775	22684.481744
28.040000	0.002371	0.000205	0.000999	0.000062	6184.917514	43809.937581	3870.200393	22638.082526
28.535000	-0.002214	0.000219	0.003408	0.000617	6146.375512	43758.921046	3874.417732	22612.838503
29.035500	0.002933	0.001012	0.001970	-0.000215	6191.248663	43912.087509	3873.039116	22650.655627
29.535500	0.001802	0.000955	0.006165	-0.000268	6183.108028	43911.642413	3882.761126	22653.047367
30.036000	-0.000957	0.000291	0.001139	0.000409	6157.314296	43785.354890	3869.728340	22622.303973
30.536500	-0.000812	0.000178	-0.000413	0.001956	6146.842372	43629.456658	3862.717705	22552.158990
31.036500	0.000003	0.000682	0.006166	0.001524	6156.159571	43717.246345	3878.651149	22571.745416
31.536500	0.002099	0.000245	0.006816	-0.000921	6190.275317	43906.288260	3885.768165	22682.784685
32.040000	-0.000829	0.001028	-0.000580	0.000676	6156.276817	43829.520302	3865.230520	22610.179377
32.537000	0.000400	-0.000431	0.007123	-0.000716	6175.929573	43823.279272	3886.004527	22673.466430
33.040500	0.000562	0.000286	0.009830	-0.001138	6180.320897	43930.556666	3893.249786	22692.643280
33.534500	0.000746	0.000634	-0.001273	0.000717	6167.761466	43788.620252	3863.572886	22608.316032
34.035500	-0.000142	0.001052	0.001720	0.002406	6148.489107	43669.272056	3866.519797	22531.846685
34.535000	0.001279	0.000299	0.003310	0.001469	6166.124465	43686.464318	3872.254736	22574.227791
35.036000	0.000456	0.000738	0.004807	0.002044	6155.661139	43673.770312	3874.355143	22548.211297
35.536000	0.000868	0.000582	0.002650	0.001325	6164.117198	43726.520813	3871.080791	22580.733059
36.036500	0.002336	-0.000473	0.009269	0.001296	6175.355545	43630.224882	3886.311449	22582.048787
36.536500	0.000408	0.000117	0.009184	0.001710	6157.794892	43646.742194	3885.159434	22563.304763
37.037000	0.001079	-0.000129	0.002725	0.001553	6163.994171	43638.485781	3870.732781	22570.416306
37.537500	0.002014	0.001618	0.007137	0.002411	6164.575165	43721.877335	3878.845372	22531.619305
38.035500	-0.000217	-0.000543	-0.001217	0.001043	6158.101966	43647.421850	3862.962950	22593.514858
38.535000	0.000800	-0.000030	0.002915	0.001196	6164.575412	43681.159769	3871.975701	22586.575467
39.035500	-0.001719	-0.000184	0.003599	0.000788	6148.792129	43705.034514	3874.464623	22605.086757
39.535500	0.000598	0.000930	0.004470	0.001950	6157.419684	43700.524758	3873.801721	22552.444844
40.036000	-0.001236	-0.000035	0.007531	0.001163	6149.602625	43683.871544	3882.614172	22588.100251
40.536500	-0.000968	0.000282	0.002568	0.001287	6150.671478	43701.890442	3870.980573	22582.456919
41.036500	-0.000794	0.000113	0.002794	0.001162	6152.907655	43697.894100	3871.779447	22588.159725
41.536500	-0.000200	0.000345	0.005411	0.001623	6153.905755	43676.370227	3876.698230	22567.273482
42.037000	0.000392	0.000154	0.002651	0.001674	6157.939511	43653.630305	3870.288373	22564.923734
42.535000	-0.000392	0.000245	0.006046	0.001407	6154.080167	43687.220018	3878.644763	22577.053745
43.035000	0.000425	0.000013	0.002578	0.001188	6161.822817	43685.998916	3871.226695	22586.939445
43.535500	0.002424	0.001157	0.006419	-0.002708	6206.273675	44161.729219	3888.980840	22764.345032
44.035500	0.001888	0.000393	0.005241	0.000326	6179.283122	43802.749815	3879.277231	22626.070792
44.536000	-0.000025	0.000406	0.005153	-0.001042	6175.187804	43932.961938	3882.216724	22688.304302
45.036000	0.000856	0.000960	0.002729	-0.000494	6177.687723	43933.542551	3875.406405	22663.360179
45.536000	0.001048	0.000608	0.003782	-0.000409	6178.488733	43892.259113	3877.617927	22659.470997
46.036500	0.001135	0.000137	0.000895	0.002701	6155.816924	43555.864869	3863.987531	22518.496479
46.536500	0.002190	0.002272	0.002293	0.000703	6178.720261	43944.356967	3871.682981	22608.962977
47.037500	-0.001560	-0.000055	0.004379	0.001846	6142.096592	43617.920692	3873.830794	22557.156102
47.537000	0.001118	0.000404	0.007464	0.001473	6164.882584	43695.911566	3881.746013	22574.037774
48.035000	-0.001491	0.000343	-0.000178	0.003972	6126.826070	43456.347961	3858.710443	22461.174446
48.535500	0.002235	0.000967	0.005759	0.000401	6181.338217	43849.713849	3880.292655	22622.679470
49.035500	0.002403	0.000438	0.001764	-0.000616	6190.265188	43895.701978	3873.482113	22668.883438
49.536000	0.002377	0.000286	0.003150	-0.002999	6208.124911	44106.705466	3882.110101	22777.669722
50.036500	0.002214	0.000435	0.005877	0.002099	6168.414448	43640.134548	3876.674716	22545.726668
50.536500	0.001608	-0.002274	0.006064	0.008641	6115.215973	42782.168393	3862.248131	22252.037645
51.037000	0.020900	-0.020575	0.012482	0.475834	4052.708662	15961.012228	3222.375905	9501.784942
51.540000	-0.000710	-0.024213	-0.000506	-0.026929	6370.276286	44052.812195	3929.825001	23903.512359
52.037500	-0.019556	-0.026625	-0.015440	-0.092372	6762.196183	50475.743182	4058.849727	27318.882787
52.535000	-0.004973	-0.023166	0.000540	-0.110844	7066.846821	52938.388364	4155.872782	28379.787939
53.035500	0.003196	-0.016749	0.003015	-0.087540	6924.473896	51031.210759	4096.298060	27048.760945
53.535500	-0.006326	-0.014134	0.000022	-0.081081	6779.428517	50607.304272	4070.190021	26692.284361
54.036000	-0.011362	-0.014726	-0.002058	-0.029036	6302.855933	45165.421769	3931.163337	24005.644966
54.536000	-0.009021	-0.011464	-0.010808	-0.076333	6713.679554	50379.759247	4028.387672	26433.647662
55.036000	-0.013678	-0.008910	-0.011400	-0.086244	6759.985945	51761.386195	4053.216435	26976.828420
55.536500	-0.006726	-0.006706	-0.011967	-0.106522	7009.105436	54355.723992	4107.519785	28127.513868
56.037500	-0.005750	-0.004982	-0.009401	-0.096170	6921.563392	53344.257240	4085.775592	27533.385430
56.534500	-0.005277	-0.004847	-0.006481	-0.094050	6906.369601	53114.189243	4087.989369	27413.391280
57.034500	-0.003671	-0.004499	-0.012344	-0.081321	6805.316026	51703.873599	4037.521316	26705.472161
57.534500	-0.004136	-0.003790	-0.007397	-0.066191	6667.913345	50110.835531	4010.781636	25890.477886
58.035500	-0.007120	-0.003811	-0.013330	-0.069877	6673.995327	50510.798903	4004.964861	26086.444034
58.535500	-0.005981	-0.002948	-0.016455	-0.062648	6621.576418	49818.405977	3978.546304	25703.708081
59.036000	-0.005530	-0.001708	-0.011686	-0.054965	6560.288544	49127.976212	3971.226665	25303.932204
59.536500	-0.005637	-0.000696	-0.008444	-0.043122	6461.209083	47989.962000	3949.899304	24701.279099
60.036000	-0.006836	-0.001382	-0.011133	-0.027171	6323.702594	46296.577478	3905.105632	23915.189962
60.537000	-0.006952	-0.000392	-0.006230	-0.021887	6281.520721	45869.944897	3904.210051	23661.096584
61.040000	-0.009054	-0.003268	-0.011596	-0.029708	6326.219362	46361.655405	3909.996615	24038.322215
61.534500	-0.012174	-0.000425	-0.018107	-0.021364	6237.216854	45815.058418	3875.484246	23636.136733
62.034500	-0.008912	-0.000993	-0.018012	-0.029014	6321.874235	46519.982074	3893.329279	24004.541099
62.535500	-0.016128	-0.001727	-0.016248	-0.030967	6280.776235	46642.542988	3902.007239	24099.678879
63.043500	-0.013294	-0.001251	-0.011296	-0.034322	6329.162327	47029.888435	3921.673421	24264.068934
63.537000	-0.009466	-0.000442	-0.013934	-0.034445	6360.407343	47124.596024	3915.678966	24270.092612
64.036000	-0.010791	-0.000530	-0.013839	-0.032922	6337.849618	46960.957904	3912.291090	24195.294723
64.536500	-0.011199	-0.000709	-0.009585	-0.036136	6360.069636	47269.680025	3930.132147	24353.442182
65.036500	-0.010121	-0.000691	-0.015913	-0.036836	6374.225454	47343.115129	3916.658172	24388.060078
65.539500	-0.007871	-0.001364	-0.011586	-0.038084	6402.241875	47401.871698	3930.003663	24449.875802
66.037000	-0.010198	-0.000939	-0.010395	-0.037417	6378.250612	47377.194909	3931.269115	24416.837614
66.537500	-0.008357	-0.000551	-0.012551	-0.040030	6414.002519	47685.364726	3932.371779	24546.675532
67.035000	-0.009799	-0.000790	-0.011922	-0.042116	6419.203253	47876.086573	3938.949556	24650.886797
67.535500	-0.007672	-0.001210	-0.008027	-0.043665	6449.029900	47993.081646	3952.259294	24728.563974
68.036000	-0.008580	-0.001024	-0.006829	-0.043069	6436.795922	47950.481633	3953.741279	24698.632514
68.536000	-0.007820	0.000490	-0.007837	-0.045272	6460.943365	48337.506862	3956.691513	24809.502038
69.036000	-0.009974	0.000740	-0.011607	-0.046338	6452.049893	48475.285580	3950.029285	24863.291887
69.536500	-0.006507	0.000832	-0.007627	-0.047185	6487.412312	48573.813290	3961.946584	24906.176907
70.037000	-0.010816	0.000340	-0.016272	-0.043462	6421.866368	48133.017966	3931.674018	24718.376114
70.537000	-0.009876	0.001396	-0.007500	-0.048766	6472.723970	48799.916019	3966.199004	24986.446939
71.034500	-0.008621	0.001104	-0.008780	-0.049356	6487.888857	48831.315701	3964.478402	25016.456425
71.535000	-0.009669	0.000835	-0.010658	-0.050095	6485.342988	48881.120783	3961.647185	25054.120322
72.035500	-0.013397	0.000734	-0.012818	-0.044105	6406.230767	48241.186797	3941.607448	24750.713871
72.535500	-0.010349	0.001307	-0.014987	-0.049198	6472.377320	48836.044891	3948.753986	25008.402732
73.036000	-0.010464	0.000902	-0.008195	-0.049178	6471.273733	48791.191530	3965.490968	25007.375929
73.536500	-0.009878	0.001525	-0.012941	-0.047662	6463.652578	48697.002663	3950.004634	24930.347202
74.036500	-0.015844	0.000729	-0.014739	-0.042360	6372.639789	48058.902950	3932.714074	24663.066957
74.536500	-0.013242	0.000396	-0.015492	-0.047320	6433.456356	48542.250789	3942.926246	24913.019798
75.039500	-0.012703	0.000114	-0.017344	-0.046340	6429.886348	48409.849825	3936.039895	24863.412118
75.537000	-0.012392	0.000974	-0.012834	-0.044516	6417.640117	48309.041905	3942.568837	24771.357275
76.034500	-0.014550	-0.000189	-0.019406	-0.039779	6362.394205	47696.767280	3915.352972	24534.164158
76.534500	-0.012972	0.000324	-0.005914	-0.042453	6396.362466	48026.495228	3954.478855	24667.739530
77.035500	-0.012714	-0.000043	-0.014431	-0.041892	6393.928705	47930.208489	3932.326696	24639.641698
77.535500	-0.012942	-0.000939	-0.012821	-0.041197	6386.537299	47765.733589	3934.539715	24604.898094
78.036000	-0.016444	-0.001026	-0.016766	-0.036101	6318.375820	47233.805067	3912.888235	24351.719285
78.536000	-0.013187	-0.000730	-0.011625	-0.038435	6362.546235	47502.927233	3930.757092	24467.321275
79.036500	-0.014453	-0.000520	-0.010470	-0.036901	6340.354429	47367.222621	3929.843489	24391.288963
79.537000	-0.013363	0.000233	-0.012605	-0.035077	6334.559410	47257.725094	3920.349286	24301.195952
80.034500	-0.014338	-0.000081	-0.020054	-0.028858	6278.305466	46595.996988	3888.234468	23997.004459
80.537000	-0.013558	0.000122	-0.013356	-0.032385	6311.874705	46972.584617	3912.163364	24168.986778
81.035000	-0.015444	0.000388	-0.017728	-0.031409	6289.525681	46900.682392	3899.577757	24121.253815
81.535000	-0.011670	-0.000118	-0.011428	-0.030181	6309.397316	46725.424370	3911.510910	24061.323639
82.035500	-0.013344	-0.000281	-0.015844	-0.029569	6291.552119	46647.417218	3899.680385	24031.556212
82.536000	-0.014004	-0.000522	-0.011932	-0.028648	6279.261470	46530.550301	3906.700918	23986.766817
83.036000	-0.015119	-0.000222	-0.012480	-0.027539	6262.051518	46449.389629	3902.804702	23932.993694
83.536000	-0.012566	-0.000758	-0.014913	-0.026775	6275.883810	46319.295262	3895.328779	23896.031641
84.036500	-0.017768	-0.001057	-0.020995	-0.019791	6182.756339	45597.849827	3865.349381	23561.173673
84.539500	-0.013261	-0.000856	-0.012542	-0.025000	6256.799598	46132.624488	3896.719634	23810.424945
85.039500	-0.013323	0.000120	-0.016646	-0.023848	6247.453791	46115.102651	3884.532079	23755.015223
85.537000	-0.012051	-0.000192	-0.011172	-0.023401	6253.800702	46039.687101	3896.186042	23733.586144
86.035000	-0.019612	-0.001225	-0.019381	-0.018079	6156.066831	45413.509233	3865.126618	23479.868835
86.535500	-0.014561	-0.000405	-0.011447	-0.022492	6227.582898	45928.497539	3893.428224	23690.021755
87.035500	-0.015565	-0.000645	-0.020829	-0.022139	6217.229208	45869.735093	3871.045710	23673.131392
87.536000	-0.016828	-0.001193	-0.014022	-0.021951	6206.197833	45797.050489	3886.208579	23664.132802
88.035500	-0.019556	-0.001168	-0.016852	-0.015071	6134.073796	45125.749743	3864.043269	23337.837918
88.536500	-0.015234	-0.001160	-0.014462	-0.020334	6206.028461	45641.090310	3881.473209	23587.004084
89.037000	-0.017137	-0.001246	-0.011501	-0.019579	6185.909932	45558.346772	3886.554197	23551.057974
89.534500	-0.016779	-0.000804	-0.016404	-0.018680	6181.832252	45513.585403	3873.245062	23508.362228
90.037000	-0.015859	-0.002132	-0.017097	-0.017495	6179.841092	45267.859925	3868.975514	23452.225488
90.537500	-0.017263	-0.001693	-0.013127	-0.017860	6172.027145	45346.367930	3878.860245	23469.507471
91.035000	-0.015661	-0.001357	-0.011048	-0.016804	6176.131456	45276.116577	3881.207842	23419.561657
91.535500	-0.015966	-0.002018	-0.014350	-0.016591	6172.238712	45190.949674	3873.165947	23409.497550
92.036000	-0.019933	-0.002275	-0.022111	-0.009814	6092.520645	44511.924203	3840.589663	23091.968849
92.536000	-0.016715	-0.001188	-0.015474	-0.014711	6152.546825	45088.892453	3866.343080	23320.903034
93.036500	-0.018206	-0.001808	-0.015743	-0.014574	6140.413839	45015.477455	3865.427222	23314.469811
93.536500	-0.016603	-0.002014	-0.011818	-0.013734	6146.093044	44914.175842	3872.425290	23275.016600
94.148500	-0.017383	-0.001481	-0.016951	-0.010046	6112.972088	44610.389291	3852.544608	23102.774021
94.537000	-0.017148	-0.002188	-0.018998	-0.013065	6137.063501	44832.754517	3854.714594	23243.667473
95.034500	-0.015439	-0.002656	-0.012674	-0.012958	6148.988923	44777.395422	3868.716670	23238.669063
95.535000	-0.015115	-0.001650	-0.010271	-0.011753	6142.427184	44758.277133	3871.438872	23182.345376
96.035500	-0.019156	-0.002684	-0.018751	-0.010910	6106.275464	44577.830853	3850.458558	23142.979700
96.535000	-0.014795	-0.002357	-0.018555	-0.011530	6143.154081	44668.804841	3852.277967	23171.936033
