sample name	sample
index	1183
start time	 04-26-2021  11:49:54 AM
880	-0.016320
Peak Time (s)	91.535
Peak Height 	-0.01632
calc peak height	90,93
Baseline Time (s)	11.036
Baseline Value 	-0.002894
subtract baseline	10,4
Abs	-0.017547
Peak Time (s)	92.038
Peak Height 	-0.01755
calc peak height	90,93
Baseline Time (s)	8.537
Baseline Value 	0.003075
subtract baseline	10,3
PK_550	0.001758
Peak Time (s)	90.537
Peak Height 	0.001758
calc peak height	90,93
Baseline Time (s)	9.037
Baseline Value 	0.00117
subtract baseline	10,2
PK_880	-0.012965
Peak Time (s)	91.061
Peak Height 	-0.01296
calc peak height	90,93
Baseline Time (s)	9.537
Baseline Value 	0.001456
subtract baseline	10,1


Time (s)	A880-A510	A880-A775	A880-A975	A880	I510	I775	I975	I880	
0.034000	-0.004795	-0.002528	-0.007420	0.005676	6113.293490	43303.286199	3835.052475	22466.375414
0.537000	-0.001413	-0.001774	-0.001341	0.005093	6142.752884	43427.769332	3849.947653	22492.647264
1.037000	-0.001734	-0.000850	-0.003781	0.004120	6147.622532	43605.139472	3846.649495	22536.643279
1.535500	-0.000921	-0.000748	-0.003703	0.001020	6177.008900	43906.167337	3853.808788	22677.342529
2.035000	-0.004155	-0.001689	-0.000670	0.004255	6128.568706	43513.958483	3853.353036	22530.525183
2.536000	0.000716	-0.000529	0.000085	0.001402	6186.487961	43890.771572	3861.545860	22659.960920
3.036000	0.000663	-0.000305	-0.003914	-0.001942	6211.483055	44228.815919	3860.052842	22812.755827
3.536500	-0.000085	-0.000607	0.002420	-0.000384	6193.949774	44052.226272	3870.983499	22741.420100
4.036500	-0.004337	-0.001282	-0.007535	0.004883	6122.553869	43493.309146	3836.557750	22502.133341
4.537000	-0.000192	-0.000541	0.000220	-0.001103	6198.592143	44126.619317	3867.580527	22774.276330
5.037500	-0.001907	-0.000997	0.000476	-0.000665	6182.279646	44041.879567	3867.162559	22754.238452
5.534500	-0.001519	-0.000643	0.000380	-0.000575	6184.541664	44066.930809	3866.739031	22750.157742
6.037500	-0.000715	-0.000464	-0.001543	-0.000141	6187.333389	44042.731269	3861.350071	22730.296286
6.535500	0.001960	-0.000481	-0.004168	-0.000658	6211.584540	44090.199469	3856.557896	22753.955241
7.035500	0.000275	-0.001302	0.002738	-0.001493	6205.102645	44091.400943	3874.271518	22792.140644
7.535500	-0.000368	-0.000857	-0.003130	-0.000765	6194.692926	44064.693262	3859.157709	22758.841118
8.036500	0.001160	-0.000017	0.002167	-0.000111	6201.323738	44082.242179	3869.773939	22728.919167
8.536500	-0.003120	-0.001256	0.000000	-0.000914	6175.006079	44040.896081	3866.642410	22765.624810
9.036500	0.000480	0.000000	-0.004119	0.000069	6194.800884	44066.833176	3855.020981	22720.722614
9.537500	0.000000	0.000244	0.004716	-0.000007	6191.736769	44097.157527	3875.410605	22724.186882
10.034500	0.000587	-0.001109	0.000879	-0.000718	6201.586937	44036.338279	3868.210809	22756.700458
10.537500	-0.000550	0.000039	0.001282	0.000300	6185.255863	44048.677589	3866.800192	22710.194756
11.035500	0.000490	0.000469	-0.000079	0.000000	6195.400851	44117.847294	3864.369883	22723.867485
11.535500	-0.003364	-0.000701	-0.002940	0.004091	6135.676359	43621.823558	3848.602999	22537.941951
12.035500	-0.001846	0.000132	0.002184	-0.000282	6179.851072	44112.537545	3870.205798	22736.734473
12.536000	-0.000632	-0.000793	0.002310	-0.001006	6194.516637	44093.534467	3872.163830	22769.860251
13.036000	-0.000963	-0.001181	0.000202	-0.001172	6193.261712	44072.462318	3867.697649	22777.437141
13.536500	-0.003402	-0.000320	-0.001184	0.005117	6127.758358	43561.343369	3850.247810	22491.574888
14.033500	-0.001668	-0.000144	0.003838	0.002638	6159.222500	43810.636023	3867.299821	22603.793049
14.537500	-0.003177	-0.000112	0.003519	0.002189	6151.273767	43855.867171	3867.597120	22624.151646
15.039000	-0.002687	-0.001572	0.000337	-0.001438	6182.226878	44060.627614	3868.616675	22789.623013
15.537500	-0.006487	-0.001162	-0.007596	0.004060	6112.723613	43581.509212	3838.252359	22539.320635
16.035500	-0.004867	-0.001508	-0.001392	0.004784	6119.361836	43481.526737	3850.529702	22506.627537
16.535000	-0.001547	-0.000455	-0.000296	-0.000457	6183.436150	44073.591501	3864.920224	22744.768468
17.036000	-0.000201	-0.000013	0.004634	-0.003262	6214.963534	44382.361724	3882.771799	22873.388780
17.536000	-0.003109	-0.000831	-0.002584	0.002554	6149.052709	43753.856880	3852.870534	22607.571775
18.036500	-0.001241	-0.000677	-0.002331	0.002344	6164.626648	43788.133994	3853.918939	22617.119006
18.536500	-0.001053	-0.000158	-0.003203	0.001267	6174.154080	43938.589158	3854.383177	22666.107893
19.037000	-0.002818	-0.000332	-0.005114	0.000861	6163.924949	43960.487081	3850.983801	22684.600021
19.537500	-0.002557	-0.000416	0.002101	0.002716	6151.966819	43777.653511	3863.145812	22600.234539
20.037500	-0.002332	0.000348	0.001189	0.001317	6164.148671	43981.580507	3864.258080	22663.799961
20.535000	0.000804	-0.000527	-0.002454	0.001029	6189.978817	43926.188727	3856.619728	22676.936351
21.035500	-0.001535	-0.001143	-0.000044	0.000339	6177.511681	43933.131642	3863.673844	22708.373525
21.536000	-0.002761	-0.000562	0.000013	0.002670	6150.781066	43768.228235	3858.492327	22602.300388
22.036000	-0.001759	-0.000253	0.007707	0.000938	6171.313934	43960.640818	3880.151398	22681.083746
22.536500	-0.002244	-0.000871	-0.000264	0.000730	6169.226031	43921.914172	3862.280596	22690.545580
23.036500	-0.002308	-0.000652	0.002982	0.001002	6166.693157	43916.867346	3869.088125	22678.146764
23.537000	-0.001928	-0.000961	-0.001108	0.001709	6164.239385	43821.130312	3858.130941	22645.988468
24.034500	-0.002444	-0.000845	-0.004828	0.000389	6170.282533	43956.578923	3852.693370	22706.105622
24.538000	-0.002869	-0.000838	0.000898	0.000656	6165.085208	43932.090881	3865.105651	22693.958044
25.035000	-0.001723	0.000269	0.000364	0.001425	6167.919277	43963.978598	3862.130251	22658.927167
25.535500	-0.001582	0.000326	0.001870	0.001335	6169.657812	43977.875652	3865.775164	22663.012689
26.035500	-0.001616	-0.000604	-0.003413	0.000905	6172.639019	43930.678469	3854.726609	22682.608050
26.536000	-0.002529	-0.000723	-0.006852	0.000724	6167.125728	43936.512049	3847.376846	22690.834023
27.036000	-0.000593	-0.000152	0.001642	-0.001999	6202.357758	44248.737095	3872.912079	22815.355730
27.538500	0.000441	-0.000068	0.003902	-0.001059	6203.073489	44167.390130	3875.959983	22772.292844
28.037000	-0.004222	-0.000544	0.002193	0.004669	6125.003688	43582.357619	3858.906387	22511.821135
28.536500	-0.000317	-0.000422	0.001652	-0.000408	6192.372310	44072.038536	3869.273105	22742.498434
29.034500	-0.001174	-0.000780	-0.000921	-0.000929	6189.831728	44087.557055	3864.570940	22766.350537
29.540500	0.001668	0.000296	0.001929	-0.000139	6205.399441	44114.588835	3869.290680	22730.206315
30.034500	-0.004995	-0.000494	-0.000834	0.004635	6119.513125	43590.169431	3852.123043	22513.329590
30.535500	-0.003972	-0.001178	-0.004193	0.001631	6149.502474	43808.117170	3851.323481	22649.544389
31.036000	-0.002191	-0.000784	-0.004059	0.001405	6164.550164	43866.442649	3852.134766	22659.817256
31.536000	-0.000775	-0.000567	0.001312	-0.000533	6189.854900	44070.192728	3868.778880	22748.236556
32.036000	-0.003989	-0.001120	-0.001796	0.002279	6144.528871	43752.499162	3855.277260	22620.062457
32.536500	-0.001175	-0.001249	0.002695	-0.001263	6192.348347	44074.667272	3873.643715	22781.613146
33.036500	0.000268	-0.000342	0.001912	-0.001417	6204.482519	44175.363863	3872.192681	22788.697462
33.537500	0.000097	-0.000382	-0.001364	0.001084	6184.208453	43934.686273	3858.967548	22674.411741
34.040000	-0.002065	-0.000496	0.001439	0.001879	6161.937692	43848.943885	3863.546652	22638.258650
34.535000	-0.000017	-0.000526	-0.001533	0.001139	6182.937421	43915.911547	3858.460706	22671.914120
35.035500	-0.005836	-0.001225	0.002210	0.000784	6141.901527	43883.431755	3867.816889	22688.090067
35.535500	-0.004564	-0.000521	-0.001319	0.003093	6134.172810	43732.259801	3854.513692	22583.119865
36.035500	-0.000442	-0.000194	0.002468	0.002066	6172.732055	43859.716607	3865.471100	22629.740354
36.536000	-0.000701	0.000359	0.003683	0.002434	6168.014437	43877.231320	3867.411091	22613.030177
37.036500	-0.003514	-0.000503	-0.003735	0.001048	6157.298436	43926.623367	3853.675054	22676.071352
37.536500	-0.003579	-0.001127	-0.002328	0.002052	6149.293130	43773.258179	3854.587470	22630.391240
38.037000	-0.000543	-0.001040	-0.001321	0.000876	6180.951892	43892.254481	3859.541111	22683.908921
38.537000	-0.001399	-0.000139	0.000407	0.001060	6173.100099	43959.928496	3863.059795	22675.516455
39.034500	-0.000609	-0.000387	0.002261	0.001179	6178.156708	43925.240325	3867.026484	22670.083715
39.535000	-0.003745	-0.000586	-0.000056	0.002485	6144.817416	43783.434302	3858.757850	22610.733189
40.035000	-0.001362	-0.000071	-0.000173	0.001690	6168.639010	43906.865139	3860.299722	22646.841103
40.536000	-0.002768	0.000120	-0.000056	0.001945	6156.161350	43900.815803	3859.986569	22635.244871
41.036000	-0.002511	-0.000412	0.004637	0.001671	6160.150885	43876.503214	3871.356832	22647.728031
41.536000	-0.002206	-0.000398	-0.001745	0.003141	6151.410085	43739.363703	3853.440637	22580.941727
42.036500	-0.001671	0.000286	0.004074	0.002033	6163.732059	43908.098161	3869.229227	22631.241713
42.537000	-0.003089	-0.001213	0.004400	0.000903	6161.572613	43873.282036	3872.579456	22682.659221
43.037500	-0.001498	-0.000284	0.000433	0.001204	6171.268725	43932.576755	3862.788781	22668.951689
43.537500	-0.000959	-0.000620	-0.001390	0.003016	6161.703397	43730.227480	3854.527204	22586.628502
44.037500	0.000792	-0.000135	0.002262	-0.000606	6202.291848	44117.968895	3871.130540	22751.552671
44.535000	-0.001210	-0.000030	0.002125	-0.000114	6183.389508	44081.309287	3869.682879	22729.053627
45.035000	-0.002389	0.000061	0.000351	-0.000420	6176.794665	44118.910705	3866.314919	22743.046411
45.535500	-0.002996	-0.000410	0.000959	0.004484	6135.490731	43612.271555	3856.523262	22520.175039
46.036000	-0.002665	0.000031	-0.000943	0.001553	6159.877607	43929.377000	3858.860254	22653.073808
46.536000	-0.002823	-0.000610	0.007126	-0.000601	6174.884782	44072.456861	3882.376605	22751.316898
47.036500	-0.002690	0.000100	0.002045	0.002513	6152.495638	43845.332415	3863.481652	22609.456025
47.537000	-0.003571	-0.000534	0.000109	0.005576	6123.094249	43498.393051	3852.128001	22470.866151
48.037000	-0.003921	-0.001133	-0.005068	0.002989	6139.742131	43684.608439	3846.297714	22587.862828
48.537500	-0.000595	0.001216	0.000116	0.000789	6181.211139	44113.845861	3863.013886	22687.854622
49.035000	0.001565	0.000903	0.000448	-0.000054	6203.971982	44164.154175	3865.700404	22726.322846
49.535500	-0.005547	-0.001101	0.002660	0.003812	6121.528100	43610.461599	3861.921155	22550.562068
50.035500	-0.002273	0.000476	-0.000201	0.005900	6130.336293	43562.667432	3850.699206	22456.300599
50.535500	0.021218	-0.027383	0.017269	0.515355	3955.666065	14715.405184	3186.902956	8946.092207
51.036000	0.002493	-0.023768	-0.022930	0.048720	5859.402032	37747.346133	3713.515532	20619.413555
51.536500	-0.012115	-0.049507	-0.024687	-0.196512	7932.401129	60650.433629	4346.527399	34071.516522
52.036000	-0.026405	-0.028539	-0.025895	-0.112672	6914.800314	52869.920398	4084.191495	28597.805321
52.537000	-0.029284	-0.043294	-0.031824	-0.201345	7791.493511	62137.728811	4338.723761	34420.445521
53.040000	-0.004295	-0.040338	-0.006915	-0.203469	8106.545616	62834.418740	4432.955792	34575.006401
53.534500	-0.002661	-0.030953	-0.001969	-0.169219	7729.915263	59500.394740	4331.067076	32172.377170
54.035000	-0.008108	-0.026229	-0.007361	-0.109178	7053.978439	52734.003803	4126.925935	28391.853939
54.535500	-0.014272	-0.018514	-0.009538	-0.110835	7011.098869	53820.656415	4125.422673	28489.345554
55.036000	-0.016082	-0.017346	-0.011464	-0.109967	6985.832523	53855.735811	4117.380486	28438.214296
55.536000	-0.014313	-0.013173	-0.017631	-0.123573	7133.034432	55984.174271	4138.903637	29251.182246
56.036500	-0.015911	-0.012641	-0.017352	-0.114663	7031.866230	54970.288350	4113.965257	28715.927524
56.536500	-0.014362	-0.013207	-0.021266	-0.136292	7258.323595	57556.849491	4165.695165	30034.538738
57.037000	-0.011824	-0.012628	-0.023333	-0.137909	7300.217416	57833.910911	4164.356829	30135.820482
57.537000	-0.013101	-0.010491	-0.019541	-0.113728	7049.741022	55116.116680	4105.060316	28660.406958
58.034500	-0.012671	-0.008425	-0.017532	-0.102952	6952.081214	54079.870435	4080.409922	28028.933692
58.535000	-0.012785	-0.009279	-0.021348	-0.081880	6759.186863	51561.139883	4013.076558	26838.421224
59.035000	-0.013702	-0.008639	-0.018570	-0.061882	6577.786201	49440.760539	3968.698754	25760.817084
59.536000	-0.017141	-0.008594	-0.022995	-0.044218	6403.385482	47591.247509	3914.286235	24849.363382
60.035500	-0.013711	-0.008863	-0.022512	-0.042610	6418.108954	47398.601246	3911.587546	24768.207172
60.536500	-0.013609	-0.005621	-0.019721	-0.020570	6244.854018	45514.511209	3866.494475	23685.767029
61.036500	-0.011222	-0.008571	-0.020124	-0.005671	6149.887959	43799.505804	3832.047691	22984.525781
61.537000	-0.019368	0.000588	-0.024370	0.023022	5885.655806	42001.622643	3761.886638	21700.002717
62.037000	-0.022751	0.001164	-0.033551	0.006456	5977.651528	43574.943845	3777.156508	22431.240849
62.540000	-0.019866	0.003364	-0.026933	0.000474	6041.112682	44348.090507	3803.816179	22702.212889
63.042500	-0.019676	0.005630	-0.022356	-0.002544	6064.394390	44855.143826	3820.266002	22840.355678
63.538500	-0.022531	0.005251	-0.028415	0.001610	6013.756013	44419.860108	3798.215490	22650.507449
64.035000	-0.021132	0.005116	-0.026861	-0.004866	6070.712792	45030.139767	3815.509442	22947.321523
64.536000	-0.021887	0.005155	-0.033941	-0.006176	6074.764927	45161.192533	3803.050046	23007.894759
65.036000	-0.023526	0.004315	-0.033629	-0.008282	6078.176828	45284.427574	3808.249827	23105.668982
65.536500	-0.024124	0.004287	-0.034866	-0.003206	6036.940781	44789.480396	3794.731750	22870.805366
66.036500	-0.021369	0.004535	-0.029369	-0.007104	6085.349749	45191.142138	3814.922951	23050.933067
66.537000	-0.023550	0.004594	-0.026179	-0.008615	6080.439043	45344.247901	3825.189966	23121.182403
67.040000	-0.020319	0.004261	-0.029307	-0.008550	6103.705533	45305.412380	3818.205496	23118.163812
67.537500	-0.023724	0.003825	-0.024139	-0.008848	6080.876358	45291.941123	3830.196126	23132.047194
68.035000	-0.026329	0.004303	-0.032206	-0.008752	6061.158729	45329.221353	3812.343502	23127.565271
68.535500	-0.025156	0.003997	-0.032318	-0.008769	6069.824230	45300.918628	3812.135990	23128.341712
69.036000	-0.024200	0.004005	-0.032392	-0.009221	6080.123323	45345.902198	3812.956949	23149.443665
69.535500	-0.024912	0.004162	-0.031887	-0.009498	6076.937170	45388.269720	3814.652626	23162.348552
70.036000	-0.026385	0.003488	-0.033986	-0.009387	6065.367193	45311.528458	3809.864943	23157.148370
70.536500	-0.025272	0.003077	-0.031585	-0.009881	6077.100218	45319.677406	3816.140997	23180.227247
71.038500	-0.025938	0.003145	-0.026140	-0.009840	6071.935602	45322.287282	3827.968217	23178.301213
71.537000	-0.031226	0.002013	-0.035299	-0.004635	5996.237752	44708.079781	3796.851540	22936.627915
72.037500	-0.025141	0.002368	-0.030699	-0.010316	6081.241585	45292.911478	3819.018658	23200.543104
72.537500	-0.025017	0.002650	-0.033481	-0.010411	6082.851954	45329.755933	3813.175667	23205.013021
73.034500	-0.025169	0.001895	-0.027208	-0.010422	6081.812302	45257.147337	3826.899000	23205.513713
73.535500	-0.028019	0.000833	-0.032563	-0.005674	6026.652755	44694.553299	3804.930392	22984.663939
74.036000	-0.023269	0.000426	-0.029611	-0.011839	6106.201697	45252.032230	3824.732115	23271.895405
74.536000	-0.022143	0.000775	-0.028661	-0.011652	6113.145314	45267.871498	3826.410646	23263.133941
75.036000	-0.022640	-0.000616	-0.031995	-0.012859	6118.395753	45249.908796	3821.744166	23319.815314
75.537000	-0.027668	0.000006	-0.027784	-0.007706	6043.848626	44810.553478	3819.685468	23078.865758
76.036500	-0.022865	0.000920	-0.024601	-0.012262	6112.313276	45341.631104	3836.732883	23291.768952
76.539500	-0.021625	-0.000094	-0.025227	-0.014069	6134.926042	45419.183181	3839.363199	23376.838020
77.037500	-0.021465	-0.000364	-0.027991	-0.014636	6140.343432	45448.265976	3834.478086	23403.599099
77.534000	-0.025163	-0.000874	-0.026519	-0.010066	6079.250128	44953.565279	3827.633650	23188.866372
78.035000	-0.023043	-0.000437	-0.025008	-0.015274	6133.341661	45503.568272	3842.541911	23433.736461
78.535500	-0.021268	0.000181	-0.025565	-0.015608	6149.070792	45596.959085	3842.043107	23449.534743
79.038500	-0.020239	0.000214	-0.030680	-0.015446	6155.567856	45584.324150	3830.320392	23441.882744
79.536500	-0.020986	-0.000496	-0.023611	-0.016170	6155.388651	45585.685933	3847.680376	23476.136400
80.036500	-0.018087	0.000848	-0.023857	-0.015531	6172.370435	45654.955742	3845.693941	23445.893516
80.537000	-0.018792	0.000270	-0.026041	-0.016068	6171.109037	45650.919977	3842.006597	23471.308638
81.037000	-0.019308	-0.000083	-0.021896	-0.015719	6164.606539	45581.959381	3850.527602	23454.808122
81.539000	-0.015204	0.000863	-0.025002	-0.015340	6192.717429	45637.716843	3842.702084	23436.852661
82.037000	-0.017108	0.000526	-0.024911	-0.016100	6184.057461	45679.314200	3844.607305	23472.839441
82.535000	-0.015452	0.000367	-0.019682	-0.015936	6195.354061	45647.506610	3856.022496	23465.053762
83.035500	-0.016861	0.000428	-0.024691	-0.015433	6180.885290	45604.031841	3843.605859	23441.254992
83.535500	-0.018734	0.001056	-0.018013	-0.015367	6166.265131	45659.267962	3858.519233	23438.114391
84.036000	-0.017125	-0.000217	-0.020249	-0.016414	6186.296009	45637.078954	3855.820612	23487.706459
84.536000	-0.016418	0.000379	-0.019927	-0.016418	6191.677380	45696.104854	3856.559996	23487.892237
85.037000	-0.015522	0.000682	-0.020189	-0.016203	6196.844813	45704.798984	3855.477559	23477.706515
85.536500	-0.014372	0.000685	-0.018968	-0.016478	6207.681173	45732.214739	3858.873853	23490.756005
86.040000	-0.018273	0.001358	-0.019261	-0.016431	6177.761441	45794.003756	3858.101041	23488.539724
86.534500	-0.013988	0.000638	-0.015781	-0.017832	6220.935089	45861.232712	3869.250865	23555.052355
87.035000	-0.013669	0.001091	-0.017381	-0.018005	6224.704263	45923.216940	3865.979215	23563.308973
87.535000	-0.017129	0.000328	-0.023703	-0.013794	6166.509802	45433.525202	3842.149867	23363.848966
88.035500	-0.014178	0.001377	-0.022863	-0.018707	6226.184540	46021.127141	3855.092436	23596.741576
88.536000	-0.015358	0.002219	-0.023146	-0.018348	6214.416336	46069.087477	3853.638991	23579.622389
89.036000	-0.013182	0.000873	-0.014136	-0.019827	6242.421491	46082.253825	3877.650082	23650.209384
89.536000	-0.015552	0.001653	-0.019654	-0.018047	6210.645582	45982.994421	3860.883957	23565.299743
90.036500	-0.013587	0.001622	-0.017639	-0.019840	6239.404907	46157.998785	3869.596396	23650.810420
90.537000	-0.013265	0.001758	-0.019480	-0.020456	6246.630202	46233.007856	3866.785990	23680.302792
91.061000	-0.012965	0.001288	-0.017901	-0.021097	6253.883857	46250.087160	3871.886361	23710.983351
91.534500	-0.014394	0.001054	-0.023357	-0.016320	6206.314387	45753.058534	3848.592034	23483.283888
92.037500	-0.015203	0.001180	-0.017547	-0.021443	6239.308808	46273.878389	3873.501340	23727.608880
92.534500	-0.014161	0.001127	-0.021182	-0.021621	6248.700218	46286.318133	3865.554569	23736.125976
93.142500	-0.013215	0.000407	-0.021106	-0.022338	6261.543649	46285.969553	3867.371500	23770.558996
93.536000	-0.014716	0.001202	-0.025786	-0.016822	6207.685274	45817.198094	3844.265681	23507.092823
94.036000	-0.014378	0.001053	-0.019183	-0.022579	6254.412132	46374.567052	3872.347157	23782.133995
94.536500	-0.012165	0.001026	-0.018480	-0.023436	6278.203833	46457.776030	3875.949310	23823.413877
95.036000	-0.013302	0.001807	-0.018456	-0.023390	6269.021421	46531.533384	3875.897617	23821.200605
95.540000	-0.018350	0.000839	-0.022690	-0.018912	6195.943257	45988.043755	3855.948562	23606.498620
96.034500	-0.015035	0.000496	-0.022662	-0.025483	6271.811121	46610.102966	3871.022265	23922.300391
