sample name	sample
index	381
start time	 03-04-2021  02:13:22 PM
880	-0.011134
Peak Time (s)	92.538
Peak Height 	-0.01113
calc peak height	90,93
Baseline Time (s)	9.539
Baseline Value 	-0.006157
subtract baseline	10,4
Abs	0.001438
Peak Time (s)	91.537
Peak Height 	0.001438
calc peak height	90,93
Baseline Time (s)	11.04
Baseline Value 	0.004408
subtract baseline	10,3
PK_550	0.000068
Peak Time (s)	92.037
Peak Height 	6.7662E-5
calc peak height	90,93
Baseline Time (s)	11.543
Baseline Value 	5.2439E-4
subtract baseline	10,2
PK_880	-0.003317
Peak Time (s)	92.037
Peak Height 	-0.003317
calc peak height	90,93
Baseline Time (s)	11.04
Baseline Value 	0.003302
subtract baseline	10,1


Time (s)	A880-A510	A880-A775	A880-A975	A880	I510	I775	I975	I880	
0.036500	-0.000637	-0.000467	-0.006939	0.002312	6872.338937	47173.801028	3989.559381	24978.460954
0.539000	-0.002358	-0.001038	-0.003434	0.004194	6839.403757	46924.443225	3993.784983	24882.887010
1.036500	-0.003470	-0.000316	-0.005540	0.007264	6801.517702	46687.086094	3980.359775	24727.863397
1.537000	-0.001534	-0.000119	0.000719	0.002101	6866.051020	47230.769504	4010.196350	24989.214839
2.037500	0.000950	-0.000244	0.005149	0.001317	6896.103217	47298.112481	4024.079049	25029.150421
2.535000	-0.002050	0.000140	0.003220	0.001652	6865.434452	47303.038291	4018.031473	25012.077411
3.035500	-0.004225	-0.000705	0.002121	0.005683	6808.970028	46807.449673	4004.440513	24807.551639
3.535500	-0.000885	-0.000309	0.001574	0.000423	6887.432330	47382.853934	4016.920186	25074.807490
4.035500	0.000358	-0.001028	-0.005837	-0.000055	6903.317345	47358.237516	3998.609779	25099.245354
4.536000	-0.000720	0.000116	-0.002427	0.000670	6886.674651	47401.167158	4005.666305	25062.190351
5.036500	-0.000453	-0.000308	-0.002571	0.000328	6892.283499	47392.619880	4006.188175	25079.633267
5.536500	-0.002284	-0.000161	0.001219	0.000350	6875.232247	47405.514223	4016.168564	25078.523229
6.036500	0.000989	0.000486	0.001157	0.000603	6903.060026	47445.799364	4015.330081	25065.571684
6.536500	-0.002128	-0.000113	0.004921	0.000054	6879.388140	47440.829021	4026.854442	25093.677520
7.037500	-0.001229	0.000318	0.000266	-0.000147	6889.507485	47505.599347	4014.954718	25103.938381
7.535000	-0.002617	-0.000574	0.000247	-0.000293	6878.071158	47429.045807	4015.292745	25111.404548
8.038000	0.000843	0.000266	0.000720	0.000088	6906.475731	47476.193039	4015.538419	25091.922377
8.535000	-0.000895	-0.000100	-0.003424	-0.000637	6897.116782	47513.044781	4006.483753	25129.050564
9.035500	0.001488	-0.000411	-0.002342	-0.000451	6917.459230	47462.007848	4008.849373	25119.520388
9.538500	0.001069	-0.000028	0.000659	0.000000	6909.389792	47455.028586	4015.610924	25096.424157
10.036000	-0.001906	0.000333	-0.001006	0.000347	6878.721076	47456.369202	4010.272383	25078.654619
10.542000	0.000501	0.000670	0.000888	0.000421	6900.230305	47483.398804	4015.099882	25074.894605
11.040000	0.000000	0.000688	0.000000	0.000235	6897.326916	47504.436088	4013.236284	25084.419061
11.543000	-0.000882	0.000000	0.005039	-0.000406	6895.093901	47499.530804	4028.406986	25117.199371
12.035000	-0.001670	-0.000266	0.000625	-0.000260	6886.485318	47457.225263	4016.210790	25109.721955
12.535000	-0.002895	-0.000594	0.000564	-0.000660	6878.894698	47464.609282	4017.111930	25130.192634
13.035500	-0.000575	-0.000406	0.001230	-0.002296	6915.427949	47652.182700	4023.259656	25214.210535
13.535500	-0.001490	-0.000096	-0.002379	0.000088	6884.948172	47439.099541	4007.330567	25091.947039
14.036000	-0.001181	-0.000429	-0.005093	0.002085	6869.425469	47200.740486	3994.958411	24990.002982
14.541500	-0.002309	-0.000345	-0.000892	0.002011	6859.771107	47216.842128	4006.176005	24993.750967
15.037000	0.000787	-0.000671	0.002268	-0.000298	6909.528037	47419.569536	4020.692515	25111.660683
15.539500	-0.001372	0.000043	-0.002168	-0.000246	6889.104262	47487.547948	4008.767556	25108.997915
16.034500	-0.000853	-0.000252	-0.002319	0.000532	6886.716599	47377.564108	4006.314852	25069.230934
16.534000	-0.001442	-0.000300	-0.000013	-0.000419	6890.051917	47470.070699	4014.936764	25117.868299
17.038500	-0.001527	0.001372	0.000227	0.001028	6875.951980	47493.133126	4011.733935	25043.875852
17.538000	-0.001677	-0.000271	0.000714	-0.000907	6892.385478	47523.156596	4018.173021	25142.894932
18.035500	-0.001019	0.000111	0.001922	0.001137	6879.616357	47352.790474	4015.945043	25038.320834
18.535500	-0.000171	0.000386	-0.002301	0.001306	6885.870479	47363.666834	4004.324062	25029.724030
19.036000	-0.003342	0.000116	0.001960	0.001161	6858.096951	47350.783202	4015.983361	25037.103953
19.542000	-0.001093	-0.000223	0.000314	0.001234	6878.047689	47308.657875	4011.419509	25033.382647
20.037000	-0.002509	-0.000135	-0.005451	0.001073	6866.525292	47334.059675	3996.665948	25041.571525
20.537000	-0.001551	0.000434	0.000300	0.001442	6871.934974	47354.585323	4010.832123	25022.763734
21.037000	-0.002070	0.000446	0.000646	0.001169	6869.672511	47383.793876	4012.472337	25036.689528
21.534000	0.000289	0.000349	0.001710	0.001275	6890.399555	47363.022810	4015.014897	25031.302392
22.038000	-0.001200	-0.000187	0.002049	0.000965	6879.539280	47339.888733	4016.739717	25047.107112
22.535000	-0.001450	0.000133	0.001268	0.000855	6878.249769	47383.844560	4014.955854	25052.728432
23.036000	-0.000878	0.000394	0.001747	0.001125	6881.024943	47382.917601	4015.511600	25038.931647
23.536000	-0.001656	0.000024	0.000267	0.000998	6875.043655	47358.081289	4011.919138	25045.398292
24.036500	-0.001396	0.000505	0.002288	0.001613	6871.785563	47344.349013	4015.653304	25014.058728
24.536000	-0.002527	0.000099	-0.000893	0.001036	6866.699802	47361.817895	4008.749291	25043.470003
25.037000	0.000758	0.000815	0.000926	0.001466	6892.960790	47391.247549	4012.428683	25021.569743
25.537000	0.000040	0.000236	0.002553	0.001111	6889.617419	47368.219381	4017.694582	25039.668716
26.037500	-0.001311	-0.000212	0.003595	0.000798	6880.050559	47354.406648	4021.309508	25055.613555
26.534500	-0.003034	-0.000307	0.002306	0.000513	6866.851980	47373.822906	4018.629220	25070.174174
27.035000	-0.002891	0.000025	0.002170	0.001002	6863.681934	47357.796430	4016.965269	25045.207763
27.535500	-0.001685	0.000069	0.002112	-0.002323	6905.392500	47703.872592	4025.694028	25215.600141
28.036000	-0.001725	0.000221	0.000254	-0.000320	6886.533442	47513.467336	4015.383427	25112.810636
28.541500	-0.000292	0.000074	-0.000128	-0.000391	6900.408669	47505.561115	4014.559145	25116.442628
29.036500	-0.002279	0.000601	-0.002159	0.003778	6843.914057	47133.198729	3998.205944	24903.991362
29.542000	-0.003008	0.000132	-0.001758	-0.000415	6875.608245	47514.011731	4010.298307	25117.673318
30.037000	-0.000612	0.000183	-0.000833	-0.000118	6894.936288	47488.769124	4011.962948	25102.465906
30.537500	-0.001618	0.000302	0.006127	-0.000259	6886.951931	47515.449211	4030.938271	25109.670004
31.038000	-0.002514	0.000329	-0.001640	0.002474	6853.668916	47238.400370	4002.988652	24970.213114
31.537500	-0.001111	-0.000166	-0.001603	0.000305	6886.426917	47409.530450	4008.804513	25080.803405
32.035000	-0.001159	0.000906	0.000904	0.000711	6882.254423	47477.907632	4014.372669	25060.068945
32.538000	0.000651	0.000183	0.003091	-0.000276	6908.065201	47504.923317	4022.832376	25110.542916
33.036000	-0.001237	-0.000638	-0.001403	0.002232	6867.563067	47164.484647	4004.246755	24982.508724
33.536500	-0.000652	0.000328	-0.001693	0.000048	6893.032333	47486.634007	4009.245169	25093.968881
34.040500	0.001447	0.000366	0.002912	-0.002076	6932.186407	47709.063449	4027.177889	25202.894504
34.537000	-0.002618	-0.000545	-0.003326	0.000684	6869.096310	47331.913316	4003.260268	25061.438036
35.037500	-0.002249	0.000122	-0.003343	0.001900	6861.336811	47275.945262	4000.024303	24999.439337
35.535000	-0.001892	0.000140	-0.003090	0.001557	6867.745977	47312.751612	4001.585850	25016.889440
36.035500	-0.000358	0.000366	-0.001024	0.001626	6881.199404	47328.819891	4006.843865	25013.376832
36.536500	-0.002046	0.000429	0.000176	0.001718	6864.864624	47325.813479	4009.773132	25008.697942
37.035500	-0.002049	-0.000262	-0.004129	0.001149	6870.046336	47313.387341	3999.930832	25037.701292
37.535500	-0.001585	0.001053	-0.000883	0.002519	6861.745814	47307.755159	4004.861407	24967.895283
38.036000	-0.000747	-0.000082	-0.000378	0.001555	6878.278031	47290.219297	4008.738326	25016.995985
38.536000	-0.001250	0.000410	0.000809	0.001955	6869.986304	47299.691941	4010.821985	24996.627788
39.036500	-0.001737	0.000237	0.003744	0.001433	6870.301925	47335.344847	4020.009421	25023.215064
39.537000	-0.003092	0.000340	-0.001449	0.001493	6857.349648	47339.768597	4006.073601	25020.153641
40.037500	-0.001892	-0.000216	0.001936	0.001345	6869.691385	47297.965208	4015.428131	25027.695696
40.535000	-0.001896	0.000193	-0.000961	0.001595	6867.361678	47314.288702	4007.092242	25014.951253
41.038000	-0.000620	-0.000238	-0.003319	0.001436	6880.541185	47286.492744	4001.303958	25023.091312
41.535500	-0.000539	0.000563	0.001492	0.001848	6877.497130	47326.267419	4012.913440	25002.060321
42.035000	-0.000904	0.000512	0.001755	0.001524	6877.119205	47354.244946	4014.473800	25018.603523
42.535500	-0.004158	0.000163	-0.004870	0.001174	6850.517299	47354.258203	3997.922691	25036.418987
43.036000	-0.004646	-0.000172	-0.003344	0.001038	6847.312272	47333.890210	4002.282784	25043.372303
43.536500	-0.000574	0.000646	-0.001030	0.002029	6875.515901	47316.254646	4005.767058	24992.879261
44.037000	-0.001435	0.000663	0.001139	0.001803	6869.688322	47341.119119	4012.098024	25004.380527
44.543000	0.000173	0.000825	0.002288	-0.002814	6927.200403	47832.730897	4027.484879	25240.883781
45.037000	-0.000600	-0.000502	-0.001768	-0.000601	6899.503210	47468.052899	4010.764955	25127.208580
45.535500	-0.000597	0.000789	-0.003648	-0.000148	6895.343562	47554.053357	4004.604457	25103.984710
46.035500	0.000288	0.000152	0.000648	0.000727	6895.441242	47398.924429	4013.649295	25059.257401
46.535500	-0.000176	0.000627	0.000195	0.000212	6895.910870	47500.428686	4013.811810	25085.559481
47.036000	-0.000679	-0.000842	-0.002985	-0.001130	6903.667503	47487.429185	4008.943962	25154.307793
47.536000	-0.001952	-0.000419	0.000177	-0.000163	6882.991251	47431.594873	4014.760873	25104.755944
48.036500	-0.004075	0.000390	-0.001042	0.002616	6838.140976	47230.132732	4004.188968	24962.995781
48.536500	-0.001103	0.000174	-0.006436	0.000017	6889.159649	47474.053033	3996.853854	25095.575578
49.037000	0.000812	0.000132	0.000995	-0.000123	6908.149096	47484.087614	4016.832362	25102.740815
49.534500	-0.001946	-0.000089	0.002741	-0.000597	6887.048278	47510.032161	4022.755964	25126.999936
50.037500	0.001989	0.001005	0.001089	-0.001942	6935.983496	47761.131932	4021.933490	25195.996532
50.537500	-0.000669	0.000396	-0.000822	-0.001386	6906.129723	47641.043472	4015.358863	25167.467433
51.035000	-0.000407	0.000083	-0.000688	0.006223	6838.687829	46832.454534	3995.656240	24780.293930
51.535500	0.007725	-0.009446	0.023923	0.295629	4954.424819	24977.871805	3477.608702	14125.476741
52.035500	-0.018392	-0.016017	-0.002887	0.098255	5954.188689	37151.828140	3774.304927	20597.462519
52.536000	-0.016894	-0.075298	0.002000	-0.217048	9249.096454	64651.099479	4770.202115	39502.607445
53.036500	-0.031134	-0.192650	-0.010154	-0.340573	11069.719055	65535.000000	5328.359853	51552.637249
53.536500	-0.066090	-0.302314	-0.045671	-0.450237	12605.789092	65535.000000	5787.744085	65535.000000
54.037000	0.000160	-0.173667	0.013290	-0.321590	11305.017371	65535.000000	5353.838212	49470.827026
54.534500	-0.002362	-0.097929	0.011045	-0.245852	9916.780979	65535.000000	4944.074977	42014.180897
55.037500	-0.018050	-0.049455	0.000804	-0.183101	8755.030462	63509.728297	4621.783719	36748.735746
55.535500	-0.011924	-0.073550	-0.008198	-0.220853	9378.974179	65445.756463	4742.304636	39824.963213
56.035500	-0.002792	-0.092410	-0.005000	-0.240333	9821.129428	65535.000000	4843.161180	41519.937404
56.535000	0.000481	-0.080132	-0.006304	-0.228055	9678.815497	65535.000000	4782.123408	40442.768265
57.036000	0.002626	-0.064446	-0.004031	-0.211885	9462.962124	65465.273285	4721.618676	39069.795068
57.535500	0.001984	-0.050687	-0.005375	-0.192903	9172.387312	64717.435643	4636.533372	37521.900139
58.036000	0.002931	-0.035798	-0.001005	-0.170073	8863.508052	63597.651396	4562.638221	35747.744496
58.537000	0.002502	-0.025903	-0.005745	-0.150638	8596.258081	62279.082451	4470.491501	34309.120122
59.036500	-0.000253	-0.016719	-0.003965	-0.123439	8215.702078	59866.682997	4378.983325	32400.930291
59.537500	-0.000178	-0.011912	-0.004247	-0.111864	8076.439613	58986.069170	4338.095802	31624.442742
60.037500	0.000675	-0.010242	-0.006485	-0.091798	7851.824343	56660.332217	4264.140852	30326.374070
60.535000	-0.006016	-0.011451	-0.001045	-0.093490	7794.998892	56720.312982	4287.379665	30433.578027
61.035000	-0.004432	-0.007644	-0.005109	-0.045535	7297.886325	51519.063537	4126.343128	27552.669549
61.536000	-0.005964	-0.007837	-0.002074	-0.036581	7192.639406	50506.089341	4109.214033	27049.137136
62.036500	-0.006530	-0.006207	-0.003862	-0.036739	7188.590581	50702.328086	4104.536570	27057.906573
62.536500	-0.007992	-0.003472	-0.003335	-0.046779	7274.423339	52129.053869	4135.169024	27623.467465
63.037000	-0.012263	-0.003274	-0.007877	-0.041433	7178.311745	51549.070876	4106.481829	27320.679021
63.537000	-0.009445	-0.003226	-0.008759	-0.040034	7192.356789	51398.008219	4099.957913	27242.072718
64.043000	-0.007968	-0.003815	-0.008928	-0.041384	7220.481167	51483.063206	4103.333104	27317.946711
64.537000	-0.008602	-0.003752	-0.004722	-0.043201	7232.297643	51693.738803	4120.681054	27420.386679
65.038000	-0.005740	-0.003225	-0.005828	-0.044821	7277.396146	51935.538014	4122.176122	27512.157678
65.535500	-0.005408	-0.004186	-0.002955	-0.048259	7315.674702	52215.964168	4140.640403	27707.955195
66.035500	-0.005152	-0.004136	-0.001696	-0.049582	7331.800583	52372.027160	4148.269132	27783.668225
66.536000	-0.003991	-0.004033	0.000162	-0.051987	7368.462396	52658.444971	4160.970227	27921.983160
67.036000	-0.002958	-0.004358	-0.000007	-0.053991	7399.911172	52851.152081	4166.475482	28037.817044
67.536500	-0.004125	-0.005119	-0.005360	-0.055671	7405.255042	52957.101419	4155.480738	28135.373694
68.037000	-0.002107	-0.004353	0.001571	-0.055327	7422.696028	53005.645390	4175.262320	28115.331059
68.537500	-0.002861	-0.004845	-0.000104	-0.056472	7426.782947	53080.981069	4173.660045	28181.969970
69.037000	-0.002559	-0.004062	-0.004067	-0.055590	7420.736242	53069.656061	4159.096801	28130.663666
69.535000	-0.004462	-0.004662	-0.004214	-0.055501	7399.980393	52990.122403	4158.393033	28125.487574
70.035000	-0.002667	-0.004442	-0.001187	-0.053843	7401.393228	52824.561698	4162.487156	28029.244245
70.535500	-0.003276	-0.004197	-0.002360	-0.052979	7386.110453	52753.483874	4156.396373	27979.270967
71.036000	-0.002326	-0.003637	0.002139	-0.050748	7372.860292	52562.047581	4163.180698	27850.647371
71.536000	-0.004004	-0.003889	0.002682	-0.049172	7339.371539	52353.520283	4160.086747	27760.188640
72.036500	-0.003235	-0.004214	-0.005039	-0.047457	7329.677799	52121.826901	4132.162897	27662.120979
72.536500	-0.003290	-0.003832	-0.004780	-0.045564	7309.791391	51950.923891	4127.388520	27554.333308
73.037000	-0.001885	-0.003814	-0.002523	-0.043657	7304.688437	51738.112645	4128.410020	27446.214417
73.537500	-0.002853	-0.003239	-0.001707	-0.041636	7274.374918	51575.791154	4124.894864	27332.115649
74.040500	-0.004107	-0.003257	-0.001901	-0.039850	7243.763813	51373.980452	4119.147153	27231.748503
74.535000	-0.004425	-0.003874	-0.006540	-0.038546	7227.524194	51160.095138	4102.045324	27158.727509
75.035500	-0.004470	-0.003330	0.000927	-0.036660	7208.261024	51011.274825	4118.098077	27053.505503
75.535500	-0.005998	-0.003172	-0.000746	-0.035204	7178.666004	50867.660549	4109.071572	26972.581485
76.036000	-0.003162	-0.003592	-0.001239	-0.033662	7191.477368	50651.611078	4103.237222	26887.212425
76.536000	-0.005647	-0.003290	-0.008530	-0.031983	7150.386582	50500.331640	4077.836705	26794.515899
77.036500	-0.005719	-0.002906	-0.000394	-0.031214	7142.145796	50458.354392	4098.659548	26752.253612
77.536500	-0.002518	-0.003589	-0.004866	-0.030710	7168.654023	50328.487736	4084.556788	26724.524716
78.037500	-0.004980	-0.003666	0.000318	-0.029459	7132.201950	50183.728657	4095.689931	26655.935381
78.538000	-0.005361	-0.002398	-0.001925	-0.027094	7105.440899	50064.446032	4082.657885	26526.814285
79.035000	-0.006050	-0.004179	-0.001525	-0.028576	7113.152620	50032.070775	4087.964202	26607.659735
79.535000	-0.005014	-0.002476	-0.001922	-0.027010	7107.995612	50046.857765	4082.427823	26522.205692
80.036000	-0.003674	-0.002978	-0.003897	-0.026561	7116.659137	49943.682365	4075.628557	26497.773304
80.536000	-0.006077	-0.002484	-0.001164	-0.024203	7070.536496	49742.291838	4076.677477	26369.877964
81.035500	-0.005526	-0.002171	-0.002341	-0.024931	7082.877887	49854.632775	4075.421424	26409.282989
81.536500	-0.005928	-0.002503	-0.002699	-0.024250	7072.433978	49745.387624	4072.520404	26372.441826
82.037000	-0.005065	-0.001606	-0.001788	-0.022824	7067.001568	49688.331276	4071.084018	26295.390751
82.534000	-0.007144	-0.002431	-0.002618	-0.021116	7030.702512	49416.214032	4064.032449	26203.469077
83.037000	-0.006681	-0.002390	-0.002591	-0.022595	7049.281276	49579.301494	4068.209147	26283.035705
83.537500	-0.004363	-0.001943	-0.002762	-0.021814	7064.043434	49543.452317	4065.569966	26241.024680
84.035500	-0.006070	-0.001204	-0.006431	-0.020389	7034.017128	49469.814569	4051.520328	26164.467677
84.535500	-0.008659	-0.002994	-0.006922	-0.018644	6992.832268	49092.483709	4045.405808	26071.095511
85.036000	-0.004487	-0.002191	-0.007177	-0.020330	7048.598155	49357.888203	4049.315846	26161.305270
85.535500	-0.004803	-0.001794	-0.000950	-0.019580	7038.399806	49320.211675	4064.399240	26121.145494
86.036500	-0.004825	-0.001661	0.001787	-0.018972	7032.372320	49269.309344	4070.311275	26088.590377
86.536500	-0.004916	-0.000728	-0.000525	-0.018182	7023.969622	49284.575305	4061.703409	26046.402534
87.036500	-0.004036	-0.000657	-0.000005	-0.017194	7022.949387	49186.930920	4060.410827	25993.794135
87.537500	-0.003599	-0.001417	-0.004861	-0.017844	7033.317504	49175.175429	4048.850558	26028.421869
88.040000	-0.006785	-0.000841	-0.006051	-0.016950	6994.534686	49141.234700	4043.159944	25980.765489
88.535000	-0.003699	-0.001087	-0.003480	-0.016843	7022.820975	49103.777626	4049.889943	25975.111235
89.035000	-0.004884	-0.001375	-0.000964	-0.016720	7010.375134	49060.059691	4056.458408	25968.562142
89.535500	-0.004008	-0.000556	-0.002133	-0.015683	7008.846535	49036.833877	4050.401519	25913.460690
90.036000	-0.004356	-0.000667	-0.005198	-0.015623	7004.980324	49018.771216	4041.872320	25910.318827
90.539000	-0.003831	-0.000767	-0.002881	-0.015436	7008.180905	48988.200129	4047.679764	25900.386927
91.036000	-0.005932	-0.000890	0.000513	-0.015517	6989.052225	48983.773797	4057.213111	25904.688335
91.536500	-0.005502	-0.000485	0.001438	-0.014538	6983.866808	48922.866548	4057.065331	25852.815646
92.037000	-0.003317	0.000068	-0.005474	-0.014104	7000.429707	48935.523951	4037.002906	25829.892432
92.537500	-0.007397	-0.001392	-0.006585	-0.011134	6934.175838	48468.459835	4026.000105	25673.443269
93.037500	-0.004170	0.000289	-0.002399	-0.013537	6986.999946	48898.894043	4043.813672	25799.952341
93.535500	-0.005389	-0.000529	-0.007909	-0.014249	6982.203917	48887.631822	4030.813402	25837.527680
94.038000	-0.004643	-0.000472	-0.003482	-0.014033	6987.211463	48870.799054	4042.213342	25826.117823
94.536000	-0.007636	-0.000550	-0.006702	-0.009461	6916.394774	48381.352825	4021.207258	25585.789191
95.036000	-0.004825	-0.001267	-0.002666	-0.014193	6987.005776	48803.683331	4044.872439	25834.573911
95.536000	-0.003886	-0.000442	-0.001993	-0.013451	6988.871637	48812.476357	4044.686633	25795.402436
96.036000	-0.004171	-0.000141	-0.001181	-0.013024	6982.139291	48799.070285	4045.733454	25772.851770
96.537000	-0.005490	-0.001191	-0.004264	-0.013839	6977.400724	48774.329885	4039.562817	25815.893179
