sample name	sample
index	1225
start time	 04-29-2021  10:54:08 AM


Wavelength (nm)	Absorbance
494.344910	-0.467681
494.563924	-0.467681
494.782919	-0.467681
495.001897	-0.053493
495.220856	-0.168126
495.439797	-0.185077
495.658719	-0.175026
495.877624	-0.140877
496.096510	-0.175025
496.315378	-0.156228
496.534227	-0.162284
496.753059	-0.138244
496.971872	-0.167381
497.190667	-0.020130
497.409444	0.008104
497.628203	0.016207
497.846943	0.018285
498.065665	0.020228
498.284369	0.020978
498.503055	0.021006
498.721723	0.021611
498.940372	0.022909
499.159003	0.022358
499.377616	0.022012
499.596210	0.021519
499.814787	0.021985
500.033345	0.021800
500.251885	0.021309
500.470406	0.021249
500.688910	0.020580
500.907395	0.020230
501.125862	0.020376
501.344311	0.020173
501.562742	0.020502
501.781154	0.019314
501.999548	0.018749
502.217924	0.018968
502.436282	0.018804
502.654621	0.019346
502.872942	0.018447
503.091245	0.018466
503.309530	0.019061
503.527797	0.018370
503.746045	0.019626
503.964275	0.020185
504.182487	0.019170
504.400681	0.019990
504.618856	0.019700
504.837013	0.019884
505.055152	0.021648
505.273273	0.021294
505.491376	0.021232
505.709460	0.020408
505.927526	0.019639
506.145574	0.020708
506.363604	0.020310
506.581615	0.019777
506.799608	0.019786
507.017583	0.018336
507.235540	0.018311
507.453478	0.017941
507.671399	0.018263
507.889301	0.018871
508.107185	0.018655
508.325050	0.018146
508.542898	0.019153
508.760727	0.019183
508.978538	0.018771
509.196330	0.018015
509.414105	0.018188
509.631861	0.017732
509.849599	0.016448
510.067319	0.016163
510.285021	0.015951
510.502704	0.015020
510.720369	0.015080
510.938016	0.015225
511.155645	0.016068
511.373255	0.016788
511.590848	0.016532
511.808422	0.017314
512.025977	0.017731
512.243515	0.017876
512.461034	0.017360
512.678536	0.017159
512.896018	0.017604
513.113483	0.017035
513.330930	0.017053
513.548358	0.017857
513.765768	0.018329
513.983160	0.018955
514.200533	0.018851
514.417889	0.020572
514.635226	0.020039
514.852545	0.020000
515.069845	0.020828
515.287128	0.020593
515.504392	0.020561
515.721638	0.019947
515.938866	0.019476
516.156075	0.020335
516.373267	0.018958
516.590440	0.019744
516.807594	0.019753
517.024731	0.019216
517.241850	0.019232
517.458950	0.018913
517.676032	0.020032
517.893095	0.019844
518.110141	0.018690
518.327168	0.019324
518.544177	0.018901
518.761168	0.018343
518.978141	0.018698
519.195095	0.018789
519.412031	0.018643
519.628949	0.018363
519.845849	0.018090
520.062731	0.019557
520.279594	0.019235
520.496439	0.018935
520.713266	0.019309
520.930074	0.019405
521.146865	0.018850
521.363637	0.018898
521.580391	0.017984
521.797127	0.017963
522.013844	0.016900
522.230543	0.016885
522.447224	0.016730
522.663887	0.016199
522.880532	0.015521
523.097158	0.016089
523.313766	0.016127
523.530356	0.016668
523.746928	0.016657
523.963481	0.017098
524.180017	0.017098
524.396534	0.017693
524.613032	0.018830
524.829513	0.019223
525.045975	0.019341
525.262420	0.019579
525.478845	0.019157
525.695253	0.019349
525.911643	0.019124
526.128014	0.019559
526.344367	0.019798
526.560702	0.018976
526.777018	0.018544
526.993316	0.018137
527.209597	0.017920
527.425858	0.018326
527.642102	0.018034
527.858328	0.018218
528.074535	0.017613
528.290724	0.017402
528.506894	0.017245
528.723047	0.017850
528.939181	0.017669
529.155297	0.017275
529.371395	0.016975
529.587475	0.016948
529.803536	0.017217
530.019579	0.017567
530.235604	0.017574
530.451611	0.018224
530.667600	0.017798
530.883570	0.017939
531.099522	0.018228
531.315456	0.018133
531.531372	0.018347
531.747269	0.017806
531.963148	0.017721
532.179009	0.017741
532.394852	0.017467
532.610676	0.017710
532.826482	0.017496
533.042271	0.017501
533.258040	0.018268
533.473792	0.018318
533.689525	0.018623
533.905240	0.018323
534.120937	0.018164
534.336616	0.018216
534.552277	0.018238
534.767919	0.018661
534.983543	0.019163
535.199149	0.018901
535.414736	0.019026
535.630306	0.018611
535.845857	0.018968
536.061390	0.019052
536.276904	0.018830
536.492401	0.018683
536.707879	0.018481
536.923339	0.018039
537.138781	0.017778
537.354204	0.017501
537.569610	0.017703
537.784997	0.018099
538.000366	0.018079
538.215716	0.018671
538.431049	0.019026
538.646363	0.019323
538.861659	0.019644
539.076937	0.019689
539.292196	0.019780
539.507438	0.020020
539.722661	0.019578
539.937866	0.019774
540.153052	0.019935
540.368221	0.019995
540.583371	0.019718
540.798503	0.019673
541.013617	0.019530
541.228712	0.020000
541.443789	0.019997
541.658848	0.020048
541.873889	0.019990
542.088912	0.019363
542.303916	0.019101
542.518902	0.019348
542.733870	0.019336
542.948820	0.019359
543.163752	0.019008
543.378665	0.018983
543.593560	0.018990
543.808437	0.019113
544.023295	0.019369
544.238136	0.019204
544.452958	0.018918
544.667762	0.019061
544.882548	0.019135
545.097315	0.019447
545.312064	0.019407
545.526795	0.019078
545.741508	0.018914
545.956203	0.018815
546.170879	0.019023
546.385537	0.019188
546.600177	0.018886
546.814799	0.018395
547.029402	0.018401
547.243988	0.018485
547.458555	0.018856
547.673103	0.019120
547.887634	0.019222
548.102146	0.019207
548.316640	0.019499
548.531116	0.019423
548.745574	0.020072
548.960013	0.019753
549.174435	0.020076
549.388838	0.020028
549.603222	0.019827
549.817589	0.019717
550.031937	0.019866
550.246267	0.019811
550.460579	0.019754
550.674873	0.020258
550.889148	0.020402
551.103405	0.019994
551.317644	0.019927
551.531865	0.020176
551.746068	0.020177
551.960252	0.019678
552.174418	0.019437
552.388566	0.019585
552.602696	0.018944
552.816807	0.019053
553.030900	0.018954
553.244975	0.019220
553.459032	0.018718
553.673070	0.018864
553.887091	0.019510
554.101093	0.019816
554.315077	0.019889
554.529042	0.019703
554.742990	0.019808
554.956919	0.019675
555.170830	0.019763
555.384722	0.019985
555.598597	0.020006
555.812453	0.019853
556.026291	0.019704
556.240111	0.019450
556.453913	0.019761
556.667696	0.019395
556.881461	0.019918
557.095208	0.019821
557.308937	0.020168
557.522647	0.020107
557.736339	0.020108
557.950013	0.019870
558.163669	0.020115
558.377307	0.020119
558.590926	0.020498
558.804527	0.020239
559.018110	0.020038
559.231675	0.019713
559.445221	0.019210
559.658749	0.019006
559.872259	0.019285
560.085751	0.019059
560.299225	0.019160
560.512680	0.019061
560.726117	0.019313
560.939536	0.019535
561.152937	0.019849
561.366319	0.020288
561.579683	0.020147
561.793029	0.020047
562.006357	0.020168
562.219667	0.019989
562.432958	0.019845
562.646231	0.019337
562.859486	0.019175
563.072723	0.019007
563.285941	0.019040
563.499141	0.019226
563.712323	0.019226
563.925487	0.019244
564.138632	0.019335
564.351760	0.019372
564.564869	0.019467
564.777960	0.019386
564.991032	0.019350
565.204087	0.019362
565.417123	0.019352
565.630141	0.019198
565.843140	0.019187
566.056122	0.019186
566.269085	0.019133
566.482030	0.019595
566.694957	0.019942
566.907866	0.020009
567.120756	0.020251
567.333628	0.020410
567.546482	0.020757
567.759318	0.021065
567.972135	0.021473
568.184935	0.021672
568.397716	0.021487
568.610478	0.021287
568.823223	0.021369
569.035949	0.021214
569.248657	0.021211
569.461347	0.020908
569.674019	0.020715
569.886672	0.020517
570.099308	0.020220
570.311925	0.020093
570.524523	0.020097
570.737104	0.020142
570.949666	0.020135
571.162210	0.020301
571.374736	0.020536
571.587244	0.020282
571.799733	0.020194
572.012205	0.020329
572.224658	0.020327
572.437092	0.020699
572.649509	0.020630
572.861907	0.020958
573.074287	0.020948
573.286649	0.020816
573.498993	0.021290
573.711318	0.021341
573.923625	0.021113
574.135914	0.020992
574.348185	0.020523
574.560438	0.020141
574.772672	0.019667
574.984888	0.019232
575.197086	0.019055
575.409266	0.018924
575.621427	0.018816
575.833570	0.019325
576.045695	0.019068
576.257802	0.019141
576.469890	0.019507
576.681961	0.019474
576.894013	0.019765
577.106046	0.019963
577.318062	0.019778
577.530059	0.020122
577.742039	0.019893
577.954000	0.020479
578.165942	0.020462
578.377867	0.020316
578.589773	0.020448
578.801661	0.020347
579.013531	0.020521
579.225382	0.020452
579.437216	0.019975
579.649031	0.020090
579.860828	0.019979
580.072606	0.020415
580.284367	0.020407
580.496109	0.020245
580.707833	0.020215
580.919539	0.019778
581.131227	0.019654
581.342896	0.019744
581.554547	0.019508
581.766180	0.019690
581.977795	0.019496
582.189391	0.019578
582.400969	0.019669
582.612529	0.019813
582.824071	0.020052
583.035595	0.020417
583.247100	0.020456
583.458587	0.020607
583.670056	0.020885
583.881506	0.020822
584.092939	0.020829
584.304353	0.021140
584.515749	0.021049
584.727127	0.021266
584.938486	0.021217
585.149828	0.021264
585.361151	0.021435
585.572456	0.020768
585.783742	0.020613
585.995011	0.020700
586.206261	0.020381
586.417493	0.020578
586.628706	0.020359
586.839902	0.020090
587.051079	0.020109
587.262238	0.019841
587.473379	0.020100
587.684502	0.020298
587.895606	0.020190
588.106692	0.020385
588.317760	0.020404
588.528810	0.020386
588.739841	0.020595
588.950855	0.020599
589.161850	0.020894
589.372827	0.020762
589.583785	0.020436
589.794726	0.020538
590.005648	0.020710
590.216552	0.020705
590.427437	0.020729
590.638305	0.020674
590.849154	0.020662
591.059985	0.020631
591.270798	0.020814
591.481592	0.020951
591.692369	0.021076
591.903127	0.020925
592.113867	0.020759
592.324588	0.020955
592.535292	0.021237
592.745977	0.021266
592.956644	0.021097
593.167293	0.021191
593.377923	0.020987
593.588536	0.020940
593.799130	0.020766
594.009706	0.020902
594.220263	0.020886
594.430803	0.020937
594.641324	0.020943
594.851827	0.020902
595.062312	0.020722
595.272778	0.020992
595.483227	0.020669
595.693657	0.021050
595.904069	0.020781
596.114462	0.020522
596.324838	0.020557
596.535195	0.020466
596.745534	0.020704
596.955855	0.021094
597.166157	0.021259
597.376441	0.021166
597.586707	0.020810
597.796955	0.021148
598.007185	0.021227
598.217396	0.021142
598.427589	0.021205
598.637764	0.021302
598.847921	0.021384
599.058060	0.021263
599.268180	0.021801
599.478282	0.022259
599.688366	0.022425
599.898431	0.022568
600.108479	0.022494
600.318508	0.022741
600.528519	0.022556
600.738511	0.022286
600.948486	0.022373
601.158442	0.022127
601.368380	0.021879
601.578300	0.021570
601.788202	0.021321
601.998085	0.021428
602.207950	0.021599
602.417797	0.021320
602.627626	0.021511
602.837436	0.021586
603.047228	0.021759
603.257002	0.021758
603.466758	0.021901
603.676496	0.022124
603.886215	0.021870
604.095916	0.021548
604.305599	0.021945
604.515264	0.021729
604.724910	0.021769
604.934538	0.021766
605.144148	0.021695
605.353740	0.021682
605.563314	0.021994
605.772869	0.022241
605.982406	0.022307
606.191925	0.022436
606.401425	0.022269
606.610908	0.022266
606.820372	0.022616
607.029818	0.022740
607.239246	0.022741
607.448655	0.022558
607.658047	0.022601
607.867420	0.022390
608.076775	0.022260
608.286111	0.022444
608.495430	0.022275
608.704730	0.021861
608.914012	0.021772
609.123275	0.021544
609.332521	0.021429
609.541748	0.021430
609.750957	0.021711
609.960148	0.021811
610.169321	0.021921
610.378475	0.021980
610.587611	0.022197
610.796729	0.022418
611.005829	0.022831
611.214910	0.022920
611.423974	0.023075
611.633019	0.023022
611.842045	0.022877
612.051054	0.022850
612.260044	0.022845
612.469017	0.022801
612.677970	0.022574
612.886906	0.022402
613.095824	0.022375
613.304723	0.022078
613.513604	0.021895
613.722467	0.021751
613.931311	0.021755
614.140138	0.021832
614.348946	0.021579
614.557736	0.021650
614.766507	0.021755
614.975261	0.021501
615.183996	0.021516
615.392713	0.021601
615.601412	0.021831
615.810092	0.021783
616.018754	0.021881
616.227399	0.022031
616.436024	0.021930
616.644632	0.021788
616.853222	0.022113
617.061793	0.022345
617.270346	0.022268
617.478880	0.022136
617.687397	0.022073
617.895895	0.021795
618.104375	0.021717
618.312837	0.021663
618.521281	0.021746
618.729706	0.021413
618.938113	0.021329
619.146502	0.021421
619.354873	0.021369
619.563226	0.021503
619.771560	0.021495
619.979876	0.021773
620.188174	0.021810
620.396453	0.021516
620.604715	0.021871
620.812958	0.021880
621.021183	0.021816
621.229390	0.021784
621.437578	0.021648
621.645748	0.021995
621.853900	0.021813
622.062034	0.021966
622.270150	0.021959
622.478247	0.021903
622.686326	0.021982
622.894387	0.022291
623.102430	0.022521
623.310454	0.022708
623.518461	0.022544
623.726449	0.022481
623.934418	0.022568
624.142370	0.022980
624.350303	0.022957
624.558218	0.022827
624.766115	0.022698
624.973994	0.022844
625.181855	0.022806
625.389697	0.022989
625.597521	0.023195
625.805327	0.023163
626.013114	0.023080
626.220883	0.023275
626.428634	0.023524
626.636367	0.023811
626.844082	0.023736
627.051778	0.023748
627.259457	0.023711
627.467117	0.023770
627.674758	0.023715
627.882382	0.023716
628.089987	0.023610
628.297574	0.023405
628.505143	0.023166
628.712694	0.023215
628.920226	0.022997
629.127740	0.022626
629.335236	0.022309
629.542714	0.022167
629.750174	0.022141
629.957615	0.022024
630.165038	0.022144
630.372443	0.022059
630.579829	0.021923
630.787198	0.022060
630.994548	0.022193
631.201880	0.022076
631.409194	0.022134
631.616489	0.022048
631.823766	0.022216
632.031025	0.021998
632.238266	0.022006
632.445489	0.021871
632.652693	0.021751
632.859879	0.022022
633.067047	0.022293
633.274197	0.022256
633.481329	0.022350
633.688442	0.022407
633.895537	0.022689
634.102614	0.022910
634.309672	0.023110
634.516713	0.023257
634.723735	0.023142
634.930739	0.023109
635.137724	0.023345
635.344692	0.023229
635.551641	0.023201
635.758572	0.023105
635.965485	0.023059
636.172379	0.023016
636.379256	0.023035
636.586114	0.023071
636.792954	0.023254
636.999775	0.023325
637.206579	0.023703
637.413364	0.023650
637.620131	0.023657
637.826880	0.023667
638.033610	0.023708
638.240323	0.023683
638.447017	0.023840
638.653692	0.023835
638.860350	0.023815
639.066990	0.023533
639.273611	0.023731
639.480214	0.023838
639.686798	0.023642
639.893365	0.023650
640.099913	0.023831
640.306443	0.023783
640.512955	0.023792
640.719449	0.023938
640.925924	0.023996
641.132381	0.023932
641.338820	0.023918
641.545241	0.024061
641.751644	0.024038
641.958028	0.024098
642.164394	0.023923
642.370742	0.023963
642.577071	0.023756
642.783383	0.024016
642.989676	0.023878
643.195951	0.023890
643.402207	0.024081
643.608446	0.024390
643.814666	0.024320
644.020868	0.024359
644.227052	0.024259
644.433218	0.024536
644.639365	0.024308
644.845494	0.024203
645.051605	0.024199
645.257698	0.024211
645.463772	0.023914
645.669828	0.023896
645.875866	0.023889
646.081886	0.023916
646.287888	0.023730
646.493871	0.023909
646.699836	0.024185
646.905783	0.023962
647.111712	0.023996
647.317622	0.023987
647.523514	0.024091
647.729388	0.024312
647.935244	0.024298
648.141082	0.024351
648.346901	0.024137
648.552702	0.024138
648.758485	0.024345
648.964250	0.024212
649.169996	0.024205
649.375724	0.024010
649.581434	0.023886
649.787126	0.023758
649.992800	0.023719
650.198455	0.023767
650.404092	0.023543
650.609711	0.023361
650.815311	0.023290
651.020894	0.023482
651.226458	0.023594
651.432004	0.023649
651.637532	0.023773
651.843041	0.023888
652.048532	0.023950
652.254006	0.024061
652.459460	0.024397
652.664897	0.024410
652.870315	0.024398
653.075716	0.024476
653.281097	0.024533
653.486461	0.024596
653.691807	0.024382
653.897134	0.024584
654.102443	0.024749
654.307734	0.024654
654.513006	0.024819
654.718261	0.024839
654.923497	0.024825
655.128715	0.024735
655.333915	0.024864
655.539096	0.024997
655.744259	0.024908
655.949404	0.024898
656.154531	0.024947
656.359640	0.025055
656.564730	0.025220
656.769802	0.025430
656.974856	0.025552
657.179892	0.025629
657.384909	0.025694
657.589908	0.025840
657.794889	0.025990
657.999852	0.026028
658.204797	0.026100
658.409723	0.026026
658.614631	0.025967
658.819521	0.026101
659.024393	0.026171
659.229246	0.026201
659.434081	0.026237
659.638898	0.026028
659.843697	0.026099
660.048478	0.025979
660.253240	0.026037
660.457984	0.025982
660.662710	0.026101
660.867417	0.025979
661.072107	0.025903
661.276778	0.025467
661.481431	0.025667
661.686066	0.025640
661.890682	0.025686
662.095281	0.025504
662.299861	0.025586
662.504422	0.025209
662.708966	0.025206
662.913491	0.025338
663.117999	0.025625
663.322488	0.025437
663.526958	0.025399
663.731411	0.025452
663.935845	0.025548
664.140261	0.025475
664.344659	0.025548
664.549038	0.025419
664.753400	0.025543
664.957743	0.025616
665.162068	0.025764
665.366375	0.025891
665.570663	0.025846
665.774933	0.026083
665.979185	0.026184
666.183419	0.026384
666.387635	0.026707
666.591832	0.026657
666.796011	0.026523
667.000172	0.026550
667.204315	0.026602
667.408439	0.026742
667.612545	0.026720
667.816634	0.026819
668.020703	0.026954
668.224755	0.027005
668.428788	0.027248
668.632803	0.027680
668.836800	0.027836
669.040779	0.027887
669.244739	0.028019
669.448681	0.028034
669.652605	0.028060
669.856511	0.027975
670.060399	0.027955
670.264268	0.027630
670.468119	0.027499
670.671952	0.027529
670.875767	0.027662
671.079563	0.027481
671.283341	0.027497
671.487101	0.027396
671.690843	0.027479
671.894567	0.027495
672.098272	0.027579
672.301959	0.027567
672.505628	0.027556
672.709278	0.027369
672.912911	0.027379
673.116525	0.027394
673.320121	0.027396
673.523699	0.027336
673.727258	0.027182
673.930799	0.027185
674.134322	0.027090
674.337827	0.026824
674.541314	0.026767
674.744782	0.026772
674.948232	0.026728
675.151664	0.026926
675.355078	0.026956
675.558474	0.026973
675.761851	0.027033
675.965210	0.027249
676.168551	0.027639
676.371873	0.027765
676.575178	0.027742
676.778464	0.027820
676.981732	0.027636
677.184981	0.027741
677.388213	0.027994
677.591426	0.028099
677.794621	0.027923
677.997798	0.027802
678.200956	0.027841
678.404097	0.027883
678.607219	0.027936
678.810323	0.027993
679.013408	0.027814
679.216476	0.027730
679.419525	0.027721
679.622556	0.027931
679.825569	0.027914
680.028563	0.027906
680.231540	0.028022
680.434498	0.027906
680.637438	0.028020
680.840359	0.028128
681.043263	0.028199
681.246148	0.028213
681.449015	0.028201
681.651864	0.028276
681.854694	0.028192
682.057506	0.028035
682.260301	0.028072
682.463076	0.027963
682.665834	0.027974
682.868573	0.027913
683.071295	0.027927
683.273998	0.027849
683.476682	0.027796
683.679349	0.027967
683.881997	0.028090
684.084627	0.028041
684.287239	0.027994
684.489833	0.027927
684.692408	0.027920
684.894965	0.027820
685.097504	0.027753
685.300025	0.027890
685.502527	0.027707
685.705012	0.027763
685.907478	0.027892
686.109925	0.028090
686.312355	0.028158
686.514766	0.028218
686.717159	0.028380
686.919534	0.028518
687.121891	0.028526
687.324230	0.028700
687.526550	0.028677
687.728852	0.028608
687.931136	0.028484
688.133401	0.028369
688.335649	0.028361
688.537878	0.028319
688.740089	0.028344
688.942281	0.028287
689.144456	0.028327
689.346612	0.028385
689.548750	0.028472
689.750870	0.028588
689.952971	0.028881
690.155055	0.028968
690.357120	0.029090
690.559167	0.029122
690.761195	0.029163
690.963206	0.029064
691.165198	0.029042
691.367172	0.029167
691.569128	0.029251
691.771065	0.029226
691.972984	0.029233
692.174885	0.029178
692.376768	0.029133
692.578633	0.029071
692.780479	0.029217
692.982308	0.029173
693.184118	0.029032
693.385909	0.028971
693.587683	0.028949
693.789438	0.028784
693.991175	0.028690
694.192894	0.028793
694.394595	0.028887
694.596277	0.028743
694.797941	0.028785
694.999587	0.028799
695.201215	0.028723
695.402824	0.028585
695.604416	0.028764
695.805989	0.028914
696.007543	0.028694
696.209080	0.028664
696.410598	0.028794
696.612099	0.028764
696.813580	0.028710
697.015044	0.028832
697.216490	0.029012
697.417917	0.028985
697.619326	0.028947
697.820717	0.029093
698.022089	0.029041
698.223444	0.029041
698.424780	0.029028
698.626098	0.029173
698.827397	0.029195
699.028679	0.029200
699.229942	0.029243
699.431187	0.029205
699.632414	0.029279
699.833622	0.029251
700.034813	0.029292
700.235985	0.029404
700.437139	0.029454
700.638274	0.029276
700.839392	0.029292
701.040491	0.029354
701.241572	0.029385
701.442635	0.029405
701.643679	0.029418
701.844706	0.029415
702.045714	0.029407
702.246704	0.029336
702.447675	0.029546
702.648629	0.029453
702.849564	0.029403
703.050481	0.029401
703.251380	0.029311
703.452260	0.029473
703.653122	0.029357
703.853966	0.029389
704.054792	0.029384
704.255600	0.029239
704.456389	0.029268
704.657160	0.029320
704.857913	0.029352
705.058648	0.029267
705.259365	0.029049
705.460063	0.029137
705.660743	0.029105
705.861405	0.028988
706.062048	0.028964
706.262674	0.028959
706.463281	0.028846
706.663870	0.028799
706.864441	0.028837
707.064993	0.028952
707.265527	0.028774
707.466043	0.028703
707.666541	0.028966
707.867021	0.029162
708.067482	0.029180
708.267925	0.029234
708.468350	0.029220
708.668757	0.029287
708.869145	0.029378
709.069516	0.029524
709.269868	0.029707
709.470201	0.029486
709.670517	0.029522
709.870814	0.029652
710.071093	0.029560
710.271354	0.029603
710.471597	0.029597
710.671821	0.029490
710.872028	0.029541
711.072216	0.029321
711.272385	0.029311
711.472537	0.029218
711.672670	0.028954
711.872785	0.029022
712.072882	0.029008
712.272961	0.029101
712.473021	0.029080
712.673063	0.028898
712.873087	0.028902
713.073093	0.028790
713.273081	0.028638
713.473050	0.028657
713.673001	0.028566
713.872934	0.028449
714.072849	0.028299
714.272745	0.028394
714.472623	0.028324
714.672483	0.028270
714.872325	0.028259
715.072148	0.028330
715.271954	0.028319
715.471741	0.028313
715.671509	0.028320
715.871260	0.028350
716.070992	0.028348
716.270707	0.028456
716.470403	0.028470
716.670080	0.028396
716.869740	0.028482
717.069381	0.028528
717.269004	0.028429
717.468609	0.028366
717.668195	0.028086
717.867764	0.027870
718.067314	0.027783
718.266846	0.027715
718.466360	0.027788
718.665855	0.027504
718.865332	0.027464
719.064791	0.027513
719.264232	0.027475
719.463655	0.027427
719.663059	0.027445
719.862445	0.027369
720.061813	0.027406
720.261163	0.027368
720.460494	0.027367
720.659807	0.027265
720.859102	0.027147
721.058379	0.026982
721.257638	0.027048
721.456878	0.026798
721.656100	0.026871
721.855304	0.026728
722.054490	0.026624
722.253657	0.026709
722.452806	0.026680
722.651937	0.026717
722.851050	0.026890
723.050145	0.026997
723.249221	0.027397
723.448279	0.027385
723.647319	0.027528
723.846340	0.027608
724.045344	0.027535
724.244329	0.027604
724.443296	0.027655
724.642245	0.027646
724.841175	0.027485
725.040088	0.027254
725.238982	0.027168
725.437857	0.027039
725.636715	0.026937
725.835554	0.026899
726.034376	0.026686
726.233179	0.026414
726.431963	0.026240
726.630730	0.026235
726.829478	0.026011
727.028208	0.025753
727.226920	0.025697
727.425614	0.025654
727.624289	0.025568
727.822946	0.025473
728.021585	0.025576
728.220206	0.025697
728.418808	0.025636
728.617392	0.025981
728.815958	0.026253
729.014506	0.026353
729.213036	0.026238
729.411547	0.026282
729.610040	0.026522
729.808515	0.026469
730.006972	0.026445
730.205410	0.026505
730.403831	0.026211
730.602233	0.026230
730.800616	0.026107
730.998982	0.026294
731.197329	0.026239
731.395658	0.026104
731.593969	0.026218
731.792262	0.026043
731.990536	0.026103
732.188793	0.026122
732.387031	0.026009
732.585250	0.026023
732.783452	0.025987
732.981635	0.025804
733.179800	0.025802
733.377947	0.025510
733.576076	0.025504
733.774186	0.025165
733.972278	0.025131
734.170352	0.024933
734.368408	0.024979
734.566446	0.024686
734.764465	0.024759
734.962466	0.024732
735.160449	0.024715
735.358413	0.024845
735.556360	0.024926
735.754288	0.024881
735.952198	0.024925
736.150090	0.024745
736.347963	0.024834
736.545818	0.024950
736.743655	0.024802
736.941474	0.025016
737.139275	0.025079
737.337057	0.025124
737.534821	0.025216
737.732567	0.025415
737.930295	0.025416
738.128005	0.025479
738.325696	0.025457
738.523369	0.025601
738.721024	0.025511
738.918660	0.025442
739.116279	0.025405
739.313879	0.025302
739.511461	0.025197
739.709024	0.025260
739.906570	0.025359
740.104097	0.025386
740.301606	0.025371
740.499097	0.025235
740.696569	0.025076
740.894024	0.025123
741.091460	0.025156
741.288878	0.024950
741.486277	0.024875
741.683659	0.024760
741.881022	0.024676
742.078367	0.024493
742.275694	0.024411
742.473002	0.024394
742.670293	0.024368
742.867565	0.024331
743.064819	0.024527
743.262054	0.024528
743.459272	0.024663
743.656471	0.024571
743.853652	0.024694
744.050815	0.024898
744.247959	0.025089
744.445085	0.025169
744.642194	0.025327
744.839283	0.025247
745.036355	0.025222
745.233408	0.025229
745.430444	0.025504
745.627461	0.025461
745.824459	0.025322
746.021440	0.025272
746.218402	0.025278
746.415346	0.025020
746.612272	0.025013
746.809180	0.025022
747.006069	0.024682
747.202940	0.024335
747.399793	0.024306
747.596628	0.024306
747.793444	0.024124
747.990243	0.024136
748.187023	0.024177
748.383784	0.024150
748.580528	0.024173
748.777253	0.024208
748.973960	0.024137
749.170649	0.024099
749.367320	0.024215
749.563973	0.024208
749.760607	0.024246
749.957223	0.024266
750.153821	0.024191
750.350400	0.024077
750.546962	0.024227
750.743505	0.024137
750.940030	0.024353
751.136536	0.024251
751.333025	0.024251
751.529495	0.024055
751.725947	0.024173
751.922381	0.024139
752.118796	0.024289
752.315194	0.024303
752.511573	0.024584
752.707934	0.024497
752.904276	0.024578
753.100601	0.024611
753.296907	0.024724
753.493195	0.024672
753.689465	0.024754
753.885716	0.024793
754.081949	0.024841
754.278164	0.024945
754.474361	0.024965
754.670540	0.024657
754.866700	0.024789
755.062843	0.024780
755.258967	0.024720
755.455072	0.024633
755.651160	0.024437
755.847229	0.024356
756.043280	0.024122
756.239313	0.023933
756.435328	0.024205
756.631324	0.023821
756.827302	0.023797
757.023262	0.023730
757.219204	0.023858
757.415127	0.023871
757.611033	0.023804
757.806920	0.023589
758.002788	0.023680
758.198639	0.023490
758.394471	0.023657
758.590286	0.023601
758.786081	0.023529
758.981859	0.023585
759.177619	0.023497
759.373360	0.023565
759.569083	0.023865
759.764788	0.023905
759.960474	0.023918
760.156143	0.023995
760.351793	0.023924
760.547425	0.024030
760.743038	0.023844
760.938634	0.023813
761.134211	0.023771
761.329770	0.023651
761.525311	0.023416
761.720833	0.023490
761.916338	0.023475
762.111824	0.023725
762.307292	0.023780
762.502741	0.023851
762.698173	0.024082
762.893586	0.024128
763.088981	0.024261
763.284358	0.024410
763.479716	0.024671
763.675057	0.024763
763.870379	0.024783
764.065683	0.024853
764.260968	0.024959
764.456236	0.024717
764.651485	0.024717
764.846716	0.024573
765.041929	0.024464
765.237123	0.024253
765.432299	0.024067
765.627457	0.023997
765.822597	0.023645
766.017719	0.023547
766.212822	0.023643
766.407907	0.023748
766.602974	0.023889
766.798023	0.024154
766.993054	0.024195
767.188066	0.024355
767.383060	0.024185
767.578036	0.024457
767.772993	0.024552
767.967933	0.024824
768.162854	0.024570
768.357757	0.024650
768.552642	0.024417
768.747508	0.024452
768.942356	0.024482
769.137186	0.024652
769.331998	0.024600
769.526792	0.024613
769.721567	0.024541
769.916324	0.024679
770.111063	0.024693
770.305784	0.025013
770.500486	0.024905
770.695171	0.024954
770.889837	0.025061
771.084484	0.025296
771.279114	0.025366
771.473725	0.025229
771.668318	0.025380
771.862893	0.025278
772.057450	0.025035
772.251988	0.025016
772.446509	0.024893
772.641011	0.024754
772.835494	0.024604
773.029960	0.024612
773.224407	0.024781
773.418836	0.024787
773.613247	0.024867
773.807640	0.025094
774.002014	0.025127
774.196370	0.025138
774.390708	0.025159
774.585028	0.025123
774.779330	0.024877
774.973613	0.024701
775.167878	0.024637
775.362125	0.024576
775.556354	0.024388
775.750564	0.024241
775.944756	0.024131
776.138930	0.024115
776.333086	0.024096
776.527223	0.024083
776.721343	0.024054
776.915444	0.023962
777.109526	0.023863
777.303591	0.023801
777.497637	0.023876
777.691666	0.024034
777.885676	0.023865
778.079667	0.023691
778.273641	0.023561
778.467596	0.023507
778.661533	0.023469
778.855452	0.023513
779.049352	0.023454
779.243235	0.023557
779.437099	0.023320
779.630945	0.023305
779.824773	0.023404
780.018582	0.023391
780.212373	0.023435
780.406146	0.023487
780.599901	0.023540
780.793638	0.023649
780.987356	0.023560
781.181056	0.023743
781.374738	0.023774
781.568402	0.023874
781.762047	0.024056
781.955674	0.024049
782.149283	0.024182
782.342874	0.024037
782.536447	0.024109
782.730001	0.024309
782.923537	0.024252
783.117055	0.024345
783.310555	0.024368
783.504036	0.024431
783.697499	0.024480
783.890944	0.024293
784.084371	0.024364
784.277780	0.024560
784.471170	0.024511
784.664542	0.024498
784.857896	0.024431
785.051231	0.024418
785.244549	0.024387
785.437848	0.024375
785.631129	0.024461
785.824392	0.024494
786.017636	0.024245
786.210863	0.024376
786.404071	0.024492
786.597260	0.024395
786.790432	0.024461
786.983585	0.024561
787.176721	0.024756
787.369838	0.024893
787.562936	0.025113
787.756017	0.025190
787.949079	0.025338
788.142123	0.025337
788.335149	0.025753
788.528156	0.025800
788.721146	0.025807
788.914117	0.025713
789.107070	0.025714
789.300005	0.025648
789.492921	0.025683
789.685819	0.025405
789.878699	0.025627
790.071561	0.025327
790.264405	0.025302
790.457230	0.025107
790.650037	0.025562
790.842826	0.025522
791.035597	0.025573
791.228349	0.025501
791.421084	0.025629
791.613800	0.025722
791.806497	0.025941
791.999177	0.025948
792.191838	0.026200
792.384481	0.025846
792.577106	0.025720
792.769713	0.025723
792.962301	0.025837
793.154871	0.025784
793.347423	0.025477
793.539957	0.025351
793.732473	0.025333
793.924970	0.025466
794.117449	0.025460
794.309910	0.025470
794.502353	0.025404
794.694777	0.025449
794.887183	0.025489
795.079571	0.025752
795.271941	0.025849
795.464293	0.025960
795.656626	0.025930
795.848941	0.025977
796.041238	0.026006
796.233516	0.025850
796.425777	0.025784
796.618019	0.025877
796.810243	0.025666
797.002449	0.025584
797.194636	0.025569
797.386805	0.025569
797.578956	0.025549
797.771089	0.025755
797.963204	0.026036
798.155300	0.026251
798.347378	0.026158
798.539438	0.026093
798.731480	0.026270
798.923503	0.026279
799.115509	0.026227
799.307496	0.026298
799.499465	0.026304
799.691415	0.026073
799.883348	0.026102
800.075262	0.026236
800.267158	0.026549
800.459035	0.026521
800.650895	0.026617
800.842736	0.026576
801.034559	0.026532
801.226364	0.026390
801.418150	0.026607
801.609919	0.026535
801.801669	0.026464
801.993401	0.026274
802.185114	0.026283
802.376810	0.026162
802.568487	0.026149
802.760146	0.026208
802.951787	0.026343
803.143409	0.026312
803.335014	0.026351
803.526600	0.026392
803.718168	0.026316
803.909717	0.026313
804.101249	0.026690
804.292762	0.026732
804.484257	0.026745
804.675734	0.026628
804.867192	0.026554
805.058632	0.026445
805.250054	0.026454
805.441458	0.026665
805.632844	0.026762
805.824211	0.026556
806.015561	0.026656
806.206891	0.026796
806.398204	0.026904
806.589499	0.027103
806.780775	0.027099
806.972033	0.027145
807.163273	0.027047
807.354495	0.027164
807.545698	0.027111
807.736883	0.027329
807.928050	0.027386
808.119199	0.027500
808.310329	0.027423
808.501441	0.027428
808.692535	0.027424
808.883611	0.027499
809.074669	0.027398
809.265708	0.027549
809.456729	0.027549
809.647732	0.027385
809.838717	0.027388
810.029683	0.027471
810.220632	0.027745
810.411562	0.027843
810.602474	0.027754
810.793367	0.027977
810.984242	0.028035
811.175100	0.028147
811.365938	0.028307
811.556759	0.028517
811.747562	0.028632
811.938346	0.028406
812.129112	0.028570
812.319860	0.028902
812.510589	0.028968
812.701300	0.029021
812.891994	0.028905
813.082668	0.029008
813.273325	0.028985
813.463964	0.029026
813.654584	0.029417
813.845186	0.029262
814.035769	0.029378
814.226335	0.029140
814.416882	0.029105
814.607411	0.029106
814.797922	0.028973
814.988415	0.028940
815.178889	0.028974
815.369345	0.028973
815.559783	0.029046
815.750203	0.028876
815.940605	0.029037
816.130988	0.029262
816.321353	0.029343
816.511700	0.029391
816.702028	0.029486
816.892339	0.029663
817.082631	0.029736
817.272905	0.029742
817.463161	0.029692
817.653398	0.029830
817.843617	0.029710
818.033819	0.029850
818.224001	0.029863
818.414166	0.029966
818.604312	0.029992
818.794440	0.029868
818.984550	0.030079
819.174642	0.030283
819.364716	0.030217
819.554771	0.030273
819.744808	0.030267
819.934827	0.030482
820.124827	0.030373
820.314810	0.030344
820.504774	0.030464
820.694720	0.030556
820.884647	0.030685
821.074557	0.030639
821.264448	0.030772
821.454321	0.030629
821.644176	0.030671
821.834012	0.030640
822.023831	0.030699
822.213631	0.030718
822.403413	0.030628
822.593176	0.030598
822.782922	0.030755
822.972649	0.030676
823.162358	0.030951
823.352049	0.030990
823.541721	0.031079
823.731376	0.031074
823.921012	0.031081
824.110629	0.030864
824.300229	0.030855
824.489811	0.030809
824.679374	0.030881
824.868919	0.030949
825.058445	0.031011
825.247954	0.030953
825.437444	0.031047
825.626916	0.031151
825.816370	0.031571
826.005806	0.031550
826.195223	0.031911
826.384622	0.031904
826.574003	0.032014
826.763366	0.032105
826.952711	0.032192
827.142037	0.032339
827.331345	0.032429
827.520635	0.032339
827.709906	0.032411
827.899160	0.032200
828.088395	0.032416
828.277612	0.032269
828.466810	0.032245
828.655991	0.032477
828.845153	0.032305
829.034297	0.032095
829.223423	0.032216
829.412531	0.032303
829.601620	0.032346
829.790691	0.032089
829.979744	0.032138
830.168779	0.032039
830.357795	0.032093
830.546793	0.031921
830.735773	0.031950
830.924735	0.031858
831.113679	0.031780
831.302604	0.031669
831.491511	0.031783
831.680400	0.031861
831.869271	0.031754
832.058123	0.031593
832.246957	0.031819
832.435773	0.031898
832.624571	0.031857
832.813351	0.032087
833.002112	0.032098
833.190855	0.032052
833.379580	0.032110
833.568287	0.032460
833.756975	0.032591
833.945645	0.032659
834.134297	0.032759
834.322931	0.033207
834.511547	0.033387
834.700144	0.033634
834.888723	0.033781
835.077284	0.033646
835.265826	0.033366
835.454351	0.033301
835.642857	0.033365
835.831345	0.033493
836.019815	0.033225
836.208266	0.033023
836.396699	0.032909
836.585114	0.032674
836.773511	0.032874
836.961890	0.032936
837.150250	0.033031
837.338592	0.032936
837.526916	0.032842
837.715222	0.032892
837.903510	0.032867
838.091779	0.032966
838.280030	0.033222
838.468263	0.033100
838.656477	0.033328
838.844674	0.033432
839.032852	0.033458
839.221012	0.033572
839.409153	0.033654
839.597277	0.033681
839.785382	0.033809
839.973469	0.033770
840.161538	0.034073
840.349589	0.034045
840.537621	0.034030
840.725635	0.034198
840.913631	0.034169
841.101609	0.034179
841.289568	0.034389
841.477509	0.034484
841.665432	0.034696
841.853337	0.034829
842.041224	0.034799
842.229092	0.035077
842.416942	0.035067
842.604774	0.035268
842.792588	0.035250
842.980383	0.035298
843.168160	0.035358
843.355919	0.035494
843.543660	0.035284
843.731382	0.035426
843.919087	0.035472
844.106773	0.035676
844.294441	0.035602
844.482090	0.035761
844.669722	0.035708
844.857335	0.035683
845.044930	0.035550
845.232507	0.035695
845.420065	0.035886
845.607605	0.035801
845.795127	0.035969
845.982631	0.036194
846.170117	0.036584
846.357584	0.036834
846.545033	0.037097
846.732464	0.037273
846.919877	0.037452
847.107272	0.037723
847.294648	0.037919
847.482006	0.037939
847.669346	0.038209
847.856667	0.038135
848.043971	0.038589
848.231256	0.038591
848.418523	0.038971
848.605771	0.038865
848.793002	0.038630
848.980214	0.038822
849.167408	0.038763
849.354584	0.038649
849.541742	0.038708
849.728881	0.038264
849.916002	0.038268
850.103105	0.038372
850.290190	0.038629
850.477256	0.038932
850.664304	0.038757
850.851334	0.038800
851.038346	0.038940
851.225340	0.038904
851.412315	0.039415
851.599272	0.039815
851.786211	0.039714
851.973132	0.039724
852.160034	0.039663
852.346918	0.039839
852.533784	0.039968
852.720632	0.039945
852.907462	0.040071
853.094273	0.039823
853.281066	0.039536
853.467841	0.039287
853.654598	0.039228
853.841336	0.039461
854.028056	0.039324
854.214758	0.039629
854.401442	0.039744
854.588107	0.039814
854.774755	0.039840
854.961384	0.039894
855.147995	0.040177
855.334587	0.040418
855.521162	0.040305
855.707718	0.040747
855.894256	0.040725
856.080775	0.040784
856.267277	0.040696
856.453760	0.040880
856.640225	0.041056
856.826672	0.041093
857.013101	0.041066
857.199511	0.041545
857.385903	0.041453
857.572277	0.041897
857.758633	0.042065
857.944970	0.042173
858.131290	0.042293
858.317591	0.042374
858.503873	0.042698
858.690138	0.043069
858.876384	0.042864
859.062612	0.042794
859.248822	0.042623
859.435014	0.042770
859.621188	0.043216
859.807343	0.043265
859.993480	0.043720
860.179599	0.043698
860.365699	0.043241
860.551781	0.043263
860.737846	0.043445
860.923891	0.043187
861.109919	0.042998
861.295929	0.042962
861.481920	0.043141
861.667893	0.042832
861.853848	0.042869
862.039784	0.043193
862.225702	0.043308
862.411603	0.043570
862.597484	0.043940
862.783348	0.044104
862.969193	0.044020
863.155021	0.043774
863.340830	0.044194
863.526620	0.044312
863.712393	0.044323
863.898147	0.044505
864.083883	0.044520
864.269601	0.044515
864.455301	0.044521
864.640982	0.044188
864.826645	0.044429
865.012290	0.044315
865.197917	0.044148
865.383526	0.044371
865.569116	0.044243
865.754688	0.044439
865.940242	0.044320
866.125777	0.044389
866.311295	0.044773
866.496794	0.044930
866.682275	0.044993
866.867737	0.045086
867.053182	0.045133
867.238608	0.045285
867.424016	0.045273
867.609406	0.045798
867.794778	0.046000
867.980131	0.046167
868.165466	0.046207
868.350783	0.046389
868.536082	0.046780
868.721362	0.046851
868.906625	0.047229
869.091869	0.047445
869.277094	0.047620
869.462302	0.047797
869.647491	0.048102
869.832662	0.048001
870.017815	0.047550
870.202950	0.047614
870.388066	0.047673
870.573165	0.047782
870.758245	0.047377
870.943306	0.046946
871.128350	0.047095
871.313375	0.047019
871.498382	0.047061
871.683371	0.047278
871.868342	0.047338
872.053294	0.047369
872.238229	0.047063
872.423144	0.047538
872.608042	0.047656
872.792922	0.047651
872.977783	0.047848
873.162626	0.047972
873.347451	0.047830
873.532258	0.047625
873.717046	0.047659
873.901816	0.047741
874.086568	0.047523
874.271302	0.047378
874.456017	0.047272
874.640715	0.047104
874.825394	0.047173
875.010055	0.047509
875.194697	0.047722
875.379322	0.047998
875.563928	0.047920
875.748516	0.048044
875.933085	0.047854
876.117637	0.047807
876.302170	0.047667
876.486685	0.047590
876.671182	0.047552
876.855661	0.046828
877.040121	0.046355
877.224563	0.046134
877.408987	0.045947
877.593393	0.045881
877.777780	0.045931
877.962150	0.046130
878.146501	0.046146
878.330833	0.046187
878.515148	0.046964
878.699444	0.046995
878.883722	0.047231
879.067982	0.047192
879.252224	0.047766
879.436447	0.047774
879.620653	0.047572
879.804840	0.047816
879.989008	0.047891
880.173159	0.047593
880.357291	0.047818
880.541405	0.047972
880.725501	0.048117
880.909579	0.048172
881.093638	0.048044
881.277680	0.048335
881.461703	0.048165
881.645707	0.048234
881.829694	0.048603
882.013662	0.048584
882.197612	0.048725
882.381544	0.048841
882.565458	0.048703
882.749353	0.048971
882.933230	0.049042
883.117089	0.049248
883.300930	0.049149
883.484753	0.049108
883.668557	0.049150
883.852343	0.049192
884.036111	0.049353
884.219861	0.049471
884.403592	0.049531
884.587305	0.049557
884.771000	0.049376
884.954677	0.049496
885.138335	0.049324
885.321976	0.049710
885.505598	0.049544
885.689201	0.049364
885.872787	0.049485
886.056354	0.049680
886.239904	0.049547
886.423434	0.049647
886.606947	0.049813
886.790442	0.050067
886.973918	0.049913
887.157376	0.050102
887.340816	0.050264
887.524237	0.050058
887.707641	0.049621
887.891026	0.049747
888.074393	0.049833
888.257741	0.049578
888.441072	0.049423
888.624384	0.049217
888.807678	0.049143
888.990954	0.049509
889.174211	0.049532
889.357451	0.049448
889.540672	0.049346
889.723875	0.049221
889.907059	0.049262
890.090226	0.049509
890.273374	0.049615
890.456504	0.049510
890.639616	0.048836
890.822709	0.048982
891.005785	0.049413
891.188842	0.049375
891.371881	0.049297
891.554901	0.049332
891.737904	0.049113
891.920888	0.049294
892.103854	0.049370
892.286802	0.049657
892.469731	0.049766
892.652643	0.049380
892.835536	0.049562
893.018410	0.049841
893.201267	0.049586
893.384106	0.049710
893.566926	0.049563
893.749728	0.049616
893.932511	0.049463
894.115277	0.048960
894.298024	0.048915
894.480753	0.048528
894.663464	0.048459
894.846157	0.048540
895.028831	0.048233
895.211487	0.048123
895.394125	0.047842
895.576745	0.047968
895.759346	0.048218
895.941930	0.048409
896.124495	0.048929
896.307041	0.048992
896.489570	0.049455
896.672080	0.049870
896.854573	0.050000
897.037046	0.050317
897.219502	0.050561
897.401940	0.050409
897.584359	0.050401
897.766760	0.050216
897.949143	0.049876
898.131507	0.049516
898.313854	0.049451
898.496182	0.049197
898.678492	0.049054
898.860783	0.048511
899.043057	0.048743
899.225312	0.048722
899.407549	0.048581
899.589768	0.048758
899.771968	0.048440
899.954151	0.047990
900.136315	0.048249
900.318461	0.048154
900.500588	0.048354
900.682698	0.048153
900.864789	0.048029
901.046862	0.047841
901.228917	0.047506
901.410953	0.047629
901.592971	0.047428
901.774972	0.046805
901.956953	0.046881
902.138917	0.046748
902.320862	0.046541
902.502790	0.046564
902.684699	0.046324
902.866589	0.046461
903.048462	0.046129
903.230316	0.046383
903.412152	0.046662
903.593970	0.046612
903.775770	0.046670
903.957551	0.046781
904.139314	0.046265
904.321059	0.046318
904.502786	0.046539
904.684494	0.046960
904.866185	0.046832
905.047857	0.046451
905.229510	0.046076
905.411146	0.045768
905.592763	0.045500
905.774363	0.045745
905.955943	0.045652
906.137506	0.045300
906.319051	0.044711
906.500577	0.044607
906.682085	0.044897
906.863575	0.044912
907.045046	0.044483
907.226500	0.044525
907.407935	0.044437
907.589352	0.044367
907.770750	0.044176
907.952131	0.044164
908.133493	0.043892
908.314837	0.043649
908.496163	0.043266
908.677470	0.043855
908.858760	0.043595
909.040031	0.043513
909.221284	0.043551
909.402518	0.043479
909.583735	0.043796
909.764933	0.043717
909.946113	0.043750
910.127275	0.044098
910.308418	0.043531
910.489544	0.043738
910.670651	0.043723
910.851740	0.043081
911.032810	0.043163
911.213863	0.042892
911.394897	0.042981
911.575913	0.043251
911.756911	0.043064
911.937890	0.043330
912.118851	0.043010
912.299794	0.043107
912.480719	0.043673
912.661626	0.043368
912.842514	0.043430
913.023384	0.043570
913.204236	0.043187
913.385070	0.043106
913.565886	0.042828
913.746683	0.043027
913.927462	0.042647
914.108223	0.042612
914.288965	0.043091
914.469690	0.042730
914.650396	0.042507
914.831084	0.041968
915.011754	0.041616
915.192405	0.041873
915.373038	0.041475
915.553653	0.041209
915.734250	0.041064
915.914829	0.040443
916.095389	0.040470
916.275931	0.040276
916.456455	0.040442
916.636961	0.040501
916.817448	0.040462
916.997917	0.040352
917.178368	0.040295
917.358801	0.040123
917.539216	0.040055
917.719612	0.040026
917.899990	0.039907
918.080350	0.039689
918.260692	0.039060
918.441015	0.038380
918.621320	0.038049
918.801607	0.038008
918.981876	0.037586
919.162127	0.037103
919.342359	0.036579
919.522573	0.036150
919.702769	0.036196
919.882947	0.036444
920.063106	0.036231
920.243247	0.036387
920.423370	0.036120
920.603475	0.036095
920.783562	0.035734
920.963630	0.035732
921.143680	0.035584
921.323712	0.035148
921.503725	0.034778
921.683721	0.034722
921.863698	0.034792
922.043657	0.034772
922.223598	0.034600
922.403520	0.034984
922.583424	0.034686
922.763311	0.034622
922.943178	0.034610
923.123028	0.034267
923.302859	0.033856
923.482673	0.033315
923.662467	0.033177
923.842244	0.033028
924.022003	0.032735
924.201743	0.032915
924.381465	0.032547
924.561169	0.032181
924.740854	0.032773
924.920522	0.033082
925.100171	0.033167
925.279802	0.032768
925.459414	0.032169
925.639009	0.031968
925.818585	0.031602
925.998143	0.031730
926.177683	0.031398
926.357205	0.031051
926.536708	0.030559
926.716193	0.030224
926.895660	0.029792
927.075109	0.029964
927.254539	0.029866
927.433951	0.029102
927.613345	0.028536
927.792721	0.028661
927.972079	0.027770
928.151418	0.027381
928.330739	0.027114
928.510042	0.027384
928.689327	0.026934
928.868593	0.026526
929.047841	0.027393
929.227071	0.027535
929.406283	0.027303
929.585476	0.027924
929.764652	0.028268
929.943809	0.027997
930.122948	0.027709
930.302068	0.027507
930.481171	0.027103
930.660255	0.026238
930.839321	0.026144
931.018369	0.025190
931.197398	0.024056
931.376409	0.023218
931.555402	0.023056
931.734377	0.022683
931.913334	0.021966
932.092272	0.021270
932.271192	0.021626
932.450094	0.021199
932.628978	0.021719
932.807844	0.022205
932.986691	0.022674
933.165520	0.022550
933.344331	0.022705
933.523123	0.023373
933.701898	0.023548
933.880654	0.022539
934.059392	0.022360
934.238111	0.021605
934.416813	0.020488
934.595496	0.019517
934.774161	0.018784
934.952808	0.017912
935.131437	0.017287
935.310047	0.017309
935.488639	0.017547
935.667213	0.017117
935.845769	0.017134
936.024306	0.017332
936.202825	0.017117
936.381326	0.016474
936.559809	0.016506
936.738274	0.016207
936.916720	0.015892
937.095148	0.015397
937.273558	0.015318
937.451950	0.015108
937.630323	0.015195
937.808678	0.015495
937.987015	0.016251
938.165334	0.015452
938.343635	0.015183
938.521917	0.015685
938.700181	0.015503
938.878427	0.015190
939.056655	0.015474
939.234864	0.015603
939.413055	0.015036
939.591228	0.014316
939.769383	0.014963
939.947519	0.015045
940.125638	0.014507
940.303738	0.014447
940.481820	0.013409
940.659883	0.012555
940.837929	0.011204
941.015956	0.010525
941.193965	0.011227
941.371955	0.010103
941.549928	0.009554
941.727882	0.008089
941.905818	0.007254
942.083736	0.008140
942.261636	0.007035
942.439517	0.006681
942.617380	0.006834
942.795225	0.005451
942.973052	0.005570
943.150860	0.005027
943.328651	0.005782
943.506423	0.005206
943.684176	0.004252
943.861912	0.005287
944.039629	0.005822
944.217328	0.005537
944.395009	0.005276
944.572672	0.005059
944.750317	0.006238
944.927943	0.005655
945.105551	0.004869
945.283141	0.003671
945.460712	0.002906
945.638265	0.002847
945.815801	0.002037
945.993317	0.001731
946.170816	0.001779
946.348297	0.000929
946.525759	0.000076
946.703203	0.001246
946.880629	0.002362
947.058036	0.002459
947.235425	0.002851
947.412797	0.002847
947.590149	0.003918
947.767484	0.003340
947.944800	0.002600
948.122099	0.003790
948.299379	0.002987
948.476640	0.002797
948.653884	0.003509
948.831109	0.001806
949.008316	0.002501
949.185505	0.002579
949.362676	0.003357
949.539828	0.003761
949.716962	0.002616
949.894078	0.003739
950.071176	0.003096
950.248256	0.001425
950.425317	0.002654
950.602360	0.001922
950.779385	0.000514
950.956391	0.000274
951.133380	0.000169
951.310350	0.000877
951.487302	-0.000568
951.664235	0.000621
951.841151	0.000580
952.018048	0.000589
952.194927	0.000431
952.371788	0.001193
952.548631	0.001529
952.725455	0.001949
952.902261	0.002740
953.079049	0.004385
953.255819	0.003497
953.432570	0.003756
953.609303	0.002741
953.786018	0.003041
953.962715	0.002709
954.139394	0.001716
954.316054	0.001574
954.492696	0.001465
954.669320	0.001136
954.845926	0.001148
955.022513	0.002920
955.199083	0.004529
955.375634	0.005390
955.552166	0.005044
955.728681	0.005890
955.905177	0.004806
956.081655	0.004242
956.258115	0.003123
956.434557	0.004218
956.610980	0.003889
956.787385	0.002541
956.963772	0.002026
957.140141	0.002422
957.316492	0.003019
957.492824	0.003609
957.669138	0.004039
957.845434	0.004581
958.021712	0.004823
958.197971	0.005119
958.374212	0.004647
958.550435	0.005479
958.726640	0.005174
958.902826	0.006374
959.078995	0.007294
959.255145	0.008485
959.431277	0.009454
959.607390	0.009109
959.783486	0.008795
959.959563	0.009749
960.135622	0.008590
960.311662	0.009625
960.487685	0.006852
960.663689	0.007665
960.839675	0.006527
961.015643	0.003933
961.191593	0.004541
961.367524	0.004460
961.543437	0.005552
961.719332	0.007505
961.895209	0.006109
962.071067	0.008177
962.246907	0.007669
962.422730	0.008011
962.598533	0.009117
962.774319	0.007850
962.950086	0.008135
963.125835	0.006649
963.301566	0.004672
963.477279	0.005696
963.652973	0.003979
963.828650	0.003606
964.004308	0.003033
964.179947	0.004830
964.355569	0.006294
964.531172	0.008480
964.706757	0.009184
964.882324	0.011397
965.057873	0.011909
965.233403	0.012350
965.408916	0.011608
965.584410	0.010478
965.759885	0.010262
965.935343	0.008926
966.110782	0.008390
966.286203	0.009392
966.461606	0.006998
966.636991	0.008027
966.812357	0.008252
966.987705	0.008512
967.163035	0.010650
967.338347	0.010526
967.513641	0.013368
967.688916	0.012639
967.864173	0.012404
968.039412	0.013541
968.214632	0.013036
968.389835	0.013560
968.565019	0.016133
968.740185	0.016884
968.915333	0.016453
969.090462	0.014293
969.265573	0.014025
969.440667	0.015065
969.615741	0.018165
969.790798	0.018707
969.965836	0.018651
970.140856	0.017655
970.315858	0.016641
970.490842	0.016761
970.665808	0.017169
970.840755	0.016214
971.015684	0.015287
971.190595	0.012100
971.365487	0.012425
971.540362	0.012508
971.715218	0.012723
971.890056	0.011651
972.064875	0.012809
972.239677	0.014268
972.414460	0.015218
972.589225	0.015762
972.763972	0.014811
972.938700	0.013793
973.113411	0.014385
973.288103	0.013064
973.462777	0.014153
973.637432	0.012946
973.812070	0.012858
973.986689	0.013219
974.161290	0.012154
974.335873	0.013883
974.510437	0.014132
974.684984	0.014138
974.859512	0.015237
975.034022	0.014296
975.208513	0.014808
975.382987	0.013726
975.557442	0.015609
975.731879	0.017093
975.906298	0.016890
976.080698	0.014976
976.255080	0.014089
976.429445	0.014716
976.603790	0.015111
976.778118	0.014588
976.952427	0.015132
977.126719	0.012760
977.300992	0.012806
977.475246	0.013775
977.649483	0.015555
977.823701	0.014244
977.997901	0.013561
978.172083	0.017086
978.346247	0.017917
978.520392	0.017957
978.694519	0.017481
978.868628	0.017147
979.042719	0.016170
979.216791	0.015355
979.390845	0.017805
979.564882	0.019054
979.738899	0.014872
979.912899	0.014693
980.086880	0.014460
980.260843	0.015673
980.434788	0.013485
980.608715	0.012037
980.782623	0.012747
980.956514	0.013345
981.130386	0.010753
981.304240	0.012234
981.478075	0.011855
981.651892	0.011659
981.825692	0.011316
981.999472	0.012760
982.173235	0.013479
982.346980	0.012736
982.520706	0.011589
982.694414	0.013650
982.868104	0.014386
983.041775	0.014364
983.215428	0.015729
983.389064	0.016428
983.562680	0.016609
983.736279	0.017500
983.909860	0.019957
984.083422	0.020598
984.256966	0.019103
984.430491	0.019171
984.603999	0.020160
984.777488	0.019817
984.950959	0.020329
985.124412	0.019165
985.297847	0.019962
985.471263	0.018446
985.644661	0.018784
985.818041	0.019671
985.991403	0.019236
986.164747	0.018951
986.338072	0.018557
986.511379	0.017363
986.684668	0.018985
986.857938	0.017647
987.031191	0.015863
987.204425	0.014317
987.377641	0.013772
987.550839	0.013812
987.724018	0.013019
987.897179	0.013114
988.070322	0.012519
988.243447	0.010938
988.416554	0.011730
988.589642	0.014900
988.762712	0.015201
988.935764	0.015981
989.108798	0.015266
989.281813	0.014566
989.454811	0.013516
989.627790	0.013232
989.800751	0.013832
989.973693	0.015111
990.146617	0.013507
990.319524	0.014463
990.492412	0.013699
990.665281	0.013497
990.838133	0.014500
991.010966	0.015201
991.183781	0.014702
991.356578	0.014780
991.529356	0.013509
991.702117	0.013397
991.874859	0.013041
992.047583	0.013200
992.220288	0.012902
992.392976	0.011824
992.565645	0.010731
992.738296	0.011069
992.910929	0.012153
993.083543	0.011408
993.256139	0.010870
993.428718	0.009541
993.601277	0.009890
993.773819	0.012549
993.946342	0.014473
994.118848	0.014146
994.291335	0.014175
994.463803	0.014004
994.636254	0.014983
994.808686	0.015228
994.981100	0.017084
995.153496	0.017812
995.325874	0.016718
995.498233	0.016781
995.670574	0.018325
995.842897	0.018591
996.015202	0.017986
996.187488	0.017779
996.359757	0.018029
996.532007	0.016365
996.704239	0.014998
996.876452	0.013200
997.048648	0.013018
997.220825	0.012287
997.392984	0.012098
997.565124	0.011531
997.737247	0.010115
997.909351	0.010632
998.081437	0.010850
998.253505	0.011725
998.425554	0.013161
998.597586	0.012204
998.769599	0.011100
998.941594	0.012975
999.113571	0.014723
999.285529	0.015761
999.457469	0.015080
999.629391	0.015933
999.801295	0.014945
999.973181	0.014557
1000.145048	0.015845
1000.316897	0.015890
1000.488728	0.015736
1000.660541	0.015125
1000.832335	0.015364
1001.004111	0.015523
1001.175869	0.015081
1001.347609	0.015981
1001.519331	0.016095
1001.691034	0.014739
1001.862719	0.016559
1002.034386	0.015157
1002.206035	0.014960
1002.377665	0.014708
1002.549277	0.015533
1002.720871	0.015218
1002.892447	0.014396
1003.064004	0.015480
1003.235544	0.016899
1003.407065	0.016610
1003.578568	0.016983
1003.750052	0.016349
1003.921519	0.016711
1004.092967	0.016067
1004.264397	0.015157
1004.435809	0.015147
1004.607202	0.013626
1004.778577	0.013248
1004.949934	0.013429
1005.121273	0.013527
1005.292594	0.014044
1005.463896	0.013929
1005.635180	0.014234
1005.806446	0.016107
1005.977694	0.015198
1006.148923	0.015841
1006.320135	0.015465
1006.491328	0.016940
1006.662503	0.016728
1006.833659	0.015979
1007.004798	0.015357
1007.175918	0.014254
1007.347020	0.013873
1007.518103	0.014058
1007.689169	0.012858
1007.860216	0.011661
1008.031245	0.008069
1008.202256	0.010185
1008.373248	0.010961
1008.544223	0.011849
1008.715179	0.012035
1008.886117	0.011294
1009.057036	0.014375
1009.227938	0.012864
1009.398821	0.013742
1009.569686	0.015748
1009.740533	0.015194
1009.911361	0.014192
1010.082172	0.013226
1010.252964	0.013596
1010.423738	0.014099
1010.594493	0.012823
1010.765231	0.014957
1010.935950	0.015977
1011.106651	0.015346
1011.277334	0.014216
1011.447998	0.015400
1011.618645	0.016230
1011.789273	0.016724
1011.959882	0.015993
1012.130474	0.015858
1012.301048	0.016836
1012.471603	0.015337
1012.642140	0.014387
1012.812658	0.015220
1012.983159	0.015423
1013.153641	0.016376
1013.324105	0.014815
1013.494551	0.015156
1013.664979	0.015092
1013.835388	0.013512
1014.005779	0.014609
1014.176152	0.015892
1014.346507	0.013591
1014.516843	0.012018
1014.687162	0.008628
1014.857462	0.009908
1015.027744	0.010254
1015.198007	0.009780
1015.368252	0.010935
1015.538480	0.010088
1015.708689	0.010432
1015.878879	0.011050
1016.049052	0.010110
1016.219206	0.011989
1016.389342	0.010743
1016.559460	0.010695
1016.729559	0.011600
1016.899641	0.011394
1017.069704	0.011754
1017.239749	0.011045
1017.409775	0.010400
1017.579784	0.013178
1017.749774	0.012545
1017.919746	0.014102
1018.089700	0.013706
1018.259635	0.012416
1018.429553	0.011894
1018.599452	0.013119
1018.769333	0.012403
1018.939195	0.013932
1019.109040	0.013426
1019.278866	0.014375
1019.448674	0.015029
1019.618464	0.016038
1019.788235	0.017498
1019.957989	0.017446
1020.127724	0.015893
1020.297441	0.016941
1020.467139	0.015631
1020.636820	0.015878
1020.806482	0.016140
1020.976126	0.015437
1021.145752	0.014118
1021.315359	0.013904
1021.484948	0.013898
1021.654519	0.013366
1021.824072	0.014195
1021.993607	0.015177
1022.163123	0.014998
1022.332621	0.014397
1022.502101	0.013740
1022.671563	0.014216
1022.841007	0.013805
1023.010432	0.012901
1023.179839	0.012849
1023.349228	0.011860
1023.518598	0.011847
1023.687951	0.011411
1023.857285	0.009558
1024.026601	0.009467
1024.195899	0.009644
1024.365178	0.009869
1024.534439	0.011671
1024.703682	0.011082
1024.872907	0.011410
1025.042114	0.012063
1025.211302	0.010831
1025.380472	0.012154
1025.549624	0.011560
1025.718758	0.011792
1025.887873	0.010676
1026.056970	0.010563
1026.226049	0.010565
1026.395110	0.008884
1026.564153	0.008940
1026.733177	0.008847
1026.902183	0.009140
1027.071171	0.009549
1027.240141	0.008364
1027.409092	0.008661
1027.578026	0.007778
1027.746940	0.008157
1027.915837	0.010888
1028.084716	0.009226
1028.253576	0.009908
1028.422418	0.010418
1028.591242	0.010491
1028.760048	0.011842
1028.928835	0.011028
1029.097604	0.011560
1029.266355	0.013210
1029.435088	0.011641
1029.603803	0.011671
1029.772499	0.011898
1029.941177	0.011933
1030.109837	0.012731
1030.278478	0.011959
1030.447102	0.013010
1030.615707	0.013516
1030.784294	0.012303
1030.952863	0.012029
1031.121413	0.011650
1031.289945	0.011247
1031.458460	0.011011
1031.626955	0.010525
1031.795433	0.010267
1031.963892	0.010282
1032.132334	0.009770
1032.300756	0.011056
1032.469161	0.012153
1032.637548	0.012601
1032.805916	0.013625
1032.974266	0.013090
1033.142598	0.013157
1033.310911	0.013533
1033.479207	0.013859
1033.647484	0.013904
1033.815743	0.011237
1033.983983	0.010285
1034.152206	0.011520
1034.320410	0.012092
1034.488596	0.013522
1034.656764	0.013701
1034.824914	0.012942
1034.993045	0.012852
1035.161158	0.012798
1035.329253	0.014221
1035.497330	0.014588
1035.665388	0.014207
1035.833428	0.013679
1036.001450	0.013056
1036.169454	0.012971
1036.337440	0.014697
1036.505407	0.015433
1036.673356	0.015297
1036.841287	0.015372
1037.009200	0.014542
1037.177094	0.014278
1037.344970	0.012538
1037.512828	0.012322
1037.680668	0.013657
1037.848489	0.012812
1038.016293	0.010502
1038.184078	0.010729
1038.351845	0.009357
1038.519593	0.009697
1038.687324	0.008399
1038.855036	0.008802
1039.022730	0.009184
1039.190406	0.007503
1039.358063	0.008846
1039.525702	0.012427
1039.693323	0.011078
1039.860926	0.012101
1040.028511	0.012463
1040.196077	0.012496
1040.363625	0.012809
1040.531155	0.012744
1040.698667	0.012703
1040.866161	0.011933
1041.033636	0.010012
1041.201093	0.009724
1041.368532	0.008273
1041.535952	0.008526
1041.703355	0.009517
1041.870739	0.008081
1042.038105	0.008055
1042.205452	0.008937
1042.372782	0.007555
1042.540093	0.006557
1042.707386	0.009487
1042.874661	0.010900
1043.041918	0.009857
1043.209156	0.009797
1043.376376	0.011154
1043.543578	0.010754
1043.710762	0.009763
1043.877927	0.009701
1044.045074	0.010387
1044.212203	0.009205
1044.379314	0.008717
1044.546407	0.009797
1044.713481	0.011770
1044.880537	0.011351
1045.047575	0.011994
1045.214595	0.012434
1045.381596	0.013639
1045.548579	0.013217
1045.715544	0.014323
1045.882491	0.013771
1046.049420	0.013306
1046.216330	0.011325
1046.383222	0.012359
1046.550096	0.011688
1046.716951	0.011145
1046.883789	0.011169
1047.050608	0.012019
1047.217409	0.009866
1047.384192	0.011788
1047.550956	0.012771
1047.717703	0.013515
1047.884431	0.011512
1048.051140	0.012751
1048.217832	0.011255
1048.384505	0.011114
1048.551161	0.008401
1048.717798	0.008500
1048.884416	0.009629
1049.051017	0.008275
1049.217599	0.006827
1049.384163	0.008656
1049.550709	0.007334
1049.717237	0.007972
1049.883746	0.008692
1050.050237	0.012155
1050.216710	0.012708
1050.383165	0.011491
1050.549601	0.011305
1050.716019	0.012245
1050.882420	0.010917
1051.048801	0.011198
1051.215165	0.013860
1051.381510	0.013636
1051.547837	0.011970
1051.714146	0.010972
1051.880437	0.010995
1052.046709	0.011871
1052.212964	0.012347
1052.379200	0.013660
1052.545417	0.013273
1052.711617	0.013006
1052.877798	0.012823
1053.043961	0.013363
1053.210106	0.014348
1053.376233	0.014318
1053.542341	0.013057
1053.708432	0.011204
1053.874504	0.010845
1054.040557	0.013075
1054.206593	0.011471
1054.372610	0.010138
1054.538609	0.008319
1054.704590	0.009088
1054.870553	0.008504
1055.036497	0.009118
1055.202424	0.009016
1055.368331	0.009606
1055.534221	0.006695
1055.700093	0.008544
1055.865946	0.008037
1056.031781	0.008736
1056.197598	0.007068
1056.363397	0.006255
1056.529177	0.006013
1056.694939	0.007679
1056.860683	0.007821
1057.026409	0.009130
1057.192116	0.005985
1057.357806	0.008998
1057.523477	0.009946
1057.689130	0.011353
1057.854764	0.014574
1058.020381	0.014593
1058.185979	0.014535
1058.351559	0.014745
1058.517120	0.014224
1058.682664	0.016496
1058.848189	0.014425
1059.013696	0.013867
1059.179185	0.013884
1059.344656	0.011514
1059.510108	0.011770
1059.675542	0.012370
1059.840958	0.010447
1060.006356	0.010302
1060.171735	0.009757
1060.337096	0.010419
1060.502439	0.010148
1060.667764	0.009533
1060.833071	0.009295
1060.998359	0.008651
1061.163629	0.007036
1061.328881	0.008183
1061.494115	0.007184
1061.659330	0.005580
1061.824527	0.004475
1061.989706	0.005778
1062.154867	0.006670
1062.320010	0.004927
1062.485134	0.006589
1062.650240	0.007359
1062.815328	0.005416
1062.980398	0.005136
1063.145449	0.005524
1063.310482	0.008009
1063.475497	0.007149
1063.640494	0.006004
1063.805473	0.007386
1063.970433	0.006900
1064.135375	0.007724
1064.300299	0.011624
1064.465204	0.013242
1064.630092	0.013688
1064.794961	0.012033
1064.959812	0.011095
1065.124645	0.011732
1065.289459	0.011881
1065.454256	0.012201
1065.619034	0.012279
1065.783793	0.008578
1065.948535	0.008767
1066.113258	0.008758
1066.277964	0.007957
1066.442651	0.008811
1066.607319	0.007407
1066.771970	0.008905
1066.936602	0.007038
1067.101216	0.006585
1067.265812	0.007507
1067.430389	0.008397
1067.594949	0.006971
1067.759490	0.005391
1067.924013	0.004400
1068.088518	0.004312
1068.253004	0.002260
1068.417472	0.005178
1068.581922	0.004953
1068.746354	0.005411
1068.910768	0.002452
1069.075163	0.002782
1069.239540	0.005370
1069.403899	0.006466
1069.568240	0.007291
1069.732562	0.007777
1069.896866	0.005607
1070.061152	0.005580
1070.225420	0.004611
1070.389670	0.007207
1070.553901	0.007445
1070.718114	0.007133
1070.882309	0.006423
1071.046486	0.008201
1071.210644	0.006721
1071.374784	0.008457
1071.538906	0.006032
1071.703010	0.007989
1071.867096	0.005720
1072.031163	0.006964
1072.195212	0.007036
1072.359243	0.007773
1072.523256	0.005040
1072.687250	0.006370
1072.851226	0.005029
1073.015184	0.006352
1073.179124	0.005047
1073.343045	0.007105
1073.506949	0.009063
1073.670834	0.008607
1073.834701	0.007494
1073.998549	0.008347
1074.162380	0.009216
1074.326192	0.009989
1074.489986	0.009347
1074.653761	0.010775
1074.817519	0.009807
1074.981258	0.009371
1075.144979	0.008565
1075.308682	0.011199
1075.472367	0.011319
1075.636033	0.012364
1075.799681	0.010614
1075.963311	0.010952
1076.126923	0.009122
1076.290516	0.008033
1076.454092	0.005728
1076.617649	0.008064
1076.781187	0.006031
1076.944708	0.007553
1077.108210	0.006342
1077.271695	0.006349
1077.435160	0.006847
1077.598608	0.007604
1077.762038	0.007357
1077.925449	0.008393
1078.088842	0.007103
1078.252217	0.008562
1078.415573	0.006054
1078.578912	0.004579
1078.742232	0.005662
1078.905534	0.005848
1079.068817	0.007061
1079.232083	0.006529
1079.395330	0.006748
1079.558559	0.006312
1079.721770	0.004570
1079.884962	0.006675
1080.048136	0.006924
1080.211293	0.007043
1080.374430	0.007895
1080.537550	0.006954
1080.700651	0.009456
1080.863735	0.008580
1081.026800	0.007600
1081.189846	0.008720
1081.352875	0.006198
1081.515885	0.008050
1081.678877	0.010308
1081.841851	0.010749
1082.004807	0.010096
1082.167744	0.008445
1082.330663	0.007540
1082.493564	0.009274
1082.656447	0.009919
1082.819312	0.011681
1082.982158	0.010982
1083.144986	0.009391
1083.307796	0.010397
1083.470587	0.009590
1083.633361	0.010130
1083.796116	0.011260
1083.958853	0.010927
1084.121571	0.008366
1084.284272	0.009092
1084.446954	0.010648
1084.609618	0.011392
1084.772264	0.009220
1084.934892	0.010449
1085.097501	0.010172
1085.260092	0.011570
1085.422665	0.011947
1085.585220	0.009307
1085.747756	0.007957
1085.910274	0.007269
1086.072774	0.005705
1086.235256	0.005948
1086.397720	0.004319
1086.560165	0.004762
1086.722592	0.003708
1086.885001	0.002817
1087.047392	0.006381
1087.209764	0.006434
1087.372119	0.006275
1087.534455	0.005540
1087.696772	0.003781
1087.859072	0.003119
1088.021353	0.004901
1088.183616	0.004551
1088.345861	0.004574
1088.508088	0.004973
1088.670296	0.002335
1088.832486	0.002382
1088.994658	0.002524
1089.156812	0.004150
1089.318948	0.005415
1089.481065	0.003378
1089.643164	0.003781
1089.805245	0.003359
1089.967308	0.002473
1090.129352	0.006935
1090.291378	0.003246
1090.453386	0.002385
1090.615376	0.003877
1090.777347	0.005401
1090.939301	0.004345
1091.101236	0.006496
1091.263153	0.006354
1091.425051	0.006827
1091.586932	0.007642
1091.748794	0.012931
1091.910638	0.013489
1092.072463	0.011439
1092.234271	0.013573
1092.396060	0.016256
1092.557831	0.014068
1092.719584	0.016146
1092.881319	0.017081
1093.043035	0.013063
1093.204733	0.011052
1093.366413	0.012891
1093.528075	0.013591
1093.689718	0.010270
1093.851343	0.010418
1094.012950	0.007824
1094.174539	0.006625
1094.336110	0.003838
1094.497662	0.005505
1094.659196	0.004272
1094.820712	0.002583
1094.982210	0.002759
1095.143689	0.001045
1095.305151	-0.000729
1095.466594	0.000789
1095.628018	0.000285
1095.789425	-0.000041
1095.950813	-0.001136
1096.112183	0.001112
1096.273535	0.002225
1096.434869	0.001614
1096.596184	0.005818
1096.757482	0.006500
1096.918761	0.007061
1097.080021	0.006118
1097.241264	0.009090
1097.402488	0.009290
1097.563694	0.009160
1097.724882	0.008270
1097.886052	0.008822
1098.047203	0.007012
1098.208336	0.004092
1098.369451	0.007538
1098.530548	0.009100
1098.691627	0.008788
1098.852687	0.009777
1099.013729	0.007781
1099.174753	0.006910
1099.335758	0.006263
1099.496746	0.007338
1099.657715	0.008164
1099.818666	0.001192
1099.979599	0.000145
1100.140513	0.000863
1100.301409	0.000334
1100.462287	-0.000418
1100.623147	0.000525
1100.783989	0.002523
1100.944812	0.002414
1101.105617	0.005866
1101.266404	0.008215
1101.427173	0.009093
1101.587923	0.006500
1101.748656	0.005038
1101.909370	0.009024
1102.070066	0.009678
1102.230743	0.005074
1102.391403	0.004277
1102.552044	0.002430
1102.712667	0.001745
1102.873271	-0.000248
1103.033858	0.003900
1103.194426	0.007628
1103.354976	0.004795
1103.515508	0.002249
1103.676021	0.005514
1103.836517	0.003737
1103.996994	0.004148
1104.157453	0.005378
1104.317893	0.004898
1104.478316	0.001620
1104.638720	-0.003842
1104.799106	-0.004008
1104.959474	-0.001085
1105.119823	-0.000706
1105.280155	0.000324
1105.440468	-0.002507
1105.600763	-0.002993
1105.761039	-0.001397
1105.921298	-0.000684
1106.081538	0.004407
1106.241760	0.003744
1106.401964	0.002139
1106.562149	0.001716
1106.722316	0.006705
1106.882465	0.009177
1107.042596	0.006901
1107.202709	0.007753
1107.362803	0.006797
1107.522879	0.004206
1107.682937	0.007950
1107.842977	0.007735
1108.002999	0.009200
1108.163002	0.005404
1108.322987	0.003623
1108.482954	0.006480
1108.642902	0.003649
1108.802833	0.004657
1108.962745	0.006489
1109.122639	0.001075
1109.282515	0.000878
1109.442372	0.001520
1109.602211	-0.000238
1109.762032	0.002701
1109.921835	0.001963
1110.081620	0.004056
1110.241386	0.004670
1110.401134	0.002890
1110.560864	0.004032
1110.720576	0.002452
1110.880269	-0.000375
1111.039945	-0.000771
1111.199602	-0.000183
1111.359240	0.002208
1111.518861	0.003580
1111.678463	0.004826
1111.838047	0.005822
1111.997613	0.010466
1112.157161	0.013512
1112.316690	0.016491
1112.476202	0.018408
1112.635695	0.016206
1112.795169	0.015063
1112.954626	0.013901
1113.114064	0.010528
1113.273484	0.009668
1113.432886	0.009059
1113.592270	0.009043
1113.751635	0.003934
1113.910983	0.004694
1114.070312	0.006093
1114.229622	0.004897
1114.388915	0.002677
1114.548189	0.004208
1114.707445	0.007561
1114.866683	0.006229
1115.025903	0.001166
1115.185104	0.002828
1115.344287	0.000441
1115.503452	-0.002624
1115.662599	-0.002543
1115.821727	-0.000952
1115.980838	0.000546
1116.139930	-0.001422
1116.299004	-0.006395
1116.458059	0.000237
1116.617097	0.001583
1116.776116	0.001721
1116.935117	0.007525
1117.094099	0.004309
1117.253064	0.004257
1117.412010	0.005508
1117.570938	0.011764
1117.729848	0.013843
1117.888740	0.008537
1118.047613	0.005388
1118.206468	0.007098
1118.365305	0.004869
1118.524124	0.012561
1118.682924	0.014348
1118.841707	0.012404
1119.000471	0.003794
1119.159216	0.006569
1119.317944	0.004448
1119.476653	0.009500
1119.635344	0.008770
1119.794017	0.009322
1119.952672	0.004658
1120.111308	0.005844
1120.269927	0.004181
1120.428527	0.004503
1120.587108	0.004569
1120.745672	0.009546
1120.904217	0.007058
1121.062744	0.004936
1121.221253	0.001771
1121.379744	0.000908
1121.538216	-0.000969
1121.696671	-0.000399
1121.855107	-0.002569
1122.013524	-0.004393
1122.171924	-0.004483
1122.330305	-0.007551
1122.488668	-0.004420
1122.647013	-0.004841
1122.805340	-0.000214
1122.963648	0.000631
1123.121938	-0.001734
1123.280210	0.000587
1123.438464	0.000662
1123.596700	0.001216
1123.754917	0.002980
1123.913116	0.001595
1124.071297	0.003813
1124.229459	0.001606
1124.387604	0.000103
1124.545730	0.002660
1124.703838	0.001260
1124.861928	0.006331
1125.019999	0.006325
1125.178052	0.007334
1125.336088	0.009207
1125.494104	0.009153
1125.652103	0.008589
1125.810083	0.007502
1125.968045	0.005516
1126.125989	0.006755
1126.283915	0.002433
1126.441823	0.005314
1126.599712	0.006122
1126.757583	0.004221
1126.915436	0.005023
1127.073270	0.005709
1127.231087	0.002888
1127.388885	0.001389
1127.546665	0.006248
1127.704426	0.003789
1127.862170	0.002425
1128.019895	-0.003323
1128.177602	-0.002034
1128.335291	-0.000413
1128.492961	0.000394
1128.650614	0.004740
1128.808248	0.009302
1128.965864	0.009183
1129.123461	0.014204
1129.281041	0.015607
1129.438602	0.020756
1129.596145	0.019831
1129.753670	0.015518
1129.911176	0.015150
1130.068665	0.013482
1130.226135	0.010930
1130.383587	0.007380
1130.541020	0.005448
1130.698436	0.007278
1130.855833	0.009440
1131.013212	0.012241
1131.170573	0.009474
1131.327915	0.004509
1131.485239	0.002338
1131.642545	0.001508
1131.799833	-0.000489
1131.957103	-0.001386
1132.114354	-0.002974
1132.271588	-0.008115
1132.428803	-0.010467
1132.585999	-0.006303
1132.743178	-0.001175
1132.900338	0.001543
1133.057480	0.005180
1133.214604	0.001553
1133.371710	0.000159
1133.528797	-0.002722
1133.685866	0.005453
1133.842917	0.000777
1133.999950	-0.001129
1134.156964	0.002210
1134.313960	0.001873
1134.470938	-0.001564
1134.627898	0.003356
1134.784840	0.004274
1134.941763	0.007792
1135.098668	0.000500
1135.255555	0.000744
1135.412424	-0.003165
1135.569274	-0.002917
1135.726107	0.000417
1135.882921	-0.000195
1136.039716	-0.002969
1136.196494	-0.003474
1136.353253	-0.005827
1136.509995	-0.002771
1136.666717	0.002876
1136.823422	0.013214
1136.980109	0.012772
1137.136777	0.006748
1137.293427	0.007449
1137.450059	0.012036
1137.606672	0.016165
1137.763267	0.014954
1137.919844	0.011494
1138.076403	0.009226
1138.232944	0.002739
1138.389466	-0.003199
1138.545971	0.002293
1138.702457	-0.001146
1138.858924	-0.002884
1139.015374	-0.003067
1139.171805	0.001582
1139.328218	0.006505
1139.484613	0.008244
1139.640990	0.010527
1139.797348	0.013774
1139.953688	0.007131
1140.110010	0.009713
1140.266314	0.006720
1140.422600	0.003111
1140.578867	-0.000491
1140.735116	-0.006889
1140.891347	-0.008588
1141.047559	-0.008178
1141.203754	-0.004920
1141.359930	0.011280
1141.516088	0.017885
1141.672228	0.022585
1141.828349	0.021545
1141.984452	0.019641
1142.140537	0.023708
1142.296604	0.020540
1142.452653	0.022613
1142.608683	0.014706
1142.764695	0.008646
1142.920689	0.000109
1143.076665	-0.001785
1143.232622	0.007482
1143.388562	0.011157
1143.544483	0.012052
1143.700385	0.008744
1143.856270	0.004698
1144.012136	0.004209
1144.167985	0.002005
1144.323814	0.012768
1144.479626	0.013878
1144.635420	0.009467
1144.791195	0.007506
1144.946952	0.007762
1145.102691	0.009039
1145.258411	0.007037
1145.414113	0.009473
1145.569798	0.007173
1145.725463	0.001733
1145.881111	0.005926
1146.036741	-0.006847
1146.192352	-0.008289
1146.347945	-0.010577
1146.503519	-0.003241
1146.659076	0.003038
1146.814614	-0.000397
1146.970134	0.001226
1147.125636	0.007742
1147.281120	0.002350
1147.436585	0.009235
1147.592032	0.003536
1147.747461	0.000668
1147.902872	0.001169
1148.058265	-0.005412
1148.213639	-0.002673
1148.368995	-0.011023
1148.524333	-0.017641
1148.679653	-0.013662
1148.834954	-0.013983
1148.990237	-0.006768
1149.145502	-0.001515
1149.300749	0.002343
1149.455977	-0.000750
1149.611188	-0.004835
1149.766380	0.004452
1149.921553	0.002535
1150.076709	-0.007026
1150.231846	-0.005624
1150.386966	-0.009413
1150.542066	-0.012385
1150.697149	-0.020502
1150.852214	-0.016512
1151.007260	-0.014182
1151.162288	-0.015616
1151.317298	-0.016346
1151.472289	-0.009668
1151.627263	-0.011774
1151.782218	-0.006741
1151.937155	-0.005056
1152.092073	-0.003574
1152.246974	-0.000497
1152.401856	-0.002528
1152.556720	-0.005815
1152.711566	-0.002379
1152.866393	-0.001456
1153.021203	0.001405
1153.175994	-0.004863
1153.330767	-0.007485
1153.485521	-0.013518
1153.640258	-0.009505
1153.794976	-0.005920
1153.949676	0.004086
1154.104358	0.002586
1154.259021	-0.000314
1154.413667	-0.002374
1154.568294	-0.000566
1154.722903	-0.005150
1154.877493	0.008515
1155.032066	0.006040
1155.186620	0.001473
1155.341156	-0.003920
1155.495674	-0.001404
1155.650173	-0.001745
1155.804654	-0.007345
1155.959118	0.009216
1156.113562	0.018967
1156.267989	0.007615
1156.422397	0.009585
1156.576788	0.017714
1156.731160	0.001930
1156.885513	0.004200
1157.039849	-0.001932
1157.194166	0.014927
1157.348465	-0.001664
1157.502746	-0.000792
1157.657009	0.003215
1157.811253	0.003304
1157.965479	-0.006308
1158.119687	0.015518
1158.273877	0.016222
1158.428048	0.021368
1158.582201	0.011537
1158.736337	0.010154
1158.890453	-0.000930
1159.044552	-0.006438
1159.198632	-0.016922
1159.352694	-0.012052
1159.506738	-0.016809
1159.660764	-0.025513
1159.814771	-0.017044
1159.968761	-0.009866
1160.122732	-0.004829
1160.276685	0.001801
1160.430619	0.011845
1160.584535	0.024076
1160.738434	0.025461
1160.892313	0.021224
1161.046175	0.019114
1161.200019	0.021475
1161.353844	0.013017
1161.507651	-0.003410
1161.661440	-0.011061
1161.815210	-0.023612
1161.968962	-0.029563
1162.122697	-0.030481
1162.276412	-0.025562
1162.430110	-0.022646
1162.583789	-0.032303
1162.737451	-0.027623
1162.891094	-0.021662
1163.044718	-0.011094
1163.198325	-0.005516
1163.351913	-0.002010
1163.505483	0.005372
1163.659035	-0.009661
1163.812569	-0.001185
1163.966084	-0.009483
1164.119581	-0.016201
1164.273060	-0.003287
1164.426521	-0.002876
1164.579964	0.003809
1164.733388	0.003263
1164.886794	-0.003786
1165.040182	0.015611
1165.193551	0.008938
1165.346903	0.023011
1165.500236	0.019211
1165.653551	0.009298
1165.806848	0.009758
1165.960126	0.007932
1166.113386	0.012859
1166.266628	0.016499
1166.419852	0.012052
1166.573058	0.006709
1166.726245	0.000680
1166.879414	0.004252
1167.032565	0.005159
1167.185698	-0.005139
1167.338812	-0.009838
1167.491909	-0.023521
1167.644987	-0.019147
1167.798046	-0.027587
1167.951088	-0.015607
1168.104111	-0.008667
1168.257117	-0.002491
1168.410103	0.008959
1168.563072	0.016619
1168.716023	0.006543
1168.868955	0.013591
1169.021869	-0.004620
1169.174765	-0.005518
1169.327642	-0.017816
1169.480501	-0.026693
1169.633343	-0.027539
1169.786165	-0.042088
1169.938970	-0.032503
1170.091757	-0.022788
1170.244525	-0.027913
1170.397275	-0.006211
1170.550007	-0.005468
1170.702720	0.012498
1170.855415	0.021940
1171.008092	0.014596
1171.160751	0.016983
1171.313392	0.000928
1171.466014	0.039846
1171.618619	-0.041291
1171.771205	-0.041291
1171.923772	-0.041291
