sample name	sample
index	695
start time	 03-22-2021  12:36:11 PM
880	0.029831
Peak Time (s)	91.036
Peak Height 	0.02983
calc peak height	90,93
Baseline Time (s)	9.036
Baseline Value 	-0.005618
subtract baseline	10,4
Abs	0.005923
Peak Time (s)	91.036
Peak Height 	0.005923
calc peak height	90,93
Baseline Time (s)	11.037
Baseline Value 	0.003382
subtract baseline	10,3
PK_550	0.007844
Peak Time (s)	90.036
Peak Height 	0.007844
calc peak height	90,93
Baseline Time (s)	10.037
Baseline Value 	0.001064
subtract baseline	10,2
PK_880	0.008632
Peak Time (s)	90.036
Peak Height 	0.008632
calc peak height	90,93
Baseline Time (s)	9.036
Baseline Value 	0.004479
subtract baseline	10,1


Time (s)	A880-A510	A880-A775	A880-A975	A880	I510	I775	I975	I880	
0.036000	-0.002932	-0.000627	0.000122	0.002326	7360.757840	45679.910304	3977.793993	24194.486127
0.536000	-0.002066	-0.000169	-0.000345	0.005397	7338.017896	45423.330128	3968.606936	24044.208423
1.037000	-0.003663	-0.001181	-0.004753	0.004480	7331.031245	45413.931660	3959.611691	24088.947129
1.537000	-0.002147	-0.000607	-0.006290	0.003581	7355.896888	45558.445485	3957.976435	24132.946877
2.037000	-0.000164	-0.000983	-0.002788	0.001213	7401.050630	45754.529926	3973.116995	24249.204201
2.535000	-0.001125	-0.000310	-0.000448	0.001780	7385.143282	45764.962032	3977.731112	24221.311156
3.035500	-0.001524	-0.000139	0.001259	0.002052	7378.174418	45755.000290	3981.477603	24207.924556
3.535500	-0.000418	-0.000512	-0.000214	0.000075	7410.277955	45913.489594	3982.799551	24305.298857
4.039000	0.000420	0.000370	-0.000214	0.000319	7416.492698	45976.790800	3982.160628	24293.265134
4.536000	-0.000406	-0.000423	-0.001938	0.000249	7408.589223	45905.179641	3977.840281	24296.741189
5.036500	0.000357	0.000257	0.001307	0.000826	7410.532310	45915.346755	3984.816644	24268.270808
5.536500	-0.002926	-0.000015	0.000136	0.001934	7364.860717	45778.866301	3978.851418	24213.710505
6.037000	0.000068	-0.000366	0.002176	-0.000268	7418.951608	45962.041109	3989.979225	24322.239637
6.537000	-0.000329	-0.000470	-0.000306	-0.000043	7412.438092	45929.409960	3982.866650	24311.120062
7.037500	-0.001135	-0.000376	-0.002609	-0.000591	7409.750519	45993.039055	3978.279800	24338.216570
7.535500	0.000976	0.000142	0.003199	-0.000504	7430.942299	46035.834864	3993.302033	24333.894916
8.035500	-0.000046	-0.000297	0.002237	-0.000507	7420.259747	45992.555580	3990.770301	24334.071252
8.538000	0.001375	0.000223	0.000449	-0.000045	7430.306856	45998.235864	3984.851122	24311.216258
9.036000	0.000000	0.000284	-0.001429	0.000000	7415.431306	45999.920977	3979.817093	24309.008463
9.536500	-0.000960	-0.000908	0.003439	0.000752	7397.563184	45807.416548	3990.620335	24271.935351
10.036500	-0.000612	0.000000	0.006844	-0.000062	7409.676654	45977.875964	4001.800351	24312.074369
10.537000	0.000381	-0.000204	-0.002896	-0.000392	7423.530636	45990.366813	3977.012316	24328.390191
11.037000	0.000015	0.000434	0.000000	0.000171	7413.793267	45997.793972	3983.106851	24300.549457
11.537500	-0.001621	-0.000463	-0.002087	0.001544	7382.446865	45773.170892	3974.078918	24232.928177
12.034500	0.002645	0.001255	-0.001772	0.001074	7431.899143	45989.681957	3976.120109	24256.045800
12.535500	0.001120	0.000177	0.000759	0.000059	7426.548454	45983.427523	3985.391704	24306.106339
13.038500	0.000843	-0.000547	0.000097	0.000581	7418.168287	45860.008918	3982.287596	24280.328841
13.535000	-0.002202	0.000436	-0.002225	0.003874	7352.306573	45632.092407	3967.681678	24118.573602
14.036000	-0.000729	-0.000264	-0.001699	0.003718	7369.147938	45578.708356	3969.447897	24126.241992
14.536500	-0.001017	0.000060	0.001300	0.002772	7375.955978	45703.627613	3979.704395	24172.564237
15.044500	-0.002597	0.000236	0.000966	0.006039	7325.975278	45400.117315	3970.336713	24012.923491
15.540000	-0.001830	-0.000134	0.001990	0.003750	7357.434182	45588.299197	3978.952618	24124.682196
16.037500	-0.001019	-0.000195	-0.000313	0.001223	7392.040406	45831.423404	3979.537301	24248.734280
16.537500	0.001463	0.000614	0.003747	0.002014	7409.665932	45833.051773	3988.106694	24209.789796
17.035000	-0.002030	-0.000622	0.002166	0.002378	7369.552001	45675.270579	3983.000229	24191.927199
17.538000	0.000339	0.000701	0.004168	0.002875	7388.974019	45756.674472	3986.949653	24167.508766
18.035500	-0.000753	0.000693	0.003096	0.002620	7380.277143	45781.044136	3984.804474	24180.035964
18.536000	-0.000798	0.000161	-0.000680	0.002513	7380.922615	45739.077636	3975.218452	24185.296613
19.036000	-0.000065	0.001120	0.004298	0.003010	7383.364380	45784.689700	3986.935228	24160.888047
19.536500	-0.000927	0.000182	0.000291	0.002645	7378.211524	45728.184100	3977.402328	24178.816616
20.037000	0.000601	0.000653	0.001450	0.002758	7392.925163	45763.571501	3980.133775	24173.293272
20.537000	-0.000678	-0.000223	0.001776	0.002124	7386.215940	45739.640799	3982.645161	24204.417607
21.035000	0.000080	0.000138	-0.002277	0.002430	7390.914189	45745.113879	3971.286913	24189.389322
21.535500	-0.000600	0.000120	-0.000454	0.002480	7383.318233	45738.297674	3975.892543	24186.909207
22.038000	-0.001088	0.000049	-0.001205	0.002342	7379.686662	45744.965617	3974.297928	24193.684779
22.535500	0.001902	0.000625	0.002653	0.003212	7401.750352	45715.950699	3982.093081	24151.024580
23.035500	-0.001147	-0.000171	-0.000315	0.002346	7379.027899	45722.832951	3976.602921	24193.488110
23.536000	0.000217	0.000306	0.001606	0.003322	7383.065262	45673.728582	3979.067416	24145.625621
24.036000	-0.001687	0.000757	0.002739	0.003353	7363.009877	45715.031009	3981.946953	24144.099210
24.536500	-0.000633	0.000726	0.003628	0.003203	7375.474493	45726.785476	3984.671256	24151.470465
25.036500	0.000482	0.000175	0.002515	0.002969	7389.490732	45695.544950	3982.367916	24162.945205
25.537000	-0.000910	0.001184	-0.000913	0.003731	7367.142548	45719.905641	3971.448757	24125.603982
26.035000	0.000984	0.001195	0.002529	0.003516	7389.012260	45742.170437	3980.972103	24136.100982
26.537500	0.000455	0.000819	0.004721	0.003535	7383.323421	45703.170762	3986.668656	24135.173385
27.035000	0.000890	0.000417	0.006176	0.000324	7421.360567	45980.967319	3998.998207	24293.022021
27.535500	0.000321	0.000610	0.003722	0.003565	7381.626092	45679.686987	3983.968159	24133.730720
28.035500	0.000765	0.000959	0.005275	0.002341	7398.970583	45834.907780	3991.271807	24193.736754
28.536000	0.001316	0.000794	0.000835	0.002517	7402.886055	45801.246728	3979.156532	24185.108520
29.037000	0.000225	0.001502	-0.002768	0.002757	7389.024217	45847.506588	3969.166452	24173.329788
29.540000	-0.000583	0.000313	0.000467	0.004346	7364.157734	45573.661017	3973.434124	24095.502454
30.037500	0.000140	0.000519	-0.000017	0.002309	7392.801494	45794.621284	3977.475591	24195.315811
30.537500	0.000404	0.000937	0.006756	0.004970	7367.911344	45573.666053	3988.245988	24065.037453
31.040500	-0.002469	0.000545	-0.000163	0.006903	7318.434263	45345.858563	3965.184718	23970.883972
31.535000	-0.000841	0.000540	0.004464	0.004598	7358.890447	45571.183839	3983.206467	24083.213703
32.038500	0.000599	0.000911	0.006621	0.002822	7392.230035	45782.611603	3993.558157	24170.135890
32.536000	0.002678	0.001004	0.005470	0.002842	7413.712287	45789.806125	3990.464653	24169.129059
33.036000	-0.003388	0.000830	0.004038	0.007218	7305.811095	45342.911167	3975.252570	23955.587284
33.535500	0.001587	0.000999	0.002235	0.001988	7411.240184	45873.802334	3984.203558	24211.096861
34.036500	0.000772	0.000590	0.001797	0.004057	7381.194163	45629.308011	3977.648692	24109.635564
34.548000	-0.000521	0.000667	0.003002	0.004447	7363.751893	45598.575351	3979.776744	24090.586195
35.037500	-0.000336	0.000548	0.002891	0.005723	7352.478020	45461.601058	3976.157532	24028.313939
35.540500	0.000341	0.000611	0.000049	0.004110	7376.161962	45626.082458	3972.960040	24107.029345
36.035000	0.000044	0.000982	0.002020	0.004562	7368.408343	45618.128445	3976.912838	24084.943727
36.535000	-0.000630	0.000685	0.001231	0.004336	7363.774374	45611.182180	3975.446104	24095.993218
37.035500	-0.000882	0.001100	0.002970	0.005602	7348.096331	45527.643664	3976.678799	24034.209923
37.536000	0.000834	0.001238	0.001473	0.005059	7371.445530	45594.524516	3974.197021	24060.706053
38.036000	-0.000977	0.001655	0.003347	0.004548	7357.987903	45685.789588	3980.412741	24085.617686
38.536500	0.000999	0.000323	0.000548	0.004202	7382.043495	45588.734276	3974.016862	24102.527632
39.036500	-0.000881	0.000860	0.001358	0.005762	7346.462492	45488.342631	3972.071069	24026.415521
39.537000	0.001209	0.001427	0.000386	0.005249	7373.353586	45594.372317	3970.881649	24051.399827
40.037000	-0.000619	0.000972	0.004972	0.004847	7358.598641	45589.088570	3983.881763	24071.013121
40.535000	0.000677	0.001077	0.004887	0.004829	7372.198120	45601.291319	3983.707904	24071.923840
41.035500	-0.000201	0.000585	-0.002452	0.005598	7355.162332	45477.452923	3962.651557	24034.392272
41.535000	0.000013	0.000397	-0.000136	0.004390	7369.870092	45577.516459	3971.755748	24093.348467
42.035500	0.000516	-0.000019	0.003417	0.004010	7379.022860	45574.011576	3982.001572	24111.926235
42.536000	0.000894	0.001809	0.003446	0.005286	7369.718655	45628.352505	3978.744348	24049.619144
43.036500	0.000239	0.000641	0.004988	0.004444	7371.648302	45596.184196	3984.981930	24090.698934
43.536500	0.000817	0.001425	-0.001092	0.003970	7382.560554	45720.102884	3970.364290	24113.886586
44.036500	0.000595	0.000657	0.006240	0.003126	7389.029751	45727.545790	3991.746270	24155.223116
44.540000	0.000332	0.001351	0.003009	0.003055	7387.031772	45803.104493	3983.436908	24158.727811
45.037500	-0.004175	0.000260	0.001811	0.007750	7292.369872	45235.286474	3968.096186	23929.758584
45.535000	0.000258	0.000548	0.005340	0.005138	7364.662293	45518.903520	3984.084094	24056.814282
46.035500	0.002049	0.000695	0.004894	0.002487	7410.847585	45794.317016	3989.882225	24186.552422
46.535500	0.002054	0.001556	-0.000802	0.003333	7402.063948	45795.831162	3972.767556	24145.057671
47.036000	0.001120	0.001476	0.000596	0.007594	7348.194752	45369.261588	3965.360987	23937.314295
47.536500	-0.001341	0.001300	0.004188	0.006341	7335.767440	45474.706486	3977.926006	23998.216498
48.036500	0.002429	0.001548	0.003954	0.003273	7406.601521	45800.964341	3985.341508	24147.999886
48.537000	0.002453	0.001013	0.006068	0.002975	7409.973401	45777.531983	3991.690067	24162.612151
49.039500	-0.001088	0.000249	0.003046	0.006141	7340.422506	45391.359757	3975.472320	24007.930252
49.543000	0.000635	0.001810	0.003957	0.006926	7350.083687	45467.404901	3975.799675	23969.765937
50.035000	0.001349	0.001243	0.003564	0.002186	7406.675831	45878.240220	3987.171745	24201.333860
50.535000	0.003526	0.001323	0.003326	0.003185	7418.994742	45787.483855	3983.925865	24152.328545
51.035500	-0.001664	0.000267	0.002043	0.017314	7221.159446	44314.025980	3944.226420	23470.993754
51.535500	-0.049531	-0.013273	-0.008979	0.216413	5334.745538	28283.070330	3522.693063	15894.209506
52.036000	-0.053664	-0.020137	-0.021904	-0.062990	7514.053540	50437.938223	4096.500459	27655.809194
52.539000	-0.060537	-0.149348	-0.025180	-0.311990	10978.768471	65535.000000	5048.512036	46847.160793
53.036500	-0.052928	-0.157776	-0.012253	-0.320418	11283.724650	65535.000000	5159.552349	47708.925268
53.539500	-0.069959	-0.138971	-0.012537	-0.301613	10617.482159	65535.000000	5060.036173	45808.770479
54.037000	-0.055381	-0.111797	-0.003293	-0.274439	10396.046324	65535.000000	4970.457402	43204.173144
54.537500	-0.043112	-0.111611	-0.010673	-0.274253	10608.327712	65535.000000	4933.754908	43186.934206
55.034500	-0.019388	-0.104882	-0.014558	-0.267524	10917.088985	65535.000000	4883.333659	42567.018220
55.535500	-0.012314	-0.090291	-0.006669	-0.252933	10779.029467	65535.000000	4852.124114	41255.381714
56.035500	-0.014438	-0.059750	-0.005560	-0.216053	10099.823039	64627.456548	4693.449599	38130.009057
56.536000	-0.015634	-0.035595	0.001750	-0.178308	9479.927998	62725.936082	4568.364606	35194.634968
57.036000	-0.015657	-0.018563	-0.004836	-0.128974	8770.024148	58438.115929	4360.188540	31723.278810
57.536500	-0.014395	-0.011497	-0.003904	-0.091572	8299.055619	54691.432720	4238.168423	29342.091529
58.039000	-0.014226	-0.008707	-0.002832	-0.065229	7981.629685	51957.766134	4159.429405	27783.948183
58.537000	-0.013256	-0.007040	0.000129	-0.045266	7762.985328	49934.267033	4108.978256	26664.539555
59.037500	-0.014287	-0.004101	-0.003799	-0.023489	7512.728159	47937.881835	4036.352105	25500.643747
59.537000	-0.013968	-0.003141	-0.000019	-0.002912	7301.219074	45948.995007	3991.164892	24453.269767
60.035000	-0.012253	-0.002209	-0.001018	0.010431	7184.204197	44736.370090	3953.939702	23800.151383
60.535500	-0.012230	-0.001248	-0.002187	0.022932	7062.056869	43639.493198	3919.586234	23206.167426
61.035500	-0.007822	0.002092	-0.008252	0.035065	6988.179968	42823.027042	3875.499790	22645.809671
61.536000	-0.000472	0.005277	-0.005966	0.041527	6996.604158	42522.986764	3865.642996	22353.704632
62.036000	0.010099	0.006969	-0.001931	0.025533	7256.790351	44169.634818	3913.800875	23084.717850
62.540500	0.004926	0.005426	-0.004079	0.027282	7187.450925	43858.022502	3904.256253	23003.459036
63.037000	0.002486	0.004962	-0.006277	0.024043	7195.401585	44120.568114	3906.797470	23154.208165
63.540500	0.005766	0.005080	-0.003847	0.020578	7263.084642	44462.023448	3921.305201	23316.741557
64.037500	0.004853	0.005149	-0.005090	0.019440	7265.356295	44577.570146	3921.044636	23370.367074
64.538000	0.003467	0.005152	-0.003234	0.018175	7264.135412	44699.497603	3928.803725	23430.188269
65.035000	0.002783	0.004892	0.000429	0.020282	7235.998484	44472.353838	3932.694020	23330.682366
65.535500	0.004926	0.005875	0.003677	0.018828	7272.287411	44706.245857	3944.529416	23399.300517
66.036000	0.003433	0.005242	-0.003912	0.018147	7264.068414	44710.799283	3927.182068	23431.505531
66.536500	0.002580	0.004810	-0.002265	0.018372	7253.177606	44647.676973	3930.732081	23420.858374
67.039500	0.003412	0.005383	0.000191	0.022098	7224.075434	44345.667931	3927.560203	23245.261172
67.536500	0.002230	0.005104	-0.001043	0.022018	7213.052161	44326.717862	3924.689238	23249.025311
68.037000	0.005842	0.006231	0.000786	0.021905	7250.444132	44445.199066	3929.528752	23254.338574
68.537500	0.007874	0.006589	0.002038	0.023712	7252.718996	44306.714965	3928.142407	23169.672766
69.034500	0.006119	0.006081	0.000769	0.026630	7205.825237	43981.456525	3917.750902	23033.702462
69.535000	0.004893	0.007456	-0.003515	0.027511	7184.844086	44028.131781	3905.071153	22992.832156
70.035500	0.007156	0.006736	-0.000603	0.026003	7222.462100	44102.841674	3915.914210	23062.857931
70.535500	0.007874	0.007923	0.001238	0.027449	7215.181864	44078.318970	3916.889129	22995.734542
71.036000	0.006825	0.007616	-0.000035	0.028523	7193.992604	43947.574208	3911.112927	22945.987261
71.539000	0.007461	0.007464	-0.002238	0.028730	7198.270092	43913.726131	3905.216609	22936.454167
72.036000	0.008412	0.007881	-0.000134	0.027588	7219.176932	44061.200719	3913.167512	22989.300356
72.536500	0.009400	0.007793	-0.003747	0.027387	7231.087630	44071.853360	3904.809917	22998.584203
73.037000	0.007416	0.008574	0.003340	0.030271	7182.504645	43873.056870	3915.114113	22865.371627
73.536500	0.007463	0.009101	-0.001595	0.030957	7176.160896	43858.047679	3901.356593	22833.802972
74.035000	0.011162	0.008812	-0.001107	0.029312	7229.452457	43986.064151	3906.555548	22909.546263
74.534500	0.009126	0.008454	0.003166	0.028887	7213.313631	43992.389099	3918.098689	22929.167377
75.035500	0.009793	0.009135	0.004146	0.030925	7199.628923	43864.211640	3915.488135	22835.248799
75.535500	0.008742	0.007529	0.004627	0.030343	7194.972769	43767.846403	3918.112511	22862.057406
76.038500	0.009111	0.008789	-0.002279	0.029220	7209.848765	43992.670278	3903.919965	22913.824123
76.536000	0.011440	0.009263	0.000583	0.029646	7228.894340	43997.122958	3909.873778	22894.157136
77.036000	0.009929	0.008445	-0.000753	0.030565	7204.583652	43833.156638	3904.360844	22851.817931
77.536500	0.009325	0.008538	-0.001118	0.030776	7196.457888	43822.034274	3902.957973	22842.115457
78.037000	0.010043	0.008431	-0.002951	0.029316	7218.194741	43949.672465	3902.047520	22909.360186
78.534500	0.009614	0.008795	-0.000656	0.029410	7212.978691	43975.270812	3907.420247	22905.058206
79.034500	0.011842	0.008495	-0.002537	0.029962	7229.757505	43894.663690	3901.484320	22879.573689
79.535500	0.010108	0.008598	0.000063	0.029206	7219.951064	43975.865762	3909.679468	22914.452898
80.035500	0.010372	0.008823	0.002996	0.029104	7223.617072	44006.747454	3917.142774	22919.150439
80.539000	0.009667	0.007453	-0.003985	0.028290	7224.712260	43954.278974	3902.029859	22956.805973
81.036000	0.010699	0.008585	0.004146	0.030301	7214.914959	43871.305215	3917.027596	22863.994417
81.536500	0.010870	0.009085	-0.003037	0.030879	7210.842121	43863.861833	3898.043098	22837.357450
82.037000	0.010961	0.008956	0.006764	0.029436	7226.195946	43988.005852	3925.658219	22903.856151
82.536500	0.011845	0.009514	0.009159	0.029968	7229.729441	43990.478105	3930.303217	22879.325733
83.037000	0.009187	0.008868	0.002005	0.029687	7205.943372	43955.984504	3913.266009	22892.274720
83.535000	0.010523	0.008498	0.004487	0.029030	7225.875730	43983.081671	3921.013083	22922.578728
84.035000	0.007619	0.008587	0.004790	0.029056	7196.599196	43989.022406	3921.699034	22921.394757
84.535500	0.009398	0.008722	0.005267	0.029121	7213.695114	43995.669969	3922.720465	22918.370087
85.038500	0.007096	0.008069	0.002042	0.029892	7183.083811	43861.195468	3912.853085	22882.825495
85.536000	0.009407	0.008894	0.001926	0.029371	7211.288725	43988.273829	3913.848816	22906.834888
86.036000	0.010494	0.007921	0.001419	0.028556	7230.342402	43973.332334	3914.606755	22944.494241
86.536500	0.010866	0.007941	0.005297	0.028859	7231.034763	43946.589331	3923.446921	22930.499258
87.036500	0.008328	0.008642	0.003419	0.029950	7194.755224	43909.795634	3916.100015	22880.154004
87.537500	0.010297	0.008410	0.006890	0.029175	7222.158040	43960.998462	3926.620228	22915.879745
88.037000	0.010532	0.008459	0.005547	0.029198	7224.280430	43963.446307	3923.223108	22914.813143
88.535000	0.008397	0.008106	0.008106	0.029003	7204.881338	43948.569759	3930.081503	22923.850325
89.035500	0.007911	0.006889	0.000818	0.029089	7199.173525	43825.549302	3911.815956	22919.836459
89.538000	0.007715	0.007869	0.007007	0.030222	7185.958296	43811.255785	3924.308091	22867.626111
90.036000	0.008632	0.007844	0.004606	0.029304	7204.223168	43895.338420	3920.627495	22909.924470
90.536000	0.006724	0.007461	0.004642	0.028717	7191.062238	43914.648697	3922.172895	22937.046969
91.036000	0.006661	0.007455	0.005923	0.029831	7179.369432	43809.059107	3922.586800	22885.624015
91.536500	0.007018	0.006822	0.003812	0.028710	7194.049671	43854.975240	3920.131773	22937.344043
92.037000	0.006314	0.007700	0.004067	0.029318	7181.020464	43880.482252	3919.260016	22909.281252
92.537000	0.005753	0.005896	0.003650	0.028072	7187.823070	43827.837605	3921.310985	22966.863819
93.037500	0.005894	0.006234	0.002222	0.028888	7181.119232	43782.848964	3915.765517	22929.121895
93.535000	0.008414	0.006718	0.003636	0.030167	7193.457906	43708.165200	3916.099860	22870.161942
94.038500	0.007655	0.006961	0.008287	0.029324	7194.281001	43810.182834	3929.731772	22908.990945
94.536000	0.005100	0.006133	0.002185	0.029072	7171.429592	43756.054454	3915.222767	22920.638318
95.035500	0.007108	0.005960	0.007274	0.028964	7192.435299	43749.970346	3928.104244	22925.646382
95.535500	0.006188	0.006380	0.003491	0.030779	7165.303834	43618.902639	3914.234697	22841.969502
96.036500	0.006522	0.007032	0.003590	0.029767	7178.631912	43775.261422	3916.972375	22888.583918
