sample name	sample
index	1267
start time	 04-29-2021  01:35:55 PM


Wavelength (nm)	Absorbance
494.344910	-0.184597
494.563924	-0.184597
494.782919	-0.184597
495.001897	-0.243821
495.220856	-0.033203
495.439797	-0.005455
495.658719	0.011273
495.877624	0.050095
496.096510	0.099044
496.315378	0.092942
496.534227	0.073730
496.753059	0.103385
496.971872	0.126605
497.190667	0.200232
497.409444	0.231802
497.628203	0.236601
497.846943	0.240133
498.065665	0.240985
498.284369	0.240171
498.503055	0.240059
498.721723	0.240611
498.940372	0.241506
499.159003	0.243740
499.377616	0.244313
499.596210	0.244264
499.814787	0.243478
500.033345	0.242910
500.251885	0.243382
500.470406	0.245228
500.688910	0.245392
500.907395	0.244991
501.125862	0.244098
501.344311	0.243546
501.562742	0.242845
501.781154	0.243086
501.999548	0.244812
502.217924	0.245228
502.436282	0.243688
502.654621	0.243753
502.872942	0.243530
503.091245	0.241354
503.309530	0.239125
503.527797	0.239850
503.746045	0.241920
503.964275	0.241150
504.182487	0.241989
504.400681	0.243140
504.618856	0.242968
504.837013	0.243521
505.055152	0.245354
505.273273	0.246531
505.491376	0.247954
505.709460	0.246060
505.927526	0.247254
506.145574	0.247070
506.363604	0.246246
506.581615	0.246209
506.799608	0.245085
507.017583	0.245883
507.235540	0.245839
507.453478	0.245500
507.671399	0.245179
507.889301	0.243321
508.107185	0.243849
508.325050	0.245783
508.542898	0.246913
508.760727	0.248189
508.978538	0.247607
509.196330	0.249267
509.414105	0.250544
509.631861	0.251324
509.849599	0.252274
510.067319	0.251895
510.285021	0.252658
510.502704	0.251514
510.720369	0.253237
510.938016	0.253274
511.155645	0.252720
511.373255	0.251733
511.590848	0.251406
511.808422	0.251162
512.025977	0.251642
512.243515	0.250806
512.461034	0.251660
512.678536	0.250775
512.896018	0.251637
513.113483	0.252597
513.330930	0.251873
513.548358	0.252430
513.765768	0.253315
513.983160	0.254201
514.200533	0.253775
514.417889	0.253256
514.635226	0.253021
514.852545	0.253751
515.069845	0.254345
515.287128	0.254883
515.504392	0.254828
515.721638	0.254987
515.938866	0.254597
516.156075	0.255376
516.373267	0.256388
516.590440	0.257613
516.807594	0.257503
517.024731	0.255479
517.241850	0.256003
517.458950	0.256521
517.676032	0.256834
517.893095	0.257791
518.110141	0.257656
518.327168	0.258485
518.544177	0.258464
518.761168	0.258475
518.978141	0.260704
519.195095	0.261029
519.412031	0.261734
519.628949	0.262108
519.845849	0.262004
520.062731	0.262272
520.279594	0.261361
520.496439	0.261145
520.713266	0.260929
520.930074	0.261385
521.146865	0.261497
521.363637	0.261804
521.580391	0.261271
521.797127	0.261563
522.013844	0.261862
522.230543	0.263292
522.447224	0.264617
522.663887	0.264896
522.880532	0.265091
523.097158	0.266649
523.313766	0.265967
523.530356	0.267014
523.746928	0.267033
523.963481	0.267691
524.180017	0.267442
524.396534	0.267010
524.613032	0.268114
524.829513	0.267893
525.045975	0.267515
525.262420	0.269104
525.478845	0.270126
525.695253	0.271325
525.911643	0.271089
526.128014	0.271082
526.344367	0.270595
526.560702	0.270954
526.777018	0.271119
526.993316	0.271486
527.209597	0.271691
527.425858	0.270597
527.642102	0.269667
527.858328	0.270221
528.074535	0.270783
528.290724	0.271656
528.506894	0.271389
528.723047	0.271072
528.939181	0.271233
529.155297	0.271677
529.371395	0.272794
529.587475	0.273526
529.803536	0.273740
530.019579	0.274219
530.235604	0.275008
530.451611	0.275197
530.667600	0.275841
530.883570	0.275560
531.099522	0.274992
531.315456	0.275039
531.531372	0.275588
531.747269	0.275408
531.963148	0.276251
532.179009	0.276769
532.394852	0.277420
532.610676	0.278221
532.826482	0.278966
533.042271	0.279506
533.258040	0.280260
533.473792	0.280460
533.689525	0.281322
533.905240	0.281556
534.120937	0.281882
534.336616	0.282267
534.552277	0.283400
534.767919	0.283657
534.983543	0.284289
535.199149	0.284333
535.414736	0.284475
535.630306	0.284973
535.845857	0.285193
536.061390	0.285261
536.276904	0.285996
536.492401	0.284518
536.707879	0.285226
536.923339	0.285171
537.138781	0.285355
537.354204	0.286354
537.569610	0.287338
537.784997	0.287199
538.000366	0.287055
538.215716	0.286415
538.431049	0.287300
538.646363	0.287850
538.861659	0.288426
539.076937	0.289328
539.292196	0.289144
539.507438	0.288834
539.722661	0.289181
539.937866	0.289442
540.153052	0.290098
540.368221	0.290900
540.583371	0.289894
540.798503	0.289542
541.013617	0.289082
541.228712	0.289350
541.443789	0.289274
541.658848	0.290147
541.873889	0.290646
542.088912	0.291047
542.303916	0.290862
542.518902	0.291871
542.733870	0.292746
542.948820	0.293415
543.163752	0.294460
543.378665	0.295324
543.593560	0.295141
543.808437	0.295574
544.023295	0.296312
544.238136	0.296981
544.452958	0.296935
544.667762	0.297252
544.882548	0.297875
545.097315	0.297524
545.312064	0.297721
545.526795	0.298060
545.741508	0.298234
545.956203	0.298568
546.170879	0.298534
546.385537	0.298788
546.600177	0.298398
546.814799	0.298105
547.029402	0.298773
547.243988	0.299277
547.458555	0.299486
547.673103	0.299740
547.887634	0.299692
548.102146	0.300595
548.316640	0.301606
548.531116	0.302571
548.745574	0.303002
548.960013	0.303116
549.174435	0.303178
549.388838	0.303752
549.603222	0.304286
549.817589	0.304899
550.031937	0.304408
550.246267	0.304498
550.460579	0.304919
550.674873	0.305094
550.889148	0.305587
551.103405	0.306068
551.317644	0.306033
551.531865	0.306362
551.746068	0.306637
551.960252	0.307354
552.174418	0.307739
552.388566	0.307509
552.602696	0.307911
552.816807	0.307845
553.030900	0.307943
553.244975	0.308827
553.459032	0.308989
553.673070	0.308944
553.887091	0.309080
554.101093	0.309407
554.315077	0.309642
554.529042	0.309708
554.742990	0.309859
554.956919	0.310051
555.170830	0.309505
555.384722	0.309149
555.598597	0.309640
555.812453	0.310036
556.026291	0.310481
556.240111	0.311446
556.453913	0.312302
556.667696	0.312735
556.881461	0.313232
557.095208	0.313925
557.308937	0.314891
557.522647	0.314078
557.736339	0.314180
557.950013	0.314704
558.163669	0.314487
558.377307	0.313746
558.590926	0.313743
558.804527	0.313640
559.018110	0.313488
559.231675	0.313361
559.445221	0.314419
559.658749	0.314567
559.872259	0.314326
560.085751	0.314491
560.299225	0.315069
560.512680	0.315618
560.726117	0.315606
560.939536	0.316298
561.152937	0.316478
561.366319	0.317166
561.579683	0.317280
561.793029	0.317009
562.006357	0.317178
562.219667	0.317714
562.432958	0.317657
562.646231	0.318077
562.859486	0.318120
563.072723	0.318696
563.285941	0.317856
563.499141	0.318490
563.712323	0.318545
563.925487	0.318062
564.138632	0.318160
564.351760	0.318422
564.564869	0.318674
564.777960	0.318582
564.991032	0.318531
565.204087	0.319031
565.417123	0.318939
565.630141	0.319377
565.843140	0.320229
566.056122	0.319991
566.269085	0.319990
566.482030	0.319659
566.694957	0.319840
566.907866	0.320061
567.120756	0.320380
567.333628	0.320578
567.546482	0.320906
567.759318	0.321581
567.972135	0.321918
568.184935	0.322191
568.397716	0.322263
568.610478	0.322812
568.823223	0.322915
569.035949	0.322530
569.248657	0.323357
569.461347	0.322944
569.674019	0.322713
569.886672	0.322999
570.099308	0.322722
570.311925	0.323063
570.524523	0.322872
570.737104	0.322853
570.949666	0.323880
571.162210	0.323370
571.374736	0.324022
571.587244	0.323952
571.799733	0.323965
572.012205	0.324296
572.224658	0.324620
572.437092	0.324763
572.649509	0.325494
572.861907	0.325281
573.074287	0.325370
573.286649	0.325663
573.498993	0.326100
573.711318	0.326751
573.923625	0.327441
574.135914	0.327887
574.348185	0.328181
574.560438	0.328024
574.772672	0.328255
574.984888	0.328702
575.197086	0.328814
575.409266	0.328457
575.621427	0.328538
575.833570	0.328472
576.045695	0.328255
576.257802	0.328511
576.469890	0.328479
576.681961	0.328585
576.894013	0.328563
577.106046	0.328887
577.318062	0.329607
577.530059	0.329659
577.742039	0.330179
577.954000	0.330404
578.165942	0.330086
578.377867	0.329876
578.589773	0.329610
578.801661	0.329094
579.013531	0.328750
579.225382	0.328895
579.437216	0.328973
579.649031	0.328637
579.860828	0.329230
580.072606	0.329642
580.284367	0.330021
580.496109	0.330411
580.707833	0.331067
580.919539	0.331746
581.131227	0.331694
581.342896	0.331813
581.554547	0.332507
581.766180	0.332577
581.977795	0.332902
582.189391	0.333467
582.400969	0.333937
582.612529	0.334348
582.824071	0.334793
583.035595	0.335291
583.247100	0.335539
583.458587	0.335567
583.670056	0.335819
583.881506	0.335963
584.092939	0.336079
584.304353	0.336352
584.515749	0.336294
584.727127	0.336589
584.938486	0.337249
585.149828	0.337676
585.361151	0.337595
585.572456	0.337544
585.783742	0.337394
585.995011	0.337734
586.206261	0.337748
586.417493	0.338280
586.628706	0.337871
586.839902	0.337496
587.051079	0.337901
587.262238	0.338313
587.473379	0.338571
587.684502	0.339439
587.895606	0.339578
588.106692	0.340300
588.317760	0.340564
588.528810	0.340805
588.739841	0.341124
588.950855	0.341016
589.161850	0.340995
589.372827	0.341468
589.583785	0.341506
589.794726	0.342063
590.005648	0.341868
590.216552	0.341869
590.427437	0.342228
590.638305	0.342303
590.849154	0.342265
591.059985	0.342492
591.270798	0.342351
591.481592	0.342450
591.692369	0.342461
591.903127	0.342556
592.113867	0.342788
592.324588	0.342539
592.535292	0.342822
592.745977	0.343499
592.956644	0.343696
593.167293	0.344050
593.377923	0.344242
593.588536	0.344029
593.799130	0.344115
594.009706	0.344489
594.220263	0.344646
594.430803	0.344775
594.641324	0.344587
594.851827	0.345020
595.062312	0.345353
595.272778	0.345533
595.483227	0.345999
595.693657	0.346299
595.904069	0.346119
596.114462	0.346479
596.324838	0.346358
596.535195	0.346024
596.745534	0.345750
596.955855	0.345633
597.166157	0.345814
597.376441	0.345148
597.586707	0.344916
597.796955	0.344783
598.007185	0.344876
598.217396	0.345293
598.427589	0.346171
598.637764	0.346452
598.847921	0.346533
599.058060	0.346844
599.268180	0.347462
599.478282	0.348086
599.688366	0.348309
599.898431	0.348312
600.108479	0.348199
600.318508	0.347999
600.528519	0.347866
600.738511	0.348043
600.948486	0.347756
601.158442	0.348207
601.368380	0.348021
601.578300	0.348332
601.788202	0.348639
601.998085	0.348780
602.207950	0.349056
602.417797	0.349518
602.627626	0.349600
602.837436	0.349647
603.047228	0.349365
603.257002	0.349735
603.466758	0.349557
603.676496	0.350092
603.886215	0.350294
604.095916	0.350240
604.305599	0.350400
604.515264	0.350775
604.724910	0.351400
604.934538	0.351952
605.144148	0.352086
605.353740	0.352753
605.563314	0.352892
605.772869	0.353850
605.982406	0.354034
606.191925	0.354252
606.401425	0.354143
606.610908	0.354428
606.820372	0.354198
607.029818	0.354628
607.239246	0.354281
607.448655	0.354007
607.658047	0.353321
607.867420	0.353717
608.076775	0.353764
608.286111	0.353884
608.495430	0.353328
608.704730	0.353543
608.914012	0.353826
609.123275	0.353962
609.332521	0.354406
609.541748	0.354686
609.750957	0.354853
609.960148	0.355021
610.169321	0.355178
610.378475	0.355311
610.587611	0.355628
610.796729	0.355162
611.005829	0.355619
611.214910	0.355641
611.423974	0.355751
611.633019	0.356152
611.842045	0.356261
612.051054	0.356786
612.260044	0.357095
612.469017	0.357047
612.677970	0.357484
612.886906	0.357763
613.095824	0.357945
613.304723	0.358172
613.513604	0.357708
613.722467	0.357994
613.931311	0.357930
614.140138	0.358278
614.348946	0.358615
614.557736	0.358508
614.766507	0.358595
614.975261	0.358534
615.183996	0.358477
615.392713	0.358861
615.601412	0.359053
615.810092	0.359253
616.018754	0.359291
616.227399	0.359109
616.436024	0.359534
616.644632	0.359926
616.853222	0.360341
617.061793	0.360695
617.270346	0.360568
617.478880	0.360788
617.687397	0.361345
617.895895	0.361482
618.104375	0.361866
618.312837	0.361844
618.521281	0.361505
618.729706	0.361558
618.938113	0.361508
619.146502	0.361895
619.354873	0.361791
619.563226	0.361392
619.771560	0.361485
619.979876	0.361710
620.188174	0.361793
620.396453	0.362111
620.604715	0.362305
620.812958	0.362837
621.021183	0.362786
621.229390	0.362973
621.437578	0.363349
621.645748	0.363658
621.853900	0.363877
622.062034	0.364098
622.270150	0.364318
622.478247	0.364300
622.686326	0.364333
622.894387	0.364708
623.102430	0.364761
623.310454	0.364921
623.518461	0.365044
623.726449	0.364904
623.934418	0.365100
624.142370	0.364697
624.350303	0.365029
624.558218	0.365160
624.766115	0.365080
624.973994	0.365142
625.181855	0.365302
625.389697	0.365438
625.597521	0.365845
625.805327	0.366206
626.013114	0.366812
626.220883	0.366952
626.428634	0.367013
626.636367	0.367679
626.844082	0.368000
627.051778	0.368216
627.259457	0.368396
627.467117	0.368380
627.674758	0.368403
627.882382	0.368711
628.089987	0.368864
628.297574	0.369098
628.505143	0.368830
628.712694	0.369166
628.920226	0.369128
629.127740	0.369148
629.335236	0.369635
629.542714	0.369772
629.750174	0.369623
629.957615	0.369413
630.165038	0.369677
630.372443	0.369961
630.579829	0.369915
630.787198	0.370142
630.994548	0.370569
631.201880	0.370654
631.409194	0.370864
631.616489	0.371028
631.823766	0.371826
632.031025	0.372101
632.238266	0.372454
632.445489	0.372262
632.652693	0.372087
632.859879	0.372386
633.067047	0.372594
633.274197	0.372666
633.481329	0.372934
633.688442	0.372779
633.895537	0.372823
634.102614	0.372828
634.309672	0.373057
634.516713	0.373475
634.723735	0.373390
634.930739	0.373395
635.137724	0.373451
635.344692	0.373847
635.551641	0.374073
635.758572	0.374068
635.965485	0.374130
636.172379	0.374757
636.379256	0.375012
636.586114	0.375161
636.792954	0.375266
636.999775	0.375408
637.206579	0.375418
637.413364	0.375655
637.620131	0.375647
637.826880	0.375713
638.033610	0.375577
638.240323	0.375436
638.447017	0.375527
638.653692	0.375460
638.860350	0.375585
639.066990	0.375643
639.273611	0.375855
639.480214	0.376472
639.686798	0.376823
639.893365	0.376789
640.099913	0.377034
640.306443	0.376919
640.512955	0.377568
640.719449	0.377511
640.925924	0.377788
641.132381	0.377898
641.338820	0.377955
641.545241	0.378043
641.751644	0.378478
641.958028	0.379040
642.164394	0.379761
642.370742	0.380088
642.577071	0.380710
642.783383	0.381030
642.989676	0.381036
643.195951	0.381062
643.402207	0.381256
643.608446	0.381515
643.814666	0.381524
644.020868	0.381418
644.227052	0.381174
644.433218	0.381486
644.639365	0.381326
644.845494	0.381490
645.051605	0.381896
645.257698	0.381962
645.463772	0.382242
645.669828	0.382476
645.875866	0.382557
646.081886	0.382961
646.287888	0.382858
646.493871	0.383039
646.699836	0.383182
646.905783	0.383530
647.111712	0.383857
647.317622	0.383975
647.523514	0.384038
647.729388	0.384481
647.935244	0.384677
648.141082	0.384919
648.346901	0.385373
648.552702	0.385808
648.758485	0.385849
648.964250	0.386113
649.169996	0.386321
649.375724	0.386568
649.581434	0.386906
649.787126	0.387123
649.992800	0.387299
650.198455	0.387657
650.404092	0.387647
650.609711	0.387762
650.815311	0.387715
651.020894	0.387770
651.226458	0.387719
651.432004	0.387924
651.637532	0.387776
651.843041	0.387895
652.048532	0.388204
652.254006	0.388516
652.459460	0.388622
652.664897	0.388978
652.870315	0.389328
653.075716	0.389690
653.281097	0.389576
653.486461	0.390099
653.691807	0.390374
653.897134	0.389997
654.102443	0.390194
654.307734	0.390427
654.513006	0.390854
654.718261	0.391149
654.923497	0.391172
655.128715	0.391518
655.333915	0.391688
655.539096	0.391809
655.744259	0.392078
655.949404	0.392084
656.154531	0.392006
656.359640	0.392135
656.564730	0.392129
656.769802	0.392393
656.974856	0.392398
657.179892	0.392440
657.384909	0.392930
657.589908	0.393216
657.794889	0.393753
657.999852	0.394323
658.204797	0.394310
658.409723	0.394739
658.614631	0.394751
658.819521	0.395191
659.024393	0.395358
659.229246	0.395204
659.434081	0.395734
659.638898	0.395651
659.843697	0.395523
660.048478	0.396030
660.253240	0.396060
660.457984	0.396710
660.662710	0.396858
660.867417	0.397114
661.072107	0.397251
661.276778	0.397483
661.481431	0.397847
661.686066	0.398315
661.890682	0.398358
662.095281	0.398517
662.299861	0.398716
662.504422	0.398855
662.708966	0.398919
662.913491	0.399190
663.117999	0.399204
663.322488	0.399417
663.526958	0.399581
663.731411	0.399550
663.935845	0.399788
664.140261	0.400091
664.344659	0.400098
664.549038	0.400325
664.753400	0.400773
664.957743	0.400917
665.162068	0.401065
665.366375	0.401208
665.570663	0.401719
665.774933	0.402046
665.979185	0.402268
666.183419	0.402820
666.387635	0.403395
666.591832	0.403647
666.796011	0.404053
667.000172	0.404344
667.204315	0.404790
667.408439	0.404881
667.612545	0.405259
667.816634	0.405251
668.020703	0.405404
668.224755	0.405458
668.428788	0.405615
668.632803	0.405675
668.836800	0.405725
669.040779	0.405832
669.244739	0.406226
669.448681	0.406291
669.652605	0.406586
669.856511	0.406950
670.060399	0.407361
670.264268	0.407893
670.468119	0.408106
670.671952	0.408573
670.875767	0.408938
671.079563	0.409064
671.283341	0.409204
671.487101	0.409558
671.690843	0.409616
671.894567	0.409770
672.098272	0.409884
672.301959	0.410326
672.505628	0.410597
672.709278	0.411201
672.912911	0.411512
673.116525	0.411847
673.320121	0.412294
673.523699	0.412632
673.727258	0.412860
673.930799	0.412989
674.134322	0.413452
674.337827	0.413645
674.541314	0.413590
674.744782	0.414057
674.948232	0.414645
675.151664	0.414908
675.355078	0.415211
675.558474	0.415516
675.761851	0.415517
675.965210	0.415463
676.168551	0.415686
676.371873	0.415949
676.575178	0.415996
676.778464	0.415686
676.981732	0.415541
677.184981	0.415536
677.388213	0.415885
677.591426	0.416454
677.794621	0.416710
677.997798	0.416771
678.200956	0.416993
678.404097	0.417184
678.607219	0.417598
678.810323	0.417736
679.013408	0.418104
679.216476	0.418013
679.419525	0.418188
679.622556	0.418287
679.825569	0.418573
680.028563	0.418374
680.231540	0.418566
680.434498	0.418877
680.637438	0.419175
680.840359	0.419490
681.043263	0.419788
681.246148	0.420138
681.449015	0.420499
681.651864	0.421025
681.854694	0.421602
682.057506	0.421726
682.260301	0.422155
682.463076	0.422420
682.665834	0.422186
682.868573	0.422475
683.071295	0.422563
683.273998	0.422636
683.476682	0.422726
683.679349	0.422752
683.881997	0.423224
684.084627	0.423148
684.287239	0.423088
684.489833	0.423634
684.692408	0.423645
684.894965	0.423524
685.097504	0.423996
685.300025	0.424106
685.502527	0.424135
685.705012	0.423938
685.907478	0.424045
686.109925	0.424449
686.312355	0.424478
686.514766	0.424978
686.717159	0.425364
686.919534	0.425544
687.121891	0.425669
687.324230	0.426281
687.526550	0.426817
687.728852	0.427038
687.931136	0.427247
688.133401	0.427319
688.335649	0.427290
688.537878	0.427524
688.740089	0.427519
688.942281	0.427630
689.144456	0.427442
689.346612	0.427551
689.548750	0.427835
689.750870	0.428085
689.952971	0.428784
690.155055	0.429246
690.357120	0.429509
690.559167	0.429946
690.761195	0.430221
690.963206	0.430662
691.165198	0.430813
691.367172	0.431206
691.569128	0.431578
691.771065	0.431466
691.972984	0.431581
692.174885	0.431595
692.376768	0.431607
692.578633	0.432063
692.780479	0.432070
692.982308	0.432012
693.184118	0.431871
693.385909	0.431757
693.587683	0.431787
693.789438	0.431804
693.991175	0.431960
694.192894	0.432151
694.394595	0.432020
694.596277	0.432223
694.797941	0.432718
694.999587	0.432913
695.201215	0.433128
695.402824	0.433549
695.604416	0.433856
695.805989	0.434402
696.007543	0.434591
696.209080	0.434889
696.410598	0.434928
696.612099	0.435179
696.813580	0.435319
697.015044	0.435278
697.216490	0.435580
697.417917	0.435891
697.619326	0.435880
697.820717	0.436147
698.022089	0.436242
698.223444	0.436320
698.424780	0.436571
698.626098	0.436758
698.827397	0.437155
699.028679	0.437135
699.229942	0.437024
699.431187	0.437292
699.632414	0.437221
699.833622	0.437379
700.034813	0.437867
700.235985	0.437363
700.437139	0.437567
700.638274	0.437573
700.839392	0.437890
701.040491	0.437789
701.241572	0.437844
701.442635	0.437767
701.643679	0.438116
701.844706	0.438064
702.045714	0.438561
702.246704	0.438485
702.447675	0.438997
702.648629	0.439136
702.849564	0.439658
703.050481	0.439773
703.251380	0.439789
703.452260	0.439601
703.653122	0.439891
703.853966	0.439768
704.054792	0.440124
704.255600	0.439896
704.456389	0.439654
704.657160	0.439522
704.857913	0.439456
705.058648	0.439907
705.259365	0.439967
705.460063	0.439862
705.660743	0.439881
705.861405	0.440005
706.062048	0.440190
706.262674	0.440399
706.463281	0.440501
706.663870	0.440406
706.864441	0.440561
707.064993	0.440630
707.265527	0.441020
707.466043	0.441419
707.666541	0.441226
707.867021	0.441127
708.067482	0.441146
708.267925	0.441087
708.468350	0.441299
708.668757	0.440978
708.869145	0.441059
709.069516	0.440939
709.269868	0.440558
709.470201	0.440697
709.670517	0.440745
709.870814	0.440913
710.071093	0.440873
710.271354	0.440730
710.471597	0.441019
710.671821	0.441224
710.872028	0.441254
711.072216	0.441378
711.272385	0.441374
711.472537	0.441614
711.672670	0.441175
711.872785	0.441072
712.072882	0.441240
712.272961	0.440909
712.473021	0.440566
712.673063	0.440234
712.873087	0.440249
713.073093	0.440133
713.273081	0.439862
713.473050	0.439951
713.673001	0.439737
713.872934	0.439661
714.072849	0.439945
714.272745	0.440108
714.472623	0.440066
714.672483	0.440341
714.872325	0.440197
715.072148	0.440154
715.271954	0.440293
715.471741	0.440776
715.671509	0.440649
715.871260	0.440521
716.070992	0.440215
716.270707	0.440361
716.470403	0.440377
716.670080	0.440385
716.869740	0.440435
717.069381	0.440280
717.269004	0.440021
717.468609	0.440293
717.668195	0.440066
717.867764	0.440075
718.067314	0.439866
718.266846	0.439682
718.466360	0.439639
718.665855	0.439558
718.865332	0.439606
719.064791	0.439685
719.264232	0.439527
719.463655	0.439964
719.663059	0.439863
719.862445	0.439798
720.061813	0.439339
720.261163	0.439165
720.460494	0.439064
720.659807	0.438685
720.859102	0.438427
721.058379	0.438090
721.257638	0.437381
721.456878	0.437406
721.656100	0.437003
721.855304	0.436957
722.054490	0.436733
722.253657	0.436393
722.452806	0.436349
722.651937	0.436348
722.851050	0.436092
723.050145	0.436050
723.249221	0.435587
723.448279	0.436006
723.647319	0.436242
723.846340	0.436386
724.045344	0.436662
724.244329	0.436433
724.443296	0.436118
724.642245	0.436258
724.841175	0.435923
725.040088	0.436565
725.238982	0.436417
725.437857	0.436039
725.636715	0.435951
725.835554	0.435663
726.034376	0.435636
726.233179	0.435511
726.431963	0.435435
726.630730	0.435724
726.829478	0.435178
727.028208	0.435147
727.226920	0.435023
727.425614	0.434743
727.624289	0.434580
727.822946	0.434597
728.021585	0.434678
728.220206	0.434657
728.418808	0.434247
728.617392	0.434123
728.815958	0.433739
729.014506	0.433613
729.213036	0.433619
729.411547	0.433392
729.610040	0.433585
729.808515	0.433126
730.006972	0.432858
730.205410	0.432834
730.403831	0.432766
730.602233	0.432671
730.800616	0.432725
730.998982	0.432864
731.197329	0.432695
731.395658	0.432293
731.593969	0.432444
731.792262	0.432173
731.990536	0.432161
732.188793	0.431895
732.387031	0.431468
732.585250	0.431121
732.783452	0.430576
732.981635	0.430260
733.179800	0.430139
733.377947	0.429857
733.576076	0.429702
733.774186	0.429471
733.972278	0.429053
734.170352	0.429209
734.368408	0.429041
734.566446	0.428756
734.764465	0.428768
734.962466	0.428561
735.160449	0.428697
735.358413	0.428752
735.556360	0.428733
735.754288	0.428431
735.952198	0.428028
736.150090	0.427859
736.347963	0.427793
736.545818	0.427586
736.743655	0.427304
736.941474	0.427144
737.139275	0.426658
737.337057	0.426251
737.534821	0.426550
737.732567	0.426201
737.930295	0.426357
738.128005	0.426039
738.325696	0.425752
738.523369	0.425571
738.721024	0.425261
738.918660	0.425401
739.116279	0.425375
739.313879	0.425092
739.511461	0.425425
739.709024	0.425122
739.906570	0.425218
740.104097	0.425214
740.301606	0.425037
740.499097	0.424870
740.696569	0.424629
740.894024	0.424442
741.091460	0.424174
741.288878	0.423868
741.486277	0.423570
741.683659	0.423368
741.881022	0.423230
742.078367	0.423273
742.275694	0.423042
742.473002	0.422870
742.670293	0.422506
742.867565	0.422525
743.064819	0.422353
743.262054	0.422024
743.459272	0.421818
743.656471	0.421408
743.853652	0.421007
744.050815	0.420776
744.247959	0.420468
744.445085	0.420587
744.642194	0.420220
744.839283	0.419970
745.036355	0.419614
745.233408	0.419303
745.430444	0.419163
745.627461	0.419142
745.824459	0.419036
746.021440	0.418624
746.218402	0.418411
746.415346	0.418213
746.612272	0.418311
746.809180	0.418463
747.006069	0.418295
747.202940	0.418346
747.399793	0.418049
747.596628	0.417763
747.793444	0.418045
747.990243	0.418007
748.187023	0.418076
748.383784	0.417786
748.580528	0.417675
748.777253	0.417698
748.973960	0.417656
749.170649	0.417880
749.367320	0.418183
749.563973	0.417835
749.760607	0.417458
749.957223	0.417497
750.153821	0.416996
750.350400	0.416828
750.546962	0.416846
750.743505	0.416715
750.940030	0.416459
751.136536	0.415948
751.333025	0.416195
751.529495	0.416079
751.725947	0.415830
751.922381	0.416090
752.118796	0.415688
752.315194	0.415432
752.511573	0.415010
752.707934	0.414664
752.904276	0.414448
753.100601	0.413775
753.296907	0.413360
753.493195	0.412860
753.689465	0.412195
753.885716	0.411929
754.081949	0.411588
754.278164	0.411317
754.474361	0.411339
754.670540	0.411117
754.866700	0.410825
755.062843	0.410757
755.258967	0.410666
755.455072	0.410479
755.651160	0.410427
755.847229	0.409987
756.043280	0.409906
756.239313	0.409454
756.435328	0.409329
756.631324	0.409247
756.827302	0.409144
757.023262	0.409166
757.219204	0.409191
757.415127	0.409064
757.611033	0.409150
757.806920	0.409151
758.002788	0.409038
758.198639	0.408519
758.394471	0.408484
758.590286	0.408417
758.786081	0.407907
758.981859	0.407608
759.177619	0.407694
759.373360	0.407539
759.569083	0.407462
759.764788	0.407235
759.960474	0.407523
760.156143	0.407325
760.351793	0.406934
760.547425	0.407046
760.743038	0.406982
760.938634	0.406716
761.134211	0.406657
761.329770	0.406283
761.525311	0.406435
761.720833	0.405980
761.916338	0.405836
762.111824	0.405749
762.307292	0.405439
762.502741	0.405311
762.698173	0.405141
762.893586	0.405137
763.088981	0.405297
763.284358	0.405217
763.479716	0.405089
763.675057	0.404746
763.870379	0.404632
764.065683	0.404607
764.260968	0.404398
764.456236	0.403871
764.651485	0.403455
764.846716	0.402838
765.041929	0.402193
765.237123	0.402169
765.432299	0.402090
765.627457	0.402090
765.822597	0.401815
766.017719	0.401926
766.212822	0.401988
766.407907	0.401883
766.602974	0.401811
766.798023	0.401461
766.993054	0.401689
767.188066	0.401502
767.383060	0.401327
767.578036	0.401110
767.772993	0.400715
767.967933	0.400848
768.162854	0.400739
768.357757	0.400989
768.552642	0.401423
768.747508	0.401083
768.942356	0.401077
769.137186	0.401029
769.331998	0.401358
769.526792	0.401612
769.721567	0.401537
769.916324	0.401544
770.111063	0.401391
770.305784	0.401319
770.500486	0.401199
770.695171	0.401157
770.889837	0.400874
771.084484	0.400859
771.279114	0.400609
771.473725	0.400381
771.668318	0.400552
771.862893	0.400524
772.057450	0.400226
772.251988	0.400189
772.446509	0.399965
772.641011	0.399869
772.835494	0.399509
773.029960	0.399689
773.224407	0.399742
773.418836	0.399638
773.613247	0.399390
773.807640	0.399345
774.002014	0.399125
774.196370	0.399312
774.390708	0.399473
774.585028	0.399528
774.779330	0.399253
774.973613	0.399170
775.167878	0.399065
775.362125	0.398701
775.556354	0.398582
775.750564	0.398423
775.944756	0.398569
776.138930	0.398175
776.333086	0.397998
776.527223	0.398021
776.721343	0.397895
776.915444	0.397672
777.109526	0.397993
777.303591	0.397989
777.497637	0.398541
777.691666	0.398401
777.885676	0.398793
778.079667	0.398855
778.273641	0.398853
778.467596	0.399105
778.661533	0.399024
778.855452	0.399140
779.049352	0.399388
779.243235	0.399237
779.437099	0.399405
779.630945	0.399564
779.824773	0.399654
780.018582	0.399806
780.212373	0.399835
780.406146	0.400096
780.599901	0.400108
780.793638	0.400145
780.987356	0.400024
781.181056	0.399816
781.374738	0.399749
781.568402	0.399965
781.762047	0.400008
781.955674	0.400129
782.149283	0.400124
782.342874	0.400362
782.536447	0.400242
782.730001	0.400175
782.923537	0.399928
783.117055	0.400080
783.310555	0.399813
783.504036	0.399633
783.697499	0.399465
783.890944	0.399011
784.084371	0.398920
784.277780	0.398999
784.471170	0.399226
784.664542	0.399727
784.857896	0.399530
785.051231	0.399608
785.244549	0.399651
785.437848	0.399701
785.631129	0.400040
785.824392	0.399966
786.017636	0.400111
786.210863	0.400384
786.404071	0.400329
786.597260	0.400215
786.790432	0.400266
786.983585	0.400731
787.176721	0.400984
787.369838	0.401105
787.562936	0.401350
787.756017	0.401673
787.949079	0.401733
788.142123	0.401812
788.335149	0.402016
788.528156	0.402407
788.721146	0.402389
788.914117	0.402479
789.107070	0.402668
789.300005	0.402644
789.492921	0.402640
789.685819	0.402555
789.878699	0.402716
790.071561	0.403005
790.264405	0.403201
790.457230	0.403709
790.650037	0.403704
790.842826	0.403966
791.035597	0.404440
791.228349	0.404565
791.421084	0.404920
791.613800	0.405294
791.806497	0.405518
791.999177	0.405710
792.191838	0.405409
792.384481	0.405480
792.577106	0.405475
792.769713	0.405231
792.962301	0.405255
793.154871	0.405326
793.347423	0.405112
793.539957	0.405305
793.732473	0.405059
793.924970	0.405083
794.117449	0.405382
794.309910	0.405699
794.502353	0.405685
794.694777	0.405859
794.887183	0.405782
795.079571	0.406236
795.271941	0.406311
795.464293	0.406701
795.656626	0.406959
795.848941	0.406837
796.041238	0.406706
796.233516	0.407034
796.425777	0.407323
796.618019	0.407729
796.810243	0.407603
797.002449	0.407809
797.194636	0.408328
797.386805	0.408408
797.578956	0.409055
797.771089	0.409703
797.963204	0.409748
798.155300	0.409865
798.347378	0.410031
798.539438	0.410402
798.731480	0.410423
798.923503	0.410124
799.115509	0.410250
799.307496	0.410394
799.499465	0.410171
799.691415	0.410727
799.883348	0.411146
800.075262	0.411348
800.267158	0.411698
800.459035	0.412139
800.650895	0.412263
800.842736	0.412612
801.034559	0.412654
801.226364	0.413387
801.418150	0.413615
801.609919	0.413483
801.801669	0.413831
801.993401	0.413763
802.185114	0.413887
802.376810	0.414202
802.568487	0.414667
802.760146	0.415055
802.951787	0.415193
803.143409	0.415318
803.335014	0.415578
803.526600	0.415516
803.718168	0.416133
803.909717	0.416280
804.101249	0.416447
804.292762	0.417079
804.484257	0.417188
804.675734	0.417267
804.867192	0.417375
805.058632	0.417865
805.250054	0.418473
805.441458	0.418690
805.632844	0.418615
805.824211	0.419359
806.015561	0.419060
806.206891	0.419672
806.398204	0.420155
806.589499	0.420709
806.780775	0.421372
806.972033	0.421489
807.163273	0.421829
807.354495	0.422670
807.545698	0.422803
807.736883	0.423231
807.928050	0.423426
808.119199	0.423506
808.310329	0.423899
808.501441	0.423849
808.692535	0.424275
808.883611	0.424487
809.074669	0.424955
809.265708	0.425203
809.456729	0.425644
809.647732	0.425967
809.838717	0.426371
810.029683	0.426523
810.220632	0.426966
810.411562	0.427327
810.602474	0.427680
810.793367	0.428006
810.984242	0.428205
811.175100	0.428801
811.365938	0.429095
811.556759	0.429713
811.747562	0.430170
811.938346	0.430444
812.129112	0.430961
812.319860	0.431436
812.510589	0.431606
812.701300	0.432267
812.891994	0.431856
813.082668	0.432123
813.273325	0.432446
813.463964	0.432701
813.654584	0.432698
813.845186	0.432760
814.035769	0.432893
814.226335	0.433238
814.416882	0.433306
814.607411	0.434130
814.797922	0.434646
814.988415	0.434665
815.178889	0.434879
815.369345	0.435553
815.559783	0.435912
815.750203	0.436204
815.940605	0.436215
816.130988	0.436943
816.321353	0.437101
816.511700	0.436925
816.702028	0.437506
816.892339	0.438107
817.082631	0.438595
817.272905	0.438924
817.463161	0.439519
817.653398	0.439934
817.843617	0.440139
818.033819	0.440519
818.224001	0.441110
818.414166	0.441083
818.604312	0.441445
818.794440	0.441778
818.984550	0.442326
819.174642	0.442196
819.364716	0.442722
819.554771	0.443038
819.744808	0.443262
819.934827	0.443541
820.124827	0.444609
820.314810	0.444759
820.504774	0.445085
820.694720	0.445242
820.884647	0.445965
821.074557	0.446416
821.264448	0.446987
821.454321	0.447583
821.644176	0.448364
821.834012	0.448247
822.023831	0.448758
822.213631	0.449268
822.403413	0.449899
822.593176	0.450446
822.782922	0.451024
822.972649	0.450735
823.162358	0.451464
823.352049	0.451755
823.541721	0.452606
823.731376	0.453096
823.921012	0.453485
824.110629	0.453824
824.300229	0.454219
824.489811	0.454695
824.679374	0.455691
824.868919	0.455915
825.058445	0.456507
825.247954	0.456731
825.437444	0.457316
825.626916	0.457890
825.816370	0.458397
826.005806	0.458799
826.195223	0.459419
826.384622	0.460137
826.574003	0.460745
826.763366	0.461179
826.952711	0.461450
827.142037	0.461916
827.331345	0.462077
827.520635	0.462264
827.709906	0.463138
827.899160	0.463364
828.088395	0.463529
828.277612	0.464021
828.466810	0.464488
828.655991	0.465248
828.845153	0.465511
829.034297	0.466426
829.223423	0.467061
829.412531	0.467207
829.601620	0.467691
829.790691	0.468079
829.979744	0.468328
830.168779	0.469113
830.357795	0.469404
830.546793	0.470276
830.735773	0.470329
830.924735	0.471227
831.113679	0.471628
831.302604	0.472367
831.491511	0.473013
831.680400	0.473750
831.869271	0.474025
832.058123	0.474764
832.246957	0.474850
832.435773	0.475224
832.624571	0.475317
832.813351	0.475769
833.002112	0.475963
833.190855	0.476402
833.379580	0.476888
833.568287	0.477329
833.756975	0.477419
833.945645	0.478255
834.134297	0.479108
834.322931	0.479887
834.511547	0.480333
834.700144	0.480661
834.888723	0.481125
835.077284	0.481054
835.265826	0.481231
835.454351	0.482070
835.642857	0.482296
835.831345	0.482728
836.019815	0.482933
836.208266	0.483308
836.396699	0.483773
836.585114	0.484469
836.773511	0.485392
836.961890	0.486100
837.150250	0.486339
837.338592	0.487171
837.526916	0.487800
837.715222	0.488173
837.903510	0.488923
838.091779	0.489497
838.280030	0.490209
838.468263	0.490780
838.656477	0.491029
838.844674	0.492129
839.032852	0.492457
839.221012	0.492588
839.409153	0.493470
839.597277	0.494256
839.785382	0.494844
839.973469	0.494613
840.161538	0.494861
840.349589	0.495579
840.537621	0.495380
840.725635	0.495707
840.913631	0.496196
841.101609	0.496696
841.289568	0.496699
841.477509	0.497204
841.665432	0.497897
841.853337	0.498528
842.041224	0.499349
842.229092	0.499691
842.416942	0.500135
842.604774	0.500991
842.792588	0.501673
842.980383	0.502296
843.168160	0.503181
843.355919	0.504211
843.543660	0.505266
843.731382	0.505793
843.919087	0.506867
844.106773	0.507593
844.294441	0.507917
844.482090	0.508288
844.669722	0.508807
844.857335	0.509035
845.044930	0.509058
845.232507	0.509231
845.420065	0.509390
845.607605	0.510235
845.795127	0.511029
845.982631	0.511716
846.170117	0.512045
846.357584	0.513023
846.545033	0.513820
846.732464	0.514598
846.919877	0.515044
847.107272	0.515578
847.294648	0.515489
847.482006	0.515513
847.669346	0.516084
847.856667	0.516400
848.043971	0.516930
848.231256	0.517671
848.418523	0.518130
848.605771	0.518602
848.793002	0.519488
848.980214	0.520240
849.167408	0.521261
849.354584	0.522055
849.541742	0.522904
849.728881	0.523378
849.916002	0.523623
850.103105	0.523887
850.290190	0.524492
850.477256	0.525058
850.664304	0.525689
850.851334	0.526172
851.038346	0.525968
851.225340	0.526267
851.412315	0.526457
851.599272	0.526844
851.786211	0.527706
851.973132	0.527483
852.160034	0.527217
852.346918	0.527357
852.533784	0.527636
852.720632	0.528347
852.907462	0.528609
853.094273	0.529311
853.281066	0.529741
853.467841	0.530171
853.654598	0.531244
853.841336	0.532306
854.028056	0.532377
854.214758	0.532810
854.401442	0.533339
854.588107	0.534147
854.774755	0.534308
854.961384	0.535049
855.147995	0.535190
855.334587	0.535258
855.521162	0.535698
855.707718	0.536591
855.894256	0.536916
856.080775	0.537195
856.267277	0.537505
856.453760	0.538197
856.640225	0.538419
856.826672	0.539063
857.013101	0.540430
857.199511	0.540747
857.385903	0.541555
857.572277	0.542029
857.758633	0.542325
857.944970	0.542694
858.131290	0.543828
858.317591	0.544224
858.503873	0.545067
858.690138	0.545360
858.876384	0.545469
859.062612	0.545879
859.248822	0.546506
859.435014	0.547990
859.621188	0.548655
859.807343	0.548580
859.993480	0.549437
860.179599	0.549762
860.365699	0.550197
860.551781	0.551432
860.737846	0.552058
860.923891	0.552958
861.109919	0.553242
861.295929	0.553995
861.481920	0.554333
861.667893	0.555093
861.853848	0.555926
862.039784	0.555936
862.225702	0.556894
862.411603	0.558074
862.597484	0.558310
862.783348	0.558316
862.969193	0.558469
863.155021	0.559064
863.340830	0.559548
863.526620	0.559861
863.712393	0.560297
863.898147	0.560248
864.083883	0.559569
864.269601	0.560216
864.455301	0.560911
864.640982	0.561620
864.826645	0.562026
865.012290	0.562119
865.197917	0.562264
865.383526	0.562612
865.569116	0.562877
865.754688	0.563578
865.940242	0.563559
866.125777	0.563653
866.311295	0.564188
866.496794	0.564196
866.682275	0.564441
866.867737	0.564880
867.053182	0.565461
867.238608	0.565881
867.424016	0.566093
867.609406	0.566614
867.794778	0.566857
867.980131	0.566689
868.165466	0.566884
868.350783	0.567208
868.536082	0.567243
868.721362	0.567614
868.906625	0.568001
869.091869	0.568298
869.277094	0.568559
869.462302	0.568581
869.647491	0.569151
869.832662	0.569885
870.017815	0.570466
870.202950	0.571293
870.388066	0.572038
870.573165	0.572023
870.758245	0.572738
870.943306	0.572756
871.128350	0.573353
871.313375	0.573835
871.498382	0.573999
871.683371	0.573992
871.868342	0.573968
872.053294	0.573854
872.238229	0.574557
872.423144	0.574669
872.608042	0.575473
872.792922	0.576170
872.977783	0.576234
873.162626	0.576774
873.347451	0.576693
873.532258	0.577101
873.717046	0.577220
873.901816	0.577207
874.086568	0.577194
874.271302	0.577029
874.456017	0.577250
874.640715	0.577345
874.825394	0.577449
875.010055	0.577813
875.194697	0.577728
875.379322	0.578100
875.563928	0.578302
875.748516	0.578793
875.933085	0.578770
876.117637	0.578795
876.302170	0.579262
876.486685	0.579055
876.671182	0.579786
876.855661	0.580244
877.040121	0.580935
877.224563	0.581282
877.408987	0.581089
877.593393	0.581470
877.777780	0.581448
877.962150	0.581124
878.146501	0.581703
878.330833	0.580743
878.515148	0.580946
878.699444	0.580136
878.883722	0.580273
879.067982	0.580644
879.252224	0.580899
879.436447	0.581101
879.620653	0.581912
879.804840	0.582242
879.989008	0.582956
880.173159	0.583384
880.357291	0.583873
880.541405	0.584246
880.725501	0.584170
880.909579	0.584476
881.093638	0.584628
881.277680	0.584469
881.461703	0.584250
881.645707	0.584636
881.829694	0.584581
882.013662	0.585033
882.197612	0.584771
882.381544	0.584972
882.565458	0.585074
882.749353	0.584748
882.933230	0.584794
883.117089	0.585367
883.300930	0.585603
883.484753	0.585373
883.668557	0.585488
883.852343	0.585263
884.036111	0.585161
884.219861	0.585350
884.403592	0.586064
884.587305	0.585814
884.771000	0.585734
884.954677	0.585480
885.138335	0.585544
885.321976	0.584756
885.505598	0.585012
885.689201	0.585235
885.872787	0.585150
886.056354	0.585907
886.239904	0.586791
886.423434	0.586428
886.606947	0.586521
886.790442	0.586419
886.973918	0.586835
887.157376	0.587106
887.340816	0.587424
887.524237	0.587761
887.707641	0.586811
887.891026	0.586849
888.074393	0.587819
888.257741	0.587515
888.441072	0.587874
888.624384	0.588285
888.807678	0.588343
888.990954	0.588558
889.174211	0.588551
889.357451	0.588767
889.540672	0.588666
889.723875	0.588355
889.907059	0.588649
890.090226	0.588995
890.273374	0.588216
890.456504	0.588177
890.639616	0.587362
890.822709	0.587237
891.005785	0.587288
891.188842	0.587001
891.371881	0.586644
891.554901	0.586031
891.737904	0.585031
891.920888	0.585272
892.103854	0.584539
892.286802	0.584775
892.469731	0.584870
892.652643	0.584107
892.835536	0.584168
893.018410	0.584298
893.201267	0.584962
893.384106	0.585296
893.566926	0.585249
893.749728	0.585473
893.932511	0.585194
894.115277	0.584869
894.298024	0.584832
894.480753	0.584791
894.663464	0.584795
894.846157	0.584300
895.028831	0.584371
895.211487	0.583848
895.394125	0.583555
895.576745	0.583178
895.759346	0.582765
895.941930	0.582861
896.124495	0.581836
896.307041	0.581060
896.489570	0.580941
896.672080	0.580069
896.854573	0.580453
897.037046	0.580045
897.219502	0.579759
897.401940	0.579071
897.584359	0.578753
897.766760	0.578763
897.949143	0.578069
898.131507	0.577967
898.313854	0.577857
898.496182	0.577359
898.678492	0.577152
898.860783	0.577102
899.043057	0.577708
899.225312	0.577537
899.407549	0.576180
899.589768	0.576533
899.771968	0.575683
899.954151	0.575952
900.136315	0.575678
900.318461	0.575366
900.500588	0.575033
900.682698	0.574525
900.864789	0.574363
901.046862	0.574690
901.228917	0.573397
901.410953	0.574010
901.592971	0.573327
901.774972	0.573255
901.956953	0.573215
902.138917	0.573305
902.320862	0.572064
902.502790	0.572029
902.684699	0.572465
902.866589	0.572861
903.048462	0.572311
903.230316	0.571953
903.412152	0.572183
903.593970	0.572545
903.775770	0.571094
903.957551	0.571054
904.139314	0.569392
904.321059	0.568599
904.502786	0.568036
904.684494	0.567365
904.866185	0.567115
905.047857	0.566118
905.229510	0.565124
905.411146	0.565696
905.592763	0.565658
905.774363	0.566506
905.955943	0.566243
906.137506	0.565553
906.319051	0.565336
906.500577	0.564382
906.682085	0.563832
906.863575	0.562854
907.045046	0.562287
907.226500	0.561539
907.407935	0.561169
907.589352	0.560454
907.770750	0.560413
907.952131	0.560316
908.133493	0.559938
908.314837	0.559247
908.496163	0.559369
908.677470	0.558537
908.858760	0.558045
909.040031	0.556595
909.221284	0.555939
909.402518	0.555273
909.583735	0.554446
909.764933	0.554247
909.946113	0.553747
910.127275	0.552542
910.308418	0.552267
910.489544	0.552308
910.670651	0.551826
910.851740	0.551535
911.032810	0.550316
911.213863	0.549416
911.394897	0.548725
911.575913	0.547833
911.756911	0.547597
911.937890	0.547224
912.118851	0.546079
912.299794	0.545778
912.480719	0.544626
912.661626	0.544297
912.842514	0.543208
913.023384	0.542566
913.204236	0.542093
913.385070	0.541622
913.565886	0.540193
913.746683	0.539399
913.927462	0.538850
914.108223	0.538175
914.288965	0.538117
914.469690	0.537872
914.650396	0.537367
914.831084	0.536377
915.011754	0.535500
915.192405	0.536345
915.373038	0.536272
915.553653	0.535163
915.734250	0.534230
915.914829	0.533530
916.095389	0.532537
916.275931	0.531282
916.456455	0.531082
916.636961	0.530082
916.817448	0.528145
916.997917	0.526253
917.178368	0.525580
917.358801	0.525056
917.539216	0.523587
917.719612	0.522614
917.899990	0.522620
918.080350	0.522431
918.260692	0.521544
918.441015	0.520883
918.621320	0.520513
918.801607	0.519724
918.981876	0.519448
919.162127	0.519341
919.342359	0.519005
919.522573	0.516855
919.702769	0.514767
919.882947	0.514670
920.063106	0.513729
920.243247	0.511839
920.423370	0.510889
920.603475	0.509082
920.783562	0.506913
920.963630	0.506399
921.143680	0.506972
921.323712	0.506780
921.503725	0.505144
921.683721	0.504677
921.863698	0.504461
922.043657	0.503426
922.223598	0.503400
922.403520	0.503606
922.583424	0.501565
922.763311	0.499676
922.943178	0.497229
923.123028	0.495702
923.302859	0.493496
923.482673	0.493399
923.662467	0.492457
923.842244	0.491240
924.022003	0.489759
924.201743	0.489591
924.381465	0.488285
924.561169	0.487824
924.740854	0.486872
924.920522	0.485545
925.100171	0.483971
925.279802	0.483212
925.459414	0.482075
925.639009	0.480738
925.818585	0.478978
925.998143	0.478208
926.177683	0.478087
926.357205	0.478331
926.536708	0.477911
926.716193	0.477598
926.895660	0.476412
927.075109	0.477093
927.254539	0.475069
927.433951	0.473721
927.613345	0.472515
927.792721	0.472194
927.972079	0.469386
928.151418	0.468799
928.330739	0.467399
928.510042	0.466183
928.689327	0.462487
928.868593	0.462929
929.047841	0.462480
929.227071	0.460966
929.406283	0.458026
929.585476	0.457868
929.764652	0.455901
929.943809	0.454335
930.122948	0.452868
930.302068	0.452950
930.481171	0.452166
930.660255	0.450252
930.839321	0.449229
931.018369	0.449538
931.197398	0.447986
931.376409	0.447025
931.555402	0.445525
931.734377	0.444642
931.913334	0.442835
932.092272	0.442228
932.271192	0.441579
932.450094	0.441075
932.628978	0.439401
932.807844	0.438487
932.986691	0.436999
933.165520	0.435749
933.344331	0.434039
933.523123	0.433557
933.701898	0.431719
933.880654	0.430773
934.059392	0.429195
934.238111	0.427687
934.416813	0.427084
934.595496	0.426662
934.774161	0.425204
934.952808	0.424269
935.131437	0.422897
935.310047	0.421152
935.488639	0.420719
935.667213	0.420008
935.845769	0.419268
936.024306	0.418063
936.202825	0.416786
936.381326	0.416045
936.559809	0.415366
936.738274	0.412335
936.916720	0.411287
937.095148	0.409277
937.273558	0.408837
937.451950	0.407071
937.630323	0.405582
937.808678	0.403899
937.987015	0.402326
938.165334	0.399526
938.343635	0.399313
938.521917	0.397582
938.700181	0.396744
938.878427	0.393736
939.056655	0.392522
939.234864	0.389970
939.413055	0.390128
939.591228	0.390391
939.769383	0.390088
939.947519	0.389240
940.125638	0.389218
940.303738	0.386666
940.481820	0.385725
940.659883	0.384314
940.837929	0.384101
941.015956	0.382000
941.193965	0.378685
941.371955	0.377895
941.549928	0.376661
941.727882	0.374154
941.905818	0.374602
942.083736	0.373342
942.261636	0.371370
942.439517	0.370760
942.617380	0.369694
942.795225	0.369518
942.973052	0.368489
943.150860	0.366033
943.328651	0.364880
943.506423	0.364427
943.684176	0.362113
943.861912	0.362698
944.039629	0.360751
944.217328	0.359385
944.395009	0.357980
944.572672	0.356325
944.750317	0.357389
944.927943	0.354715
945.105551	0.350550
945.283141	0.351386
945.460712	0.348007
945.638265	0.346697
945.815801	0.344635
945.993317	0.341722
946.170816	0.339687
946.348297	0.337579
946.525759	0.337769
946.703203	0.336451
946.880629	0.334626
947.058036	0.333170
947.235425	0.329157
947.412797	0.327760
947.590149	0.328992
947.767484	0.327221
947.944800	0.326061
948.122099	0.326669
948.299379	0.324397
948.476640	0.322921
948.653884	0.320050
948.831109	0.320346
949.008316	0.322868
949.185505	0.320716
949.362676	0.320138
949.539828	0.316718
949.716962	0.312663
949.894078	0.310179
950.071176	0.308551
950.248256	0.309580
950.425317	0.307731
950.602360	0.303328
950.779385	0.300423
950.956391	0.298681
951.133380	0.296673
951.310350	0.296907
951.487302	0.298369
951.664235	0.296090
951.841151	0.295550
952.018048	0.297123
952.194927	0.293886
952.371788	0.293731
952.548631	0.293115
952.725455	0.294348
952.902261	0.289459
953.079049	0.288655
953.255819	0.287536
953.432570	0.287710
953.609303	0.285051
953.786018	0.284436
953.962715	0.285208
954.139394	0.284354
954.316054	0.283899
954.492696	0.285445
954.669320	0.284249
954.845926	0.283392
955.022513	0.280884
955.199083	0.278881
955.375634	0.280682
955.552166	0.276819
955.728681	0.275343
955.905177	0.275031
956.081655	0.275232
956.258115	0.272445
956.434557	0.272197
956.610980	0.271351
956.787385	0.272488
956.963772	0.266556
957.140141	0.265265
957.316492	0.264347
957.492824	0.259648
957.669138	0.257458
957.845434	0.259697
958.021712	0.259244
958.197971	0.257557
958.374212	0.254408
958.550435	0.253935
958.726640	0.255885
958.902826	0.257329
959.078995	0.256751
959.255145	0.255293
959.431277	0.253500
959.607390	0.251905
959.783486	0.250818
959.959563	0.251193
960.135622	0.252868
960.311662	0.250437
960.487685	0.247312
960.663689	0.250574
960.839675	0.248460
961.015643	0.243864
961.191593	0.247453
961.367524	0.246696
961.543437	0.246296
961.719332	0.244976
961.895209	0.245742
962.071067	0.245060
962.246907	0.241701
962.422730	0.241394
962.598533	0.246325
962.774319	0.242556
962.950086	0.244989
963.125835	0.245974
963.301566	0.246633
963.477279	0.244353
963.652973	0.245382
963.828650	0.246788
964.004308	0.245821
964.179947	0.241634
964.355569	0.240039
964.531172	0.239518
964.706757	0.235975
964.882324	0.233552
965.057873	0.233604
965.233403	0.232428
965.408916	0.228922
965.584410	0.234140
965.759885	0.234689
965.935343	0.234954
966.110782	0.234788
966.286203	0.237599
966.461606	0.241562
966.636991	0.240586
966.812357	0.240566
966.987705	0.243147
967.163035	0.239115
967.338347	0.237518
967.513641	0.239236
967.688916	0.235369
967.864173	0.232621
968.039412	0.231449
968.214632	0.231845
968.389835	0.229390
968.565019	0.231546
968.740185	0.233620
968.915333	0.236907
969.090462	0.235747
969.265573	0.235196
969.440667	0.234795
969.615741	0.234618
969.790798	0.234375
969.965836	0.234269
970.140856	0.230531
970.315858	0.230137
970.490842	0.231392
970.665808	0.228645
970.840755	0.229509
971.015684	0.227944
971.190595	0.227542
971.365487	0.227393
971.540362	0.230174
971.715218	0.232605
971.890056	0.231312
972.064875	0.228595
972.239677	0.228764
972.414460	0.228889
972.589225	0.230229
972.763972	0.228206
972.938700	0.228889
973.113411	0.229114
973.288103	0.230796
973.462777	0.229234
973.637432	0.230434
973.812070	0.232166
973.986689	0.233205
974.161290	0.237225
974.335873	0.238421
974.510437	0.238589
974.684984	0.236469
974.859512	0.234411
975.034022	0.234561
975.208513	0.231586
975.382987	0.230346
975.557442	0.227460
975.731879	0.226931
975.906298	0.228235
976.080698	0.226780
976.255080	0.227805
976.429445	0.227894
976.603790	0.229858
976.778118	0.233289
976.952427	0.237084
977.126719	0.239449
977.300992	0.240076
977.475246	0.239530
977.649483	0.239886
977.823701	0.239773
977.997901	0.240159
978.172083	0.242041
978.346247	0.239390
978.520392	0.236665
978.694519	0.235441
978.868628	0.232287
979.042719	0.233137
979.216791	0.235391
979.390845	0.236398
979.564882	0.233593
979.738899	0.230483
979.912899	0.234062
980.086880	0.234498
980.260843	0.236200
980.434788	0.236398
980.608715	0.233847
980.782623	0.233551
980.956514	0.231705
981.130386	0.234541
981.304240	0.237910
981.478075	0.233475
981.651892	0.232736
981.825692	0.230372
981.999472	0.232151
982.173235	0.230311
982.346980	0.227286
982.520706	0.229831
982.694414	0.228527
982.868104	0.227467
983.041775	0.226948
983.215428	0.225926
983.389064	0.227403
983.562680	0.225032
983.736279	0.227204
983.909860	0.227987
984.083422	0.222730
984.256966	0.222310
984.430491	0.220979
984.603999	0.223370
984.777488	0.225040
984.950959	0.224593
985.124412	0.223792
985.297847	0.224550
985.471263	0.223327
985.644661	0.228553
985.818041	0.230575
985.991403	0.230745
986.164747	0.229893
986.338072	0.228674
986.511379	0.231902
986.684668	0.234761
986.857938	0.235076
987.031191	0.238425
987.204425	0.236561
987.377641	0.234363
987.550839	0.237151
987.724018	0.235405
987.897179	0.236931
988.070322	0.233729
988.243447	0.232625
988.416554	0.230909
988.589642	0.228577
988.762712	0.228585
988.935764	0.230729
989.108798	0.228084
989.281813	0.232266
989.454811	0.229625
989.627790	0.231892
989.800751	0.235631
989.973693	0.237252
990.146617	0.239614
990.319524	0.239572
990.492412	0.236675
990.665281	0.237951
990.838133	0.237084
991.010966	0.240021
991.183781	0.240625
991.356578	0.238702
991.529356	0.240335
991.702117	0.236537
991.874859	0.234541
992.047583	0.236038
992.220288	0.235799
992.392976	0.235031
992.565645	0.234264
992.738296	0.231959
992.910929	0.230849
993.083543	0.228233
993.256139	0.230105
993.428718	0.233499
993.601277	0.233225
993.773819	0.230795
993.946342	0.231599
994.118848	0.232557
994.291335	0.234080
994.463803	0.233889
994.636254	0.231677
994.808686	0.232892
994.981100	0.232166
995.153496	0.233781
995.325874	0.233739
995.498233	0.231423
995.670574	0.229171
995.842897	0.228414
996.015202	0.228385
996.187488	0.229055
996.359757	0.227621
996.532007	0.227076
996.704239	0.226186
996.876452	0.229334
997.048648	0.232149
997.220825	0.231699
997.392984	0.231179
997.565124	0.229716
997.737247	0.232055
997.909351	0.232892
998.081437	0.231988
998.253505	0.230998
998.425554	0.228729
998.597586	0.227194
998.769599	0.229356
998.941594	0.227175
999.113571	0.228627
999.285529	0.228133
999.457469	0.227198
999.629391	0.230724
999.801295	0.230518
999.973181	0.230822
1000.145048	0.231373
1000.316897	0.231249
1000.488728	0.232311
1000.660541	0.231483
1000.832335	0.232956
1001.004111	0.234902
1001.175869	0.232494
1001.347609	0.230351
1001.519331	0.230115
1001.691034	0.229202
1001.862719	0.228803
1002.034386	0.230813
1002.206035	0.231252
1002.377665	0.231933
1002.549277	0.231229
1002.720871	0.231432
1002.892447	0.232802
1003.064004	0.232598
1003.235544	0.232577
1003.407065	0.231760
1003.578568	0.229956
1003.750052	0.230297
1003.921519	0.229023
1004.092967	0.228752
1004.264397	0.225200
1004.435809	0.225186
1004.607202	0.226725
1004.778577	0.226827
1004.949934	0.226218
1005.121273	0.227234
1005.292594	0.226141
1005.463896	0.225469
1005.635180	0.224923
1005.806446	0.227590
1005.977694	0.230068
1006.148923	0.229749
1006.320135	0.230287
1006.491328	0.231359
1006.662503	0.230590
1006.833659	0.232251
1007.004798	0.231308
1007.175918	0.230926
1007.347020	0.230467
1007.518103	0.230126
1007.689169	0.230409
1007.860216	0.230005
1008.031245	0.231096
1008.202256	0.232588
1008.373248	0.231481
1008.544223	0.231807
1008.715179	0.231501
1008.886117	0.233315
1009.057036	0.232496
1009.227938	0.231563
1009.398821	0.229977
1009.569686	0.229412
1009.740533	0.229469
1009.911361	0.229253
1010.082172	0.230897
1010.252964	0.234002
1010.423738	0.231873
1010.594493	0.231071
1010.765231	0.232066
1010.935950	0.234093
1011.106651	0.230949
1011.277334	0.228032
1011.447998	0.228594
1011.618645	0.226361
1011.789273	0.223165
1011.959882	0.224761
1012.130474	0.224689
1012.301048	0.226172
1012.471603	0.226078
1012.642140	0.229239
1012.812658	0.233134
1012.983159	0.233464
1013.153641	0.236854
1013.324105	0.238060
1013.494551	0.240430
1013.664979	0.241249
1013.835388	0.239802
1014.005779	0.238216
1014.176152	0.238551
1014.346507	0.236246
1014.516843	0.234713
1014.687162	0.232891
1014.857462	0.232224
1015.027744	0.228648
1015.198007	0.226116
1015.368252	0.223930
1015.538480	0.224716
1015.708689	0.223752
1015.878879	0.224792
1016.049052	0.225677
1016.219206	0.226975
1016.389342	0.227120
1016.559460	0.228343
1016.729559	0.230951
1016.899641	0.233224
1017.069704	0.234956
1017.239749	0.234779
1017.409775	0.230715
1017.579784	0.229468
1017.749774	0.227792
1017.919746	0.227166
1018.089700	0.227305
1018.259635	0.226536
1018.429553	0.225091
1018.599452	0.222807
1018.769333	0.224650
1018.939195	0.227053
1019.109040	0.226538
1019.278866	0.225828
1019.448674	0.227681
1019.618464	0.229305
1019.788235	0.226991
1019.957989	0.226336
1020.127724	0.227433
1020.297441	0.223480
1020.467139	0.222026
1020.636820	0.223421
1020.806482	0.222653
1020.976126	0.220876
1021.145752	0.217126
1021.315359	0.218427
1021.484948	0.217504
1021.654519	0.214555
1021.824072	0.216601
1021.993607	0.215980
1022.163123	0.215381
1022.332621	0.215246
1022.502101	0.215380
1022.671563	0.215856
1022.841007	0.217924
1023.010432	0.220374
1023.179839	0.222260
1023.349228	0.221720
1023.518598	0.222598
1023.687951	0.222179
1023.857285	0.223397
1024.026601	0.223912
1024.195899	0.224485
1024.365178	0.224145
1024.534439	0.221588
1024.703682	0.222844
1024.872907	0.222579
1025.042114	0.223090
1025.211302	0.223492
1025.380472	0.224827
1025.549624	0.225759
1025.718758	0.226602
1025.887873	0.226123
1026.056970	0.226055
1026.226049	0.223694
1026.395110	0.226112
1026.564153	0.227310
1026.733177	0.225903
1026.902183	0.224809
1027.071171	0.223836
1027.240141	0.223093
1027.409092	0.223181
1027.578026	0.225433
1027.746940	0.224945
1027.915837	0.224607
1028.084716	0.223833
1028.253576	0.223754
1028.422418	0.222730
1028.591242	0.221601
1028.760048	0.218438
1028.928835	0.217580
1029.097604	0.214377
1029.266355	0.217520
1029.435088	0.215142
1029.603803	0.215294
1029.772499	0.216026
1029.941177	0.216783
1030.109837	0.218891
1030.278478	0.222092
1030.447102	0.220744
1030.615707	0.223884
1030.784294	0.222080
1030.952863	0.222613
1031.121413	0.222053
1031.289945	0.225610
1031.458460	0.227162
1031.626955	0.225768
1031.795433	0.224675
1031.963892	0.226810
1032.132334	0.225042
1032.300756	0.225807
1032.469161	0.225172
1032.637548	0.226659
1032.805916	0.224422
1032.974266	0.223059
1033.142598	0.220368
1033.310911	0.219807
1033.479207	0.217327
1033.647484	0.219005
1033.815743	0.216134
1033.983983	0.216179
1034.152206	0.214743
1034.320410	0.214739
1034.488596	0.215833
1034.656764	0.217405
1034.824914	0.219016
1034.993045	0.218283
1035.161158	0.217951
1035.329253	0.220444
1035.497330	0.221843
1035.665388	0.219704
1035.833428	0.217306
1036.001450	0.216885
1036.169454	0.216886
1036.337440	0.215237
1036.505407	0.218735
1036.673356	0.217320
1036.841287	0.217807
1037.009200	0.215470
1037.177094	0.216617
1037.344970	0.219551
1037.512828	0.216898
1037.680668	0.218276
1037.848489	0.219733
1038.016293	0.216590
1038.184078	0.215255
1038.351845	0.212488
1038.519593	0.213244
1038.687324	0.215659
1038.855036	0.214809
1039.022730	0.214973
1039.190406	0.213877
1039.358063	0.214439
1039.525702	0.217607
1039.693323	0.219839
1039.860926	0.222944
1040.028511	0.224267
1040.196077	0.223021
1040.363625	0.224136
1040.531155	0.227962
1040.698667	0.227271
1040.866161	0.226482
1041.033636	0.225463
1041.201093	0.225191
1041.368532	0.224597
1041.535952	0.224300
1041.703355	0.224609
1041.870739	0.221845
1042.038105	0.220910
1042.205452	0.219105
1042.372782	0.219160
1042.540093	0.218624
1042.707386	0.217299
1042.874661	0.216725
1043.041918	0.213669
1043.209156	0.213522
1043.376376	0.214216
1043.543578	0.211160
1043.710762	0.214425
1043.877927	0.215875
1044.045074	0.215389
1044.212203	0.215614
1044.379314	0.215254
1044.546407	0.217168
1044.713481	0.217636
1044.880537	0.219030
1045.047575	0.218858
1045.214595	0.218308
1045.381596	0.216705
1045.548579	0.217943
1045.715544	0.218878
1045.882491	0.220875
1046.049420	0.222300
1046.216330	0.221666
1046.383222	0.221380
1046.550096	0.224219
1046.716951	0.225294
1046.883789	0.223823
1047.050608	0.222718
1047.217409	0.223018
1047.384192	0.221805
1047.550956	0.222379
1047.717703	0.223623
1047.884431	0.223132
1048.051140	0.221880
1048.217832	0.221382
1048.384505	0.222025
1048.551161	0.222568
1048.717798	0.222772
1048.884416	0.222499
1049.051017	0.222823
1049.217599	0.221628
1049.384163	0.222216
1049.550709	0.220794
1049.717237	0.219357
1049.883746	0.221328
1050.050237	0.219984
1050.216710	0.217538
1050.383165	0.216314
1050.549601	0.214782
1050.716019	0.216062
1050.882420	0.214916
1051.048801	0.214844
1051.215165	0.216015
1051.381510	0.214345
1051.547837	0.213835
1051.714146	0.215770
1051.880437	0.216716
1052.046709	0.216987
1052.212964	0.215118
1052.379200	0.214985
1052.545417	0.218757
1052.711617	0.219101
1052.877798	0.217990
1053.043961	0.220524
1053.210106	0.221442
1053.376233	0.220345
1053.542341	0.219884
1053.708432	0.220069
1053.874504	0.219951
1054.040557	0.218494
1054.206593	0.217443
1054.372610	0.219263
1054.538609	0.217140
1054.704590	0.217195
1054.870553	0.219497
1055.036497	0.218552
1055.202424	0.218774
1055.368331	0.215888
1055.534221	0.215448
1055.700093	0.215622
1055.865946	0.217412
1056.031781	0.219744
1056.197598	0.217998
1056.363397	0.214858
1056.529177	0.215636
1056.694939	0.216269
1056.860683	0.218587
1057.026409	0.216406
1057.192116	0.215607
1057.357806	0.214132
1057.523477	0.213551
1057.689130	0.215851
1057.854764	0.215653
1058.020381	0.215514
1058.185979	0.214908
1058.351559	0.217576
1058.517120	0.219330
1058.682664	0.220011
1058.848189	0.219294
1059.013696	0.218624
1059.179185	0.217280
1059.344656	0.220030
1059.510108	0.218472
1059.675542	0.217826
1059.840958	0.217511
1060.006356	0.216585
1060.171735	0.219203
1060.337096	0.221401
1060.502439	0.221175
1060.667764	0.221014
1060.833071	0.219186
1060.998359	0.221592
1061.163629	0.224618
1061.328881	0.224712
1061.494115	0.224511
1061.659330	0.222913
1061.824527	0.220760
1061.989706	0.221983
1062.154867	0.222379
1062.320010	0.224960
1062.485134	0.225025
1062.650240	0.222428
1062.815328	0.222404
1062.980398	0.224559
1063.145449	0.221065
1063.310482	0.220567
1063.475497	0.220464
1063.640494	0.218615
1063.805473	0.218423
1063.970433	0.218092
1064.135375	0.219761
1064.300299	0.216734
1064.465204	0.217172
1064.630092	0.222348
1064.794961	0.223845
1064.959812	0.223416
1065.124645	0.226495
1065.289459	0.228329
1065.454256	0.228333
1065.619034	0.226258
1065.783793	0.228876
1065.948535	0.228486
1066.113258	0.229239
1066.277964	0.228133
1066.442651	0.227198
1066.607319	0.227714
1066.771970	0.225942
1066.936602	0.224434
1067.101216	0.225809
1067.265812	0.224633
1067.430389	0.223929
1067.594949	0.220177
1067.759490	0.222502
1067.924013	0.225860
1068.088518	0.224495
1068.253004	0.224314
1068.417472	0.226839
1068.581922	0.225748
1068.746354	0.227538
1068.910768	0.227203
1069.075163	0.228968
1069.239540	0.225586
1069.403899	0.223990
1069.568240	0.224903
1069.732562	0.221657
1069.896866	0.221833
1070.061152	0.223708
1070.225420	0.221296
1070.389670	0.223218
1070.553901	0.221459
1070.718114	0.220620
1070.882309	0.222348
1071.046486	0.221128
1071.210644	0.227465
1071.374784	0.226019
1071.538906	0.227314
1071.703010	0.231435
1071.867096	0.231236
1072.031163	0.233577
1072.195212	0.235506
1072.359243	0.234190
1072.523256	0.232101
1072.687250	0.228793
1072.851226	0.229723
1073.015184	0.230829
1073.179124	0.228742
1073.343045	0.229907
1073.506949	0.230292
1073.670834	0.231698
1073.834701	0.229532
1073.998549	0.232184
1074.162380	0.234811
1074.326192	0.233979
1074.489986	0.230246
1074.653761	0.229783
1074.817519	0.230477
1074.981258	0.230033
1075.144979	0.229138
1075.308682	0.228601
1075.472367	0.228785
1075.636033	0.228091
1075.799681	0.227166
1075.963311	0.228770
1076.126923	0.226318
1076.290516	0.223020
1076.454092	0.220209
1076.617649	0.222243
1076.781187	0.224625
1076.944708	0.227579
1077.108210	0.223913
1077.271695	0.224223
1077.435160	0.222420
1077.598608	0.230122
1077.762038	0.232375
1077.925449	0.234655
1078.088842	0.236093
1078.252217	0.236261
1078.415573	0.233120
1078.578912	0.237627
1078.742232	0.238617
1078.905534	0.241653
1079.068817	0.237840
1079.232083	0.236075
1079.395330	0.237501
1079.558559	0.236341
1079.721770	0.238381
1079.884962	0.241229
1080.048136	0.240365
1080.211293	0.239571
1080.374430	0.237774
1080.537550	0.235693
1080.700651	0.236922
1080.863735	0.239701
1081.026800	0.238822
1081.189846	0.235599
1081.352875	0.233444
1081.515885	0.234586
1081.678877	0.238284
1081.841851	0.238326
1082.004807	0.240769
1082.167744	0.240239
1082.330663	0.237078
1082.493564	0.237140
1082.656447	0.241210
1082.819312	0.240911
1082.982158	0.236933
1083.144986	0.233350
1083.307796	0.234393
1083.470587	0.234302
1083.633361	0.234327
1083.796116	0.235164
1083.958853	0.236714
1084.121571	0.237164
1084.284272	0.236902
1084.446954	0.240300
1084.609618	0.241456
1084.772264	0.237846
1084.934892	0.240264
1085.097501	0.238655
1085.260092	0.234922
1085.422665	0.231525
1085.585220	0.227130
1085.747756	0.229208
1085.910274	0.229626
1086.072774	0.232617
1086.235256	0.236008
1086.397720	0.232486
1086.560165	0.231196
1086.722592	0.234538
1086.885001	0.236808
1087.047392	0.237837
1087.209764	0.236984
1087.372119	0.235686
1087.534455	0.235471
1087.696772	0.235550
1087.859072	0.239807
1088.021353	0.246555
1088.183616	0.247894
1088.345861	0.249351
1088.508088	0.250015
1088.670296	0.252831
1088.832486	0.256058
1088.994658	0.255189
1089.156812	0.255845
1089.318948	0.255933
1089.481065	0.250634
1089.643164	0.248440
1089.805245	0.241607
1089.967308	0.244466
1090.129352	0.242933
1090.291378	0.244167
1090.453386	0.243944
1090.615376	0.245214
1090.777347	0.240936
1090.939301	0.246482
1091.101236	0.246836
1091.263153	0.252541
1091.425051	0.251298
1091.586932	0.249882
1091.748794	0.248272
1091.910638	0.248867
1092.072463	0.250055
1092.234271	0.256583
1092.396060	0.252308
1092.557831	0.255634
1092.719584	0.254781
1092.881319	0.256844
1093.043035	0.257934
1093.204733	0.252552
1093.366413	0.251466
1093.528075	0.248339
1093.689718	0.239816
1093.851343	0.240733
1094.012950	0.236789
1094.174539	0.239060
1094.336110	0.236029
1094.497662	0.234957
1094.659196	0.242519
1094.820712	0.246217
1094.982210	0.247194
1095.143689	0.254725
1095.305151	0.251384
1095.466594	0.252969
1095.628018	0.251985
1095.789425	0.249426
1095.950813	0.248983
1096.112183	0.240894
1096.273535	0.233731
1096.434869	0.235524
1096.596184	0.227907
1096.757482	0.232497
1096.918761	0.235847
1097.080021	0.237328
1097.241264	0.239772
1097.402488	0.236933
1097.563694	0.237972
1097.724882	0.240758
1097.886052	0.240067
1098.047203	0.244462
1098.208336	0.244270
1098.369451	0.241055
1098.530548	0.237224
1098.691627	0.238672
1098.852687	0.238249
1099.013729	0.242017
1099.174753	0.244904
1099.335758	0.241379
1099.496746	0.241887
1099.657715	0.244160
1099.818666	0.240828
1099.979599	0.237419
1100.140513	0.234689
1100.301409	0.242424
1100.462287	0.244666
1100.623147	0.243548
1100.783989	0.247775
1100.944812	0.248868
1101.105617	0.242476
1101.266404	0.244872
1101.427173	0.250093
1101.587923	0.247782
1101.748656	0.245148
1101.909370	0.243211
1102.070066	0.248292
1102.230743	0.246316
1102.391403	0.245096
1102.552044	0.249331
1102.712667	0.247371
1102.873271	0.248905
1103.033858	0.254169
1103.194426	0.254566
1103.354976	0.254662
1103.515508	0.251223
1103.676021	0.247666
1103.836517	0.245128
1103.996994	0.246286
1104.157453	0.250175
1104.317893	0.251137
1104.478316	0.252230
1104.638720	0.247922
1104.799106	0.247483
1104.959474	0.246479
1105.119823	0.252514
1105.280155	0.253815
1105.440468	0.253445
1105.600763	0.250268
1105.761039	0.244972
1105.921298	0.242308
1106.081538	0.247225
1106.241760	0.242227
1106.401964	0.242868
1106.562149	0.240341
1106.722316	0.245152
1106.882465	0.240201
1107.042596	0.241981
1107.202709	0.246801
1107.362803	0.247950
1107.522879	0.244564
1107.682937	0.248002
1107.842977	0.246617
1108.002999	0.240431
1108.163002	0.236322
1108.322987	0.241748
1108.482954	0.244953
1108.642902	0.239775
1108.802833	0.239557
1108.962745	0.239154
1109.122639	0.244363
1109.282515	0.246800
1109.442372	0.252528
1109.602211	0.250744
1109.762032	0.247550
1109.921835	0.242017
1110.081620	0.245007
1110.241386	0.248351
1110.401134	0.252136
1110.560864	0.253449
1110.720576	0.248190
1110.880269	0.248184
1111.039945	0.253879
1111.199602	0.256364
1111.359240	0.258286
1111.518861	0.262581
1111.678463	0.255152
1111.838047	0.255243
1111.997613	0.245952
1112.157161	0.248343
1112.316690	0.255288
1112.476202	0.248248
1112.635695	0.248197
1112.795169	0.253011
1112.954626	0.245471
1113.114064	0.252899
1113.273484	0.255885
1113.432886	0.256059
1113.592270	0.257615
1113.751635	0.251830
1113.910983	0.251049
1114.070312	0.252273
1114.229622	0.250900
1114.388915	0.258326
1114.548189	0.251966
1114.707445	0.245979
1114.866683	0.242939
1115.025903	0.245593
1115.185104	0.254068
1115.344287	0.259249
1115.503452	0.257177
1115.662599	0.259518
1115.821727	0.256580
1115.980838	0.254402
1116.139930	0.256766
1116.299004	0.266026
1116.458059	0.263478
1116.617097	0.254935
1116.776116	0.252261
1116.935117	0.252714
1117.094099	0.243039
1117.253064	0.251054
1117.412010	0.253447
1117.570938	0.255947
1117.729848	0.259954
1117.888740	0.259431
1118.047613	0.258476
1118.206468	0.264734
1118.365305	0.260421
1118.524124	0.271400
1118.682924	0.265524
1118.841707	0.266531
1119.000471	0.260505
1119.159216	0.254545
1119.317944	0.252187
1119.476653	0.245832
1119.635344	0.249407
1119.794017	0.257181
1119.952672	0.249818
1120.111308	0.244363
1120.269927	0.246790
1120.428527	0.249675
1120.587108	0.246806
1120.745672	0.244114
1120.904217	0.248574
1121.062744	0.242046
1121.221253	0.237241
1121.379744	0.239395
1121.538216	0.244639
1121.696671	0.240892
1121.855107	0.243187
1122.013524	0.249483
1122.171924	0.259045
1122.330305	0.262407
1122.488668	0.257375
1122.647013	0.259670
1122.805340	0.258504
1122.963648	0.256608
1123.121938	0.266456
1123.280210	0.260182
1123.438464	0.260377
1123.596700	0.261277
1123.754917	0.265021
1123.913116	0.266121
1124.071297	0.259539
1124.229459	0.261721
1124.387604	0.266517
1124.545730	0.261543
1124.703838	0.266685
1124.861928	0.260128
1125.019999	0.259034
1125.178052	0.251117
1125.336088	0.252349
1125.494104	0.256624
1125.652103	0.258652
1125.810083	0.256127
1125.968045	0.257149
1126.125989	0.254453
1126.283915	0.253994
1126.441823	0.243789
1126.599712	0.252108
1126.757583	0.252286
1126.915436	0.257433
1127.073270	0.255553
1127.231087	0.255997
1127.388885	0.252859
1127.546665	0.250524
1127.704426	0.250326
1127.862170	0.253268
1128.019895	0.251168
1128.177602	0.251001
1128.335291	0.243646
1128.492961	0.239668
1128.650614	0.233427
1128.808248	0.233653
1128.965864	0.243432
1129.123461	0.247009
1129.281041	0.247090
1129.438602	0.235988
1129.596145	0.234061
1129.753670	0.236475
1129.911176	0.235184
1130.068665	0.237985
1130.226135	0.239223
1130.383587	0.235599
1130.541020	0.236044
1130.698436	0.245954
1130.855833	0.257230
1131.013212	0.252354
1131.170573	0.253371
1131.327915	0.263989
1131.485239	0.261974
1131.642545	0.263183
1131.799833	0.264908
1131.957103	0.261884
1132.114354	0.254288
1132.271588	0.249016
1132.428803	0.260702
1132.585999	0.259292
1132.743178	0.251181
1132.900338	0.255311
1133.057480	0.248934
1133.214604	0.246554
1133.371710	0.242098
1133.528797	0.241947
1133.685866	0.246132
1133.842917	0.247230
1133.999950	0.245312
1134.156964	0.250013
1134.313960	0.247908
1134.470938	0.247683
1134.627898	0.246601
1134.784840	0.245188
1134.941763	0.250361
1135.098668	0.252213
1135.255555	0.246148
1135.412424	0.254703
1135.569274	0.257152
1135.726107	0.262237
1135.882921	0.265247
1136.039716	0.271247
1136.196494	0.279144
1136.353253	0.268755
1136.509995	0.260268
1136.666717	0.261728
1136.823422	0.256856
1136.980109	0.252872
1137.136777	0.252741
1137.293427	0.259325
1137.450059	0.251066
1137.606672	0.243127
1137.763267	0.249502
1137.919844	0.254826
1138.076403	0.253653
1138.232944	0.257437
1138.389466	0.264943
1138.545971	0.261830
1138.702457	0.255041
1138.858924	0.260879
1139.015374	0.265583
1139.171805	0.274979
1139.328218	0.261426
1139.484613	0.271712
1139.640990	0.264105
1139.797348	0.250778
1139.953688	0.258008
1140.110010	0.265797
1140.266314	0.257768
1140.422600	0.253030
1140.578867	0.241693
1140.735116	0.257462
1140.891347	0.244775
1141.047559	0.243743
1141.203754	0.251454
1141.359930	0.254230
1141.516088	0.256636
1141.672228	0.270930
1141.828349	0.286655
1141.984452	0.284966
1142.140537	0.282663
1142.296604	0.281973
1142.452653	0.285315
1142.608683	0.283962
1142.764695	0.282959
1142.920689	0.272659
1143.076665	0.263239
1143.232622	0.267926
1143.388562	0.273093
1143.544483	0.274389
1143.700385	0.272289
1143.856270	0.267004
1144.012136	0.258567
1144.167985	0.249212
1144.323814	0.259233
1144.479626	0.258755
1144.635420	0.252328
1144.791195	0.255604
1144.946952	0.248518
1145.102691	0.254666
1145.258411	0.248864
1145.414113	0.259704
1145.569798	0.258265
1145.725463	0.240308
1145.881111	0.240040
1146.036741	0.222861
1146.192352	0.223110
1146.347945	0.230839
1146.503519	0.233954
1146.659076	0.241991
1146.814614	0.252222
1146.970134	0.257782
1147.125636	0.266790
1147.281120	0.266370
1147.436585	0.277730
1147.592032	0.273414
1147.747461	0.274570
1147.902872	0.267788
1148.058265	0.273283
1148.213639	0.263991
1148.368995	0.252781
1148.524333	0.253528
1148.679653	0.266365
1148.834954	0.270038
1148.990237	0.274896
1149.145502	0.255473
1149.300749	0.262995
1149.455977	0.262744
1149.611188	0.250953
1149.766380	0.257399
1149.921553	0.270090
1150.076709	0.263389
1150.231846	0.254752
1150.386966	0.245508
1150.542066	0.274323
1150.697149	0.271727
1150.852214	0.258978
1151.007260	0.252925
1151.162288	0.270038
1151.317298	0.254733
1151.472289	0.236336
1151.627263	0.234881
1151.782218	0.230438
1151.937155	0.210645
1152.092073	0.197174
1152.246974	0.211278
1152.401856	0.219661
1152.556720	0.198856
1152.711566	0.201806
1152.866393	0.208477
1153.021203	0.211033
1153.175994	0.214209
1153.330767	0.214927
1153.485521	0.225953
1153.640258	0.214623
1153.794976	0.218644
1153.949676	0.214191
1154.104358	0.219360
1154.259021	0.221917
1154.413667	0.227834
1154.568294	0.225816
1154.722903	0.240366
1154.877493	0.242121
1155.032066	0.262142
1155.186620	0.260035
1155.341156	0.275783
1155.495674	0.277651
1155.650173	0.297367
1155.804654	0.288274
1155.959118	0.292576
1156.113562	0.293724
1156.267989	0.287789
1156.422397	0.271283
1156.576788	0.271821
1156.731160	0.268919
1156.885513	0.266957
1157.039849	0.256594
1157.194166	0.272947
1157.348465	0.288330
1157.502746	0.274195
1157.657009	0.279240
1157.811253	0.264359
1157.965479	0.281036
1158.119687	0.281582
1158.273877	0.273318
1158.428048	0.280775
1158.582201	0.279573
1158.736337	0.245121
1158.890453	0.249540
1159.044552	0.249573
1159.198632	0.271824
1159.352694	0.255235
1159.506738	0.265142
1159.660764	0.256743
1159.814771	0.226923
1159.968761	0.223632
1160.122732	0.243669
1160.276685	0.238434
1160.430619	0.248936
1160.584535	0.236553
1160.738434	0.236867
1160.892313	0.223483
1161.046175	0.226748
1161.200019	0.244735
1161.353844	0.234889
1161.507651	0.243511
1161.661440	0.250461
1161.815210	0.254637
1161.968962	0.268362
1162.122697	0.247459
1162.276412	0.235109
1162.430110	0.232525
1162.583789	0.219302
1162.737451	0.212345
1162.891094	0.208694
1163.044718	0.206585
1163.198325	0.188960
1163.351913	0.194662
1163.505483	0.211024
1163.659035	0.229339
1163.812569	0.239460
1163.966084	0.243594
1164.119581	0.249865
1164.273060	0.246180
1164.426521	0.257070
1164.579964	0.255635
1164.733388	0.230278
1164.886794	0.240645
1165.040182	0.240122
1165.193551	0.224214
1165.346903	0.227547
1165.500236	0.242019
1165.653551	0.235242
1165.806848	0.211893
1165.960126	0.239203
1166.113386	0.229378
1166.266628	0.237656
1166.419852	0.228378
1166.573058	0.249451
1166.726245	0.241005
1166.879414	0.230516
1167.032565	0.218429
1167.185698	0.233635
1167.338812	0.209549
1167.491909	0.227856
1167.644987	0.201529
1167.798046	0.211042
1167.951088	0.202062
1168.104111	0.215134
1168.257117	0.215448
1168.410103	0.230149
1168.563072	0.222650
1168.716023	0.196887
1168.868955	0.208432
1169.021869	0.217491
1169.174765	0.214102
1169.327642	0.226321
1169.480501	0.204305
1169.633343	0.208310
1169.786165	0.202570
1169.938970	0.205867
1170.091757	0.239869
1170.244525	0.228885
1170.397275	0.196732
1170.550007	0.188920
1170.702720	0.165636
1170.855415	0.175564
1171.008092	0.173838
1171.160751	0.178607
1171.313392	0.178471
1171.466014	0.157889
1171.618619	0.228989
1171.771205	0.228989
1171.923772	0.228989
