sample name	sample
index	570
start time	 03-16-2021  03:00:50 PM


Wavelength (nm)	Absorbance
494.344910	NaN
494.563924	NaN
494.782919	NaN
495.001897	0.061051
495.220856	-0.320548
495.439797	-0.544164
495.658719	-0.523465
495.877624	-0.628262
496.096510	-1.209603
496.315378	-0.916334
496.534227	-0.850898
496.753059	-0.480062
496.971872	-0.442758
497.190667	-0.032420
497.409444	-0.010214
497.628203	-0.008073
497.846943	-0.004246
498.065665	-0.000315
498.284369	-0.001014
498.503055	-0.000462
498.721723	0.000976
498.940372	0.001262
499.159003	0.000712
499.377616	0.001185
499.596210	0.001634
499.814787	0.000646
500.033345	-0.000307
500.251885	0.000346
500.470406	-0.000335
500.688910	-0.000849
500.907395	-0.000863
501.125862	0.000065
501.344311	-0.000321
501.562742	-0.000688
501.781154	-0.000082
501.999548	0.000312
502.217924	-0.001067
502.436282	-0.000711
502.654621	-0.001798
502.872942	-0.001710
503.091245	-0.002717
503.309530	-0.001950
503.527797	-0.000828
503.746045	-0.001614
503.964275	-0.003506
504.182487	-0.002897
504.400681	-0.002338
504.618856	-0.000796
504.837013	-0.001886
505.055152	-0.000957
505.273273	-0.001917
505.491376	-0.003526
505.709460	-0.002735
505.927526	-0.002647
506.145574	-0.002988
506.363604	-0.003868
506.581615	-0.005015
506.799608	-0.003256
507.017583	-0.004180
507.235540	-0.003863
507.453478	-0.003102
507.671399	-0.003114
507.889301	-0.001147
508.107185	-0.001341
508.325050	-0.001059
508.542898	-0.000016
508.760727	-0.001103
508.978538	-0.000181
509.196330	-0.000368
509.414105	-0.000533
509.631861	-0.001175
509.849599	-0.001922
510.067319	-0.000573
510.285021	-0.000941
510.502704	-0.001348
510.720369	-0.001544
510.938016	-0.002526
511.155645	-0.002991
511.373255	-0.002694
511.590848	-0.002300
511.808422	-0.002094
512.025977	-0.003211
512.243515	-0.003953
512.461034	-0.005088
512.678536	-0.005443
512.896018	-0.004208
513.113483	-0.003302
513.330930	-0.002997
513.548358	-0.003364
513.765768	-0.004092
513.983160	-0.003738
514.200533	-0.002249
514.417889	-0.001278
514.635226	-0.000243
514.852545	-0.001044
515.069845	-0.001851
515.287128	-0.002663
515.504392	-0.002473
515.721638	-0.002766
515.938866	-0.002296
516.156075	-0.003122
516.373267	-0.002578
516.590440	-0.002645
516.807594	-0.001957
517.024731	-0.001034
517.241850	-0.001560
517.458950	-0.001225
517.676032	-0.000767
517.893095	-0.000733
518.110141	-0.000054
518.327168	-0.000349
518.544177	-0.000764
518.761168	-0.001922
518.978141	-0.001951
519.195095	-0.001391
519.412031	-0.001447
519.628949	-0.001753
519.845849	-0.002547
520.062731	-0.002889
520.279594	-0.002530
520.496439	-0.002179
520.713266	-0.001495
520.930074	-0.001793
521.146865	-0.001626
521.363637	-0.001678
521.580391	-0.001903
521.797127	-0.001300
522.013844	-0.001482
522.230543	-0.001876
522.447224	-0.001643
522.663887	-0.001796
522.880532	-0.001521
523.097158	-0.001924
523.313766	-0.002471
523.530356	-0.001966
523.746928	-0.002326
523.963481	-0.001608
524.180017	-0.001792
524.396534	-0.001787
524.613032	-0.001857
524.829513	-0.002399
525.045975	-0.002039
525.262420	-0.001949
525.478845	-0.001937
525.695253	-0.001737
525.911643	-0.002576
526.128014	-0.002619
526.344367	-0.003225
526.560702	-0.003176
526.777018	-0.003230
526.993316	-0.003338
527.209597	-0.002442
527.425858	-0.002149
527.642102	-0.002645
527.858328	-0.002436
528.074535	-0.002599
528.290724	-0.002568
528.506894	-0.002805
528.723047	-0.002975
528.939181	-0.002841
529.155297	-0.003427
529.371395	-0.003802
529.587475	-0.003347
529.803536	-0.003403
530.019579	-0.003217
530.235604	-0.002847
530.451611	-0.002512
530.667600	-0.001923
530.883570	-0.002303
531.099522	-0.001825
531.315456	-0.001547
531.531372	-0.001339
531.747269	-0.000913
531.963148	-0.001200
532.179009	-0.001639
532.394852	-0.001620
532.610676	-0.001313
532.826482	-0.000412
533.042271	-0.000190
533.258040	0.000195
533.473792	-0.000522
533.689525	-0.000817
533.905240	-0.000144
534.120937	0.000104
534.336616	0.000161
534.552277	-0.000102
534.767919	-0.000441
534.983543	-0.000941
535.199149	-0.001791
535.414736	-0.001606
535.630306	-0.001754
535.845857	-0.002092
536.061390	-0.002148
536.276904	-0.002099
536.492401	-0.002431
536.707879	-0.002365
536.923339	-0.002245
537.138781	-0.001699
537.354204	-0.001683
537.569610	-0.001379
537.784997	-0.000636
538.000366	-0.000537
538.215716	-0.000377
538.431049	-0.000094
538.646363	-0.000002
538.861659	-0.000179
539.076937	0.000099
539.292196	0.000409
539.507438	0.000561
539.722661	0.000006
539.937866	-0.000039
540.153052	-0.000518
540.368221	-0.000380
540.583371	-0.000403
540.798503	-0.000173
541.013617	-0.000667
541.228712	-0.000883
541.443789	-0.001567
541.658848	-0.001505
541.873889	-0.001255
542.088912	-0.001223
542.303916	-0.001089
542.518902	-0.001374
542.733870	-0.001229
542.948820	-0.001182
543.163752	-0.000874
543.378665	-0.000386
543.593560	-0.000829
543.808437	-0.001093
544.023295	-0.000995
544.238136	-0.001143
544.452958	-0.000960
544.667762	-0.001473
544.882548	-0.001763
545.097315	-0.002120
545.312064	-0.002226
545.526795	-0.001690
545.741508	-0.001177
545.956203	-0.000976
546.170879	-0.000891
546.385537	-0.001055
546.600177	-0.000583
546.814799	-0.000031
547.029402	0.000473
547.243988	0.000524
547.458555	0.000465
547.673103	0.000217
547.887634	0.000004
548.102146	-0.000385
548.316640	-0.000397
548.531116	-0.000530
548.745574	-0.001009
548.960013	-0.001378
549.174435	-0.001743
549.388838	-0.002059
549.603222	-0.002326
549.817589	-0.002281
550.031937	-0.001734
550.246267	-0.001562
550.460579	-0.002064
550.674873	-0.002004
550.889148	-0.001898
551.103405	-0.001680
551.317644	-0.001726
551.531865	-0.001636
551.746068	-0.001376
551.960252	-0.002002
552.174418	-0.002100
552.388566	-0.002048
552.602696	-0.002053
552.816807	-0.002319
553.030900	-0.001972
553.244975	-0.002038
553.459032	-0.002163
553.673070	-0.002548
553.887091	-0.002414
554.101093	-0.002506
554.315077	-0.002314
554.529042	-0.002221
554.742990	-0.002248
554.956919	-0.002373
555.170830	-0.002261
555.384722	-0.002311
555.598597	-0.002353
555.812453	-0.002202
556.026291	-0.002201
556.240111	-0.002175
556.453913	-0.002322
556.667696	-0.001799
556.881461	-0.002006
557.095208	-0.002179
557.308937	-0.002016
557.522647	-0.001389
557.736339	-0.001496
557.950013	-0.001775
558.163669	-0.001900
558.377307	-0.001772
558.590926	-0.001748
558.804527	-0.001366
559.018110	-0.001076
559.231675	-0.001345
559.445221	-0.001531
559.658749	-0.001609
559.872259	-0.001148
560.085751	-0.001060
560.299225	-0.001387
560.512680	-0.001613
560.726117	-0.001660
560.939536	-0.001606
561.152937	-0.001399
561.366319	-0.001745
561.579683	-0.001337
561.793029	-0.001412
562.006357	-0.001483
562.219667	-0.001051
562.432958	-0.001182
562.646231	-0.001456
562.859486	-0.001522
563.072723	-0.001406
563.285941	-0.001170
563.499141	-0.001467
563.712323	-0.001658
563.925487	-0.001483
564.138632	-0.001826
564.351760	-0.001859
564.564869	-0.001838
564.777960	-0.001963
564.991032	-0.002052
565.204087	-0.002230
565.417123	-0.002313
565.630141	-0.002285
565.843140	-0.002573
566.056122	-0.002396
566.269085	-0.002472
566.482030	-0.002528
566.694957	-0.002605
566.907866	-0.002686
567.120756	-0.002897
567.333628	-0.002885
567.546482	-0.002766
567.759318	-0.002708
567.972135	-0.002511
568.184935	-0.002569
568.397716	-0.002419
568.610478	-0.002225
568.823223	-0.002075
569.035949	-0.001871
569.248657	-0.001771
569.461347	-0.001628
569.674019	-0.001527
569.886672	-0.001420
570.099308	-0.001275
570.311925	-0.001294
570.524523	-0.001316
570.737104	-0.001550
570.949666	-0.001365
571.162210	-0.001540
571.374736	-0.001616
571.587244	-0.001482
571.799733	-0.001845
572.012205	-0.001782
572.224658	-0.001842
572.437092	-0.001978
572.649509	-0.001883
572.861907	-0.001730
573.074287	-0.001551
573.286649	-0.001309
573.498993	-0.001073
573.711318	-0.000921
573.923625	-0.001142
574.135914	-0.001215
574.348185	-0.001027
574.560438	-0.000999
574.772672	-0.001077
574.984888	-0.000947
575.197086	-0.001000
575.409266	-0.001279
575.621427	-0.001254
575.833570	-0.000986
576.045695	-0.000801
576.257802	-0.001049
576.469890	-0.000990
576.681961	-0.000934
576.894013	-0.001199
577.106046	-0.001672
577.318062	-0.001419
577.530059	-0.001419
577.742039	-0.001734
577.954000	-0.001748
578.165942	-0.001596
578.377867	-0.001904
578.589773	-0.001926
578.801661	-0.001827
579.013531	-0.001794
579.225382	-0.002233
579.437216	-0.002115
579.649031	-0.001825
579.860828	-0.001703
580.072606	-0.001777
580.284367	-0.001648
580.496109	-0.001990
580.707833	-0.001919
580.919539	-0.001726
581.131227	-0.001767
581.342896	-0.002068
581.554547	-0.002286
581.766180	-0.002412
581.977795	-0.002189
582.189391	-0.002046
582.400969	-0.002056
582.612529	-0.002432
582.824071	-0.002687
583.035595	-0.002828
583.247100	-0.002686
583.458587	-0.002684
583.670056	-0.002676
583.881506	-0.002946
584.092939	-0.003199
584.304353	-0.003470
584.515749	-0.003186
584.727127	-0.002859
584.938486	-0.002567
585.149828	-0.002457
585.361151	-0.002271
585.572456	-0.002675
585.783742	-0.002776
585.995011	-0.002485
586.206261	-0.002228
586.417493	-0.002191
586.628706	-0.002132
586.839902	-0.002186
587.051079	-0.002505
587.262238	-0.002611
587.473379	-0.002675
587.684502	-0.002320
587.895606	-0.002216
588.106692	-0.001937
588.317760	-0.002084
588.528810	-0.002292
588.739841	-0.002426
588.950855	-0.002159
589.161850	-0.002409
589.372827	-0.002080
589.583785	-0.002482
589.794726	-0.002911
590.005648	-0.003343
590.216552	-0.003682
590.427437	-0.004233
590.638305	-0.003790
590.849154	-0.003779
591.059985	-0.003484
591.270798	-0.003365
591.481592	-0.003146
591.692369	-0.003227
591.903127	-0.003102
592.113867	-0.002763
592.324588	-0.002307
592.535292	-0.002640
592.745977	-0.002706
592.956644	-0.003137
593.167293	-0.003225
593.377923	-0.003379
593.588536	-0.003041
593.799130	-0.002974
594.009706	-0.003195
594.220263	-0.003467
594.430803	-0.003278
594.641324	-0.003200
594.851827	-0.002822
595.062312	-0.003052
595.272778	-0.003223
595.483227	-0.003683
595.693657	-0.003449
595.904069	-0.003073
596.114462	-0.002886
596.324838	-0.003150
596.535195	-0.003408
596.745534	-0.003322
596.955855	-0.003017
597.166157	-0.002916
597.376441	-0.002442
597.586707	-0.002653
597.796955	-0.002910
598.007185	-0.002755
598.217396	-0.002841
598.427589	-0.002764
598.637764	-0.002715
598.847921	-0.002842
599.058060	-0.002811
599.268180	-0.002861
599.478282	-0.002617
599.688366	-0.002605
599.898431	-0.002488
600.108479	-0.002239
600.318508	-0.002119
600.528519	-0.002428
600.738511	-0.002697
600.948486	-0.002400
601.158442	-0.002293
601.368380	-0.002601
601.578300	-0.002478
601.788202	-0.002532
601.998085	-0.002474
602.207950	-0.002609
602.417797	-0.002345
602.627626	-0.002043
602.837436	-0.002094
603.047228	-0.002012
603.257002	-0.002037
603.466758	-0.002363
603.676496	-0.002185
603.886215	-0.002010
604.095916	-0.001973
604.305599	-0.002098
604.515264	-0.001884
604.724910	-0.001948
604.934538	-0.001841
605.144148	-0.001564
605.353740	-0.001243
605.563314	-0.001591
605.772869	-0.001917
605.982406	-0.001873
606.191925	-0.001978
606.401425	-0.001993
606.610908	-0.001941
606.820372	-0.001975
607.029818	-0.002271
607.239246	-0.002276
607.448655	-0.002350
607.658047	-0.002149
607.867420	-0.002108
608.076775	-0.001795
608.286111	-0.002014
608.495430	-0.001956
608.704730	-0.002170
608.914012	-0.002012
609.123275	-0.001961
609.332521	-0.001764
609.541748	-0.001647
609.750957	-0.001653
609.960148	-0.001835
610.169321	-0.001758
610.378475	-0.001872
610.587611	-0.001905
610.796729	-0.001869
611.005829	-0.001756
611.214910	-0.001919
611.423974	-0.002092
611.633019	-0.002204
611.842045	-0.002098
612.051054	-0.002099
612.260044	-0.002144
612.469017	-0.001998
612.677970	-0.002179
612.886906	-0.002509
613.095824	-0.002367
613.304723	-0.002259
613.513604	-0.002322
613.722467	-0.002323
613.931311	-0.002446
614.140138	-0.002299
614.348946	-0.002276
614.557736	-0.002435
614.766507	-0.002367
614.975261	-0.002287
615.183996	-0.002311
615.392713	-0.002300
615.601412	-0.002256
615.810092	-0.002118
616.018754	-0.002263
616.227399	-0.002459
616.436024	-0.001997
616.644632	-0.002025
616.853222	-0.001948
617.061793	-0.002124
617.270346	-0.001958
617.478880	-0.002170
617.687397	-0.002234
617.895895	-0.002265
618.104375	-0.002326
618.312837	-0.002414
618.521281	-0.002490
618.729706	-0.002545
618.938113	-0.002278
619.146502	-0.002324
619.354873	-0.001980
619.563226	-0.001920
619.771560	-0.001579
619.979876	-0.001186
620.188174	-0.001327
620.396453	-0.001197
620.604715	-0.001201
620.812958	-0.001448
621.021183	-0.001311
621.229390	-0.001411
621.437578	-0.001420
621.645748	-0.001385
621.853900	-0.001570
622.062034	-0.001218
622.270150	-0.001183
622.478247	-0.001033
622.686326	-0.000876
622.894387	-0.000967
623.102430	-0.001021
623.310454	-0.000845
623.518461	-0.001128
623.726449	-0.001029
623.934418	-0.001034
624.142370	-0.000863
624.350303	-0.001071
624.558218	-0.001169
624.766115	-0.001120
624.973994	-0.000894
625.181855	-0.001107
625.389697	-0.000814
625.597521	-0.000763
625.805327	-0.000769
626.013114	-0.000894
626.220883	-0.000992
626.428634	-0.000632
626.636367	-0.000710
626.844082	-0.000778
627.051778	-0.000692
627.259457	-0.001045
627.467117	-0.001263
627.674758	-0.001747
627.882382	-0.001568
628.089987	-0.001534
628.297574	-0.001931
628.505143	-0.001842
628.712694	-0.001924
628.920226	-0.001940
629.127740	-0.001911
629.335236	-0.001953
629.542714	-0.001770
629.750174	-0.001761
629.957615	-0.001639
630.165038	-0.001773
630.372443	-0.001856
630.579829	-0.002110
630.787198	-0.002070
630.994548	-0.002178
631.201880	-0.001979
631.409194	-0.001925
631.616489	-0.002074
631.823766	-0.001983
632.031025	-0.001748
632.238266	-0.001744
632.445489	-0.001771
632.652693	-0.001972
632.859879	-0.001649
633.067047	-0.001580
633.274197	-0.001472
633.481329	-0.001270
633.688442	-0.001271
633.895537	-0.001217
634.102614	-0.001082
634.309672	-0.000832
634.516713	-0.000696
634.723735	-0.000685
634.930739	-0.000836
635.137724	-0.000967
635.344692	-0.001134
635.551641	-0.001260
635.758572	-0.001184
635.965485	-0.001308
636.172379	-0.001470
636.379256	-0.001544
636.586114	-0.001471
636.792954	-0.001392
636.999775	-0.001184
637.206579	-0.000877
637.413364	-0.000832
637.620131	-0.000980
637.826880	-0.000928
638.033610	-0.000769
638.240323	-0.000643
638.447017	-0.000696
638.653692	-0.000689
638.860350	-0.000834
639.066990	-0.001099
639.273611	-0.001053
639.480214	-0.000979
639.686798	-0.000912
639.893365	-0.000802
640.099913	-0.000732
640.306443	-0.000724
640.512955	-0.000802
640.719449	-0.000564
640.925924	-0.000531
641.132381	-0.000655
641.338820	-0.000495
641.545241	-0.000448
641.751644	-0.000393
641.958028	-0.000228
642.164394	-0.000352
642.370742	-0.000209
642.577071	-0.000395
642.783383	-0.000476
642.989676	-0.000312
643.195951	-0.000302
643.402207	-0.000254
643.608446	-0.000278
643.814666	-0.000503
644.020868	-0.000493
644.227052	-0.000540
644.433218	-0.000451
644.639365	-0.000263
644.845494	-0.000099
645.051605	-0.000264
645.257698	-0.000413
645.463772	-0.000384
645.669828	-0.000199
645.875866	-0.000082
646.081886	-0.000088
646.287888	-0.000166
646.493871	-0.000142
646.699836	-0.000271
646.905783	-0.000086
647.111712	-0.000011
647.317622	-0.000046
647.523514	-0.000296
647.729388	-0.000351
647.935244	-0.000475
648.141082	-0.000374
648.346901	-0.000510
648.552702	-0.000667
648.758485	-0.000618
648.964250	-0.000467
649.169996	-0.000370
649.375724	-0.000223
649.581434	-0.000186
649.787126	-0.000123
649.992800	-0.000085
650.198455	-0.000100
650.404092	0.000006
650.609711	-0.000338
650.815311	-0.000513
651.020894	-0.000836
651.226458	-0.000891
651.432004	-0.000980
651.637532	-0.000827
651.843041	-0.000770
652.048532	-0.000727
652.254006	-0.000618
652.459460	-0.000775
652.664897	-0.000623
652.870315	-0.000342
653.075716	-0.000318
653.281097	-0.000006
653.486461	0.000053
653.691807	0.000032
653.897134	0.000026
654.102443	0.000054
654.307734	0.000771
654.513006	0.000694
654.718261	0.000595
654.923497	0.000552
655.128715	0.000348
655.333915	0.000365
655.539096	0.000242
655.744259	0.000246
655.949404	0.000150
656.154531	-0.000340
656.359640	-0.000252
656.564730	-0.000183
656.769802	-0.000096
656.974856	0.000132
657.179892	0.000131
657.384909	0.000366
657.589908	0.000415
657.794889	0.000511
657.999852	0.000714
658.204797	0.000698
658.409723	0.000805
658.614631	0.000913
658.819521	0.000867
659.024393	0.000888
659.229246	0.000627
659.434081	0.000605
659.638898	0.000682
659.843697	0.000934
660.048478	0.000939
660.253240	0.000787
660.457984	0.000925
660.662710	0.000953
660.867417	0.000731
661.072107	0.000901
661.276778	0.000961
661.481431	0.001000
661.686066	0.000691
661.890682	0.000675
662.095281	0.000801
662.299861	0.000775
662.504422	0.000727
662.708966	0.000905
662.913491	0.000968
663.117999	0.000994
663.322488	0.000926
663.526958	0.000901
663.731411	0.000833
663.935845	0.000765
664.140261	0.000704
664.344659	0.000813
664.549038	0.000834
664.753400	0.000642
664.957743	0.000647
665.162068	0.000640
665.366375	0.000714
665.570663	0.000944
665.774933	0.000957
665.979185	0.000969
666.183419	0.000703
666.387635	0.000704
666.591832	0.000833
666.796011	0.000932
667.000172	0.000848
667.204315	0.000700
667.408439	0.000760
667.612545	0.000805
667.816634	0.000794
668.020703	0.001015
668.224755	0.000863
668.428788	0.000836
668.632803	0.000801
668.836800	0.000921
669.040779	0.000983
669.244739	0.001063
669.448681	0.001251
669.652605	0.001294
669.856511	0.001300
670.060399	0.001357
670.264268	0.001386
670.468119	0.001511
670.671952	0.001612
670.875767	0.001807
671.079563	0.001551
671.283341	0.001404
671.487101	0.001141
671.690843	0.001045
671.894567	0.001169
672.098272	0.001176
672.301959	0.001184
672.505628	0.001223
672.709278	0.001141
672.912911	0.001204
673.116525	0.001116
673.320121	0.001426
673.523699	0.001446
673.727258	0.001332
673.930799	0.001403
674.134322	0.001361
674.337827	0.001205
674.541314	0.001384
674.744782	0.001348
674.948232	0.001491
675.151664	0.001615
675.355078	0.001820
675.558474	0.001998
675.761851	0.002078
675.965210	0.002022
676.168551	0.002252
676.371873	0.002336
676.575178	0.002622
676.778464	0.002719
676.981732	0.002657
677.184981	0.002612
677.388213	0.002600
677.591426	0.002481
677.794621	0.002584
677.997798	0.002392
678.200956	0.002132
678.404097	0.001862
678.607219	0.001819
678.810323	0.001841
679.013408	0.001925
679.216476	0.001939
679.419525	0.002034
679.622556	0.002084
679.825569	0.002284
680.028563	0.002622
680.231540	0.002875
680.434498	0.002840
680.637438	0.002733
680.840359	0.002586
681.043263	0.002542
681.246148	0.002535
681.449015	0.002541
681.651864	0.002645
681.854694	0.002457
682.057506	0.002444
682.260301	0.002582
682.463076	0.002892
682.665834	0.003092
682.868573	0.003172
683.071295	0.003237
683.273998	0.003235
683.476682	0.002795
683.679349	0.002786
683.881997	0.002739
684.084627	0.002589
684.287239	0.002379
684.489833	0.002323
684.692408	0.002354
684.894965	0.002235
685.097504	0.002152
685.300025	0.002450
685.502527	0.002492
685.705012	0.002520
685.907478	0.002609
686.109925	0.002661
686.312355	0.002603
686.514766	0.002610
686.717159	0.002711
686.919534	0.002960
687.121891	0.002805
687.324230	0.002784
687.526550	0.002904
687.728852	0.002963
687.931136	0.002894
688.133401	0.002815
688.335649	0.002844
688.537878	0.002912
688.740089	0.002687
688.942281	0.002929
689.144456	0.002817
689.346612	0.002629
689.548750	0.002584
689.750870	0.002756
689.952971	0.003002
690.155055	0.003084
690.357120	0.003082
690.559167	0.003321
690.761195	0.003223
690.963206	0.003499
691.165198	0.003672
691.367172	0.003827
691.569128	0.003736
691.771065	0.003740
691.972984	0.003819
692.174885	0.004015
692.376768	0.003991
692.578633	0.004037
692.780479	0.004019
692.982308	0.004039
693.184118	0.003833
693.385909	0.003774
693.587683	0.003548
693.789438	0.003416
693.991175	0.003123
694.192894	0.003060
694.394595	0.003106
694.596277	0.003109
694.797941	0.003032
694.999587	0.003209
695.201215	0.003118
695.402824	0.003462
695.604416	0.003501
695.805989	0.003605
696.007543	0.003554
696.209080	0.003491
696.410598	0.003496
696.612099	0.003350
696.813580	0.003357
697.015044	0.003634
697.216490	0.003382
697.417917	0.003314
697.619326	0.003418
697.820717	0.003448
698.022089	0.003547
698.223444	0.003574
698.424780	0.003835
698.626098	0.003771
698.827397	0.003551
699.028679	0.003451
699.229942	0.003467
699.431187	0.003497
699.632414	0.003452
699.833622	0.003225
700.034813	0.003223
700.235985	0.003069
700.437139	0.003029
700.638274	0.003300
700.839392	0.003409
701.040491	0.003419
701.241572	0.003358
701.442635	0.003402
701.643679	0.003745
701.844706	0.003671
702.045714	0.003672
702.246704	0.003473
702.447675	0.003304
702.648629	0.003334
702.849564	0.003612
703.050481	0.003326
703.251380	0.003341
703.452260	0.003087
703.653122	0.003057
703.853966	0.003022
704.054792	0.003311
704.255600	0.003275
704.456389	0.003158
704.657160	0.002947
704.857913	0.003088
705.058648	0.003032
705.259365	0.003338
705.460063	0.003449
705.660743	0.003615
705.861405	0.003680
706.062048	0.003384
706.262674	0.003376
706.463281	0.003397
706.663870	0.003493
706.864441	0.003436
707.064993	0.003089
707.265527	0.002941
707.466043	0.002733
707.666541	0.002739
707.867021	0.003087
708.067482	0.003141
708.267925	0.003122
708.468350	0.003079
708.668757	0.003309
708.869145	0.003324
709.069516	0.003489
709.269868	0.003636
709.470201	0.003612
709.670517	0.003509
709.870814	0.003504
710.071093	0.003458
710.271354	0.003548
710.471597	0.003556
710.671821	0.003455
710.872028	0.003397
711.072216	0.003564
711.272385	0.003478
711.472537	0.003409
711.672670	0.003311
711.872785	0.003321
712.072882	0.003134
712.272961	0.002762
712.473021	0.002937
712.673063	0.002938
712.873087	0.002621
713.073093	0.002616
713.273081	0.002694
713.473050	0.002838
713.673001	0.002604
713.872934	0.002687
714.072849	0.003088
714.272745	0.003001
714.472623	0.003020
714.672483	0.003024
714.872325	0.002907
715.072148	0.003036
715.271954	0.002947
715.471741	0.003008
715.671509	0.002980
715.871260	0.002817
716.070992	0.002772
716.270707	0.002731
716.470403	0.002789
716.670080	0.002650
716.869740	0.002472
717.069381	0.002665
717.269004	0.002869
717.468609	0.002860
717.668195	0.002717
717.867764	0.002794
718.067314	0.002623
718.266846	0.002503
718.466360	0.002563
718.665855	0.002511
718.865332	0.002239
719.064791	0.001842
719.264232	0.001787
719.463655	0.001782
719.663059	0.001625
719.862445	0.001653
720.061813	0.001817
720.261163	0.001989
720.460494	0.001918
720.659807	0.002042
720.859102	0.002132
721.058379	0.002089
721.257638	0.002089
721.456878	0.002047
721.656100	0.002034
721.855304	0.001865
722.054490	0.001672
722.253657	0.001773
722.452806	0.001575
722.651937	0.001652
722.851050	0.001349
723.050145	0.001325
723.249221	0.001239
723.448279	0.001083
723.647319	0.000976
723.846340	0.000889
724.045344	0.000664
724.244329	0.000799
724.443296	0.000736
724.642245	0.001129
724.841175	0.001005
725.040088	0.001122
725.238982	0.001202
725.437857	0.001295
725.636715	0.001470
725.835554	0.001517
726.034376	0.001252
726.233179	0.001303
726.431963	0.000993
726.630730	0.001088
726.829478	0.001002
727.028208	0.000869
727.226920	0.000730
727.425614	0.000558
727.624289	0.000552
727.822946	0.000590
728.021585	0.000598
728.220206	0.000702
728.418808	0.000506
728.617392	0.000406
728.815958	0.000354
729.014506	0.000481
729.213036	0.000466
729.411547	0.000519
729.610040	0.000611
729.808515	0.000511
730.006972	0.000609
730.205410	0.000633
730.403831	0.000626
730.602233	0.000725
730.800616	0.000460
730.998982	0.000258
731.197329	0.000007
731.395658	-0.000020
731.593969	-0.000105
731.792262	-0.000469
731.990536	-0.000418
732.188793	-0.000308
732.387031	-0.000443
732.585250	-0.000430
732.783452	-0.000353
732.981635	-0.000143
733.179800	-0.000217
733.377947	-0.000302
733.576076	-0.000142
733.774186	-0.000114
733.972278	-0.000108
734.170352	-0.000086
734.368408	-0.000287
734.566446	-0.000268
734.764465	-0.000380
734.962466	-0.000382
735.160449	-0.000334
735.358413	-0.000455
735.556360	-0.000532
735.754288	-0.000672
735.952198	-0.000596
736.150090	-0.000305
736.347963	-0.000654
736.545818	-0.000828
736.743655	-0.000886
736.941474	-0.000892
737.139275	-0.000839
737.337057	-0.000940
737.534821	-0.000705
737.732567	-0.000957
737.930295	-0.001304
738.128005	-0.001242
738.325696	-0.001302
738.523369	-0.001524
738.721024	-0.001568
738.918660	-0.001668
739.116279	-0.001848
739.313879	-0.002170
739.511461	-0.002098
739.709024	-0.002036
739.906570	-0.001854
740.104097	-0.001689
740.301606	-0.001410
740.499097	-0.001485
740.696569	-0.001483
740.894024	-0.001257
741.091460	-0.001213
741.288878	-0.001311
741.486277	-0.001259
741.683659	-0.001252
741.881022	-0.001241
742.078367	-0.001294
742.275694	-0.001051
742.473002	-0.001313
742.670293	-0.001485
742.867565	-0.001434
743.064819	-0.001151
743.262054	-0.001290
743.459272	-0.001245
743.656471	-0.001050
743.853652	-0.001328
744.050815	-0.001570
744.247959	-0.001423
744.445085	-0.001258
744.642194	-0.001516
744.839283	-0.001624
745.036355	-0.001445
745.233408	-0.001432
745.430444	-0.001644
745.627461	-0.001444
745.824459	-0.001499
746.021440	-0.001306
746.218402	-0.001439
746.415346	-0.001272
746.612272	-0.001533
746.809180	-0.001567
747.006069	-0.001753
747.202940	-0.001874
747.399793	-0.002195
747.596628	-0.001951
747.793444	-0.002104
747.990243	-0.002188
748.187023	-0.002126
748.383784	-0.001888
748.580528	-0.001809
748.777253	-0.001849
748.973960	-0.001834
749.170649	-0.001425
749.367320	-0.001385
749.563973	-0.001155
749.760607	-0.000971
749.957223	-0.000923
750.153821	-0.001001
750.350400	-0.001112
750.546962	-0.000855
750.743505	-0.000761
750.940030	-0.000827
751.136536	-0.001053
751.333025	-0.001206
751.529495	-0.001050
751.725947	-0.001199
751.922381	-0.001145
752.118796	-0.001051
752.315194	-0.001285
752.511573	-0.001394
752.707934	-0.001401
752.904276	-0.001341
753.100601	-0.001183
753.296907	-0.001434
753.493195	-0.001462
753.689465	-0.001446
753.885716	-0.001497
754.081949	-0.001365
754.278164	-0.001225
754.474361	-0.001256
754.670540	-0.001359
754.866700	-0.001571
755.062843	-0.001562
755.258967	-0.001401
755.455072	-0.001408
755.651160	-0.001370
755.847229	-0.001225
756.043280	-0.001400
756.239313	-0.001528
756.435328	-0.001628
756.631324	-0.001829
756.827302	-0.002031
757.023262	-0.002136
757.219204	-0.002225
757.415127	-0.002357
757.611033	-0.002659
757.806920	-0.002567
758.002788	-0.002642
758.198639	-0.002430
758.394471	-0.002191
758.590286	-0.001961
758.786081	-0.002017
758.981859	-0.001964
759.177619	-0.001912
759.373360	-0.001806
759.569083	-0.001801
759.764788	-0.001708
759.960474	-0.001768
760.156143	-0.001872
760.351793	-0.001887
760.547425	-0.001659
760.743038	-0.001700
760.938634	-0.001821
761.134211	-0.001667
761.329770	-0.001576
761.525311	-0.001545
761.720833	-0.001526
761.916338	-0.001244
762.111824	-0.001486
762.307292	-0.001735
762.502741	-0.001738
762.698173	-0.001552
762.893586	-0.001657
763.088981	-0.001684
763.284358	-0.001720
763.479716	-0.001788
763.675057	-0.002054
763.870379	-0.001695
764.065683	-0.001535
764.260968	-0.001342
764.456236	-0.001282
764.651485	-0.001268
764.846716	-0.001331
765.041929	-0.001131
765.237123	-0.001128
765.432299	-0.000906
765.627457	-0.001182
765.822597	-0.001332
766.017719	-0.001614
766.212822	-0.001819
766.407907	-0.001648
766.602974	-0.001599
766.798023	-0.001628
766.993054	-0.001373
767.188066	-0.001452
767.383060	-0.001223
767.578036	-0.001207
767.772993	-0.001021
767.967933	-0.000970
768.162854	-0.001088
768.357757	-0.000915
768.552642	-0.000805
768.747508	-0.001115
768.942356	-0.001102
769.137186	-0.001232
769.331998	-0.001332
769.526792	-0.001382
769.721567	-0.001306
769.916324	-0.001399
770.111063	-0.001656
770.305784	-0.001764
770.500486	-0.001590
770.695171	-0.001635
770.889837	-0.001644
771.084484	-0.001742
771.279114	-0.001733
771.473725	-0.001628
771.668318	-0.001816
771.862893	-0.001853
772.057450	-0.002072
772.251988	-0.002213
772.446509	-0.002184
772.641011	-0.002117
772.835494	-0.001817
773.029960	-0.001691
773.224407	-0.002018
773.418836	-0.001651
773.613247	-0.001455
773.807640	-0.001314
774.002014	-0.001200
774.196370	-0.001225
774.390708	-0.001476
774.585028	-0.001688
774.779330	-0.001791
774.973613	-0.001661
775.167878	-0.001873
775.362125	-0.002056
775.556354	-0.001970
775.750564	-0.001962
775.944756	-0.001916
776.138930	-0.001769
776.333086	-0.001534
776.527223	-0.001520
776.721343	-0.001400
776.915444	-0.001389
777.109526	-0.001263
777.303591	-0.001198
777.497637	-0.001189
777.691666	-0.001295
777.885676	-0.000998
778.079667	-0.001152
778.273641	-0.001240
778.467596	-0.001303
778.661533	-0.001153
778.855452	-0.001088
779.049352	-0.001076
779.243235	-0.001118
779.437099	-0.001026
779.630945	-0.001148
779.824773	-0.001005
780.018582	-0.000888
780.212373	-0.000799
780.406146	-0.000867
780.599901	-0.000947
780.793638	-0.001294
780.987356	-0.001176
781.181056	-0.001010
781.374738	-0.000988
781.568402	-0.000945
781.762047	-0.000930
781.955674	-0.000841
782.149283	-0.000771
782.342874	-0.000717
782.536447	-0.000491
782.730001	-0.000319
782.923537	-0.000300
783.117055	-0.000191
783.310555	-0.000193
783.504036	-0.000162
783.697499	-0.000320
783.890944	-0.000255
784.084371	-0.000129
784.277780	0.000051
784.471170	-0.000180
784.664542	-0.000274
784.857896	-0.000129
785.051231	-0.000139
785.244549	-0.000120
785.437848	-0.000152
785.631129	-0.000374
785.824392	-0.000446
786.017636	-0.000481
786.210863	-0.000206
786.404071	-0.000135
786.597260	-0.000324
786.790432	-0.000321
786.983585	-0.000272
787.176721	-0.000114
787.369838	0.000031
787.562936	0.000235
787.756017	0.000053
787.949079	-0.000259
788.142123	-0.000102
788.335149	-0.000373
788.528156	-0.000335
788.721146	-0.000466
788.914117	-0.000480
789.107070	-0.000292
789.300005	-0.000459
789.492921	-0.000343
789.685819	-0.000247
789.878699	-0.000506
790.071561	-0.000293
790.264405	-0.000191
790.457230	-0.000240
790.650037	-0.000193
790.842826	-0.000234
791.035597	-0.000268
791.228349	-0.000259
791.421084	-0.000138
791.613800	-0.000133
791.806497	-0.000122
791.999177	-0.000234
792.191838	-0.000092
792.384481	-0.000245
792.577106	-0.000391
792.769713	-0.000308
792.962301	-0.000402
793.154871	-0.000581
793.347423	-0.000570
793.539957	-0.000579
793.732473	-0.000387
793.924970	-0.000544
794.117449	-0.000459
794.309910	-0.000261
794.502353	-0.000290
794.694777	-0.000357
794.887183	-0.000284
795.079571	-0.000229
795.271941	-0.000347
795.464293	-0.000438
795.656626	-0.000240
795.848941	-0.000306
796.041238	-0.000329
796.233516	-0.000301
796.425777	-0.000175
796.618019	-0.000380
796.810243	-0.000414
797.002449	-0.000328
797.194636	-0.000292
797.386805	-0.000285
797.578956	-0.000207
797.771089	-0.000282
797.963204	-0.000417
798.155300	-0.000485
798.347378	-0.000260
798.539438	-0.000378
798.731480	-0.000316
798.923503	-0.000224
799.115509	-0.000315
799.307496	-0.000171
799.499465	-0.000194
799.691415	-0.000155
799.883348	0.000042
800.075262	0.000005
800.267158	0.000322
800.459035	0.000664
800.650895	0.000755
800.842736	0.001031
801.034559	0.001033
801.226364	0.001092
801.418150	0.001326
801.609919	0.001371
801.801669	0.001282
801.993401	0.001363
802.185114	0.001012
802.376810	0.000906
802.568487	0.000763
802.760146	0.000766
802.951787	0.000608
803.143409	0.000580
803.335014	0.000540
803.526600	0.000859
803.718168	0.000610
803.909717	0.000812
804.101249	0.000889
804.292762	0.000923
804.484257	0.001122
804.675734	0.001382
804.867192	0.001343
805.058632	0.001409
805.250054	0.001479
805.441458	0.001635
805.632844	0.001656
805.824211	0.001520
806.015561	0.001556
806.206891	0.001454
806.398204	0.001603
806.589499	0.001806
806.780775	0.001845
806.972033	0.001828
807.163273	0.001997
807.354495	0.002233
807.545698	0.002385
807.736883	0.002505
807.928050	0.002632
808.119199	0.002516
808.310329	0.002329
808.501441	0.002297
808.692535	0.002226
808.883611	0.001989
809.074669	0.001650
809.265708	0.001627
809.456729	0.001396
809.647732	0.001488
809.838717	0.001249
810.029683	0.001460
810.220632	0.001363
810.411562	0.001496
810.602474	0.001685
810.793367	0.001714
810.984242	0.001612
811.175100	0.001679
811.365938	0.001544
811.556759	0.001809
811.747562	0.001658
811.938346	0.001897
812.129112	0.001845
812.319860	0.001687
812.510589	0.001796
812.701300	0.001895
812.891994	0.002012
813.082668	0.001958
813.273325	0.002012
813.463964	0.002086
813.654584	0.002063
813.845186	0.002195
814.035769	0.002298
814.226335	0.002144
814.416882	0.002288
814.607411	0.002333
814.797922	0.002520
814.988415	0.002382
815.178889	0.002422
815.369345	0.002300
815.559783	0.002361
815.750203	0.002439
815.940605	0.002430
816.130988	0.002506
816.321353	0.002751
816.511700	0.002573
816.702028	0.002748
816.892339	0.002492
817.082631	0.002713
817.272905	0.002343
817.463161	0.002449
817.653398	0.002797
817.843617	0.002731
818.033819	0.002593
818.224001	0.002594
818.414166	0.002420
818.604312	0.002660
818.794440	0.002677
818.984550	0.002862
819.174642	0.002928
819.364716	0.002893
819.554771	0.002950
819.744808	0.002699
819.934827	0.002805
820.124827	0.002808
820.314810	0.002865
820.504774	0.002849
820.694720	0.002903
820.884647	0.002682
821.074557	0.002666
821.264448	0.002531
821.454321	0.002464
821.644176	0.002322
821.834012	0.002635
822.023831	0.002724
822.213631	0.002617
822.403413	0.002725
822.593176	0.002974
822.782922	0.002849
822.972649	0.002994
823.162358	0.003144
823.352049	0.003333
823.541721	0.003307
823.731376	0.003101
823.921012	0.003023
824.110629	0.002906
824.300229	0.002832
824.489811	0.002647
824.679374	0.002398
824.868919	0.002227
825.058445	0.002342
825.247954	0.002129
825.437444	0.002156
825.626916	0.002071
825.816370	0.002090
826.005806	0.002146
826.195223	0.002430
826.384622	0.002368
826.574003	0.002591
826.763366	0.002371
826.952711	0.002547
827.142037	0.002480
827.331345	0.002413
827.520635	0.002420
827.709906	0.002519
827.899160	0.002462
828.088395	0.002663
828.277612	0.002857
828.466810	0.002865
828.655991	0.002623
828.845153	0.002759
829.034297	0.003094
829.223423	0.003031
829.412531	0.002953
829.601620	0.003051
829.790691	0.002919
829.979744	0.002719
830.168779	0.002856
830.357795	0.002976
830.546793	0.002966
830.735773	0.003211
830.924735	0.003440
831.113679	0.003353
831.302604	0.003398
831.491511	0.003323
831.680400	0.003405
831.869271	0.003533
832.058123	0.003428
832.246957	0.003305
832.435773	0.003066
832.624571	0.002624
832.813351	0.002414
833.002112	0.002310
833.190855	0.002347
833.379580	0.002368
833.568287	0.002145
833.756975	0.002088
833.945645	0.002271
834.134297	0.002157
834.322931	0.002161
834.511547	0.002105
834.700144	0.002096
834.888723	0.002250
835.077284	0.002397
835.265826	0.002484
835.454351	0.002660
835.642857	0.002520
835.831345	0.002512
836.019815	0.002786
836.208266	0.003115
836.396699	0.003141
836.585114	0.003094
836.773511	0.003005
836.961890	0.002943
837.150250	0.002917
837.338592	0.002992
837.526916	0.003074
837.715222	0.003214
837.903510	0.002966
838.091779	0.002927
838.280030	0.003029
838.468263	0.002922
838.656477	0.002874
838.844674	0.002825
839.032852	0.003011
839.221012	0.003253
839.409153	0.002969
839.597277	0.003043
839.785382	0.003211
839.973469	0.003407
840.161538	0.003359
840.349589	0.003502
840.537621	0.003728
840.725635	0.003859
840.913631	0.003831
841.101609	0.004057
841.289568	0.003945
841.477509	0.004062
841.665432	0.003985
841.853337	0.004276
842.041224	0.004186
842.229092	0.004198
842.416942	0.004057
842.604774	0.003973
842.792588	0.004275
842.980383	0.004809
843.168160	0.004739
843.355919	0.004510
843.543660	0.004457
843.731382	0.004425
843.919087	0.004621
844.106773	0.004483
844.294441	0.004517
844.482090	0.004554
844.669722	0.004471
844.857335	0.004587
845.044930	0.004818
845.232507	0.004719
845.420065	0.005001
845.607605	0.004756
845.795127	0.004826
845.982631	0.004850
846.170117	0.004699
846.357584	0.004634
846.545033	0.004528
846.732464	0.004628
846.919877	0.004868
847.107272	0.005085
847.294648	0.005135
847.482006	0.005263
847.669346	0.005483
847.856667	0.005279
848.043971	0.005243
848.231256	0.005181
848.418523	0.005103
848.605771	0.005151
848.793002	0.005120
848.980214	0.005194
849.167408	0.005372
849.354584	0.005119
849.541742	0.005261
849.728881	0.005421
849.916002	0.005739
850.103105	0.006163
850.290190	0.006237
850.477256	0.006009
850.664304	0.006197
850.851334	0.006123
851.038346	0.006425
851.225340	0.006478
851.412315	0.006464
851.599272	0.006475
851.786211	0.006383
851.973132	0.006390
852.160034	0.006811
852.346918	0.006909
852.533784	0.007062
852.720632	0.007077
852.907462	0.007080
853.094273	0.007257
853.281066	0.007297
853.467841	0.007145
853.654598	0.007036
853.841336	0.006803
854.028056	0.006718
854.214758	0.006872
854.401442	0.006816
854.588107	0.007063
854.774755	0.007338
854.961384	0.007229
855.147995	0.007463
855.334587	0.007470
855.521162	0.007723
855.707718	0.007890
855.894256	0.007822
856.080775	0.008028
856.267277	0.008030
856.453760	0.007958
856.640225	0.008414
856.826672	0.008389
857.013101	0.008671
857.199511	0.008625
857.385903	0.008645
857.572277	0.008687
857.758633	0.008641
857.944970	0.008520
858.131290	0.008518
858.317591	0.007990
858.503873	0.007989
858.690138	0.008052
858.876384	0.008008
859.062612	0.008070
859.248822	0.008179
859.435014	0.008382
859.621188	0.008490
859.807343	0.008424
859.993480	0.008734
860.179599	0.008811
860.365699	0.008872
860.551781	0.008918
860.737846	0.008842
860.923891	0.008778
861.109919	0.008827
861.295929	0.008983
861.481920	0.009123
861.667893	0.009097
861.853848	0.009236
862.039784	0.009457
862.225702	0.009545
862.411603	0.009747
862.597484	0.009556
862.783348	0.009351
862.969193	0.009351
863.155021	0.009230
863.340830	0.009367
863.526620	0.009383
863.712393	0.009163
863.898147	0.009301
864.083883	0.009149
864.269601	0.009667
864.455301	0.009770
864.640982	0.009847
864.826645	0.009854
865.012290	0.010149
865.197917	0.010157
865.383526	0.010320
865.569116	0.010477
865.754688	0.010745
865.940242	0.010661
866.125777	0.010551
866.311295	0.010683
866.496794	0.010939
866.682275	0.010821
866.867737	0.011113
867.053182	0.011077
867.238608	0.010924
867.424016	0.010773
867.609406	0.010556
867.794778	0.010992
867.980131	0.011178
868.165466	0.011170
868.350783	0.011174
868.536082	0.010869
868.721362	0.010699
868.906625	0.010605
869.091869	0.010639
869.277094	0.010794
869.462302	0.010320
869.647491	0.010037
869.832662	0.009997
870.017815	0.009801
870.202950	0.009940
870.388066	0.010216
870.573165	0.010226
870.758245	0.010474
870.943306	0.010454
871.128350	0.010871
871.313375	0.011141
871.498382	0.011051
871.683371	0.011309
871.868342	0.011310
872.053294	0.011063
872.238229	0.011207
872.423144	0.011341
872.608042	0.011591
872.792922	0.011553
872.977783	0.011620
873.162626	0.011814
873.347451	0.011916
873.532258	0.011879
873.717046	0.011997
873.901816	0.012169
874.086568	0.011961
874.271302	0.011844
874.456017	0.011707
874.640715	0.011460
874.825394	0.011546
875.010055	0.011380
875.194697	0.011257
875.379322	0.011271
875.563928	0.011423
875.748516	0.011260
875.933085	0.011113
876.117637	0.011500
876.302170	0.011800
876.486685	0.011894
876.671182	0.012083
876.855661	0.012203
877.040121	0.012147
877.224563	0.011958
877.408987	0.012315
877.593393	0.012698
877.777780	0.012685
877.962150	0.012723
878.146501	0.012845
878.330833	0.013033
878.515148	0.013196
878.699444	0.013592
878.883722	0.013620
879.067982	0.013482
879.252224	0.013341
879.436447	0.013345
879.620653	0.013175
879.804840	0.012904
879.989008	0.012596
880.173159	0.012937
880.357291	0.013178
880.541405	0.013124
880.725501	0.013188
880.909579	0.013586
881.093638	0.013430
881.277680	0.013457
881.461703	0.013661
881.645707	0.013814
881.829694	0.013580
882.013662	0.013056
882.197612	0.013527
882.381544	0.013715
882.565458	0.013596
882.749353	0.014061
882.933230	0.014175
883.117089	0.014251
883.300930	0.014450
883.484753	0.014481
883.668557	0.014840
883.852343	0.014743
884.036111	0.014660
884.219861	0.014580
884.403592	0.014293
884.587305	0.014340
884.771000	0.014088
884.954677	0.013922
885.138335	0.013883
885.321976	0.013584
885.505598	0.013474
885.689201	0.013637
885.872787	0.013574
886.056354	0.013521
886.239904	0.013404
886.423434	0.013696
886.606947	0.013805
886.790442	0.014124
886.973918	0.014501
887.157376	0.014541
887.340816	0.014441
887.524237	0.014354
887.707641	0.014243
887.891026	0.014523
888.074393	0.014174
888.257741	0.013978
888.441072	0.013811
888.624384	0.013706
888.807678	0.013650
888.990954	0.013773
889.174211	0.014043
889.357451	0.014402
889.540672	0.014169
889.723875	0.014298
889.907059	0.014424
890.090226	0.014048
890.273374	0.014341
890.456504	0.014286
890.639616	0.014243
890.822709	0.013963
891.005785	0.013857
891.188842	0.013901
891.371881	0.014265
891.554901	0.014156
891.737904	0.014448
891.920888	0.013929
892.103854	0.014153
892.286802	0.014358
892.469731	0.014504
892.652643	0.014462
892.835536	0.014747
893.018410	0.014633
893.201267	0.015075
893.384106	0.015071
893.566926	0.015222
893.749728	0.014885
893.932511	0.014798
894.115277	0.014450
894.298024	0.014530
894.480753	0.014245
894.663464	0.014011
894.846157	0.013566
895.028831	0.013675
895.211487	0.013682
895.394125	0.013817
895.576745	0.013998
895.759346	0.013970
895.941930	0.013470
896.124495	0.013542
896.307041	0.013326
896.489570	0.013334
896.672080	0.013539
896.854573	0.013354
897.037046	0.013534
897.219502	0.013129
897.401940	0.013547
897.584359	0.013567
897.766760	0.013513
897.949143	0.013634
898.131507	0.013920
898.313854	0.013536
898.496182	0.013695
898.678492	0.013651
898.860783	0.013499
899.043057	0.013503
899.225312	0.013905
899.407549	0.013977
899.589768	0.013940
899.771968	0.013782
899.954151	0.014021
900.136315	0.014222
900.318461	0.014210
900.500588	0.014021
900.682698	0.013774
900.864789	0.013837
901.046862	0.013827
901.228917	0.014175
901.410953	0.013945
901.592971	0.013634
901.774972	0.013460
901.956953	0.013295
902.138917	0.013652
902.320862	0.013705
902.502790	0.013579
902.684699	0.013081
902.866589	0.012800
903.048462	0.012877
903.230316	0.013153
903.412152	0.013312
903.593970	0.013231
903.775770	0.013325
903.957551	0.013489
904.139314	0.013558
904.321059	0.014033
904.502786	0.013983
904.684494	0.013941
904.866185	0.013828
905.047857	0.013708
905.229510	0.013484
905.411146	0.013376
905.592763	0.013092
905.774363	0.012893
905.955943	0.012978
906.137506	0.013182
906.319051	0.013158
906.500577	0.012979
906.682085	0.012670
906.863575	0.013199
907.045046	0.013128
907.226500	0.013157
907.407935	0.013366
907.589352	0.013285
907.770750	0.013367
907.952131	0.013741
908.133493	0.013678
908.314837	0.013719
908.496163	0.013324
908.677470	0.012939
908.858760	0.012903
909.040031	0.013202
909.221284	0.012872
909.402518	0.012525
909.583735	0.011957
909.764933	0.011686
909.946113	0.011757
910.127275	0.011714
910.308418	0.011783
910.489544	0.011632
910.670651	0.011185
910.851740	0.011168
911.032810	0.010931
911.213863	0.010895
911.394897	0.010993
911.575913	0.011210
911.756911	0.011214
911.937890	0.011614
912.118851	0.011800
912.299794	0.011767
912.480719	0.011664
912.661626	0.011670
912.842514	0.011853
913.023384	0.012171
913.204236	0.011760
913.385070	0.011479
913.565886	0.011036
913.746683	0.011105
913.927462	0.010487
914.108223	0.010368
914.288965	0.010368
914.469690	0.010159
914.650396	0.009393
914.831084	0.008908
915.011754	0.008795
915.192405	0.008485
915.373038	0.008172
915.553653	0.008106
915.734250	0.007857
915.914829	0.008082
916.095389	0.007965
916.275931	0.008321
916.456455	0.008760
916.636961	0.008884
916.817448	0.009263
916.997917	0.008979
917.178368	0.009027
917.358801	0.009480
917.539216	0.008983
917.719612	0.009060
917.899990	0.009115
918.080350	0.009002
918.260692	0.008803
918.441015	0.008723
918.621320	0.008530
918.801607	0.008521
918.981876	0.007835
919.162127	0.008091
919.342359	0.007820
919.522573	0.007297
919.702769	0.007095
919.882947	0.007191
920.063106	0.006689
920.243247	0.006805
920.423370	0.006512
920.603475	0.007073
920.783562	0.006486
920.963630	0.006419
921.143680	0.006266
921.323712	0.005982
921.503725	0.005877
921.683721	0.005784
921.863698	0.005665
922.043657	0.005762
922.223598	0.005268
922.403520	0.005137
922.583424	0.004922
922.763311	0.004622
922.943178	0.004766
923.123028	0.005061
923.302859	0.005432
923.482673	0.004946
923.662467	0.004867
923.842244	0.004364
924.022003	0.005031
924.201743	0.005140
924.381465	0.005219
924.561169	0.004786
924.740854	0.003697
924.920522	0.003335
925.100171	0.003487
925.279802	0.003278
925.459414	0.004072
925.639009	0.003748
925.818585	0.003394
925.998143	0.003308
926.177683	0.003156
926.357205	0.003114
926.536708	0.002553
926.716193	0.002382
926.895660	0.001686
927.075109	0.000765
927.254539	0.000386
927.433951	-0.000383
927.613345	-0.000882
927.792721	-0.001672
927.972079	-0.001925
928.151418	-0.001830
928.330739	-0.001862
928.510042	-0.001625
928.689327	-0.001853
928.868593	-0.002522
929.047841	-0.002208
929.227071	-0.002130
929.406283	-0.001483
929.585476	-0.001086
929.764652	-0.001780
929.943809	-0.001913
930.122948	-0.001771
930.302068	-0.001417
930.481171	-0.001419
930.660255	-0.001705
930.839321	-0.001906
931.018369	-0.001710
931.197398	-0.002410
931.376409	-0.002094
931.555402	-0.002055
931.734377	-0.002830
931.913334	-0.003641
932.092272	-0.003963
932.271192	-0.003697
932.450094	-0.003738
932.628978	-0.004340
932.807844	-0.004253
932.986691	-0.004097
933.165520	-0.004754
933.344331	-0.004556
933.523123	-0.004864
933.701898	-0.004572
933.880654	-0.005386
934.059392	-0.005838
934.238111	-0.006344
934.416813	-0.006905
934.595496	-0.008019
934.774161	-0.008637
934.952808	-0.008503
935.131437	-0.008107
935.310047	-0.008452
935.488639	-0.008020
935.667213	-0.008534
935.845769	-0.008877
936.024306	-0.008645
936.202825	-0.007731
936.381326	-0.007843
936.559809	-0.008523
936.738274	-0.008714
936.916720	-0.008520
937.095148	-0.008795
937.273558	-0.008723
937.451950	-0.008812
937.630323	-0.009014
937.808678	-0.009896
937.987015	-0.010037
938.165334	-0.010440
938.343635	-0.010863
938.521917	-0.011583
938.700181	-0.012458
938.878427	-0.012348
939.056655	-0.011878
939.234864	-0.012574
939.413055	-0.012834
939.591228	-0.012156
939.769383	-0.012289
939.947519	-0.012314
940.125638	-0.012652
940.303738	-0.012752
940.481820	-0.012405
940.659883	-0.013021
940.837929	-0.012708
941.015956	-0.012933
941.193965	-0.013414
941.371955	-0.013602
941.549928	-0.013876
941.727882	-0.013271
941.905818	-0.013589
942.083736	-0.014794
942.261636	-0.014787
942.439517	-0.015520
942.617380	-0.015853
942.795225	-0.017555
942.973052	-0.017963
943.150860	-0.018863
943.328651	-0.018875
943.506423	-0.018325
943.684176	-0.017620
943.861912	-0.018583
944.039629	-0.018298
944.217328	-0.017939
944.395009	-0.016842
944.572672	-0.016235
944.750317	-0.016038
944.927943	-0.017110
945.105551	-0.018196
945.283141	-0.019207
945.460712	-0.018780
945.638265	-0.019141
945.815801	-0.020949
945.993317	-0.021487
946.170816	-0.022195
946.348297	-0.022020
946.525759	-0.022458
946.703203	-0.021921
946.880629	-0.021486
947.058036	-0.021570
947.235425	-0.022084
947.412797	-0.020219
947.590149	-0.021431
947.767484	-0.020895
947.944800	-0.022671
948.122099	-0.022802
948.299379	-0.022666
948.476640	-0.023031
948.653884	-0.023708
948.831109	-0.023326
949.008316	-0.024557
949.185505	-0.023279
949.362676	-0.023812
949.539828	-0.021976
949.716962	-0.022884
949.894078	-0.024298
950.071176	-0.025651
950.248256	-0.026587
950.425317	-0.026900
950.602360	-0.026594
950.779385	-0.026254
950.956391	-0.026245
951.133380	-0.026648
951.310350	-0.026629
951.487302	-0.026366
951.664235	-0.024914
951.841151	-0.022543
952.018048	-0.021981
952.194927	-0.022970
952.371788	-0.023641
952.548631	-0.022672
952.725455	-0.023563
952.902261	-0.022961
953.079049	-0.021210
953.255819	-0.021768
953.432570	-0.022698
953.609303	-0.022826
953.786018	-0.021807
953.962715	-0.020496
954.139394	-0.021132
954.316054	-0.020079
954.492696	-0.019714
954.669320	-0.022204
954.845926	-0.022147
955.022513	-0.022260
955.199083	-0.023638
955.375634	-0.021226
955.552166	-0.021866
955.728681	-0.023000
955.905177	-0.022753
956.081655	-0.024502
956.258115	-0.023187
956.434557	-0.022361
956.610980	-0.022807
956.787385	-0.021542
956.963772	-0.021867
957.140141	-0.021681
957.316492	-0.020338
957.492824	-0.019829
957.669138	-0.017836
957.845434	-0.017019
958.021712	-0.015909
958.197971	-0.016558
958.374212	-0.017259
958.550435	-0.019847
958.726640	-0.019770
958.902826	-0.018261
959.078995	-0.019321
959.255145	-0.019728
959.431277	-0.020624
959.607390	-0.022180
959.783486	-0.020507
959.959563	-0.019375
960.135622	-0.017835
960.311662	-0.016904
960.487685	-0.019082
960.663689	-0.017863
960.839675	-0.017217
961.015643	-0.015577
961.191593	-0.013122
961.367524	-0.014276
961.543437	-0.013792
961.719332	-0.014908
961.895209	-0.015984
962.071067	-0.015438
962.246907	-0.015128
962.422730	-0.013383
962.598533	-0.012604
962.774319	-0.014510
962.950086	-0.010923
963.125835	-0.012252
963.301566	-0.012625
963.477279	-0.012499
963.652973	-0.014665
963.828650	-0.014107
964.004308	-0.014886
964.179947	-0.015121
964.355569	-0.015122
964.531172	-0.016908
964.706757	-0.017953
964.882324	-0.016407
965.057873	-0.013915
965.233403	-0.012109
965.408916	-0.011905
965.584410	-0.011458
965.759885	-0.012873
965.935343	-0.013509
966.110782	-0.013187
966.286203	-0.009980
966.461606	-0.010895
966.636991	-0.013361
966.812357	-0.013708
966.987705	-0.014359
967.163035	-0.015636
967.338347	-0.013536
967.513641	-0.012423
967.688916	-0.011238
967.864173	-0.011012
968.039412	-0.010457
968.214632	-0.008646
968.389835	-0.008681
968.565019	-0.008538
968.740185	-0.007675
968.915333	-0.007113
969.090462	-0.007133
969.265573	-0.006661
969.440667	-0.006771
969.615741	-0.004343
969.790798	-0.006316
969.965836	-0.005333
970.140856	-0.005580
970.315858	-0.006332
970.490842	-0.008975
970.665808	-0.008027
970.840755	-0.009749
971.015684	-0.009720
971.190595	-0.010086
971.365487	-0.007142
971.540362	-0.004431
971.715218	-0.005810
971.890056	-0.005197
972.064875	-0.001208
972.239677	0.000499
972.414460	0.000131
972.589225	-0.000798
972.763972	0.000002
972.938700	0.000118
973.113411	-0.003139
973.288103	-0.001803
973.462777	-0.000915
973.637432	-0.003309
973.812070	-0.004458
973.986689	-0.000499
974.161290	0.002036
974.335873	-0.001706
974.510437	-0.001746
974.684984	-0.000785
974.859512	0.000073
975.034022	0.000323
975.208513	-0.000395
975.382987	-0.000913
975.557442	-0.004160
975.731879	-0.005901
975.906298	-0.002857
976.080698	-0.004189
976.255080	-0.002582
976.429445	-0.005849
976.603790	-0.007295
976.778118	-0.008331
976.952427	-0.007598
977.126719	-0.008637
977.300992	-0.007068
977.475246	-0.008703
977.649483	-0.010136
977.823701	-0.012812
977.997901	-0.008858
978.172083	-0.007546
978.346247	-0.008965
978.520392	-0.008806
978.694519	-0.007327
978.868628	-0.010017
979.042719	-0.008148
979.216791	-0.007759
979.390845	-0.007215
979.564882	-0.008568
979.738899	-0.007994
979.912899	-0.004418
980.086880	-0.003231
980.260843	-0.001751
980.434788	0.000230
980.608715	-0.001352
980.782623	0.000140
980.956514	0.002371
981.130386	0.002837
981.304240	0.001223
981.478075	-0.000477
981.651892	-0.001348
981.825692	-0.002682
981.999472	-0.004243
982.173235	-0.002976
982.346980	-0.003340
982.520706	-0.003694
982.694414	-0.004867
982.868104	-0.002805
983.041775	-0.001699
983.215428	-0.004152
983.389064	-0.004256
983.562680	-0.003588
983.736279	-0.006832
983.909860	-0.007144
984.083422	-0.009811
984.256966	-0.009581
984.430491	-0.009931
984.603999	-0.010153
984.777488	-0.007190
984.950959	-0.006358
985.124412	-0.005764
985.297847	-0.002432
985.471263	-0.002228
985.644661	-0.000731
985.818041	-0.000594
985.991403	-0.001146
986.164747	-0.001847
986.338072	-0.003926
986.511379	-0.004196
986.684668	-0.005051
986.857938	-0.004683
987.031191	-0.006139
987.204425	-0.007154
987.377641	-0.008394
987.550839	-0.009410
987.724018	-0.009902
987.897179	-0.008653
988.070322	-0.008742
988.243447	-0.007848
988.416554	-0.010066
988.589642	-0.005624
988.762712	-0.003573
988.935764	-0.001623
989.108798	0.000104
989.281813	0.003282
989.454811	0.003176
989.627790	0.003588
989.800751	0.001478
989.973693	0.004320
990.146617	0.000856
990.319524	0.002485
990.492412	0.003095
990.665281	0.001141
990.838133	-0.001700
991.010966	-0.003020
991.183781	-0.002897
991.356578	-0.000820
991.529356	-0.002539
991.702117	-0.000743
991.874859	-0.001618
992.047583	-0.001390
992.220288	0.001281
992.392976	0.001910
992.565645	0.003502
992.738296	0.003233
992.910929	0.001016
993.083543	0.001269
993.256139	-0.000681
993.428718	-0.001374
993.601277	-0.001108
993.773819	-0.002049
993.946342	-0.001421
994.118848	0.000541
994.291335	-0.001920
994.463803	-0.000202
994.636254	0.000021
994.808686	-0.000791
994.981100	-0.000964
995.153496	-0.003521
995.325874	-0.004186
995.498233	-0.003090
995.670574	-0.004725
995.842897	-0.002159
996.015202	-0.003680
996.187488	-0.003170
996.359757	-0.001939
996.532007	-0.001306
996.704239	-0.000839
996.876452	-0.000634
997.048648	-0.000737
997.220825	-0.002788
997.392984	-0.002639
997.565124	-0.000611
997.737247	-0.002725
997.909351	-0.001291
998.081437	-0.003742
998.253505	-0.003770
998.425554	-0.003044
998.597586	-0.002794
998.769599	-0.002379
998.941594	-0.003851
999.113571	-0.004646
999.285529	-0.001725
999.457469	-0.003412
999.629391	-0.000902
999.801295	-0.002087
999.973181	-0.003054
1000.145048	-0.003914
1000.316897	-0.003091
1000.488728	-0.004532
1000.660541	-0.003168
1000.832335	-0.004303
1001.004111	-0.002134
1001.175869	-0.003723
1001.347609	-0.001606
1001.519331	-0.001553
1001.691034	-0.003555
1001.862719	-0.004035
1002.034386	-0.001795
1002.206035	-0.005400
1002.377665	-0.006844
1002.549277	-0.007423
1002.720871	-0.007930
1002.892447	-0.007477
1003.064004	-0.007852
1003.235544	-0.005978
1003.407065	-0.003504
1003.578568	-0.005340
1003.750052	-0.002403
1003.921519	-0.001959
1004.092967	-0.003847
1004.264397	-0.004013
1004.435809	-0.005889
1004.607202	-0.006262
1004.778577	-0.007843
1004.949934	-0.012444
1005.121273	-0.011559
1005.292594	-0.013674
1005.463896	-0.012747
1005.635180	-0.013037
1005.806446	-0.013244
1005.977694	-0.011197
1006.148923	-0.009836
1006.320135	-0.009324
1006.491328	-0.005824
1006.662503	-0.006568
1006.833659	-0.005044
1007.004798	-0.005596
1007.175918	-0.004564
1007.347020	-0.001850
1007.518103	-0.003193
1007.689169	-0.002377
1007.860216	-0.002258
1008.031245	-0.004640
1008.202256	-0.004318
1008.373248	-0.005358
1008.544223	-0.005973
1008.715179	-0.007278
1008.886117	-0.008300
1009.057036	-0.007707
1009.227938	-0.009389
1009.398821	-0.010673
1009.569686	-0.010627
1009.740533	-0.008500
1009.911361	-0.006079
1010.082172	-0.006314
1010.252964	-0.003790
1010.423738	-0.003570
1010.594493	-0.005555
1010.765231	-0.004951
1010.935950	-0.004195
1011.106651	-0.002661
1011.277334	-0.004483
1011.447998	-0.005690
1011.618645	-0.004279
1011.789273	-0.005120
1011.959882	-0.004490
1012.130474	-0.002493
1012.301048	-0.003644
1012.471603	-0.002769
1012.642140	-0.003312
1012.812658	-0.004032
1012.983159	-0.006008
1013.153641	-0.007509
1013.324105	-0.008018
1013.494551	-0.008904
1013.664979	-0.007587
1013.835388	-0.005632
1014.005779	-0.006217
1014.176152	-0.005445
1014.346507	-0.004144
1014.516843	-0.001849
1014.687162	-0.001339
1014.857462	-0.000508
1015.027744	-0.001747
1015.198007	-0.004018
1015.368252	-0.005697
1015.538480	-0.006910
1015.708689	-0.008179
1015.878879	-0.007173
1016.049052	-0.007693
1016.219206	-0.004946
1016.389342	-0.006552
1016.559460	-0.006603
1016.729559	-0.006845
1016.899641	-0.007055
1017.069704	-0.004794
1017.239749	-0.006102
1017.409775	-0.007622
1017.579784	-0.007853
1017.749774	-0.011375
1017.919746	-0.008724
1018.089700	-0.007880
1018.259635	-0.006045
1018.429553	-0.005892
1018.599452	-0.006580
1018.769333	-0.003097
1018.939195	-0.001950
1019.109040	-0.001425
1019.278866	0.000255
1019.448674	0.000218
1019.618464	0.000564
1019.788235	-0.000185
1019.957989	-0.000209
1020.127724	0.000016
1020.297441	-0.001425
1020.467139	-0.001076
1020.636820	-0.001164
1020.806482	-0.000181
1020.976126	-0.004054
1021.145752	-0.006068
1021.315359	-0.006419
1021.484948	-0.006640
1021.654519	-0.006789
1021.824072	-0.006755
1021.993607	-0.009289
1022.163123	-0.009984
1022.332621	-0.011155
1022.502101	-0.007517
1022.671563	-0.005124
1022.841007	-0.006458
1023.010432	-0.005646
1023.179839	-0.005063
1023.349228	-0.005644
1023.518598	-0.004575
1023.687951	-0.004170
1023.857285	-0.006407
1024.026601	-0.010070
1024.195899	-0.012010
1024.365178	-0.012365
1024.534439	-0.011239
1024.703682	-0.011447
1024.872907	-0.013251
1025.042114	-0.013684
1025.211302	-0.013909
1025.380472	-0.011281
1025.549624	-0.007869
1025.718758	-0.007726
1025.887873	-0.005659
1026.056970	-0.006645
1026.226049	-0.007109
1026.395110	-0.003688
1026.564153	-0.000607
1026.733177	0.000605
1026.902183	-0.001397
1027.071171	-0.003297
1027.240141	-0.001167
1027.409092	-0.002799
1027.578026	-0.001391
1027.746940	-0.001718
1027.915837	-0.002448
1028.084716	-0.003892
1028.253576	-0.004071
1028.422418	-0.003188
1028.591242	-0.004070
1028.760048	-0.006295
1028.928835	-0.004225
1029.097604	-0.005753
1029.266355	-0.004720
1029.435088	-0.006303
1029.603803	-0.007213
1029.772499	-0.008001
1029.941177	-0.007519
1030.109837	-0.004880
1030.278478	-0.004143
1030.447102	-0.005494
1030.615707	-0.004258
1030.784294	-0.003760
1030.952863	-0.002052
1031.121413	-0.001819
1031.289945	-0.002462
1031.458460	-0.002251
1031.626955	-0.005137
1031.795433	-0.004432
1031.963892	-0.004926
1032.132334	-0.005310
1032.300756	-0.005750
1032.469161	-0.006418
1032.637548	-0.007216
1032.805916	-0.006431
1032.974266	-0.006657
1033.142598	-0.006363
1033.310911	-0.008036
1033.479207	-0.005932
1033.647484	-0.007240
1033.815743	-0.006618
1033.983983	-0.004536
1034.152206	-0.002766
1034.320410	-0.002024
1034.488596	-0.003051
1034.656764	-0.000441
1034.824914	0.000870
1034.993045	0.000774
1035.161158	0.000586
1035.329253	-0.000681
1035.497330	-0.003169
1035.665388	-0.004210
1035.833428	-0.004818
1036.001450	-0.004005
1036.169454	-0.005205
1036.337440	-0.006065
1036.505407	-0.005223
1036.673356	-0.004813
1036.841287	-0.003469
1037.009200	-0.002744
1037.177094	-0.001810
1037.344970	-0.002054
1037.512828	-0.001273
1037.680668	0.001048
1037.848489	0.001746
1038.016293	-0.002119
1038.184078	-0.002322
1038.351845	-0.003497
1038.519593	-0.003077
1038.687324	-0.003226
1038.855036	-0.002907
1039.022730	-0.003761
1039.190406	-0.005742
1039.358063	-0.006758
1039.525702	-0.004901
1039.693323	-0.003927
1039.860926	-0.003190
1040.028511	-0.002580
1040.196077	-0.003512
1040.363625	-0.002754
1040.531155	-0.001287
1040.698667	-0.002053
1040.866161	-0.000664
1041.033636	-0.001515
1041.201093	-0.002290
1041.368532	-0.002708
1041.535952	-0.004431
1041.703355	-0.004656
1041.870739	-0.006944
1042.038105	-0.009139
1042.205452	-0.007919
1042.372782	-0.009076
1042.540093	-0.008835
1042.707386	-0.009939
1042.874661	-0.011994
1043.041918	-0.011565
1043.209156	-0.010443
1043.376376	-0.010798
1043.543578	-0.010335
1043.710762	-0.009770
1043.877927	-0.006866
1044.045074	-0.005400
1044.212203	-0.003927
1044.379314	-0.002624
1044.546407	-0.003229
1044.713481	-0.005090
1044.880537	-0.002832
1045.047575	-0.001267
1045.214595	-0.004225
1045.381596	-0.004875
1045.548579	-0.005345
1045.715544	-0.005585
1045.882491	-0.006796
1046.049420	-0.006535
1046.216330	-0.003887
1046.383222	-0.005269
1046.550096	-0.005852
1046.716951	-0.004998
1046.883789	-0.008421
1047.050608	-0.009330
1047.217409	-0.007513
1047.384192	-0.007637
1047.550956	-0.007158
1047.717703	-0.009092
1047.884431	-0.008606
1048.051140	-0.008657
1048.217832	-0.006236
1048.384505	-0.003829
1048.551161	-0.003388
1048.717798	-0.004745
1048.884416	-0.004317
1049.051017	-0.003960
1049.217599	-0.003856
1049.384163	-0.005648
1049.550709	-0.007116
1049.717237	-0.008234
1049.883746	-0.009671
1050.050237	-0.009381
1050.216710	-0.010626
1050.383165	-0.009007
1050.549601	-0.009687
1050.716019	-0.009873
1050.882420	-0.006946
1051.048801	-0.006179
1051.215165	-0.007168
1051.381510	-0.006145
1051.547837	-0.005444
1051.714146	-0.006909
1051.880437	-0.005860
1052.046709	-0.006034
1052.212964	-0.005230
1052.379200	-0.004913
1052.545417	-0.003877
1052.711617	-0.001786
1052.877798	-0.002612
1053.043961	-0.002896
1053.210106	-0.000963
1053.376233	-0.002051
1053.542341	-0.001130
1053.708432	-0.000701
1053.874504	-0.001736
1054.040557	-0.001404
1054.206593	-0.002216
1054.372610	-0.002489
1054.538609	-0.000942
1054.704590	-0.000366
1054.870553	-0.001022
1055.036497	-0.001374
1055.202424	-0.002884
1055.368331	-0.004012
1055.534221	-0.007064
1055.700093	-0.009373
1055.865946	-0.007186
1056.031781	-0.009285
1056.197598	-0.010175
1056.363397	-0.010425
1056.529177	-0.010134
1056.694939	-0.009555
1056.860683	-0.009847
1057.026409	-0.008321
1057.192116	-0.007988
1057.357806	-0.009290
1057.523477	-0.008517
1057.689130	-0.009316
1057.854764	-0.007784
1058.020381	-0.007979
1058.185979	-0.007556
1058.351559	-0.007779
1058.517120	-0.007058
1058.682664	-0.007583
1058.848189	-0.005629
1059.013696	-0.008457
1059.179185	-0.006493
1059.344656	-0.009523
1059.510108	-0.011460
1059.675542	-0.012210
1059.840958	-0.010784
1060.006356	-0.009163
1060.171735	-0.006827
1060.337096	-0.010505
1060.502439	-0.007980
1060.667764	-0.007991
1060.833071	-0.006335
1060.998359	-0.007605
1061.163629	-0.006835
1061.328881	-0.005753
1061.494115	-0.009162
1061.659330	-0.010225
1061.824527	-0.008146
1061.989706	-0.009995
1062.154867	-0.012443
1062.320010	-0.012885
1062.485134	-0.009758
1062.650240	-0.010209
1062.815328	-0.011999
1062.980398	-0.010833
1063.145449	-0.009405
1063.310482	-0.006930
1063.475497	-0.005233
1063.640494	-0.004941
1063.805473	-0.003591
1063.970433	-0.005965
1064.135375	-0.008043
1064.300299	-0.006256
1064.465204	-0.004634
1064.630092	-0.006034
1064.794961	-0.009795
1064.959812	-0.009481
1065.124645	-0.007852
1065.289459	-0.007753
1065.454256	-0.006734
1065.619034	-0.002513
1065.783793	-0.002455
1065.948535	-0.006181
1066.113258	-0.006601
1066.277964	-0.005375
1066.442651	-0.005833
1066.607319	-0.006895
1066.771970	-0.006754
1066.936602	-0.007156
1067.101216	-0.009629
1067.265812	-0.011693
1067.430389	-0.008435
1067.594949	-0.008602
1067.759490	-0.009025
1067.924013	-0.009119
1068.088518	-0.008740
1068.253004	-0.010969
1068.417472	-0.008230
1068.581922	-0.006389
1068.746354	-0.004587
1068.910768	-0.007814
1069.075163	-0.006334
1069.239540	-0.006076
1069.403899	-0.007022
1069.568240	-0.006529
1069.732562	-0.007514
1069.896866	-0.010593
1070.061152	-0.010245
1070.225420	-0.009838
1070.389670	-0.006799
1070.553901	-0.009036
1070.718114	-0.010201
1070.882309	-0.007881
1071.046486	-0.006576
1071.210644	-0.002815
1071.374784	0.001804
1071.538906	-0.001466
1071.703010	-0.003099
1071.867096	-0.004945
1072.031163	-0.004552
1072.195212	-0.002901
1072.359243	-0.006541
1072.523256	-0.006311
1072.687250	-0.008140
1072.851226	-0.009851
1073.015184	-0.008833
1073.179124	-0.008800
1073.343045	-0.010705
1073.506949	-0.008622
1073.670834	-0.010125
1073.834701	-0.009375
1073.998549	-0.009166
1074.162380	-0.009482
1074.326192	-0.008546
1074.489986	-0.009668
1074.653761	-0.007020
1074.817519	-0.004226
1074.981258	-0.004590
1075.144979	-0.003013
1075.308682	-0.001284
1075.472367	-0.000156
1075.636033	0.001336
1075.799681	-0.001666
1075.963311	-0.000258
1076.126923	-0.004006
1076.290516	-0.003487
1076.454092	-0.002980
1076.617649	-0.004560
1076.781187	-0.004155
1076.944708	-0.007674
1077.108210	-0.008348
1077.271695	-0.008824
1077.435160	-0.010079
1077.598608	-0.009649
1077.762038	-0.011131
1077.925449	-0.012895
1078.088842	-0.012013
1078.252217	-0.012849
1078.415573	-0.012439
1078.578912	-0.015492
1078.742232	-0.015595
1078.905534	-0.014509
1079.068817	-0.014873
1079.232083	-0.014800
1079.395330	-0.015578
1079.558559	-0.013785
1079.721770	-0.013749
1079.884962	-0.012925
1080.048136	-0.009550
1080.211293	-0.009502
1080.374430	-0.009783
1080.537550	-0.007023
1080.700651	-0.007037
1080.863735	-0.008191
1081.026800	-0.009551
1081.189846	-0.011553
1081.352875	-0.012794
1081.515885	-0.010402
1081.678877	-0.006495
1081.841851	-0.005684
1082.004807	-0.005700
1082.167744	-0.003707
1082.330663	-0.002875
1082.493564	-0.003566
1082.656447	-0.001336
1082.819312	-0.002101
1082.982158	-0.006436
1083.144986	-0.007973
1083.307796	-0.006451
1083.470587	-0.008276
1083.633361	-0.009615
1083.796116	-0.009108
1083.958853	-0.010822
1084.121571	-0.010563
1084.284272	-0.009731
1084.446954	-0.006943
1084.609618	-0.009067
1084.772264	-0.010753
1084.934892	-0.009680
1085.097501	-0.009595
1085.260092	-0.007523
1085.422665	-0.003783
1085.585220	-0.004751
1085.747756	-0.005593
1085.910274	-0.007273
1086.072774	-0.007219
1086.235256	-0.007717
1086.397720	-0.009532
1086.560165	-0.008862
1086.722592	-0.010801
1086.885001	-0.013605
1087.047392	-0.012922
1087.209764	-0.012210
1087.372119	-0.011478
1087.534455	-0.013181
1087.696772	-0.012765
1087.859072	-0.012369
1088.021353	-0.011738
1088.183616	-0.010897
1088.345861	-0.011181
1088.508088	-0.011979
1088.670296	-0.012383
1088.832486	-0.014168
1088.994658	-0.011679
1089.156812	-0.013243
1089.318948	-0.014789
1089.481065	-0.017177
1089.643164	-0.014966
1089.805245	-0.014298
1089.967308	-0.015294
1090.129352	-0.014612
1090.291378	-0.014122
1090.453386	-0.012447
1090.615376	-0.011580
1090.777347	-0.007024
1090.939301	-0.007120
1091.101236	-0.009549
1091.263153	-0.011324
1091.425051	-0.010427
1091.586932	-0.006808
1091.748794	-0.007435
1091.910638	-0.009042
1092.072463	-0.011000
1092.234271	-0.011995
1092.396060	-0.011602
1092.557831	-0.010794
1092.719584	-0.007274
1092.881319	-0.005929
1093.043035	-0.007422
1093.204733	-0.008634
1093.366413	-0.004800
1093.528075	-0.003357
1093.689718	-0.005622
1093.851343	-0.005000
1094.012950	-0.006018
1094.174539	-0.008195
1094.336110	-0.009861
1094.497662	-0.010613
1094.659196	-0.008275
1094.820712	-0.012780
1094.982210	-0.011521
1095.143689	-0.010649
1095.305151	-0.010970
1095.466594	-0.008286
1095.628018	-0.009346
1095.789425	-0.011242
1095.950813	-0.012502
1096.112183	-0.011982
1096.273535	-0.010420
1096.434869	-0.009427
1096.596184	-0.012680
1096.757482	-0.013654
1096.918761	-0.016328
1097.080021	-0.013393
1097.241264	-0.008127
1097.402488	-0.010757
1097.563694	-0.009688
1097.724882	-0.010688
1097.886052	-0.014779
1098.047203	-0.015642
1098.208336	-0.016396
1098.369451	-0.015058
1098.530548	-0.015836
1098.691627	-0.019112
1098.852687	-0.018273
1099.013729	-0.019054
1099.174753	-0.017382
1099.335758	-0.013766
1099.496746	-0.011960
1099.657715	-0.013100
1099.818666	-0.013329
1099.979599	-0.015015
1100.140513	-0.016192
1100.301409	-0.016417
1100.462287	-0.018084
1100.623147	-0.020807
1100.783989	-0.022325
1100.944812	-0.018881
1101.105617	-0.015121
1101.266404	-0.017559
1101.427173	-0.014684
1101.587923	-0.014502
1101.748656	-0.012093
1101.909370	-0.009607
1102.070066	-0.008902
1102.230743	-0.011564
1102.391403	-0.011031
1102.552044	-0.013589
1102.712667	-0.015439
1102.873271	-0.018091
1103.033858	-0.017212
1103.194426	-0.018313
1103.354976	-0.019648
1103.515508	-0.018183
1103.676021	-0.014384
1103.836517	-0.013589
1103.996994	-0.009732
1104.157453	-0.004065
1104.317893	-0.000378
1104.478316	0.001270
1104.638720	0.003489
1104.799106	0.000342
1104.959474	-0.002801
1105.119823	-0.003839
1105.280155	-0.003683
1105.440468	-0.010264
1105.600763	-0.014509
1105.761039	-0.016656
1105.921298	-0.016909
1106.081538	-0.019578
1106.241760	-0.016546
1106.401964	-0.015030
1106.562149	-0.011507
1106.722316	-0.016318
1106.882465	-0.010186
1107.042596	-0.006650
1107.202709	-0.005774
1107.362803	-0.006767
1107.522879	-0.007189
1107.682937	-0.011796
1107.842977	-0.009449
1108.002999	-0.010890
1108.163002	-0.007817
1108.322987	-0.009574
1108.482954	-0.010913
1108.642902	-0.010767
1108.802833	-0.010031
1108.962745	-0.007576
1109.122639	-0.004270
1109.282515	-0.008394
1109.442372	-0.007012
1109.602211	-0.008854
1109.762032	-0.012729
1109.921835	-0.011818
1110.081620	-0.011484
1110.241386	-0.011101
1110.401134	-0.013100
1110.560864	-0.014386
1110.720576	-0.009766
1110.880269	-0.015384
1111.039945	-0.018013
1111.199602	-0.012738
1111.359240	-0.015854
1111.518861	-0.015438
1111.678463	-0.014612
1111.838047	-0.014358
1111.997613	-0.011156
1112.157161	-0.015292
1112.316690	-0.012235
1112.476202	-0.010132
1112.635695	-0.010967
1112.795169	-0.013022
1112.954626	-0.016138
1113.114064	-0.019591
1113.273484	-0.019704
1113.432886	-0.021730
1113.592270	-0.022822
1113.751635	-0.020837
1113.910983	-0.021938
1114.070312	-0.022652
1114.229622	-0.022270
1114.388915	-0.024668
1114.548189	-0.022856
1114.707445	-0.016939
1114.866683	-0.012498
1115.025903	-0.006251
1115.185104	-0.010245
1115.344287	-0.007583
1115.503452	-0.011460
1115.662599	-0.006229
1115.821727	-0.002610
1115.980838	-0.002202
1116.139930	-0.008179
1116.299004	-0.016342
1116.458059	-0.018364
1116.617097	-0.016139
1116.776116	-0.016272
1116.935117	-0.012464
1117.094099	-0.012666
1117.253064	-0.011008
1117.412010	-0.010845
1117.570938	-0.008185
1117.729848	-0.006307
1117.888740	-0.012647
1118.047613	-0.011400
1118.206468	-0.014419
1118.365305	-0.014490
1118.524124	-0.013727
1118.682924	-0.018513
1118.841707	-0.016899
1119.000471	-0.020792
1119.159216	-0.017782
1119.317944	-0.011583
1119.476653	-0.016787
1119.635344	-0.017759
1119.794017	-0.017643
1119.952672	-0.021551
1120.111308	-0.019877
1120.269927	-0.019670
1120.428527	-0.021378
1120.587108	-0.023727
1120.745672	-0.031485
1120.904217	-0.031511
1121.062744	-0.026926
1121.221253	-0.027199
1121.379744	-0.027536
1121.538216	-0.026054
1121.696671	-0.029958
1121.855107	-0.027321
1122.013524	-0.026735
1122.171924	-0.018786
1122.330305	-0.016136
1122.488668	-0.021815
1122.647013	-0.024388
1122.805340	-0.021998
1122.963648	-0.023627
1123.121938	-0.024951
1123.280210	-0.019307
1123.438464	-0.013878
1123.596700	-0.015567
1123.754917	-0.017151
1123.913116	-0.012860
1124.071297	-0.010137
1124.229459	-0.011996
1124.387604	-0.013670
1124.545730	-0.008531
1124.703838	-0.013063
1124.861928	-0.021306
1125.019999	-0.020895
1125.178052	-0.020463
1125.336088	-0.023223
1125.494104	-0.023446
1125.652103	-0.022155
1125.810083	-0.021058
1125.968045	-0.022629
1126.125989	-0.024455
1126.283915	-0.019450
1126.441823	-0.017323
1126.599712	-0.013431
1126.757583	-0.010409
1126.915436	-0.012120
1127.073270	-0.018663
1127.231087	-0.017537
1127.388885	-0.022657
1127.546665	-0.019545
1127.704426	-0.021945
1127.862170	-0.025534
1128.019895	-0.034171
1128.177602	-0.033773
1128.335291	-0.028682
1128.492961	-0.025424
1128.650614	-0.023704
1128.808248	-0.018295
1128.965864	-0.020893
1129.123461	-0.022546
1129.281041	-0.018139
1129.438602	-0.012077
1129.596145	-0.010587
1129.753670	-0.019227
1129.911176	-0.020705
1130.068665	-0.021824
1130.226135	-0.019929
1130.383587	-0.016291
1130.541020	-0.014478
1130.698436	-0.020100
1130.855833	-0.017594
1131.013212	-0.020750
1131.170573	-0.017122
1131.327915	-0.009785
1131.485239	-0.014142
1131.642545	-0.012541
1131.799833	-0.014597
1131.957103	-0.012585
1132.114354	-0.010230
1132.271588	-0.010587
1132.428803	-0.006709
1132.585999	-0.008066
1132.743178	-0.008186
1132.900338	-0.010325
1133.057480	-0.017463
1133.214604	-0.016273
1133.371710	-0.015848
1133.528797	-0.017646
1133.685866	-0.019806
1133.842917	-0.021165
1133.999950	-0.015487
1134.156964	-0.013916
1134.313960	-0.009359
1134.470938	-0.012440
1134.627898	-0.020191
1134.784840	-0.022365
1134.941763	-0.023630
1135.098668	-0.025508
1135.255555	-0.027813
1135.412424	-0.027622
1135.569274	-0.033796
1135.726107	-0.033150
1135.882921	-0.028938
1136.039716	-0.027008
1136.196494	-0.022891
1136.353253	-0.025139
1136.509995	-0.018816
1136.666717	-0.020165
1136.823422	-0.025449
1136.980109	-0.020396
1137.136777	-0.022152
1137.293427	-0.025732
1137.450059	-0.026977
1137.606672	-0.031605
1137.763267	-0.028756
1137.919844	-0.030350
1138.076403	-0.024503
1138.232944	-0.027665
1138.389466	-0.031759
1138.545971	-0.032702
1138.702457	-0.030748
1138.858924	-0.021388
1139.015374	-0.028366
1139.171805	-0.028364
1139.328218	-0.030513
1139.484613	-0.027978
1139.640990	-0.025377
1139.797348	-0.019212
1139.953688	-0.010735
1140.110010	-0.002809
1140.266314	-0.012208
1140.422600	-0.004116
1140.578867	-0.003420
1140.735116	0.002031
1140.891347	-0.007720
1141.047559	-0.001782
1141.203754	-0.008073
1141.359930	-0.006094
1141.516088	-0.011862
1141.672228	-0.002197
1141.828349	0.000335
1141.984452	0.004735
1142.140537	0.002787
1142.296604	0.001762
1142.452653	-0.003730
1142.608683	-0.010524
1142.764695	-0.020974
1142.920689	-0.021047
1143.076665	-0.022825
1143.232622	-0.025732
1143.388562	-0.027082
1143.544483	-0.028213
1143.700385	-0.021332
1143.856270	-0.018544
1144.012136	-0.018196
1144.167985	-0.012691
1144.323814	-0.012206
1144.479626	-0.011835
1144.635420	-0.011777
1144.791195	-0.017708
1144.946952	-0.021523
1145.102691	-0.028580
1145.258411	-0.029190
1145.414113	-0.024963
1145.569798	-0.025773
1145.725463	-0.017889
1145.881111	-0.021196
1146.036741	-0.017349
1146.192352	-0.012669
1146.347945	-0.010459
1146.503519	-0.005344
1146.659076	-0.009146
1146.814614	-0.003790
1146.970134	-0.001408
1147.125636	-0.004608
1147.281120	-0.009563
1147.436585	-0.013862
1147.592032	-0.015609
1147.747461	-0.014337
1147.902872	-0.014318
1148.058265	-0.005148
1148.213639	-0.006296
1148.368995	-0.007755
1148.524333	-0.005327
1148.679653	-0.004344
1148.834954	-0.003315
1148.990237	-0.000876
1149.145502	-0.010373
1149.300749	-0.013907
1149.455977	-0.020567
1149.611188	-0.020416
1149.766380	-0.020573
1149.921553	-0.029172
1150.076709	-0.030280
1150.231846	-0.026010
1150.386966	-0.031724
1150.542066	-0.025121
1150.697149	-0.028615
1150.852214	-0.033613
1151.007260	-0.033668
1151.162288	-0.034954
1151.317298	-0.035449
1151.472289	-0.021334
1151.627263	-0.027395
1151.782218	-0.019454
1151.937155	-0.017710
1152.092073	-0.007274
1152.246974	-0.001092
1152.401856	0.001525
1152.556720	-0.003138
1152.711566	-0.001398
1152.866393	-0.018074
1153.021203	-0.003527
1153.175994	-0.001670
1153.330767	-0.007147
1153.485521	-0.009268
1153.640258	-0.011900
1153.794976	-0.019194
1153.949676	-0.012574
1154.104358	-0.012599
1154.259021	-0.001166
1154.413667	-0.015434
1154.568294	-0.022346
1154.722903	-0.014915
1154.877493	-0.023035
1155.032066	-0.023286
1155.186620	-0.014133
1155.341156	-0.014385
1155.495674	-0.013871
1155.650173	-0.021536
1155.804654	-0.018485
1155.959118	-0.032958
1156.113562	-0.038951
1156.267989	-0.035414
1156.422397	-0.035085
1156.576788	-0.040600
1156.731160	-0.047567
1156.885513	-0.052120
1157.039849	-0.052567
1157.194166	-0.057225
1157.348465	-0.037506
1157.502746	-0.034466
1157.657009	-0.033930
1157.811253	-0.039996
1157.965479	-0.041393
1158.119687	-0.040407
1158.273877	-0.047718
1158.428048	-0.045127
1158.582201	-0.041572
1158.736337	-0.041371
1158.890453	-0.041433
1159.044552	-0.041409
1159.198632	-0.028940
1159.352694	-0.025909
1159.506738	-0.019550
1159.660764	-0.011056
1159.814771	-0.013117
1159.968761	-0.017074
1160.122732	-0.027641
1160.276685	-0.025335
1160.430619	-0.023973
1160.584535	-0.026466
1160.738434	-0.029801
1160.892313	-0.032357
1161.046175	-0.025000
1161.200019	-0.025358
1161.353844	-0.024144
1161.507651	-0.014197
1161.661440	-0.018622
1161.815210	-0.016311
1161.968962	-0.024467
1162.122697	-0.029269
1162.276412	-0.027731
1162.430110	-0.036289
1162.583789	-0.039703
1162.737451	-0.031264
1162.891094	-0.038066
1163.044718	-0.035733
1163.198325	-0.036058
1163.351913	-0.010926
1163.505483	0.003928
1163.659035	-0.000348
1163.812569	0.007038
1163.966084	0.025962
1164.119581	0.021062
1164.273060	0.027083
1164.426521	0.025014
1164.579964	0.012899
1164.733388	0.002605
1164.886794	0.009353
1165.040182	0.020769
1165.193551	0.010682
1165.346903	0.000264
1165.500236	-0.006893
1165.653551	-0.012644
1165.806848	-0.013969
1165.960126	-0.019253
1166.113386	-0.030015
1166.266628	-0.036010
1166.419852	-0.048971
1166.573058	-0.035717
1166.726245	-0.038655
1166.879414	-0.026848
1167.032565	-0.025498
1167.185698	-0.011697
1167.338812	0.009799
1167.491909	0.011792
1167.644987	0.003482
1167.798046	0.013536
1167.951088	0.004537
1168.104111	-0.000562
1168.257117	-0.020723
1168.410103	-0.018477
1168.563072	-0.028587
1168.716023	-0.028332
1168.868955	-0.025435
1169.021869	-0.029206
1169.174765	-0.032260
1169.327642	-0.027070
1169.480501	-0.015663
1169.633343	-0.008787
1169.786165	-0.021513
1169.938970	-0.031616
1170.091757	-0.043928
1170.244525	-0.032539
1170.397275	-0.022324
1170.550007	-0.020200
1170.702720	-0.033661
1170.855415	-0.040962
1171.008092	-0.031675
1171.160751	-0.016584
1171.313392	-0.004382
1171.466014	-0.058205
1171.618619	0.020288
1171.771205	0.020288
1171.923772	0.020288
