sample name	sample
index	287
start time	 02-25-2021  12:37:01 PM
880	-0.077479
Peak Time (s)	90.035
Peak Height 	-0.07748
calc peak height	90,93
Baseline Time (s)	10.536
Baseline Value 	-0.003106
subtract baseline	10,4
Abs	-0.009120
Peak Time (s)	90.535
Peak Height 	-0.00912
calc peak height	90,93
Baseline Time (s)	11.037
Baseline Value 	-2.2751E-4
subtract baseline	10,3
PK_550	-0.009612
Peak Time (s)	90.535
Peak Height 	-0.009612
calc peak height	90,93
Baseline Time (s)	10.536
Baseline Value 	3.0179E-4
subtract baseline	10,2
PK_880	-0.011170
Peak Time (s)	91.035
Peak Height 	-0.01117
calc peak height	90,93
Baseline Time (s)	11.537
Baseline Value 	4.3024E-4
subtract baseline	10,1


Time (s)	A880-A510	A880-A775	A880-A975	A880	I510	I775	I975	I880	
0.035500	-0.003535	-0.001331	0.000927	0.003987	6810.693691	45385.983101	3997.142064	24063.088497
0.536000	0.000244	-0.000376	-0.000565	0.003990	6844.364217	45479.085924	3993.459746	24062.941228
1.039000	-0.002746	-0.000707	-0.003506	0.002789	6828.360770	45564.244165	3989.190180	24121.399045
1.536500	-0.003816	-0.000737	-0.004189	0.005311	6796.463612	45314.771554	3981.371135	23998.758311
2.037000	-0.003142	0.000007	0.001860	0.004483	6809.778894	45468.385475	3998.219990	24038.978096
2.537500	0.001076	-0.000612	0.003695	0.000677	6881.660929	45781.398466	4012.241604	24224.696284
3.035000	0.000335	0.000435	0.002764	-0.001118	6891.195772	46062.372402	4014.405805	24312.828700
3.535000	-0.001919	-0.001486	0.001941	0.003003	6833.843330	45467.066520	4002.080988	24110.990816
4.035000	-0.001906	-0.000481	0.003020	0.003843	6826.455877	45483.171989	4002.674002	24070.078488
4.535000	0.000564	-0.000052	0.002392	0.000211	6881.241550	45882.590929	4010.148565	24247.536355
5.036000	0.001746	-0.000236	0.003069	0.000106	6892.894928	45874.803708	4012.104341	24252.693857
5.539000	0.001834	0.000577	0.003270	0.000780	6887.584211	45888.518187	4010.920550	24219.624568
6.036000	0.001230	0.000185	0.002692	0.000084	6888.417732	45918.590620	4011.215147	24253.756634
6.536500	-0.001109	-0.000442	0.001977	-0.000190	6869.760310	45883.687519	4010.113483	24267.214676
7.037500	0.000039	0.000378	0.001317	0.000758	6871.561100	45871.117421	4006.106582	24220.722180
7.537500	0.001053	-0.000528	0.004137	0.000143	6886.282447	45842.310897	4014.685219	24250.865767
8.037500	-0.000346	-0.001293	0.005575	-0.000536	6879.771549	45833.796084	4020.006495	24284.210294
8.535500	-0.000094	0.000256	0.003379	0.000133	6875.997929	45920.713065	4012.809762	24251.333763
9.035000	0.000763	-0.000067	0.002448	0.000075	6884.270140	45894.612878	4010.630240	24254.212898
9.535500	0.000243	-0.000054	-0.001012	-0.000087	6881.038530	45911.865217	4002.421183	24262.155990
10.036500	0.000100	-0.000420	0.003801	-0.000427	6882.809873	45909.246900	4015.272157	24278.834584
10.536000	-0.001299	0.000000	-0.001247	0.000000	6866.333982	45908.589199	4001.623497	24257.877259
11.036500	-0.000009	0.000194	0.000000	-0.000340	6881.050191	45961.437607	4005.563075	24274.596402
11.536500	0.000000	0.000537	-0.000119	0.000561	6872.989202	45906.282218	4003.029827	24230.372496
12.037000	0.000052	-0.000391	0.004483	-0.000248	6880.762436	45894.421513	4016.534529	24270.034948
12.537500	0.002963	0.000279	0.003299	0.000202	6903.078257	45916.217336	4012.438529	24247.975290
13.035000	0.000695	0.000371	0.005636	-0.001431	6897.305473	46087.183701	4022.418918	24328.251065
13.537500	0.001349	-0.000235	0.005022	-0.000662	6896.258557	45950.883827	4018.932682	24290.408889
14.049000	-0.002770	0.000306	0.001800	0.005320	6805.640442	45415.660151	3996.007108	23998.325723
14.535500	-0.001638	-0.000102	0.003929	0.002327	6842.394846	45669.059945	4008.702487	24143.942310
15.036000	0.000865	0.000209	0.002660	0.001331	6873.843029	45797.817578	4008.024041	24192.640470
15.542000	-0.002167	0.000309	0.001769	0.003962	6823.071596	45548.895660	3999.280634	24064.278608
16.036500	-0.001716	0.000358	0.001666	0.005780	6810.918253	45375.850667	3994.544730	23976.057543
16.537000	0.001515	0.000301	0.003734	-0.000008	6891.836500	45939.236075	4014.055006	24258.289423
17.037000	0.002247	0.000873	0.007674	0.000330	6895.403247	45962.314597	4023.115474	24241.664643
17.537500	-0.000510	0.000168	0.000144	0.001050	6863.988958	45821.447472	4002.468142	24206.406776
18.035000	-0.001046	-0.000041	0.001206	-0.000361	6871.868223	45940.256181	4008.618192	24275.624740
18.535500	-0.001392	-0.000606	0.000805	0.000301	6862.787246	45818.980566	4005.969543	24243.104604
19.035500	-0.000096	-0.000250	0.002367	0.000530	6872.402526	45831.572929	4009.289873	24231.893492
19.538500	0.000811	-0.000639	0.000780	0.000769	6878.430802	45769.626293	4004.744801	24220.156215
20.036000	-0.002422	-0.000444	0.001524	0.000650	6850.397039	45800.555757	4006.889843	24226.000158
20.536500	-0.000250	-0.000606	-0.000415	0.000433	6871.886553	45805.956949	4002.611412	24236.626166
21.037000	0.000550	-0.000230	0.005582	0.000644	6877.204336	45822.251091	4017.055125	24226.284812
21.537000	0.000534	-0.000473	0.001850	0.000660	6876.916334	45796.714414	4007.677012	24225.519170
22.037500	0.000458	0.000452	0.003209	0.001057	6872.641564	45848.823566	4010.076731	24206.048608
22.537000	0.000871	-0.000063	0.003471	0.000590	6880.583725	45844.060665	4011.897948	24228.913074
23.035000	-0.000353	-0.000485	0.002976	0.000454	6870.773085	45815.891298	4011.000423	24235.616693
23.535500	0.000682	-0.000144	0.001193	0.000857	6876.467903	45809.701300	4005.550905	24215.855587
24.038000	-0.000618	-0.000354	0.004063	0.000531	6867.693209	45821.236514	4013.529160	24231.847773
24.536000	-0.004734	-0.000658	0.004046	0.000436	6831.628250	45800.569838	4013.723228	24236.485183
25.036500	-0.001049	0.000221	0.001144	0.001115	6858.547457	45820.232741	4004.788231	24203.196335
25.536500	0.000129	-0.000736	0.003524	0.000572	6874.050347	45779.511404	4012.076386	24229.836701
26.037000	-0.000286	-0.000423	0.004509	0.000836	6867.928689	45784.311878	4013.879718	24216.886087
26.537000	-0.001531	-0.000216	0.003592	0.000877	6856.359502	45800.583333	4011.481117	24214.857181
27.037500	0.000611	-0.000786	-0.003936	0.000489	6879.152215	45782.698890	3993.779285	24233.902098
27.535500	0.000101	0.000048	0.004999	0.000270	6876.527242	45886.698179	4016.530931	24244.633031
28.035000	-0.002612	-0.000128	0.005234	0.002569	6831.526765	45642.754440	4011.357143	24132.145743
28.538500	0.000394	0.000493	0.002748	-0.000371	6884.962352	45994.011736	4012.493372	24276.071618
29.060500	0.000360	-0.000244	-0.000145	-0.000722	6887.838369	45955.864917	4006.152939	24293.359077
29.536000	0.002590	-0.000704	0.005213	-0.000866	6909.394535	45924.605165	4019.925865	24300.441919
30.036500	0.000466	0.000085	0.003538	-0.000447	6886.309572	45961.218026	4014.663581	24279.844302
30.536500	0.002625	-0.000869	-0.001649	-0.001498	6915.469354	45970.836698	4004.340295	24331.524233
31.062000	0.000708	-0.000024	0.004668	-0.000271	6886.906080	45932.997443	4017.057001	24271.193141
31.537000	0.002507	0.000478	0.007044	0.002214	6880.696031	45737.325743	4016.783818	24149.479219
32.037000	-0.001495	-0.000530	0.004428	0.001890	6847.596469	45669.994650	4011.041667	24165.314024
32.565000	0.001616	-0.000157	-0.001491	-0.000944	6901.249107	45986.475446	4003.359282	24304.273681
33.043500	-0.001063	-0.000029	0.006166	-0.000670	6874.499668	45972.054596	4021.834459	24290.790038
33.536000	-0.000316	0.000057	0.000861	-0.001204	6886.079576	46033.460280	4009.859012	24317.056327
34.036000	-0.002961	-0.000818	-0.001582	0.004229	6813.637200	45412.461459	3990.375847	24051.308869
34.536000	0.001025	-0.000190	0.002878	-0.000853	6895.048742	45974.242393	4014.024882	24299.789200
35.037000	0.000775	-0.000756	0.000778	-0.003208	6914.191799	46151.669076	4014.664786	24415.901269
35.537000	-0.001226	-0.000747	-0.000945	0.001239	6855.843530	45712.615702	3999.303408	24197.133887
36.036500	-0.000178	-0.000018	0.000597	0.001112	6866.413233	45797.023572	4003.437570	24203.361896
36.540000	-0.002129	-0.000247	0.005122	0.001355	6846.711119	45750.495131	4014.118421	24191.494246
37.034500	-0.001101	-0.000209	0.001787	0.001373	6855.769516	45752.460380	4005.744817	24190.594082
37.535000	-0.001056	-0.000543	0.000028	0.000859	6860.791836	45770.210293	4002.654843	24215.754427
38.035500	-0.001524	-0.000638	0.000601	0.001292	6852.688553	45718.212123	4003.001803	24194.541958
38.535500	-0.001564	-0.000471	0.001792	0.000700	6857.656129	45792.957246	4007.434469	24223.546812
39.036000	0.000407	0.000450	0.003680	0.001889	6864.692584	45766.586207	4009.175969	24165.376622
39.539000	-0.000654	-0.000160	0.004895	0.001246	6860.920545	45769.794165	4013.820072	24196.795960
40.036500	-0.000630	-0.000141	0.001277	0.000974	6863.583611	45798.488243	4005.468709	24210.104595
40.536500	-0.000904	-0.000062	0.003884	0.001449	6856.855267	45759.426879	4010.783667	24186.875517
41.034500	-0.000753	-0.000200	0.004216	0.001177	6860.653641	45772.647866	4012.293073	24200.177622
41.534500	-0.000500	-0.000392	0.004974	0.001692	6858.295968	45703.051888	4012.901494	24174.981066
42.035000	-0.001219	0.000198	0.005155	0.002405	6845.446954	45690.892976	4011.570078	24140.143337
42.543000	0.000125	0.000736	0.005739	0.001976	6861.365518	45786.155800	4014.104599	24161.086044
43.035000	0.000800	-0.000136	0.001492	0.001485	6871.869557	45748.649323	4004.732854	24185.105061
43.535500	-0.000359	-0.000069	-0.001350	0.001470	6861.561224	45756.641403	3997.733736	24185.827359
44.035500	0.001250	-0.000334	-0.000180	0.002171	6869.740695	45661.693706	3998.892721	24151.591635
44.536500	-0.000838	-0.000733	0.002876	0.000996	6861.522636	45737.994486	4009.397011	24209.050205
45.037000	-0.000630	-0.000424	0.001726	0.000362	6869.102387	45830.943335	4008.109989	24240.118229
45.537000	-0.000024	-0.000357	0.003581	0.001606	6863.356678	45714.919699	4009.633460	24179.183421
46.034500	-0.002975	0.000447	-0.002939	0.003534	6819.687660	45604.434768	3988.754414	24085.095967
46.562000	0.001891	0.000190	0.001357	-0.000814	6902.562729	46007.981283	4010.122572	24297.866265
47.038000	0.002543	-0.000207	0.000826	-0.000637	6906.886809	45951.210965	4008.359366	24289.188998
47.535000	-0.001140	0.000934	0.006824	0.003289	6838.248242	45676.389307	4013.534254	24097.054551
48.036000	-0.001961	-0.000218	0.000148	0.002482	6838.115432	45642.487141	3998.933828	24136.389998
48.568000	0.000568	0.000403	0.002421	-0.000323	6886.111938	45980.448303	4011.555945	24273.755681
49.036500	-0.000739	-0.000130	-0.000638	0.001600	6856.977701	45737.917050	3999.170948	24179.502904
49.536500	-0.001868	-0.000755	-0.001168	0.002710	6836.912879	45567.368590	3995.125574	24125.284980
50.037000	-0.003016	-0.000402	0.001600	0.003053	6823.611581	45568.305108	4001.113728	24108.552540
50.537000	0.000693	-0.000521	0.005213	-0.001256	6895.701032	45981.340820	4020.909581	24319.635288
51.035000	-0.000866	0.000916	-0.000514	-0.000099	6871.128875	46009.100449	4003.686791	24262.738948
51.535500	-0.000588	-0.000095	-0.000057	0.001865	6855.954452	45715.328283	3999.953899	24166.554069
52.035500	0.000190	-0.000391	0.004629	0.002549	6856.803586	45618.906283	4009.898448	24133.145921
52.535500	0.000905	-0.000057	0.009653	0.002263	6865.804818	45679.875752	4023.233577	24147.107665
53.035500	-0.020510	-0.016264	0.005366	0.367132	4561.802037	20730.182140	3394.832900	12094.548950
53.536000	-0.019006	-0.014648	-0.009112	0.067937	6166.279806	38472.714137	3829.316778	21170.983831
54.036500	-0.039586	-0.054633	-0.019325	-0.195511	8572.624190	62361.847596	4544.545620	36378.577498
54.536000	-0.039348	-0.151892	-0.004955	-0.315375	10362.251585	65535.000000	5130.832241	47006.560601
55.037000	-0.034368	-0.181509	0.002478	-0.344992	10976.480316	65535.000000	5327.206788	50116.507250
55.534000	-0.045631	-0.156991	-0.005871	-0.320474	10342.076039	65535.000000	5152.176215	47526.966079
56.035000	-0.039458	-0.135191	-0.005308	-0.298674	10080.995899	65535.000000	5045.922517	45344.144805
56.535000	-0.033746	-0.117729	-0.003810	-0.281211	9890.779287	65535.000000	4969.401940	43672.975731
57.035500	-0.025800	-0.121199	-0.002488	-0.284682	10075.518132	65535.000000	4992.078448	43999.800277
57.535000	-0.023976	-0.081239	-0.004160	-0.241940	9435.278667	65135.654449	4791.212484	40151.421321
58.035500	-0.023548	-0.055163	-0.004785	-0.204303	8903.166537	63502.517973	4633.890576	37062.388677
58.536000	-0.017511	-0.034973	-0.003188	-0.168075	8503.708244	61307.869858	4502.972593	34331.526399
59.036000	-0.017122	-0.024773	-0.005994	-0.137460	8130.653284	58629.029746	4386.150674	32194.901181
59.537000	-0.015629	-0.017769	-0.009920	-0.099576	7714.639503	54808.861372	4252.117688	29751.216914
60.037000	-0.013297	-0.015604	-0.003974	-0.088499	7619.740591	53755.864226	4236.536920	29076.010384
60.537500	-0.012554	-0.011244	-0.008049	-0.058590	7316.753141	50854.408067	4137.878454	27336.710043
61.038000	-0.011842	-0.012666	-0.005846	-0.047911	7217.793594	49538.653638	4114.451735	26744.176389
61.535500	-0.014661	-0.010439	-0.010994	-0.032789	7045.280822	48176.219631	4060.246745	25929.619643
62.035500	-0.020133	-0.010873	-0.009931	-0.023200	6905.860151	47144.836502	4038.190966	25427.604346
62.536000	-0.019428	-0.012309	-0.010748	-0.017559	6861.207114	46430.827289	4021.772111	25137.418903
63.036000	-0.018517	-0.012712	-0.007015	-0.023063	6919.333193	46944.308242	4045.332322	25420.499935
63.536500	-0.019091	-0.010779	-0.013291	-0.030870	6985.904511	47941.601192	4049.285051	25828.228039
64.036500	-0.015059	-0.007188	-0.017085	-0.040548	7115.194720	49336.969169	4064.613069	26344.030315
64.537000	-0.015416	-0.007523	-0.020769	-0.056646	7268.747987	51050.732872	4097.633091	27227.774735
65.034500	-0.012669	-0.005677	-0.009571	-0.057602	7305.690242	51361.980476	4130.892779	27281.310037
65.602500	-0.010585	-0.004824	-0.016268	-0.060918	7360.125066	51828.754184	4121.547785	27467.852828
66.035000	-0.009649	-0.003843	-0.018187	-0.059916	7359.451579	51826.384031	4113.529938	27411.311501
66.541500	-0.010354	-0.003411	-0.012363	-0.061077	7364.087969	52005.907928	4132.791303	27476.854274
67.035500	-0.008941	-0.003892	-0.013876	-0.061188	7379.587994	51964.155297	4128.899063	27483.096037
67.536000	-0.011210	-0.004466	-0.014881	-0.059337	7337.811863	51691.377568	4121.013590	27378.746187
68.036000	-0.009985	-0.003909	-0.017293	-0.061210	7369.184352	51964.674606	4119.529126	27484.338214
68.536500	-0.011351	-0.004294	-0.013172	-0.064030	7383.985988	52240.131077	4138.763517	27644.226319
69.036500	-0.007974	-0.003914	-0.015651	-0.064795	7426.435359	52370.264758	4133.983580	27687.778526
69.537000	-0.009510	-0.003872	-0.013070	-0.064413	7406.726525	52331.653524	4140.120186	27666.035318
70.037000	-0.009929	-0.004160	-0.010370	-0.063037	7388.367480	52142.898207	4143.826241	27587.821712
70.535000	-0.008440	-0.003535	-0.009209	-0.063572	7409.067250	52274.303912	4148.589808	27618.171951
71.035000	-0.006190	-0.003322	-0.014367	-0.063476	7431.220863	52287.581919	4133.887493	27612.727029
71.535500	-0.007628	-0.003108	-0.015441	-0.063428	7415.924106	52306.397093	4130.769855	27609.986021
72.035500	-0.006103	-0.003123	-0.012993	-0.062460	7421.664775	52194.994870	4134.885995	27555.108635
72.536000	-0.006853	-0.003850	-0.011557	-0.062506	7414.422830	52117.778264	4139.016714	27557.697105
73.036500	-0.007199	-0.003479	-0.014956	-0.061569	7401.266495	52053.754647	4126.962445	27504.624352
73.536500	-0.007522	-0.002452	-0.017756	-0.057597	7357.510568	51722.064306	4108.377943	27280.984207
74.037000	-0.004721	-0.002929	-0.013829	-0.060399	7414.684546	51983.755047	4126.845994	27438.564251
74.537500	-0.007326	-0.002199	-0.014503	-0.060551	7389.555852	52083.408058	4125.401862	27447.127816
75.037500	-0.008593	-0.003009	-0.013775	-0.061259	7383.863060	52071.891905	4129.376297	27487.138751
75.535000	-0.007345	-0.002132	-0.016932	-0.057848	7361.843590	51786.153933	4111.310222	27295.062906
76.035500	-0.004738	-0.001916	-0.013483	-0.061519	7426.024577	52225.148328	4130.907652	27501.842850
76.535500	-0.004918	-0.001451	-0.010113	-0.061417	7423.121978	52266.371360	4140.011103	27496.062828
77.036000	-0.005953	-0.001820	-0.015501	-0.062887	7427.602930	52391.491979	4129.105301	27579.317889
77.536000	-0.007504	-0.002367	-0.017547	-0.060632	7388.567881	52073.596739	4117.245392	27451.688430
78.036000	-0.006027	-0.002060	-0.017648	-0.063623	7434.419913	52447.953450	4125.203284	27621.113807
78.536000	-0.006672	-0.001671	-0.017550	-0.064010	7431.758279	52536.358340	4126.540570	27643.097783
79.037500	-0.007462	-0.002367	-0.013243	-0.064868	7432.461115	52554.912385	4140.907802	27691.971975
79.537500	-0.006596	-0.002264	-0.015794	-0.062523	7417.232441	52299.553019	4127.286650	27558.665403
80.034500	-0.009639	-0.002500	-0.012516	-0.065753	7419.158086	52640.851375	4145.425366	27742.435025
80.535000	-0.006349	-0.003391	-0.013553	-0.067096	7467.037989	52692.579628	4146.286089	27819.274453
81.035500	-0.007081	-0.003575	-0.011720	-0.067821	7466.962345	52754.443921	4153.495508	27860.791619
81.536000	-0.006998	-0.002685	-0.012490	-0.068047	7470.181651	52882.571520	4151.960023	27873.787860
82.036000	-0.007595	-0.004043	-0.012993	-0.069506	7479.144839	52894.208945	4154.661948	27957.686553
82.536500	-0.007844	-0.003956	-0.014500	-0.069630	7477.838183	52918.417255	4150.752271	27964.806277
83.036500	-0.007086	-0.004480	-0.012448	-0.070924	7499.268605	53007.172702	4160.229415	28039.515157
83.536500	-0.009399	-0.004931	-0.013890	-0.069964	7465.151723	52844.816091	4153.418873	27984.091840
84.040000	-0.008485	-0.005903	-0.013179	-0.072529	7501.420936	53028.097852	4162.715100	28132.432235
84.534000	-0.009444	-0.006289	-0.009332	-0.073527	7501.823071	53098.591492	4176.589760	28190.357954
85.034500	-0.009799	-0.006720	-0.009476	-0.074266	7505.852478	53134.340309	4178.307522	28233.411362
85.535000	-0.008745	-0.006238	-0.013332	-0.074483	7519.196565	53215.099354	4167.855975	28246.044448
86.035500	-0.008818	-0.006817	-0.015410	-0.074491	7518.508256	53149.113383	4161.950103	28246.510122
86.535500	-0.009633	-0.007511	-0.010624	-0.075705	7522.701304	53209.170943	4179.146521	28317.337757
87.036000	-0.011716	-0.008001	-0.015209	-0.076410	7508.230359	53233.994528	4167.997903	28358.559408
87.536500	-0.009990	-0.007901	-0.013614	-0.076220	7524.359205	53223.571797	4172.022826	28347.413544
88.036500	-0.010610	-0.007693	-0.010785	-0.076077	7516.342733	53231.160804	4179.755544	28339.076756
88.537000	-0.011339	-0.008776	-0.014248	-0.077272	7521.237875	53244.075417	4173.221869	28409.033409
89.036500	-0.009860	-0.008457	-0.012975	-0.077181	7535.863518	53270.528158	4176.625152	28403.749718
89.535000	-0.010431	-0.008920	-0.009891	-0.077505	7533.255246	53254.465335	4186.479380	28422.750176
90.034500	-0.012096	-0.009883	-0.012743	-0.077479	7515.461681	53140.004186	4178.150412	28421.214171
90.535500	-0.012140	-0.009612	-0.009120	-0.077859	7518.992953	53215.245583	4189.749687	28443.515012
91.035500	-0.011170	-0.010242	-0.016910	-0.078019	7530.878353	53160.871365	4167.734257	28452.888196
91.535500	-0.011565	-0.010846	-0.010232	-0.078026	7526.797018	53091.930232	4187.000132	28453.300964
92.036500	-0.011903	-0.011185	-0.015601	-0.078188	7524.944744	53071.484840	4171.968586	28462.821272
92.536500	-0.012142	-0.010582	-0.015182	-0.077492	7515.113203	53060.794352	4171.173379	28421.938059
93.037500	-0.014161	-0.011831	-0.013966	-0.078041	7499.711897	52980.222259	4176.247309	28454.215417
93.537000	-0.014006	-0.011626	-0.012056	-0.077679	7497.541779	52962.059109	4180.712441	28432.935447
94.034500	-0.015501	-0.011560	-0.012420	-0.077148	7476.403460	52908.570138	4178.127432	28401.794148
94.537500	-0.015015	-0.013160	-0.013298	-0.077998	7490.325576	52822.403986	4178.046355	28451.679556
95.035000	-0.015932	-0.013067	-0.013976	-0.077958	7480.351788	52828.570510	4175.979463	28449.342143
95.535500	-0.015129	-0.013399	-0.010199	-0.074955	7457.470487	52447.017592	4178.207665	28273.523250
96.090500	-0.015228	-0.013211	-0.013294	-0.077309	7480.919936	52737.539979	4176.073674	28411.208179
96.595500	-0.014861	-0.012995	-0.006582	-0.076799	7479.423996	52703.786770	4194.055385	28381.322744
97.036500	-0.016509	-0.013615	-0.008866	-0.076860	7462.922364	52639.853443	4187.580149	28384.911453
97.536500	-0.017359	-0.013654	-0.007534	-0.076164	7446.902069	52555.846706	4189.429390	28344.136320
98.037000	-0.016409	-0.013563	-0.011854	-0.075364	7448.452407	52475.005665	4174.619489	28297.401100
98.537500	-0.014890	-0.013155	-0.012034	-0.074712	7457.433579	52447.134579	4172.228462	28259.357108
99.037000	-0.014070	-0.012655	-0.009551	-0.073768	7456.161064	52396.704755	4176.656704	28204.426815
