sample name	sample
index	1080
start time	 04-22-2021  11:12:52 AM
880	0.059359
Peak Time (s)	102.037
Peak Height 	0.05936
calc peak height	100,103
Baseline Time (s)	10.039
Baseline Value 	-0.003098
subtract baseline	10,4
Abs	0.028725
Peak Time (s)	102.537
Peak Height 	0.02873
calc peak height	100,103
Baseline Time (s)	11.037
Baseline Value 	0.003998
subtract baseline	10,3
PK_550	0.029104
Peak Time (s)	102.537
Peak Height 	0.0291
calc peak height	100,103
Baseline Time (s)	11.037
Baseline Value 	7.6659E-4
subtract baseline	10,2
PK_880	0.022128
Peak Time (s)	101.536
Peak Height 	0.02213
calc peak height	100,103
Baseline Time (s)	10.536
Baseline Value 	0.001838
subtract baseline	10,1


Time (s)	A880-A510	A880-A775	A880-A975	A880	I510	I775	I975	I880	
0.035500	-0.001619	-0.000770	-0.003043	0.001556	6254.260349	43279.483782	3884.177303	22720.282777
0.536000	-0.004511	-0.001388	-0.005261	0.006604	6193.486273	42756.814109	3867.341668	22491.242650
1.036000	-0.003197	-0.000596	-0.009793	0.003716	6225.512190	43095.467012	3863.572800	22621.954108
1.536500	0.000788	0.000100	-0.001875	0.001466	6273.600201	43368.680425	3887.120927	22724.383094
2.036500	0.000445	-0.000563	0.000425	0.000512	6278.358778	43395.805901	3894.774599	22768.011829
2.534500	-0.005385	-0.001193	-0.008393	0.006131	6190.456349	42818.082518	3861.253003	22512.611416
3.037500	-0.000678	-0.001246	-0.000553	-0.002411	6292.381836	43604.882097	3899.375874	22902.142609
3.535000	-0.000830	-0.000507	0.001237	0.000649	6267.388323	43388.287170	3896.369816	22761.736109
4.035000	-0.001600	0.000038	-0.003671	0.001019	6258.560070	43404.526544	3883.964902	22744.803029
4.535500	0.000091	-0.000218	-0.006003	0.000872	6272.809270	43394.415333	3878.873999	22751.546477
5.038500	-0.000185	-0.000307	-0.000597	0.000187	6275.984356	43449.945267	3893.130701	22782.871178
5.536000	-0.001754	-0.000735	-0.003410	-0.000249	6267.184266	43450.673629	3887.542336	22802.819840
6.036000	-0.002379	-0.000788	-0.002730	-0.000429	6263.738175	43462.529976	3889.559050	22811.078687
6.536500	-0.000712	-0.000383	-0.000705	0.000324	6270.823792	43430.072248	3892.553230	22776.588867
7.039500	-0.000554	-0.000936	-0.000208	-0.000535	6278.731170	43458.703337	3895.752375	22815.964350
7.537000	-0.003285	-0.000936	-0.008941	-0.000791	6259.524919	43482.434965	3875.915348	22827.672817
8.037500	-0.001730	-0.000794	-0.003364	-0.000456	6268.973149	43464.446701	3888.136866	22812.319780
8.534500	0.000485	0.000767	-0.004730	0.000713	6277.103556	43501.051981	3882.207480	22758.808208
9.037500	0.000493	-0.000403	0.002845	-0.000665	6287.890558	43520.482046	3903.300424	22821.891740
9.535500	-0.000253	0.000360	-0.003171	0.000583	6272.379120	43475.290743	3886.154562	22764.767722
10.038500	0.002172	0.000028	-0.005787	0.000000	6295.817205	43498.614940	3881.405370	22791.432788
10.536000	0.000000	-0.000663	0.000235	-0.000120	6279.806643	43445.318286	3895.817599	22796.913781
11.036500	-0.000642	0.000000	0.000000	-0.000007	6273.935635	43496.676022	3894.995417	22791.741410
11.537000	-0.001269	-0.000467	0.006398	0.000135	6267.969465	43439.888328	3909.873915	22785.250675
12.037000	-0.001746	-0.000566	-0.002052	-0.000056	6265.754237	43448.431413	3890.276796	22793.990570
12.537000	-0.000652	-0.000126	-0.003473	-0.000576	6278.286691	43538.050959	3888.161051	22817.823152
13.038000	-0.000065	0.000487	-0.002379	-0.000888	6285.282681	43624.594165	3891.464787	22832.141229
13.537500	-0.002306	-0.000289	-0.002021	0.000492	6257.173027	43423.218268	3889.061900	22768.904653
14.035500	-0.003741	-0.000569	-0.002599	0.001756	6236.371871	43279.517309	3884.745977	22711.150148
14.535500	-0.001629	0.000592	-0.005564	0.002162	6249.512642	43349.801932	3876.899442	22692.674113
15.041000	-0.000158	-0.000461	0.001599	-0.000898	6284.638296	43536.858843	3900.894077	22832.614159
15.536000	-0.001456	-0.000133	0.000626	0.000393	6264.520508	43447.039124	3895.531109	22773.460546
16.036500	0.000309	-0.000201	-0.002933	-0.001267	6291.165745	43595.713080	3891.053739	22849.564379
16.537000	-0.002129	-0.001200	0.001135	-0.001613	6274.859474	43534.585077	3901.486420	22865.421446
17.037500	0.000675	0.000041	0.003532	-0.003198	6309.145432	43799.556964	3910.993172	22938.436965
17.537500	-0.001150	-0.000344	0.003116	0.000820	6263.582835	43387.533154	3900.414880	22753.917038
18.037500	0.000336	0.000242	-0.000149	0.000809	6275.201084	43443.158816	3892.721461	22754.429462
18.537500	-0.000668	-0.001106	-0.007218	0.000172	6272.351106	43376.990324	3877.679983	22783.575934
19.035000	-0.005182	-0.000800	-0.003870	0.000101	6238.024929	43412.063769	3885.646223	22786.816161
19.535500	-0.002957	-0.000443	-0.006896	0.000912	6248.905362	43369.739441	3876.707697	22749.712186
20.036000	-0.002798	-0.000774	-0.002073	0.000469	6253.558057	43380.183962	3888.995110	22769.976487
20.536500	-0.002455	0.000691	-0.002098	0.001277	6249.968682	43441.432156	3887.042260	22733.048751
21.037000	-0.000990	0.000304	-0.000212	0.001102	6262.632512	43421.616688	3891.879742	22741.007308
21.537000	-0.002754	-0.000488	-0.001085	0.000411	6254.341478	43412.227027	3891.454424	22772.638111
22.037000	-0.001536	0.000481	-0.003068	0.001013	6259.098820	43446.335719	3885.388068	22745.075562
22.535000	-0.001840	-0.000182	-0.001476	0.000947	6257.254995	43390.751018	3889.272648	22748.087446
23.038000	-0.001952	0.000350	-0.000767	0.001101	6255.198764	43425.956904	3890.577468	22741.052126
23.535000	-0.001675	-0.000066	-0.000826	0.000688	6260.537792	43425.690099	3891.410615	22759.937767
24.035500	-0.002006	0.000037	-0.004507	0.000718	6257.743546	43432.528790	3882.715527	22758.557938
24.535500	-0.001639	-0.000266	0.001387	0.000610	6261.425958	43414.361631	3896.814603	22763.512607
25.036000	-0.001036	-0.000174	-0.003760	0.000632	6265.919805	43420.881294	3884.660631	22762.511375
25.536000	-0.002619	-0.000740	-0.006768	0.000304	6256.205510	43398.698109	3878.415613	22777.504642
26.036500	0.000565	0.000138	-0.001243	0.000831	6276.808786	43431.356101	3890.094295	22753.403682
26.537000	-0.002209	-0.000085	-0.005630	0.000725	6256.119688	43420.421861	3880.083627	22758.238540
27.034500	0.000005	0.000262	-0.001414	-0.001570	6291.157544	43667.416031	3895.348385	22863.481092
27.536000	-0.002577	-0.000469	-0.005981	-0.001144	6267.745843	43559.107104	3883.623725	22843.910217
28.035500	-0.000563	0.000689	0.003116	-0.000708	6280.007192	43626.721774	3904.047915	22823.891678
28.535500	-0.002432	-0.000268	-0.007542	0.000248	6258.084020	43447.867261	3876.750525	22780.073200
29.035500	-0.000432	0.000262	-0.003879	-0.000902	6282.532112	43604.853899	3887.974127	22832.769104
29.536500	0.000269	-0.000395	-0.001860	0.000024	6280.785968	43456.977226	3890.540958	22790.333099
30.036500	-0.000436	-0.000006	0.006630	-0.001035	6283.541527	43592.272559	3913.238656	22838.911265
30.536500	-0.001596	0.000177	-0.006463	0.002828	6244.636077	43249.384066	3873.276098	22662.350705
31.036500	-0.003188	0.000172	0.001354	0.001709	6240.989387	43352.836671	3894.140856	22713.322152
31.537000	-0.001579	-0.000285	-0.001154	0.000122	6265.662881	43458.031445	3891.970355	22785.827323
32.037500	-0.001427	-0.000114	-0.000741	-0.000984	6275.433155	43577.390957	3895.553350	22836.568077
32.538000	-0.001555	-0.000000	-0.001989	-0.000335	6269.400285	43527.336008	3891.081471	22806.802605
33.035500	-0.000352	0.000448	-0.000954	-0.000741	6281.908578	43607.232511	3894.477834	22825.414721
33.535500	-0.000248	-0.000078	-0.003219	0.001006	6269.135406	43394.958043	3885.051693	22745.411954
34.036000	-0.001273	0.000095	0.001351	0.001017	6261.105693	43410.064609	3895.768676	22744.901905
34.536000	-0.001937	0.000221	0.000066	0.001637	6251.178201	43364.021639	3891.276434	22716.579488
35.036500	-0.003249	0.000034	-0.002114	0.001740	6240.278795	43337.105510	3885.919250	22711.885231
35.536500	-0.003451	-0.000392	-0.002935	0.000934	6244.928081	43372.485696	3885.884685	22748.701749
36.037000	-0.001473	0.000273	-0.004585	0.001668	6254.524338	43365.972532	3880.320747	22715.178456
36.537000	-0.001668	-0.000201	0.000359	0.001233	6256.378885	43362.437839	3892.919660	22735.054652
37.038000	-0.003850	0.000425	-0.000797	0.001624	6236.557647	43384.322322	3889.280084	22717.202971
37.538000	-0.002758	-0.000145	-0.001798	0.000906	6250.494091	43398.097738	3888.616510	22750.004783
38.035000	-0.003076	0.000095	-0.003107	0.001371	6244.448967	43377.073912	3884.459953	22728.727188
38.535500	0.000034	-0.000430	0.000205	0.000922	6271.970117	43370.041329	3893.286830	22749.236826
39.036000	-0.003867	-0.001389	-0.008640	0.000120	6247.997828	43355.415217	3874.502786	22785.944369
39.536000	-0.002617	-0.000442	-0.002229	0.000780	6252.555066	43382.182499	3887.900572	22755.762938
40.036500	-0.002222	-0.000228	-0.000291	0.001245	6252.005051	43358.787385	3891.358096	22734.480654
40.537000	-0.002635	-0.000605	-0.005927	0.000825	6252.058659	43362.755053	3879.159730	22753.679973
41.037000	-0.003223	-0.000202	-0.003965	0.001386	6243.208123	43348.032004	3882.421688	22728.055129
41.535000	-0.000930	-0.000325	0.001058	0.001206	6262.292335	43353.357170	3894.629521	22736.255441
42.040500	-0.000697	-0.000431	-0.002397	0.001286	6263.482585	43336.092929	3886.319780	22732.638426
42.535000	-0.001364	-0.000301	-0.002183	0.000815	6261.965992	43392.030733	3887.924913	22754.143547
43.035500	-0.001511	0.000082	0.003517	0.001337	6256.790259	43379.025262	3900.138616	22730.278811
43.536000	0.000861	-0.000214	0.000664	-0.002669	6306.450052	43725.808106	3902.879151	22914.036464
44.036000	-0.001979	-0.000058	-0.000150	-0.001017	6271.403106	43585.673866	3897.028811	22838.084529
44.536500	-0.000972	-0.000004	-0.002440	-0.000620	6276.143649	43553.588595	3890.692509	22819.868876
45.036500	0.000612	0.000974	-0.001372	-0.000159	6284.885437	43601.951913	3892.120098	22798.732661
45.537000	-0.001576	-0.000006	-0.002482	-0.000754	6272.487078	43565.892621	3890.906630	22825.981349
46.037500	-0.001467	-0.000385	0.001714	-0.001504	6279.166903	43600.677819	3902.606279	22860.431881
46.537500	0.000779	0.000893	0.001600	-0.000015	6285.062220	43580.896793	3898.799832	22792.128102
47.035000	-0.002560	-0.000194	-0.003484	0.002099	6242.823379	43282.525131	3881.881175	22695.530571
47.535000	-0.004687	0.000789	-0.000122	0.002014	6227.140939	43381.837050	3889.948236	22699.410489
48.035500	-0.000658	0.000582	0.001046	-0.000520	6277.797696	43599.020117	3898.682176	22815.249483
48.536000	0.001112	0.000476	-0.000495	-0.000426	6290.860747	43580.322882	3894.816153	22810.937185
49.036500	-0.000655	-0.000015	0.000169	-0.000809	6280.074190	43570.249500	3897.291166	22828.528247
49.536500	-0.003570	-0.000325	0.000196	-0.000670	6256.381652	43528.192472	3897.026556	22822.125796
50.037000	0.005907	0.000386	0.001600	0.002836	6302.853018	43268.024703	3892.065392	22661.975720
50.537000	0.026464	-0.009029	0.019946	0.309648	4660.246846	22418.150529	3395.806838	12650.891609
51.034500	0.003958	-0.016372	-0.014224	0.170300	5203.683493	29331.691059	3540.019307	16339.347747
51.534500	-0.022899	-0.021727	-0.034565	-0.093181	6872.429503	50746.328848	4043.155882	27551.411998
52.035000	-0.027870	-0.057492	-0.025426	-0.231934	8305.578523	63536.280447	4519.290558	36830.438551
52.535000	-0.010292	-0.025124	-0.010326	-0.169396	7773.945506	59470.485876	4348.581760	32280.123598
53.036000	-0.003990	-0.024177	0.000674	-0.173659	7893.977362	60152.648260	4401.489055	32569.967265
53.536000	-0.000451	-0.017403	-0.001224	-0.143656	7598.750201	57173.734086	4292.991543	30589.508998
54.036000	-0.003842	-0.012046	-0.001587	-0.114241	7256.877755	54251.932768	4198.661910	28776.262916
54.536000	-0.003851	-0.012626	-0.006856	-0.131600	7434.458402	56272.518859	4236.183194	29831.448237
55.037000	-0.004211	-0.013728	-0.003349	-0.145162	7574.425777	57824.417191	4290.964380	30685.685276
55.539500	-0.000766	-0.010267	-0.004859	-0.134853	7501.115394	56965.982612	4252.802899	30033.909688
56.040500	0.001731	-0.008304	-0.002236	-0.129803	7474.148360	56583.426397	4245.091216	29720.210136
56.534000	0.003430	-0.005780	-0.004746	-0.125469	7446.485209	56360.457907	4223.586622	29453.942611
57.034500	0.004062	-0.004111	-0.002082	-0.107659	7270.155535	54411.866162	4177.178798	28387.035959
57.535000	0.005516	-0.000890	-0.000338	-0.087862	7089.420900	52485.016021	4123.936781	27251.394737
58.035500	0.008936	0.002378	0.000034	-0.048025	6752.429219	48485.074853	4014.972603	25117.149315
58.536000	0.003310	0.001537	-0.003068	-0.042760	6657.025402	47849.450414	3993.115712	24849.458317
59.036500	0.004765	-0.000555	0.006073	-0.061710	6837.762902	49626.462148	4068.192759	25828.368969
59.536500	0.001564	0.001365	-0.000489	-0.039584	6614.680678	47504.643914	3991.571964	24689.513602
60.037000	0.003493	0.003444	0.007382	0.040857	6000.324424	40149.786500	3818.907904	21005.545550
60.534500	0.001125	0.000142	0.001634	0.034719	6027.353318	40393.442724	3819.760812	21263.232151
61.037000	0.001135	0.001097	0.007418	0.073175	5762.397084	37296.251565	3750.898572	19707.227151
61.535000	-0.001681	0.002244	-0.000643	0.133243	5376.519495	32939.314607	3622.935471	17536.322950
62.035000	-0.004731	0.002450	-0.003438	0.139645	5323.201451	32514.542830	3607.147570	17322.160128
62.535500	-0.004998	0.005109	0.000045	0.140693	5315.879218	32624.431547	3611.297138	17287.419984
63.050000	0.000178	0.006813	0.005472	0.136104	5370.818600	33057.498995	3628.603242	17440.248161
63.536000	-0.001398	0.007882	0.004544	0.133042	5379.285380	33345.214850	3632.340421	17543.101951
64.039000	0.003685	0.013480	0.003258	0.136275	5389.871289	33511.143874	3624.445635	17434.512658
64.537000	-0.000197	0.014784	0.003767	0.129266	5407.861302	34101.685134	3637.626752	17670.972684
65.037500	0.003682	0.017655	0.013206	0.124753	5456.798793	34635.793744	3662.702997	17825.259655
65.540500	0.005158	0.018308	0.007073	0.119575	5496.269970	35063.988886	3660.959690	18004.244804
66.038000	0.001223	0.018554	0.003223	0.114808	5501.256617	35436.790325	3662.633798	18170.952215
66.535000	0.003222	0.017380	0.008795	0.102585	5587.850413	36273.839606	3695.806264	18606.817416
67.035500	0.003245	0.017780	0.002153	0.093274	5646.246856	37027.176476	3700.898218	18947.148733
67.535500	0.001172	0.017568	0.001956	0.081905	5705.670351	37913.916013	3722.562625	19372.770426
68.036000	0.002658	0.018474	0.005103	0.074043	5766.714247	38626.869303	3744.462791	19673.673414
68.536500	0.002731	0.020107	0.006492	0.059637	5863.902204	39968.927223	3776.868522	20239.356554
69.036000	0.002173	0.019657	0.000744	0.047206	5946.058183	41004.269817	3790.939126	20742.810069
69.537000	0.005264	0.020478	0.000084	0.037076	6040.208557	41975.834689	3811.250548	21163.837245
70.037500	0.003043	0.021019	0.001402	0.031508	6064.508671	42528.624512	3826.302750	21399.494479
70.534500	0.004659	0.021306	0.008025	0.019480	6165.507453	43666.916314	3868.286842	21918.987069
71.035000	0.004010	0.020102	0.005067	0.010755	6226.801602	44377.967546	3881.635793	22304.894572
71.535000	0.005219	0.021474	0.000878	0.004812	6282.042672	45081.673468	3885.732842	22572.248094
72.036000	0.001694	0.019907	0.000446	0.001802	6278.033473	45221.871503	3891.782450	22709.068328
72.536000	0.005728	0.021061	0.001973	-0.006877	6378.383422	46189.762557	3916.090169	23108.888901
73.036500	0.007517	0.020469	0.009009	-0.011568	6430.678020	46599.828277	3944.736412	23328.365375
73.539000	0.007254	0.019655	0.007962	-0.014662	6453.768368	46829.479726	3949.814250	23474.407631
74.036500	0.005924	0.019938	0.003603	-0.012574	6425.909215	46647.541456	3933.898381	23375.741370
74.537000	0.011063	0.020208	0.004377	-0.018464	6516.601047	47271.684990	3950.355055	23655.314728
75.037500	0.010016	0.021059	0.007661	-0.019615	6517.460309	47476.396122	3961.446644	23710.360197
75.537500	0.012923	0.020915	0.007192	-0.019358	6539.604437	47435.390585	3959.623861	23698.061615
76.035000	0.007107	0.021747	0.003921	-0.014838	6454.000884	47059.247941	3940.244238	23482.739699
76.535500	0.012019	0.021085	0.013510	-0.019441	6532.732116	47461.328577	3975.811397	23702.047298
77.036000	0.014292	0.021719	0.009840	-0.018036	6540.002669	47382.407154	3962.958616	23634.880772
77.536000	0.013756	0.022027	0.011611	-0.015850	6517.252300	47190.615871	3961.912776	23530.738153
78.036500	0.013279	0.021783	0.011856	-0.015523	6510.558986	47132.520776	3961.705488	23515.213451
78.537000	0.013667	0.021627	0.013317	-0.013833	6499.755137	46945.138632	3961.130720	23435.163186
79.036500	0.013677	0.020853	0.020065	-0.012342	6487.499419	46716.297760	3974.425878	23364.784476
79.539500	0.016115	0.022191	0.016528	-0.008803	6478.422939	46495.157097	3956.569570	23198.733238
80.034500	0.016351	0.021746	0.016776	-0.007982	6473.601958	46368.403440	3955.136111	23160.388712
80.535000	0.014030	0.022274	0.015336	-0.005910	6437.631172	46214.226502	3946.391964	23063.947180
81.035500	0.013400	0.021129	0.013417	-0.004743	6423.027220	45984.537297	3938.766229	23009.835771
81.535500	0.014342	0.022033	0.017932	-0.001745	6406.386305	45777.587519	3942.507607	22871.502545
82.036000	0.012065	0.020837	0.015424	0.003497	6346.203352	45147.496457	3923.531974	22631.912992
82.536000	0.015914	0.021521	0.013904	-0.000398	6408.198607	45594.699951	3929.310499	22809.652382
83.037000	0.014586	0.021267	0.013423	0.000441	6390.744429	45487.528520	3926.096550	22771.266644
83.536500	0.011869	0.021987	0.013147	0.002958	6348.919186	45311.829156	3919.321692	22656.400546
84.037000	0.008802	0.021858	0.010227	0.009437	6273.937068	44672.277534	3896.846982	22363.881692
84.537000	0.012995	0.022571	0.019523	0.006251	6331.757555	45048.546851	3926.801660	22507.188933
85.035000	0.015034	0.022807	0.017265	0.008358	6331.217818	44867.489416	3916.227363	22412.284039
85.535000	0.016779	0.022792	0.017244	0.010276	6329.852514	44681.404089	3911.564703	22326.315265
86.035500	0.012583	0.023161	0.013783	0.018514	6233.039617	43932.194813	3883.867989	21961.317644
86.536000	0.015084	0.022664	0.015746	0.013958	6287.645739	44316.964807	3899.209451	22162.325722
87.036000	0.016071	0.023041	0.020393	0.016592	6274.824345	44102.597538	3903.994501	22045.886982
87.536000	0.015972	0.023436	0.016465	0.019009	6255.323273	43911.406681	3888.989619	21939.601985
88.036500	0.010369	0.021853	0.014121	0.024596	6169.976249	43240.821682	3870.542844	21696.273292
88.537000	0.016836	0.023170	0.018857	0.023040	6230.950183	43508.203693	3885.150122	21763.725459
89.040000	0.017118	0.023576	0.016382	0.025050	6217.721415	43358.703870	3874.716460	21676.640690
89.534000	0.019407	0.023501	0.019732	0.026789	6221.920195	43190.229351	3878.450024	21601.582633
90.035000	0.015131	0.024318	0.014856	0.034286	6133.082168	42576.132062	3850.113095	21281.564339
90.535500	0.014774	0.023995	0.021648	0.030515	6158.601930	42892.019793	3874.256646	21441.861356
91.035500	0.015261	0.023901	0.021124	0.031986	6151.222184	42748.226328	3869.648692	21379.132812
91.536000	0.013933	0.023723	0.020996	0.034289	6124.149367	42521.618444	3864.067919	21281.408341
92.036000	0.012559	0.023210	0.021249	0.040852	6065.761620	41882.131385	3849.723082	21005.743571
92.536500	0.016681	0.024310	0.016690	0.037323	6122.029398	42299.221942	3847.399154	21153.448959
93.036500	0.016180	0.025280	0.019286	0.039474	6102.411180	42192.402645	3848.403526	21063.282428
93.537000	0.017466	0.026088	0.020598	0.042387	6090.442773	42002.718299	3844.802131	20941.888202
94.037000	0.017554	0.025788	0.023064	0.043115	6085.735926	41910.389431	3848.711498	20911.658110
94.534500	0.019187	0.026169	0.021879	0.044543	6087.242587	41816.653168	3842.837626	20852.541884
95.034500	0.017212	0.026270	0.022306	0.045754	6063.944377	41717.430220	3841.082682	20802.555339
95.535500	0.019934	0.026004	0.023519	0.047316	6072.406267	41554.515921	3840.301831	20738.263624
96.035500	0.017759	0.026419	0.029157	0.048054	6051.199665	41525.890581	3851.317921	20707.998897
96.536000	0.021293	0.026732	0.027973	0.049347	6067.503812	41438.979990	3845.733017	20655.048935
97.036000	0.019534	0.027557	0.023231	0.050485	6046.442718	41411.240649	3832.605779	20608.605014
97.536000	0.018704	0.027149	0.021355	0.051570	6032.596592	41279.252701	3826.061052	20564.409505
98.037000	0.019614	0.027506	0.027458	0.051591	6039.013811	41308.831167	3839.549452	20563.541015
98.540000	0.022839	0.027407	0.025540	0.052097	6058.732477	41255.500766	3834.152608	20542.986711
99.037500	0.020842	0.027712	0.030358	0.052615	6040.496559	41236.727560	3843.750868	20521.965137
99.535000	0.021617	0.027578	0.028860	0.052848	6044.413612	41204.427981	3839.874706	20512.508359
100.035000	0.017456	0.027924	0.020694	0.059212	5969.125012	40678.104797	3807.948328	20256.342486
100.535500	0.021368	0.028725	0.026906	0.053928	6034.808707	41210.297433	3833.119541	20468.772811
101.036000	0.020966	0.028400	0.026772	0.054032	6031.159547	41172.565606	3832.593677	20464.584173
101.536000	0.022128	0.028832	0.024756	0.054127	6038.862967	41202.200908	3827.923668	20460.728047
102.036500	0.019143	0.027767	0.019904	0.059359	5980.026296	40651.605015	3805.925073	20250.443645
102.537000	0.022109	0.029104	0.028725	0.054270	6037.688380	41213.540309	3836.403429	20454.932231
103.037000	0.023980	0.028822	0.030462	0.054525	6049.390278	41166.308243	3839.709041	20444.648296
103.534000	0.022798	0.029711	0.028643	0.055504	6033.749983	41158.346870	3833.476640	20405.120640
104.037500	0.017498	0.029137	0.021718	0.059350	5968.448018	40771.465197	3809.864048	20250.799078
104.535000	0.023770	0.029484	0.027775	0.053797	6053.146012	41288.735051	3835.340978	20474.061978
105.035500	0.019869	0.028899	0.029856	0.053169	6029.473286	41292.589357	3841.384267	20499.508834
105.536500	0.023145	0.029408	0.025606	0.053164	6053.199670	41337.990849	3831.929880	20499.688899
106.036000	0.019518	0.029998	0.027371	0.059443	5982.089098	40838.392429	3821.979770	20247.082041
