sample name	sample
index	915
start time	 04-12-2021  11:05:03 AM
880	0.455415
Peak Time (s)	122.537
Peak Height 	0.4554
calc peak height	120,123
Baseline Time (s)	9.035
Baseline Value 	-0.005661
subtract baseline	10,4
Abs	0.383516
Peak Time (s)	120.535
Peak Height 	0.3835
calc peak height	120,123
Baseline Time (s)	9.535
Baseline Value 	0.003981
subtract baseline	10,3
PK_550	0.226189
Peak Time (s)	122.037
Peak Height 	0.2262
calc peak height	120,123
Baseline Time (s)	10.536
Baseline Value 	4.8027E-4
subtract baseline	10,2
PK_880	0.387965
Peak Time (s)	122.037
Peak Height 	0.388
calc peak height	120,123
Baseline Time (s)	11.036
Baseline Value 	0.003538
subtract baseline	10,1


Time (s)	A880-A510	A880-A775	A880-A975	A880	I510	I775	I975	I880	
0.035500	0.000318	0.000199	-0.003978	0.001168	7181.285146	43625.301012	3876.275839	23341.219999
0.535500	-0.001023	0.000015	-0.002382	0.004448	7134.829293	43301.244650	3872.007701	23186.632013
1.035000	-0.006359	-0.000980	-0.003189	0.005962	7066.860408	43068.165058	3866.147359	23115.642454
1.537000	-0.001425	-0.000694	0.002533	0.001264	7162.733013	43532.510203	3892.691853	23336.672049
2.036000	-0.001565	-0.000741	0.000010	-0.000594	7180.068067	43702.607909	3890.980477	23424.780765
2.537000	-0.000796	0.000016	0.004007	-0.000420	7186.068378	43757.413308	3900.864245	23416.483088
3.037500	-0.003355	-0.001212	-0.002382	0.002825	7127.747926	43338.227881	3876.123393	23262.999779
3.537000	-0.001724	-0.000150	-0.004210	0.000239	7170.052875	43679.841071	3878.050767	23385.257287
4.040000	0.000633	-0.000096	-0.001213	0.000382	7192.422552	43671.480452	3885.333070	23378.463125
4.535000	-0.001300	-0.000349	-0.001855	-0.000361	7180.381218	43717.590878	3885.593927	23413.712209
5.035000	-0.000263	0.000325	-0.002908	0.000232	7184.871260	43725.120815	3881.383577	23385.559928
5.535500	-0.001370	-0.000309	0.004164	0.000038	7175.646702	43683.742381	3900.082792	23394.769713
6.036000	-0.000618	0.000167	-0.001449	-0.000046	7184.092336	43736.475944	3885.826313	23398.747368
6.536500	0.001169	0.000912	0.001748	0.000996	7191.635821	43708.582080	3891.361177	23349.392663
7.036000	0.000436	0.000355	-0.003981	0.000486	7189.384080	43704.105833	3878.003584	23373.542053
7.537000	0.000729	0.000889	-0.002405	0.000782	7189.345048	43726.471612	3881.265766	23359.518016
8.037500	-0.000306	-0.000448	0.002968	0.000100	7185.769506	43664.851254	3896.822263	23391.823466
8.540000	-0.000044	-0.000457	0.003637	-0.000152	7190.975230	43687.684926	3899.208177	23403.773687
9.035000	-0.000349	-0.000168	0.003695	0.000000	7186.354255	43700.581833	3898.964826	23396.571782
9.535000	0.001721	0.000002	0.000000	0.000285	7204.447532	43689.773973	3888.693525	23383.045459
10.035500	0.002162	0.001099	-0.001181	0.000864	7203.046901	43738.543879	3884.182037	23355.633975
10.535500	0.000665	0.000000	0.002649	0.000127	7195.331573	43704.452710	3895.928111	23390.546034
11.035500	0.000000	0.000080	-0.002095	-0.000225	7192.157723	43745.081121	3884.628252	23407.229830
11.536000	-0.000027	-0.000723	-0.001433	-0.000277	7192.415289	43674.440465	3886.459161	23409.716567
12.036500	0.000358	0.000193	-0.004320	0.000085	7192.646718	43726.549689	3878.158956	23392.522119
12.534000	0.000448	-0.000183	0.001866	0.000015	7194.268649	43697.800331	3894.194736	23395.865492
13.037000	0.001851	0.001067	0.001543	-0.001382	7222.740467	43947.556886	3896.969148	23462.229312
13.537500	-0.003672	-0.000163	-0.000895	0.003790	7114.958943	43346.010816	3877.447752	23217.536491
14.035000	0.001192	0.000300	0.000298	-0.000359	7205.613620	43778.479103	3891.116845	23413.614684
14.534500	-0.002742	0.000010	-0.002934	0.001991	7142.207260	43530.328028	3876.837524	23302.310648
15.035500	0.001711	0.000345	0.000953	-0.000351	7210.816528	43781.971297	3892.782914	23413.230015
15.553500	-0.003131	-0.000439	-0.004741	0.002843	7129.804701	43408.641851	3870.100244	23262.139171
16.036500	0.000893	0.000467	0.002614	-0.000843	7207.493810	43839.931223	3898.348280	23436.599924
16.536500	0.000404	-0.000100	0.004984	-0.001287	7207.038016	43828.343365	3905.662962	23457.725851
17.037000	0.001742	0.000257	0.000025	-0.000876	7216.467768	43823.135826	3891.744132	23438.160537
17.536500	0.001044	0.000307	0.006072	0.001077	7189.556417	43644.058837	3902.340980	23345.556333
18.040500	-0.000004	0.000318	0.001886	0.000541	7184.370012	43695.410165	3892.891102	23370.939179
18.535000	-0.000751	0.000467	0.002168	0.001663	7165.503147	43603.979802	3890.724130	23317.824038
19.035000	-0.003004	-0.000339	-0.003103	0.001059	7148.932936	43585.003256	3878.779254	23346.391761
19.535500	-0.001322	0.000347	0.003670	0.002555	7150.795536	43509.046717	3892.296212	23275.696961
20.035500	-0.001646	-0.000026	-0.005323	0.001256	7160.595159	43595.881776	3872.642872	23337.059880
20.536000	0.001763	0.000616	0.000942	0.001525	7192.291768	43630.975034	3887.930249	23324.366365
21.036500	-0.001325	0.000661	-0.000137	0.001592	7160.436656	43628.806482	3884.989035	23321.165876
21.536500	-0.000630	0.000584	-0.003571	0.002063	7162.694474	43577.458744	3875.036757	23298.925856
22.036000	0.001926	0.000140	0.000748	0.001250	7196.735366	43612.067849	3888.136866	23337.360414
22.537000	0.000228	0.000471	0.002532	0.001334	7178.694265	43635.210276	3892.509353	23333.368926
23.037500	-0.000325	-0.000630	0.001767	0.000640	7180.126172	43597.106669	3892.327610	23366.242058
23.537500	-0.001186	0.000274	0.002102	0.001189	7165.903257	43630.416942	3891.776287	23340.259766
24.035500	0.000051	0.000043	0.004874	0.001626	7173.967013	43567.682105	3897.806202	23319.584566
24.535500	-0.000410	-0.000002	-0.001869	0.001483	7170.748546	43576.850225	3880.841343	23326.316733
25.036000	-0.000457	-0.000019	-0.001923	0.001106	7174.087273	43610.652982	3881.667277	23344.189892
25.536000	-0.001279	-0.000054	0.000666	0.001762	7159.204904	43545.832650	3886.614600	23313.169513
26.036500	-0.001932	-0.000150	-0.001153	0.001107	7159.212414	43598.268683	3883.631385	23344.103289
26.537000	-0.000423	0.000411	0.002610	0.001912	7166.302477	43575.366712	3891.221883	23306.083119
27.037000	0.001208	0.000787	0.004550	0.001442	7187.512884	43654.813651	3897.443766	23328.261535
27.540000	0.000727	0.000629	0.004214	0.000263	7194.587630	43750.845652	3899.628314	23384.098009
28.035000	0.001424	-0.000061	0.005555	-0.001743	7222.071230	43875.121069	3908.345952	23479.450920
28.538000	0.001357	-0.000059	0.004911	-0.000772	7211.499847	43783.633046	3904.131763	23433.236189
29.046500	-0.000137	0.000376	0.002383	0.000733	7181.084004	43682.824851	3893.676395	23361.849716
29.535500	-0.003047	-0.000124	0.000964	0.001914	7139.926220	43525.008813	3886.986435	23305.951546
30.036500	0.002361	0.000723	0.005581	-0.000278	7216.689612	43810.790730	3904.590596	23409.782357
30.536000	0.002653	0.000311	-0.003417	-0.000373	7220.623612	43780.777697	3881.627909	23414.254924
31.048500	0.000243	0.000267	-0.001572	0.001062	7181.599136	43641.652924	3882.676607	23346.244095
31.536500	-0.000969	-0.000575	-0.001556	0.002863	7151.248463	43394.136553	3878.126198	23261.210404
32.037500	-0.000239	-0.000150	-0.000503	0.001884	7168.432821	43525.358052	3883.306441	23307.374512
32.555500	0.001081	-0.000013	0.001069	-0.001055	7211.561360	43814.601768	3894.899846	23446.678802
33.037500	-0.000208	0.000251	0.003101	0.002087	7166.703773	43543.945423	3892.036473	23297.817651
33.535000	-0.002521	0.000636	-0.004514	0.005009	7114.284172	43306.867328	3865.213995	23160.294556
34.035500	0.000965	0.001123	0.004483	0.000339	7196.224433	43790.254425	3900.131180	23380.504786
34.536000	0.000234	-0.000198	0.006542	-0.000764	7200.000771	43769.697393	3908.364664	23432.836870
35.036000	-0.001147	0.000474	0.003657	0.003285	7145.230217	43452.722246	3890.384003	23241.336912
35.536500	0.001231	0.000863	0.000532	0.003435	7167.621485	43475.017804	3881.990793	23234.267305
36.037000	-0.002038	-0.000036	0.000542	0.002027	7148.909615	43522.675135	3885.614515	23300.623609
36.537000	0.000621	0.000035	0.002289	0.002620	7169.685672	43473.811515	3888.576540	23272.644047
37.040000	-0.002088	0.000574	0.001245	0.002735	7141.309953	43513.468068	3885.602569	23267.210497
37.538000	-0.001039	0.000636	0.001309	0.002746	7151.723772	43518.285827	3885.738557	23266.719641
38.035000	-0.001839	0.000555	-0.004879	0.002656	7144.597937	43519.051909	3870.222634	23270.931230
38.534500	-0.000580	0.000577	0.006078	0.002934	7154.441138	43495.141441	3897.539406	23257.862876
39.035500	-0.001382	-0.000274	0.001749	0.002073	7155.030631	43496.084825	3888.593152	23298.444387
39.536000	-0.001042	0.000437	0.000804	0.002804	7151.107797	43494.250773	3884.296164	23263.972944
40.036000	-0.002415	0.000893	0.002798	0.002642	7138.973921	43552.119768	3889.829307	23271.635054
40.536500	-0.000566	0.000081	0.000739	0.002013	7163.851522	43534.969364	3886.158246	23301.309775
41.037000	-0.002113	-0.000602	0.001192	0.001705	7151.393082	43499.826667	3888.109668	23315.862481
41.540000	-0.000996	0.000824	0.001371	0.003019	7149.412544	43510.344266	3885.200231	23253.858939
42.037500	0.000302	0.000817	0.000448	0.002695	7165.714912	43539.989053	3883.664901	23269.102056
42.538000	-0.000910	-0.000318	-0.004469	0.002097	7159.539349	43489.780056	3872.676009	23297.351556
43.035000	-0.001969	-0.000160	-0.003894	0.001844	7151.439180	43528.236784	3874.774384	23309.286403
43.535500	-0.001598	0.000805	-0.001104	0.004185	7131.708161	43399.462195	3875.912645	23198.981315
44.035500	-0.000883	0.000080	-0.003127	0.002613	7154.626519	43478.654451	3874.768153	23272.985975
44.536000	0.000255	-0.000128	-0.001771	0.002238	7169.853117	43494.338170	3879.168974	23290.683973
45.036500	0.002389	0.000608	0.003479	-0.000833	7222.632954	43852.278150	3900.564846	23436.127086
45.537000	-0.002341	0.000029	0.002837	0.006193	7104.311372	43140.365675	3880.833976	23104.868773
46.036500	0.002245	-0.000581	0.002931	-0.000756	7220.369949	43732.838583	3898.944686	23432.455867
46.537000	0.000099	0.000023	-0.002108	-0.000485	7195.799372	43764.265878	3885.263492	23419.601962
47.037500	0.001864	0.000095	0.002286	-0.000625	7215.165312	43784.286078	3896.935340	23426.253873
47.535500	-0.003365	0.000392	0.004750	0.006107	7095.005093	43182.062330	3885.944572	23108.895607
48.035500	0.000992	0.001366	0.005045	0.001502	7184.723430	43703.564880	3898.569994	23325.430013
48.560500	-0.000935	0.000666	-0.000039	0.002347	7156.771982	43558.540627	3883.310796	23285.539316
49.036000	-0.000472	0.000127	0.003100	0.003406	7150.793213	43408.920777	3888.641006	23235.628423
49.536000	-0.002772	0.001076	0.002847	0.006530	7096.687698	43206.243247	3879.998350	23089.083422
50.036500	0.001960	0.000167	0.002237	-0.000074	7210.530700	43739.100542	3895.384982	23400.100964
50.536500	0.001494	0.001474	0.002901	0.001113	7193.744969	43750.355219	3894.032289	23343.832650
51.041500	-0.000806	0.000424	0.002553	0.000285	7178.849803	43729.509134	3895.270855	23383.057733
51.534500	-0.002912	-0.000111	-0.000304	0.006194	7098.634143	43127.189896	3872.846718	23104.805937
52.034500	0.002508	0.001321	0.004351	0.001097	7204.188631	43737.536627	3897.823329	23344.591044
52.535500	0.001111	0.000052	0.004117	-0.001209	7213.437152	43835.261597	3903.200119	23453.989536
53.035500	-0.068401	-0.013390	0.003608	0.213852	5088.121274	27062.066941	3461.016952	15385.000996
53.535500	-0.092030	-0.012955	-0.042216	-0.000008	6350.144614	42515.795190	3786.036352	23396.969664
54.036000	-0.087500	-0.054615	-0.026609	-0.223334	8804.803548	63123.920765	4529.096933	37249.750888
54.536500	-0.072851	-0.129054	-0.008456	-0.314805	10469.078291	65535.000000	5033.315117	45327.760938
55.036500	-0.040205	-0.154881	0.018339	-0.340631	11575.493170	65535.000000	5324.457680	47933.880355
55.536500	-0.037101	-0.063525	0.018968	-0.241910	9839.762047	64480.666687	4808.628739	38755.485507
56.037000	-0.024242	-0.026730	0.018627	-0.177644	9053.005968	60702.186729	4527.259191	33808.873059
56.540000	-0.015840	-0.018203	0.015263	-0.152345	8814.087791	58510.111759	4415.219619	32053.735715
57.035000	0.015511	-0.011766	0.025817	-0.158720	9360.599472	60176.947501	4480.498485	32486.441876
57.535500	0.036949	-0.002834	0.033409	-0.147753	9520.897586	59908.910718	4467.280255	31745.985956
58.035500	0.049071	0.004322	0.035769	-0.129031	9419.407042	58409.075120	4404.634269	30524.375350
58.535500	0.051237	0.013378	0.047978	-0.089162	8868.328291	54602.938420	4303.963531	28092.008977
59.036000	0.065872	0.023554	0.057014	-0.055653	8609.907759	51895.061637	4220.078456	26213.400855
59.536000	0.075090	0.032692	0.075494	-0.005856	8090.933138	47510.765339	4119.408010	23676.262546
60.036500	0.090928	0.043074	0.088993	0.035396	7789.754481	44445.565243	4036.062174	21783.977633
60.540000	0.104059	0.051620	0.102089	0.081009	7429.596215	41041.601189	3944.949570	19890.576817
61.037000	0.114048	0.058942	0.120160	0.130733	7024.133066	37487.858679	3862.577672	18040.967624
61.535000	0.130759	0.067424	0.134144	0.162027	6884.382495	35714.754260	3820.003560	16980.909363
62.069000	0.142148	0.075873	0.149960	0.199218	6648.331095	33609.407965	3769.724550	15816.533651
62.535500	0.154583	0.082317	0.161092	0.229923	6489.465431	31937.449317	3725.802187	14927.559714
63.035500	0.171104	0.090460	0.183812	0.257324	6397.989536	30675.289822	3715.587536	14185.622956
63.599000	0.190090	0.101326	0.199620	0.286524	6314.175706	29524.527826	3686.967665	13444.842375
64.036500	0.195015	0.108708	0.210138	0.312058	6150.936900	28432.134944	3655.908533	12836.655668
64.537000	0.214450	0.117811	0.220570	0.310590	6316.562332	29062.752035	3680.434660	12870.656733
65.037500	0.200060	0.115020	0.227382	0.374270	5736.668918	25340.908415	3569.068198	11496.255941
65.537500	0.230916	0.128824	0.242172	0.363227	6034.904955	26665.895675	3617.853880	11720.377738
66.037000	0.253373	0.139217	0.261095	0.316328	6596.421636	30026.125130	3756.105187	12738.377652
66.535000	0.264795	0.145264	0.273377	0.331190	6566.411437	29479.804214	3750.280529	12403.803284
67.035000	0.273398	0.152340	0.283834	0.339891	6565.566404	29380.394112	3754.241521	12213.193415
67.560500	0.287201	0.159795	0.296152	0.348180	6613.769932	29329.405080	3763.386663	12035.095224
68.035000	0.285221	0.162823	0.302710	0.354791	6538.921562	29111.738978	3763.264497	11895.483718
68.536500	0.287128	0.168090	0.309682	0.376027	6375.816406	28163.230803	3731.271467	11461.118311
69.036500	0.287363	0.169783	0.311956	0.389215	6270.506293	27501.697467	3707.492004	11201.869983
69.553000	0.288324	0.173422	0.322923	0.405362	6150.981071	26801.497729	3696.411827	10894.982215
70.039000	0.288812	0.176909	0.326738	0.412084	6103.100576	26623.602841	3690.250881	10770.536701
70.540000	0.285554	0.177361	0.321921	0.414655	6058.959114	26507.814516	3674.779730	10723.451677
71.037500	0.292636	0.179834	0.331920	0.442088	5909.409315	25185.788349	3639.298519	10238.027349
71.972500	0.315126	0.193823	0.335743	0.442690	6070.545100	25885.413389	3645.748054	10227.721395
72.500500	0.313461	0.192966	0.333851	0.444017	6048.032879	25769.787699	3639.303476	10205.029563
72.600500	0.314773	0.194301	0.328835	0.446313	6040.664399	25719.100262	3624.841741	10165.955308
73.035500	0.322329	0.197022	0.338606	0.435983	6177.248778	26417.139285	3665.190335	10343.411670
73.539500	0.328458	0.199652	0.332090	0.430171	6271.617884	26879.997237	3663.746737	10445.135992
74.047000	0.334319	0.202799	0.340489	0.420011	6402.377995	27628.068193	3702.634002	10626.251781
74.540000	0.334865	0.204275	0.337260	0.416961	6432.401535	27887.783469	3702.252563	10681.465949
75.037500	0.347147	0.209491	0.342090	0.405818	6634.139703	28849.374605	3737.062162	10886.474450
75.537500	0.349344	0.210673	0.339071	0.394570	6754.948408	29604.610988	3755.502929	11098.822357
76.035000	0.352843	0.212354	0.342705	0.386351	6863.328664	30221.820634	3782.685967	11257.493008
76.535000	0.355985	0.213720	0.337631	0.384066	6914.519822	30452.984947	3776.222386	11302.146554
77.035500	0.359404	0.215340	0.346524	0.373805	7046.444440	31218.855330	3821.456403	11505.575463
77.536000	0.361966	0.215944	0.341787	0.372092	7088.527546	31370.680224	3814.180710	11540.006022
78.036000	0.365120	0.216355	0.341678	0.363742	7203.865154	31952.166231	3834.126013	11709.810203
78.536500	0.361139	0.215339	0.337890	0.363436	7166.690235	31904.643484	3825.653912	11716.097563
79.037000	0.367904	0.217744	0.344926	0.357227	7299.343974	32486.872484	3858.249803	11844.576770
79.537000	0.368919	0.218638	0.350265	0.354427	7339.118074	32740.194476	3878.780596	11903.127238
80.037500	0.366858	0.217014	0.346752	0.348318	7381.696104	33050.556941	3885.407674	12032.169973
80.537500	0.365017	0.217197	0.347685	0.350360	7340.829879	32921.477077	3882.570897	11988.819155
81.038000	0.369333	0.218906	0.352970	0.343148	7463.205721	33545.899904	3914.961823	12142.809619
81.535000	0.367364	0.218280	0.352739	0.342652	7447.391064	33536.686593	3915.659807	12153.497057
82.035500	0.370840	0.219043	0.354248	0.338357	7531.431580	33896.309562	3931.030877	12246.510026
82.536000	0.365826	0.218558	0.353572	0.341347	7444.880275	33648.787697	3921.296852	12181.656915
83.036000	0.370091	0.219066	0.357955	0.333061	7581.309857	34279.042329	3955.288177	12362.497649
83.536500	0.369405	0.219935	0.353324	0.333686	7566.880662	34296.758240	3941.066935	12348.741357
84.040000	0.371203	0.220247	0.352085	0.329656	7631.393722	34612.829864	3948.596875	12437.830432
84.537500	0.373602	0.220673	0.354457	0.328073	7675.955008	34760.094356	3959.350076	12473.028077
85.037500	0.373312	0.220132	0.352776	0.326904	7685.859228	34806.350023	3957.952008	12499.131953
85.535000	0.372998	0.221729	0.357913	0.329908	7648.608665	34702.923236	3963.785531	12432.227763
86.037500	0.377914	0.221695	0.360245	0.326295	7744.933209	34966.652615	3980.198688	12512.754235
86.535000	0.375915	0.220222	0.357961	0.324700	7740.323796	34975.641987	3978.284242	12548.506746
87.035500	0.378168	0.222201	0.360219	0.325592	7755.852427	35056.199743	3982.079413	12528.487787
87.536000	0.380246	0.223230	0.360827	0.326797	7765.842223	35043.156076	3980.419351	12501.513344
88.036000	0.378101	0.222050	0.359029	0.325322	7758.168597	35064.958033	3979.522721	12534.537754
88.536500	0.379871	0.222573	0.359259	0.325913	7771.678202	35060.024825	3978.521362	12521.311812
89.037500	0.379069	0.222796	0.360188	0.326596	7754.673838	35025.822895	3979.202510	12506.004202
89.537000	0.376579	0.222524	0.356394	0.329547	7692.888470	34787.856952	3960.615460	12440.232490
90.037500	0.380667	0.223292	0.364657	0.328513	7751.033226	34920.698928	3986.312606	12463.237611
90.535000	0.376465	0.223140	0.355180	0.335142	7628.888072	34423.648000	3942.140885	12316.752984
91.035500	0.382105	0.224328	0.358363	0.330392	7746.002309	34858.462031	3963.693868	12421.485280
91.535500	0.379954	0.224125	0.358876	0.335230	7666.918548	34488.955177	3951.896325	12314.832486
92.035500	0.380869	0.223878	0.365109	0.331484	7719.514833	34744.971586	3979.294018	12397.302139
92.536000	0.381226	0.224232	0.362320	0.332690	7709.893723	34682.494140	3968.250352	12370.683701
93.036500	0.381009	0.223844	0.364329	0.333489	7698.403293	34595.533122	3971.583765	12353.071734
93.540000	0.377624	0.223986	0.362416	0.336493	7626.755059	34386.977369	3958.090544	12287.179126
94.037500	0.378805	0.222909	0.364765	0.334986	7656.766988	34418.207293	3968.659163	12320.171649
94.536500	0.375304	0.221672	0.358459	0.340540	7556.382997	33928.233864	3936.450495	12199.115502
95.040500	0.377115	0.222001	0.363085	0.336096	7625.501666	34271.750925	3961.002460	12295.853177
95.535000	0.378248	0.222895	0.366048	0.337943	7617.572548	34202.930442	3964.061795	12255.539930
96.035500	0.377694	0.222432	0.365034	0.339222	7597.239389	34077.354894	3957.789958	12227.709575
96.535500	0.375705	0.222376	0.358925	0.346125	7499.854737	33580.730732	3922.818739	12078.937707
97.036000	0.377221	0.223260	0.364820	0.342617	7554.638335	33893.235052	3947.983876	12154.239778
97.536500	0.380791	0.224178	0.365935	0.344673	7571.257707	33811.914492	3945.440024	12110.022548
98.037000	0.377212	0.222562	0.364341	0.345092	7527.478657	33667.180939	3940.019667	12101.054249
98.537000	0.374690	0.221967	0.363043	0.352477	7420.673938	33105.812306	3916.919253	11944.106075
99.040000	0.376948	0.221502	0.365240	0.347721	7496.035019	33406.444550	3935.382329	12044.881353
99.534500	0.378413	0.222037	0.363289	0.349616	7491.379804	33310.812784	3925.131702	12004.587811
100.035500	0.380424	0.223184	0.367335	0.352192	7485.259925	33210.697721	3929.038522	11950.109116
100.535500	0.373706	0.221572	0.361491	0.358876	7342.651816	32635.983314	3896.168467	11810.263585
101.035500	0.376417	0.222600	0.369866	0.355376	7408.195635	32948.345251	3927.302582	11883.237776
101.536000	0.376666	0.222506	0.363112	0.359684	7365.257467	32644.653384	3898.274210	11793.510332
102.036500	0.379770	0.222924	0.366863	0.359957	7395.156103	32654.631001	3907.319340	11787.848976
102.536000	0.377324	0.222075	0.369313	0.360856	7359.842103	32534.826136	3911.376866	11769.248019
103.039500	0.376634	0.222016	0.368657	0.363451	7325.425954	32353.957247	3902.889377	11715.784908
103.537000	0.374702	0.222324	0.370131	0.365921	7279.704262	32207.367778	3900.300684	11665.174491
104.034500	0.377325	0.222817	0.361803	0.368727	7277.819182	32051.344868	3871.769084	11608.050236
104.534500	0.376272	0.223230	0.365216	0.377525	7177.213444	31492.681418	3858.228767	11431.262235
105.035000	0.380394	0.223722	0.369680	0.374297	7252.051488	31739.189860	3877.619580	11495.704205
105.535000	0.377482	0.223910	0.369162	0.376571	7199.112110	31600.722349	3870.541484	11450.257759
106.035500	0.380969	0.223032	0.367215	0.378870	7211.194503	31391.111041	3859.864781	11404.562219
106.536000	0.379056	0.224208	0.368671	0.388036	7099.886252	30870.577566	3840.743158	11224.727651
107.036500	0.378843	0.223545	0.373494	0.383619	7141.777307	31113.885539	3863.698563	11310.901372
107.539500	0.379525	0.222097	0.370806	0.387728	7107.595305	30754.392942	3846.763157	11230.694536
108.034000	0.381916	0.224254	0.372204	0.389260	7116.137631	30794.678522	3846.433032	11200.995932
108.537000	0.377755	0.224112	0.369764	0.396017	7008.784281	30354.032283	3823.941641	11071.191947
109.034000	0.382185	0.224069	0.374641	0.393570	7076.096083	30506.789356	3841.815300	11117.967112
109.537000	0.378582	0.224009	0.367773	0.399692	6981.223110	30115.657958	3810.319955	11001.437676
110.035500	0.381308	0.223280	0.371989	0.398067	7023.408194	30172.039045	3824.363516	11032.208687
110.535500	0.380060	0.223347	0.365128	0.405919	6935.670197	29686.391513	3789.344890	10884.585809
111.036000	0.382133	0.224163	0.378130	0.403837	6975.501413	29866.175312	3825.262092	10923.468359
111.536000	0.380232	0.222702	0.370092	0.407949	6917.984738	29521.550857	3796.235596	10846.862116
112.036500	0.382308	0.224879	0.379318	0.408505	6932.449952	29621.376831	3816.865576	10836.562929
112.537000	0.379499	0.223151	0.373532	0.414391	6850.369963	29155.846417	3789.186437	10728.280578
113.034000	0.385469	0.224981	0.381244	0.413983	6910.414177	29291.852058	3808.363867	10735.742559
113.534500	0.383006	0.223804	0.377529	0.418305	6846.571194	28958.951601	3789.379300	10657.088033
114.035000	0.383091	0.223693	0.375708	0.416646	6862.885074	29052.244361	3789.001303	10687.190171
114.535000	0.381993	0.222466	0.373858	0.422771	6795.746202	28612.181465	3770.514489	10576.636975
115.035500	0.383704	0.223253	0.381613	0.421659	6821.856345	28725.193049	3791.091192	10596.598660
115.535500	0.381676	0.223870	0.372007	0.426464	6758.948269	28476.731462	3757.863883	10510.735194
116.035500	0.384422	0.224638	0.374840	0.426121	6787.265241	28542.407507	3765.092771	10516.835125
116.536500	0.382935	0.224802	0.373999	0.432399	6716.462238	28183.043011	3748.962333	10405.981152
117.039500	0.383891	0.223499	0.382758	0.428778	6758.038709	28318.678300	3777.181227	10469.720346
117.537000	0.387022	0.225296	0.374806	0.432965	6748.401442	28178.811322	3749.502915	10396.064138
118.036000	0.383561	0.223553	0.374146	0.433427	6712.829926	28050.473462	3746.983335	10387.981354
118.534500	0.382127	0.225019	0.376606	0.439894	6642.142489	27761.826893	3738.038802	10275.725715
119.038000	0.387958	0.226724	0.376599	0.439911	6694.037125	27858.874057	3737.987040	10275.435317
119.535000	0.384120	0.224815	0.378977	0.442360	6637.950083	27609.033364	3737.827761	10233.358686
120.035000	0.384445	0.224412	0.376346	0.441142	6651.644278	27655.608076	3734.695630	10254.266016
120.535000	0.383350	0.225530	0.383516	0.446942	6590.852612	27389.477893	3737.732638	10155.276775
121.036000	0.386172	0.225517	0.380236	0.446271	6621.527948	27426.709765	3731.955542	10166.671618
121.536500	0.383329	0.224897	0.376253	0.449086	6571.955263	27232.990715	3717.061190	10119.025137
122.036500	0.387965	0.226189	0.382098	0.450460	6600.464928	27228.409072	3726.831880	10095.892231
122.536500	0.385562	0.226095	0.379033	0.455415	6536.483107	26946.491202	3709.379407	10013.049732
123.037500	0.386823	0.226134	0.382533	0.454293	6557.079317	27010.974820	3719.396083	10031.713920
123.534500	0.386346	0.226536	0.382562	0.458176	6519.472370	26818.018941	3711.036904	9967.292373
124.038000	0.384821	0.226440	0.380621	0.456979	6516.663647	26878.890613	3709.431479	9987.097700
124.534500	0.383968	0.225855	0.377540	0.461710	6469.072191	26586.371702	3692.738822	9909.144835
125.035000	0.386176	0.226760	0.383509	0.460725	6496.211068	26689.980314	3707.583736	9925.314947
125.536000	0.387301	0.229261	0.384001	0.467077	6451.893169	26479.400518	3695.057482	9821.753904
126.036500	0.385216	0.226824	0.377664	0.463795	6462.001743	26525.456854	3688.596311	9875.077231
126.539000	0.384083	0.227734	0.384742	0.468424	6413.626866	26323.487654	3693.774746	9799.997009
127.039500	0.385320	0.225874	0.379951	0.465534	6448.204828	26379.237829	3689.751476	9846.777108
127.537000	0.383424	0.227220	0.381165	0.470094	6394.253812	26205.600467	3682.715605	9773.091541
128.040000	0.382788	0.224690	0.382057	0.467129	6413.621036	26229.059028	3690.830607	9820.912068
128.535000	0.382969	0.226277	0.383268	0.470469	6387.377144	26134.797175	3686.342185	9767.068978
129.040500	0.383620	0.225666	0.380339	0.471030	6388.130821	26072.071713	3679.034561	9758.079141
129.535500	0.383344	0.227230	0.381501	0.473884	6362.306357	26003.156599	3675.511522	9712.460154
130.041500	0.383796	0.226117	0.383475	0.474353	6362.161491	25918.893732	3678.642896	9704.980697
130.535500	0.380797	0.226425	0.376709	0.475382	6329.200322	25880.616119	3662.534251	9688.627785
131.037000	0.385387	0.225748	0.383248	0.476583	6356.914511	25781.169159	3673.534486	9669.586566
131.536500	0.380739	0.223665	0.377988	0.478019	6307.314354	25595.999420	3659.755242	9646.884025
132.039500	0.381049	0.225663	0.382447	0.478614	6305.015033	25669.678404	3667.682115	9637.506961
132.537000	0.381892	0.225581	0.385729	0.479902	6301.420766	25597.761823	3671.798391	9617.239626
133.037500	0.381628	0.224786	0.381939	0.480780	6292.198827	25510.238263	3662.190440	9603.454999
133.534500	0.374380	0.223131	0.380948	0.483350	6213.960740	25290.779472	3654.929551	9563.280305
134.060000	0.377600	0.224137	0.385289	0.482441	6246.655153	25389.999948	3665.654194	9577.462930
134.535000	0.377038	0.223786	0.383088	0.484627	6224.856984	25258.600359	3656.682395	9543.398182
135.041000	0.381453	0.225114	0.389689	0.486397	6245.825190	25235.799243	3666.566163	9515.938841
135.536000	0.379687	0.223682	0.384707	0.486649	6229.821051	25149.161133	3655.863226	9512.044962
136.039500	0.379495	0.223697	0.384300	0.487266	6223.419890	25118.233152	3653.785594	9502.509585
136.537000	0.376401	0.222642	0.382905	0.489664	6180.299207	24941.758569	3646.125138	9465.561341
137.034000	0.378618	0.223841	0.383178	0.490068	6194.472169	24982.273600	3645.862405	9459.350770
