sample name	sample
index	968
start time	 04-14-2021  02:20:59 PM
880	0.064279
Peak Time (s)	101.536
Peak Height 	0.06428
calc peak height	100,103
Baseline Time (s)	8.535
Baseline Value 	-0.003825
subtract baseline	10,4
Abs	0.034052
Peak Time (s)	102.537
Peak Height 	0.03405
calc peak height	100,103
Baseline Time (s)	11.036
Baseline Value 	-6.4342E-4
subtract baseline	10,3
PK_550	0.034033
Peak Time (s)	102.04
Peak Height 	0.03403
calc peak height	100,103
Baseline Time (s)	9.536
Baseline Value 	3.7442E-4
subtract baseline	10,2
PK_880	0.038771
Peak Time (s)	102.537
Peak Height 	0.03877
calc peak height	100,103
Baseline Time (s)	9.036
Baseline Value 	1.2062E-4
subtract baseline	10,1


Time (s)	A880-A510	A880-A775	A880-A975	A880	I510	I775	I975	I880	
0.036000	-0.003214	-0.000384	-0.003697	0.008287	6223.408328	41509.817321	3911.541189	21826.557814
0.535500	0.000493	-0.000490	0.002850	0.003968	6285.376359	41885.991532	3937.641344	22015.751575
1.036500	-0.000352	-0.000056	-0.000329	0.004072	6277.992513	41915.592776	3929.685329	22011.150504
1.536500	0.002729	0.000230	-0.001757	0.002310	6315.856483	42099.844308	3930.491880	22088.845875
2.037000	-0.002503	-0.001003	-0.002068	0.005904	6247.163319	41666.920141	3921.102560	21930.706755
2.537000	0.000738	0.000253	0.000928	0.001991	6302.735920	42130.777397	3937.774027	22102.956040
3.037000	-0.002109	-0.000831	0.002851	-0.001600	6308.570614	42357.848596	3951.271981	22262.433874
3.534500	0.000854	-0.000335	0.001772	0.000427	6315.915575	42218.923135	3943.646539	22172.229829
4.035000	0.000430	-0.000738	-0.000442	0.000372	6313.017275	42187.508402	3938.379677	22174.673489
4.538000	-0.000682	-0.000373	-0.000751	-0.000125	6308.191157	42265.468312	3938.838286	22196.748972
5.036000	-0.000524	-0.000765	0.001385	-0.000365	6311.311992	42251.753285	3944.638741	22207.422089
5.536000	-0.003237	-0.001234	0.003601	-0.000815	6293.594467	42250.058082	3951.186773	22227.466015
6.036500	0.002813	-0.000517	-0.002598	-0.000776	6340.873958	42311.454354	3935.930433	22225.694956
6.536500	0.000856	-0.000433	0.001899	-0.000731	6325.057720	42315.052018	3946.796177	22223.705574
7.036500	0.002304	0.000421	0.002821	-0.000287	6332.977598	42352.142110	3947.967643	22203.938091
7.536500	0.001535	-0.000250	0.003351	-0.000301	6327.022546	42292.604719	3949.305153	22204.589306
8.037500	-0.000156	0.000111	0.001361	-0.000599	6316.048286	42352.392838	3945.151453	22217.825445
8.535000	0.000152	0.000408	0.005277	0.000000	6313.761021	42325.033920	3953.308439	22191.206190
9.035500	0.000000	0.000202	-0.001275	0.003904	6282.038077	41953.855100	3927.811903	22018.563964
9.535500	-0.000610	0.000000	-0.002244	0.000020	6307.619748	42286.146360	3934.856104	22190.296287
10.035000	-0.000274	-0.000583	-0.003541	-0.000429	6313.786911	42274.026431	3932.803861	22210.281855
10.536000	0.000945	-0.000250	0.005695	0.000105	6319.163292	42255.780829	3954.080132	22186.521678
11.036000	0.001460	0.000124	0.000000	-0.000182	6325.490291	42315.792740	3940.807730	22199.303989
11.536500	-0.001912	-0.000695	0.002543	-0.000680	6302.908059	42286.703719	3948.250672	22221.453198
12.036500	0.000337	-0.000380	0.002950	-0.000107	6316.060392	42263.252318	3947.843446	22195.972828
12.534500	0.002975	0.000729	0.001700	0.000982	6328.252866	42265.031054	3942.116321	22147.630582
13.037500	-0.002110	-0.000209	0.001195	0.005816	6250.870633	41745.720768	3929.157451	21934.575033
13.535000	-0.000544	-0.000172	0.002511	0.000614	6303.483322	42216.825922	3944.998027	22163.956065
14.038500	-0.003405	-0.000770	0.006154	0.001773	6272.131633	42058.151259	3951.100291	22112.602957
14.535000	-0.000759	-0.000386	0.002339	0.002558	6286.606778	42022.106268	3939.828904	22077.908923
15.038000	-0.002663	-0.000652	0.002004	0.005420	6249.658298	41741.471244	3932.066354	21951.912847
15.536000	0.001032	-0.000522	0.005111	0.000129	6319.665529	42229.008859	3952.579728	22185.478180
16.036500	0.000437	-0.000127	0.002739	0.001149	6306.971163	42172.462884	3944.246784	22140.211829
16.536500	-0.000585	0.000256	0.002826	0.000380	6304.990774	42276.786674	3946.344402	22174.324793
17.037000	-0.000870	-0.000236	-0.001497	0.002890	6283.159204	42005.673972	3929.718913	22063.235771
17.542000	-0.003196	-0.001109	0.005569	-0.000168	6288.859952	42202.840519	3954.444376	22198.672746
18.037500	-0.000105	-0.000293	-0.000378	0.001154	6302.688538	42157.012498	3936.634493	22139.998739
18.535500	-0.001634	-0.000506	0.000170	0.000711	6294.195175	42177.832875	3939.046245	22159.648816
19.035500	-0.000823	0.000610	-0.002334	0.002951	6283.043885	42076.390929	3927.555176	22060.546836
19.541000	-0.001141	-0.001492	0.004678	-0.000477	6307.350027	42196.072453	3953.006182	22212.387290
20.036000	-0.001582	-0.000595	0.002513	0.000775	6294.098582	42164.015747	3944.609512	22156.793143
20.536000	-0.000021	0.000135	0.004865	0.001308	6302.141932	42181.844836	3949.070959	22133.180931
21.036500	0.000460	-0.000775	-0.003812	0.001649	6303.243691	42068.934601	3927.132922	22118.109125
21.537000	0.000731	-0.000259	0.000410	0.000600	6313.589969	42210.191615	3939.898998	22164.555482
22.037000	0.000369	0.000130	0.000249	0.000861	6308.706833	42221.851233	3938.872696	22153.012699
22.535000	0.000574	0.000580	0.004032	0.001197	6307.673455	42232.133905	3947.298733	22138.097519
23.035000	-0.002240	-0.000075	0.003103	0.001842	6280.650243	42114.640453	3943.440972	22109.542704
23.538000	0.001330	0.000282	0.003676	0.001355	6312.366912	42190.860483	3946.038461	22131.103655
24.035500	0.000196	-0.000014	0.003480	0.000632	6309.137922	42229.460638	3947.329993	22163.131644
24.536000	0.000285	-0.000557	-0.000369	0.000635	6309.814620	42180.065148	3937.918657	22163.010687
25.036000	-0.000519	-0.000578	0.002725	0.002270	6290.728481	42030.668011	3941.472578	22090.628154
25.603500	0.000863	0.000822	0.004298	0.001703	6305.973162	42208.174566	3946.707595	22115.684444
26.036500	0.001282	0.000237	0.003653	0.001388	6311.730976	42183.786720	3945.899770	22129.628500
26.539500	0.000134	-0.000551	0.003444	0.000428	6310.255541	42199.325930	3947.741867	22172.195146
27.034000	0.001275	-0.000722	0.000819	-0.002166	6339.697296	42419.044770	3947.665231	22287.656031
27.534500	0.002169	-0.000463	0.001522	-0.001597	6342.274095	42390.855645	3947.994238	22262.266894
28.034500	-0.000295	-0.000432	0.001371	-0.000057	6310.699970	42254.027068	3943.851951	22193.753752
28.537500	0.000965	-0.000346	0.005333	0.000125	6319.168480	42245.300510	3953.137885	22185.637546
29.036000	-0.000724	-0.000021	0.004203	0.000328	6304.313236	42256.351938	3949.854444	22176.636040
29.537500	0.000213	-0.000161	0.006385	0.000232	6312.423386	42252.402893	3955.473914	22180.923279
30.036000	-0.001044	0.000218	0.007583	0.001335	6293.930791	42186.942309	3955.709002	22132.000298
30.536500	0.000429	0.000837	0.003013	0.002481	6296.479427	42139.290142	3941.660260	22081.294555
31.037000	0.000379	-0.000214	0.006772	0.002096	6299.106425	42079.233552	3951.826075	22098.329789
31.534500	0.001574	-0.000160	-0.000641	0.000063	6324.449354	42267.724664	3938.647592	22188.390378
32.039500	-0.000038	-0.000453	0.002201	0.000513	6308.244370	42200.605078	3944.488103	22168.447192
32.535000	0.002253	0.000159	-0.000774	0.000257	6328.278706	42279.160671	3937.853521	22179.799257
33.038000	-0.000941	-0.000710	0.001077	-0.000247	6307.118993	42246.019973	3943.594778	22202.163274
33.536000	0.001733	-0.000887	0.001897	-0.002061	6342.496137	42394.561580	3950.058806	22282.976562
34.036000	0.003397	0.000114	0.001812	0.001692	6325.983190	42145.241387	3940.656714	22116.187153
34.536500	0.000330	-0.000438	0.000978	0.000693	6309.713085	42185.549599	3941.058070	22160.428991
35.036000	0.000591	-0.000100	0.003651	0.002473	6297.809650	42055.397773	3943.237815	22081.639944
35.536000	-0.001237	-0.000621	0.005026	0.000943	6295.489331	42146.521779	3950.365573	22149.377850
36.037000	-0.001203	-0.000392	0.002735	0.001117	6294.389153	42151.434919	3944.314847	22141.634345
36.537500	0.002238	-0.000257	0.000215	0.001144	6321.168880	42161.231040	3938.101003	22140.454369
37.034500	-0.000071	0.000138	-0.000754	0.002765	6290.363402	42050.675284	3931.819543	22068.780776
37.538000	0.000191	-0.000083	0.001670	0.001445	6302.729398	42149.825703	3940.913595	22127.141587
38.035500	-0.002861	-0.000798	0.002229	0.001387	6279.358114	42090.392647	3942.416994	22129.674043
38.535500	-0.000660	0.000400	0.002248	0.001610	6294.780072	42178.478216	3941.921048	22119.832053
39.036000	-0.001209	-0.000428	0.003605	0.002045	6287.103284	42064.495323	3944.174572	22100.594347
39.536500	-0.002134	-0.000983	-0.001213	0.000128	6294.846675	42187.431771	3937.100023	22185.534400
40.036500	-0.001802	-0.001125	0.002744	0.000338	6295.793440	42155.608142	3946.246576	22176.196623
40.537000	-0.000818	-0.000529	0.005348	0.001098	6297.545513	42140.833256	3950.776241	22142.493083
41.037000	-0.001305	-0.000087	0.007257	0.002256	6284.710235	42076.182425	3952.628564	22091.254676
41.537500	-0.000331	-0.000169	0.001642	0.001045	6301.769738	42178.103213	3941.820141	22144.834529
42.035000	-0.000411	-0.000185	-0.002063	0.001218	6299.791572	42161.038980	3932.393485	22137.177596
42.535000	-0.000164	0.000294	0.005120	0.001337	6300.795206	42193.585551	3949.625742	22131.892821
43.035500	-0.001333	-0.000683	0.000475	0.003221	6276.975094	41935.680451	3933.687272	22048.636895
43.535500	-0.001108	0.000047	0.000614	0.001398	6292.939756	42165.744036	3938.454057	22129.194285
44.036000	0.000067	0.000109	0.005645	0.000335	6310.459598	42267.537950	3953.391013	22176.339715
44.536500	0.001649	0.000329	0.001339	0.000838	6318.941942	42241.908274	3941.586705	22154.035110
45.036500	-0.000468	-0.000845	-0.004271	0.005017	6269.750739	41760.220664	3917.955556	21969.606361
45.537000	0.000484	-0.000418	0.000115	-0.000008	6316.426261	42250.857435	3940.663479	22191.545865
46.037000	-0.001105	-0.001437	0.002373	-0.000665	6309.113069	42218.165403	3947.796418	22220.786853
46.535000	-0.001389	-0.000495	0.001714	-0.000026	6301.873841	42245.513902	3944.612748	22192.344174
47.037500	-0.000373	0.000383	0.003021	0.005299	6268.299464	41844.982662	3934.822967	21957.249146
47.535500	-0.000407	0.000439	-0.001000	0.002147	6292.564844	42133.527057	3932.718429	22096.079307
48.035500	-0.002465	-0.001475	-0.000739	0.000408	6290.071595	42117.718844	3937.571628	22173.093775
48.536000	0.000746	-0.000267	0.003033	0.000244	6316.512578	42241.663790	3947.184916	22180.367152
49.036000	-0.002347	-0.000711	0.003914	0.005239	6253.497483	41752.383474	3937.137806	21959.875636
49.536000	0.000774	-0.000680	0.007395	-0.001545	6330.825465	42366.462232	3962.386413	22259.948734
50.036500	0.001653	-0.000238	0.003942	-0.000179	6326.988503	42282.615494	3950.458734	22199.157468
50.537000	0.004511	-0.001009	0.007266	0.000571	6343.652542	42145.040555	3956.813300	22165.841064
51.035000	0.004275	-0.007482	0.016281	0.179646	5179.216823	28508.082566	3608.384172	15655.555128
51.535500	0.008992	-0.010676	0.008133	0.299037	4650.567879	22216.239428	3423.394848	12589.354345
52.035000	-0.011095	-0.026095	-0.045314	-0.142732	7520.389088	54415.658193	4206.641370	29697.806954
52.535500	-0.000224	-0.033118	-0.030936	-0.184827	8119.536630	58746.546325	4390.667946	32425.420526
53.036000	-0.007007	-0.037426	-0.027953	-0.214318	8399.646089	62079.135629	4507.846449	34500.081544
53.536000	0.003729	-0.032366	-0.016317	-0.207867	8454.171231	61890.000823	4527.378655	34034.145886
54.036500	0.006132	-0.009693	-0.007602	-0.103471	7291.879444	51775.435521	4201.924160	27381.395086
54.536000	0.000003	-0.008714	-0.007851	-0.069666	6906.157096	48219.201843	4102.336839	25547.983470
55.034000	0.004557	-0.006015	-0.009398	-0.080181	7047.551684	49618.398894	4127.810085	26103.019209
55.537500	0.003191	-0.004674	-0.003673	-0.077685	7010.843872	49494.462006	4137.112028	25970.053840
56.037500	0.007972	-0.003059	-0.005482	-0.074363	7024.675027	49311.804254	4122.364027	25794.263856
56.540500	0.006131	-0.000860	-0.002157	-0.071937	6984.359954	49287.490310	4124.933940	25666.717662
57.038000	0.008562	0.001213	0.000329	-0.074897	7035.366226	49827.967612	4140.625599	25822.435987
57.535500	0.004856	0.000810	-0.005782	-0.079975	7048.436935	50335.538043	4137.633898	26092.026365
58.035500	0.010047	0.001372	-0.001484	-0.088689	7183.376457	51359.176195	4175.840841	26562.109814
58.536000	0.011911	0.003460	0.002743	-0.045617	6795.744571	46997.423547	4065.093316	24327.875934
59.039000	0.011118	0.003698	-0.002125	-0.036082	6704.215562	46063.898341	4026.480283	23862.502842
59.537000	0.013427	0.005967	0.004389	-0.037693	6738.706565	46451.114440	4048.105770	23940.447313
60.035500	0.017126	0.007279	0.006314	-0.008700	6521.580085	43763.310115	3977.611579	22581.572367
60.534500	0.018929	0.009309	0.014963	0.004407	6428.562646	42734.818022	3966.415692	21996.426822
61.037500	0.017879	0.008736	0.013883	0.005808	6408.712801	42554.270906	3960.236034	21934.922827
61.535500	0.020207	0.011342	0.018092	0.008810	6403.274610	42518.200810	3963.238340	21803.780462
62.062500	0.025107	0.012203	0.017072	0.016624	6379.861328	41889.341013	3941.457705	21466.699203
62.535500	0.026019	0.013608	0.018979	0.015047	6399.849369	42157.862260	3949.995167	21534.244649
63.036000	0.026417	0.015027	0.018610	0.012862	6420.720635	42484.709133	3954.471418	21628.222487
63.536500	0.027441	0.017513	0.023717	0.020699	6365.935012	42000.247932	3947.747359	21293.274578
64.036500	0.031810	0.017136	0.027409	0.020494	6402.625482	41984.813531	3957.360336	21301.966768
64.537000	0.033835	0.015183	0.025234	0.017557	6442.854782	42073.475613	3959.248945	21426.846161
65.039500	0.034639	0.015900	0.026773	0.040834	6264.249651	40091.719878	3906.628879	20459.943846
65.537500	0.039325	0.016797	0.033164	0.078028	6021.708600	37111.557373	3836.434758	19018.542575
66.037500	0.037888	0.014182	0.028664	0.098124	5870.756984	35369.633825	3783.852699	18289.642101
66.535000	0.037789	0.014753	0.030211	0.140964	5591.208360	32360.570825	3702.005149	16843.930365
67.035000	0.037057	0.012327	0.034468	0.167256	5428.919926	30477.042286	3661.409968	16024.745023
67.536000	0.040501	0.011609	0.032693	0.184276	5351.124243	29374.361604	3628.375521	15520.287357
68.037500	0.035142	0.006594	0.039172	0.206659	5199.522165	27757.241479	3601.517875	14886.273753
68.536500	0.031492	0.006067	0.035763	0.223637	5092.907520	26776.153772	3568.494859	14426.666126
69.037000	0.033756	0.010034	0.037158	0.236854	5038.327485	26273.539145	3550.046655	14081.138944
69.583500	0.032199	0.009189	0.032508	0.246943	4981.776350	25692.985920	3527.735889	13824.345770
70.037500	0.032637	0.011714	0.035751	0.244302	4996.580011	25965.445922	3536.551938	13890.991449
70.540000	0.034843	0.012283	0.036809	0.245684	5000.557886	25922.369337	3536.063136	13856.072470
71.037500	0.034779	0.014439	0.040024	0.246342	4997.070094	26001.817741	3539.927954	13839.476117
71.535500	0.035471	0.017996	0.030332	0.248418	4990.405388	26080.630874	3522.325515	13787.312427
72.035500	0.034741	0.017977	0.043563	0.237360	5040.682638	26676.767969	3559.189164	14068.103629
72.757000	0.036004	0.022970	0.039150	0.226086	5103.345006	27583.371644	3569.980906	14361.852692
73.449000	0.038363	0.022292	0.043755	0.217713	5158.442644	28024.187897	3590.868662	14585.004716
73.542500	0.034786	0.022334	0.038299	0.220729	5124.428186	27852.890658	3577.162009	14504.116404
74.036500	0.039557	0.023739	0.044733	0.210672	5201.649100	28519.584913	3604.088166	14776.000759
74.537000	0.040254	0.024363	0.040464	0.204284	5239.484956	28936.208475	3607.622704	14951.994721
75.037000	0.039478	0.024393	0.039983	0.198138	5268.582680	29308.749536	3617.157704	15123.795112
75.538000	0.039294	0.025732	0.038051	0.197164	5272.893617	29449.681280	3615.536046	15151.241912
76.040500	0.042277	0.026309	0.043414	0.187702	5341.833477	30069.930664	3641.028004	15421.109574
76.536000	0.039416	0.024584	0.042737	0.182740	5353.670902	30273.026446	3648.559510	15564.998903
77.035500	0.038674	0.023797	0.034356	0.182740	5349.484870	30223.549126	3633.897097	15565.009940
77.536500	0.037998	0.024838	0.031233	0.182623	5346.335378	30296.406015	3628.707386	15568.420875
78.036000	0.041261	0.025297	0.039504	0.174963	5408.613348	30812.967191	3656.628155	15793.862066
78.536000	0.040273	0.024771	0.045555	0.171901	5420.616489	30976.296245	3673.064981	15885.109062
79.037000	0.039173	0.024833	0.036353	0.174951	5396.658232	30783.974832	3651.044679	15794.221348
79.534000	0.038443	0.025123	0.046736	0.167517	5435.475538	31283.866295	3683.272867	16016.844703
80.040000	0.042435	0.025896	0.047945	0.165573	5470.352470	31461.877034	3689.117131	16075.700761
80.537500	0.042293	0.025543	0.037971	0.162147	5489.857395	31664.525414	3677.030620	16180.067002
81.039000	0.039186	0.027095	0.042969	0.160173	5483.108398	31898.768265	3689.904747	16240.567991
81.535500	0.041586	0.027404	0.045708	0.157504	5513.422707	32098.129804	3700.035326	16322.812128
82.035500	0.044322	0.027712	0.043734	0.154549	5547.878827	32318.214967	3701.887338	16414.468792
82.536000	0.044298	0.027069	0.039751	0.150368	5573.333123	32558.654188	3702.261652	16545.209280
83.036500	0.039898	0.028184	0.038470	0.152392	5534.094907	32496.682082	3696.038271	16481.754405
83.536500	0.043877	0.027385	0.043193	0.142744	5618.017831	33105.350932	3723.444004	16786.869013
84.036500	0.041041	0.026661	0.039567	0.138652	5625.892797	33340.372902	3724.348003	16918.364191
84.535500	0.040356	0.027325	0.043601	0.135106	5643.898867	33636.662110	3739.189388	17033.309369
85.037500	0.038131	0.027168	0.038882	0.131419	5653.147734	33887.293512	3737.154049	17153.805532
85.535500	0.037400	0.026238	0.039365	0.133607	5634.706178	33665.751717	3733.799446	17082.151071
86.035500	0.041144	0.027362	0.038756	0.125601	5709.679106	34318.973927	3748.443097	17346.056660
86.535500	0.038610	0.027776	0.037076	0.122170	5715.480251	34598.079167	3751.944343	17460.625982
87.039000	0.038888	0.027936	0.037486	0.123747	5707.084767	34494.970802	3749.609227	17407.876684
87.536500	0.035545	0.027896	0.032048	0.121637	5699.128080	34645.788024	3742.981857	17478.534694
88.036500	0.038754	0.028075	0.030739	0.112283	5781.245223	35349.795340	3759.090123	17795.962295
88.537000	0.037974	0.029300	0.038864	0.109671	5793.415958	35637.543732	3781.057011	17885.810031
89.037000	0.036416	0.030297	0.039371	0.107092	5800.224245	35908.011349	3787.472738	17975.075710
89.537000	0.034328	0.029498	0.037067	0.107993	5780.338924	35779.136766	3780.809976	17943.824254
90.037500	0.035781	0.029753	0.037840	0.099322	5848.243134	36461.406249	3800.582314	18247.228895
90.535500	0.034595	0.030842	0.037475	0.096489	5859.448477	36765.693890	3805.821842	18347.701233
91.035500	0.036689	0.030951	0.036437	0.093678	5893.048250	36994.038469	3809.603035	18448.024998
91.536000	0.036362	0.029526	0.037322	0.090917	5909.858586	37098.942031	3817.427193	18547.177966
92.036000	0.036549	0.031050	0.034070	0.088941	5924.882362	37375.492289	3814.681631	18618.549369
92.536500	0.036684	0.031277	0.035666	0.086575	5942.345730	37581.851566	3823.235239	18704.423184
93.036500	0.036694	0.030682	0.031334	0.083935	5960.955769	37745.349408	3819.572304	18800.788279
93.537000	0.034831	0.031074	0.031111	0.086587	5929.317759	37564.639584	3813.382129	18703.990023
94.037000	0.039996	0.032416	0.036367	0.080992	6005.280586	38122.463250	3836.960759	18908.924409
94.535000	0.034301	0.030952	0.035702	0.077280	5991.139936	38305.118841	3843.687608	19046.356868
95.038000	0.036760	0.032105	0.034273	0.076126	6016.950121	38493.526384	3843.079256	19089.306595
95.536000	0.035992	0.032535	0.043578	0.074397	6023.853618	38670.772212	3867.823791	19153.895749
96.038500	0.037958	0.031296	0.031807	0.071765	6057.082136	38785.628213	3847.283375	19252.688711
96.536000	0.035859	0.031375	0.036961	0.069691	6056.907280	38963.868019	3863.492704	19330.997306
97.036500	0.034400	0.030700	0.031852	0.072680	6024.749048	38661.083557	3845.351869	19218.299577
97.536000	0.036347	0.032199	0.030599	0.066943	6080.505695	39261.549369	3855.354275	19435.306669
98.037000	0.035266	0.032590	0.035108	0.065461	6083.439421	39418.520150	3868.881061	19491.814087
98.537000	0.034529	0.032445	0.036837	0.064272	6086.756457	39506.428436	3875.540208	19537.316815
99.037500	0.037406	0.032832	0.032329	0.062753	6119.161534	39667.243873	3868.720130	19595.599325
99.535000	0.034844	0.032484	0.033282	0.061696	6108.030798	39727.340087	3873.302091	19636.296431
100.041000	0.037294	0.033950	0.031145	0.061187	6129.957824	39895.144692	3869.590165	19655.933784
100.538000	0.036739	0.033483	0.034039	0.060572	6130.403093	39907.682454	3877.604707	19679.661593
101.035000	0.038345	0.033773	0.032484	0.060002	6146.621022	39980.999032	3875.348774	19701.712047
101.536000	0.036129	0.033052	0.033012	0.064279	6098.466359	39556.978341	3866.806802	19537.057189
102.039500	0.038130	0.034033	0.032460	0.059515	6148.655860	40044.840549	3876.409572	19720.568299
102.537000	0.038771	0.033123	0.034052	0.058897	6158.076817	40019.808369	3881.483882	19744.494190
103.037000	0.040591	0.033018	0.036084	0.058747	6172.883047	40023.616953	3886.520837	19750.311751
103.539500	0.034792	0.033380	0.031777	0.062673	6100.446107	39720.475487	3867.649640	19598.685295
104.040000	0.039317	0.032699	0.036925	0.058287	6166.763366	40035.680248	3889.536810	19768.179708
104.540500	0.034964	0.032837	0.034139	0.057181	6142.441809	40142.143989	3885.645552	19811.205835
105.037000	0.035649	0.033974	0.035199	0.062594	6107.347183	39777.584735	3875.631269	19601.730808
105.535500	0.035055	0.032589	0.036630	0.061222	6113.095757	39776.446965	3882.067205	19654.564273
106.039000	0.039556	0.032565	0.038146	0.056180	6184.447442	40204.684916	3897.291321	19850.227298
106.536500	0.037455	0.033906	0.035726	0.056381	6167.095144	40302.726716	3891.179434	19842.385039
107.039000	0.038264	0.033955	0.040758	0.055881	6176.954848	40349.975261	3904.123122	19861.897409
107.536500	0.034819	0.033308	0.036665	0.059363	6125.125628	39995.899475	3886.441499	19726.463504
108.037000	0.037938	0.034384	0.038454	0.055394	6178.172420	40429.023229	3899.854847	19880.954599
108.537000	0.037911	0.034778	0.039151	0.055797	6174.924704	40428.253319	3900.544414	19865.201281
109.037500	0.039306	0.033809	0.038947	0.054958	6191.806139	40416.961362	3902.034885	19897.984326
109.535000	0.035777	0.033490	0.029664	0.059336	6132.437832	40013.681909	3870.431953	19727.483595
110.036000	0.037514	0.034051	0.037101	0.055455	6174.511056	40394.965934	3896.544433	19878.540688
110.536000	0.038454	0.034948	0.036681	0.055741	6179.443255	40447.790392	3894.896541	19867.378969
111.035000	0.039997	0.034368	0.038532	0.055248	6194.852565	40440.270050	3900.380848	19886.659482
111.536500	0.040211	0.034836	0.035875	0.055903	6191.502672	40424.077734	3892.637681	19861.029163
112.039500	0.037995	0.034333	0.039524	0.055882	6174.916205	40382.494330	3901.219400	19861.868080
