sample name	sample
index	1151
start time	 04-22-2021  03:32:36 PM
880	0.024686
Peak Time (s)	102.535
Peak Height 	0.02469
calc peak height	100,103
Baseline Time (s)	8.536
Baseline Value 	-0.004966
subtract baseline	10,4
Abs	0.028419
Peak Time (s)	101.538
Peak Height 	0.02842
calc peak height	100,103
Baseline Time (s)	9.537
Baseline Value 	0.002123
subtract baseline	10,3
PK_550	0.029016
Peak Time (s)	102.035
Peak Height 	0.02902
calc peak height	100,103
Baseline Time (s)	9.037
Baseline Value 	5.1993E-4
subtract baseline	10,2
PK_880	0.027124
Peak Time (s)	102.035
Peak Height 	0.02712
calc peak height	100,103
Baseline Time (s)	9.537
Baseline Value 	0.002593
subtract baseline	10,1


Time (s)	A880-A510	A880-A775	A880-A975	A880	I510	I775	I975	I880	
0.036500	-0.001393	-0.000147	-0.001275	0.002263	6263.256887	43138.080813	3914.305015	22679.716373
0.537000	-0.001824	0.000220	-0.002817	0.004466	6243.234408	42968.839607	3905.794975	22579.905599
1.037500	-0.003420	-0.000580	-0.004549	0.003657	6237.268338	42969.650404	3903.709595	22616.504818
1.535000	-0.000720	0.000128	-0.003037	0.006853	6233.518286	42741.378391	3899.915250	22472.301087
2.038000	-0.001266	0.000244	0.004901	0.001481	6270.192796	43246.575080	3930.308932	22715.256123
2.535500	-0.001440	-0.000380	0.003794	0.000589	6275.694724	43271.499997	3929.812831	22755.914393
3.036000	0.003451	0.000274	0.006229	-0.001672	6330.895526	43542.572434	3940.752509	22859.260902
3.536000	-0.003356	-0.000353	-0.003958	0.005789	6221.651759	42794.696358	3900.235013	22520.175734
4.036000	-0.001410	-0.000414	-0.006598	0.000274	6278.334173	43297.452381	3906.723916	22770.256926
4.537000	0.000185	-0.000616	-0.002201	-0.000199	6294.222152	43322.734520	3917.816865	22791.891427
5.037000	-0.000692	0.000355	0.001612	0.000517	6281.976712	43346.371024	3924.933571	22759.202897
5.537000	-0.001358	0.000195	0.001393	0.003169	6256.623407	43086.032343	3918.334827	22638.613181
6.037500	-0.000391	0.000158	0.000318	0.000580	6283.801465	43322.241908	3921.809409	22756.322495
6.535500	-0.000293	0.000493	0.005166	0.000629	6284.176623	43348.700783	3932.903564	22754.068614
7.035000	-0.000046	-0.000761	0.002030	-0.000181	6292.297742	43307.558666	3927.510765	22791.042398
7.535500	0.000709	-0.000826	0.003764	-0.000847	6303.250361	43363.347971	3933.075081	22821.474520
8.036000	0.001735	0.000035	-0.000372	0.000043	6304.300587	43360.611202	3921.455907	22780.808216
8.536000	0.001266	0.000092	-0.001096	0.000000	6301.014579	43369.909493	3919.893379	22782.780604
9.037000	-0.001526	0.000000	0.006725	-0.000151	6280.702419	43375.444280	3938.356679	22789.683839
9.536500	0.000000	-0.000340	0.000000	-0.000956	6298.623506	43418.717632	3924.612758	22826.488571
10.037000	0.000438	-0.000665	0.001832	-0.000605	6299.295758	43355.758543	3928.032566	22810.417634
10.535000	-0.001812	-0.000239	-0.001499	0.004575	6242.495604	42916.625279	3908.533857	22574.977371
11.035000	0.002032	0.001183	-0.000863	0.000799	6300.753258	43397.093801	3918.594566	22746.312476
11.538000	-0.001530	0.000413	0.004406	0.000142	6278.426566	43386.589532	3932.270337	22776.316791
12.035500	-0.000555	0.000162	0.001871	0.000011	6286.911875	43375.414195	3926.699635	22782.282378
12.536000	-0.002913	-0.000161	0.001441	0.003612	6241.449429	43012.391299	3917.430158	22618.543836
13.036000	0.000219	0.000558	0.001853	0.000160	6291.710968	43398.362163	3926.312859	22775.461805
13.536500	0.001847	0.000856	-0.000315	0.000672	6300.309471	43378.438973	3920.141016	22752.103268
14.036500	-0.001695	0.000115	0.005211	0.002087	6262.292138	43178.587733	3929.623876	22687.696608
14.534000	-0.003381	0.000393	0.005477	0.004449	6231.575595	42986.268461	3924.778802	22580.654515
15.034000	-0.001868	0.000001	-0.000896	-0.000308	6279.288695	43390.111664	3921.060335	22796.868926
15.535000	0.001132	0.000084	0.005669	-0.000148	6301.124463	43382.965995	3935.883319	22789.558582
16.037500	0.003292	-0.000708	0.001054	-0.000612	6321.422098	43352.421586	3926.249667	22810.732183
16.536000	-0.001287	-0.000391	0.000827	0.003069	6257.925814	43041.221536	3917.265990	22643.139830
17.036000	0.003584	0.000262	0.003847	-0.003136	6343.353917	43678.366201	3938.605745	22926.515950
17.535500	-0.001533	-0.000795	0.002836	0.000542	6275.333993	43237.329909	3927.701683	22758.037334
18.036500	0.001550	-0.000349	0.003022	0.000974	6295.694030	43238.671606	3927.134351	22738.348840
18.536500	-0.001924	-0.000960	-0.001810	0.002588	6256.735910	43033.087163	3912.343609	22664.942092
19.036500	-0.000767	0.000387	0.003039	0.002100	6269.281062	43202.532021	3924.572788	22687.109288
19.537000	-0.000300	0.000612	-0.000448	0.001412	6278.116479	43287.193585	3918.140759	22718.416545
20.037500	-0.000564	0.000048	0.004038	0.001626	6274.454473	43214.995093	3927.974486	22708.648250
20.535000	-0.000984	0.000300	-0.000938	0.003532	6256.700830	43062.149030	3912.178684	22622.130469
21.034500	-0.000104	-0.001195	-0.001358	0.000688	6285.173834	43186.770592	3917.713187	22751.369513
21.535500	-0.001872	0.000374	-0.001333	0.001484	6265.548303	43258.406781	3915.951478	22715.132913
22.036000	0.000432	-0.000536	0.001417	0.001264	6284.866711	43194.517583	3922.762691	22725.158963
22.536000	-0.001457	-0.000064	-0.002904	0.003998	6249.569115	42985.747138	3906.657350	22601.063979
23.036500	0.002946	0.000073	0.003456	0.001721	6300.702762	43208.615853	3926.412251	22704.365012
23.536500	0.000500	0.000170	0.004972	0.001938	6280.218611	43197.505410	3929.415830	22694.496940
24.037000	-0.000823	-0.000450	0.001136	0.001489	6273.522333	43181.587644	3921.599264	22714.893320
24.537500	0.000068	0.000083	0.001971	0.003838	6262.385816	43013.958620	3918.123253	22608.286039
25.034500	0.000825	0.000043	0.001661	0.002148	6281.101935	43166.313645	3921.292944	22684.953321
25.537500	-0.001417	0.000106	0.000798	0.002091	6264.391355	43177.419511	3919.442206	22687.545427
26.035500	-0.002837	-0.000123	0.003551	0.001579	6257.467847	43203.626139	3926.958168	22710.826992
26.535500	-0.002426	0.000167	0.000121	0.003942	6242.631131	43012.177266	3913.657829	22603.570992
27.036000	0.000322	0.000046	0.001826	-0.000974	6301.245811	43456.241137	3928.873975	22827.299750
27.535500	0.002290	0.000367	0.006044	-0.000285	6311.124685	43421.949924	3937.077472	22795.777722
28.036500	0.001294	0.000391	0.001389	0.000325	6298.720989	43367.567740	3924.860998	22767.953202
28.537000	0.000192	0.000433	-0.000681	0.000690	6287.437136	43337.533760	3919.261668	22751.315607
29.037000	-0.001230	0.000463	-0.000210	-0.000201	6283.357925	43423.188440	3922.390564	22791.963077
29.534500	0.001100	0.000566	-0.001756	0.001905	6285.074671	43237.211091	3914.024172	22695.973386
30.034500	0.000015	-0.000306	0.002626	0.000233	6289.586404	43311.364486	3927.930832	22772.135792
30.542000	0.000172	0.000809	-0.001786	0.003253	6267.646087	43134.926011	3910.883554	22634.775279
31.035500	-0.000194	-0.000175	0.003326	0.001249	6280.183235	43229.339495	3927.200469	22725.837466
31.535500	-0.000125	0.000096	0.005414	0.000701	6284.910635	43305.255439	3933.312803	22750.796355
32.036000	0.002388	0.000777	0.005142	0.000125	6308.709155	43422.004929	3934.019876	22777.068022
32.536500	0.000839	-0.000109	0.004565	-0.000513	6301.676010	43398.921335	3934.161959	22806.206764
33.037000	0.002131	0.001171	0.000235	0.000867	6300.994766	43389.610538	3920.956278	22743.217540
33.537000	0.000479	0.000443	-0.000123	0.000328	6292.417163	43372.043035	3921.372438	22767.792179
34.037500	-0.001871	0.000428	-0.000884	0.000620	6272.153916	43343.581136	3918.955349	22754.481833
34.537500	-0.003666	-0.000535	-0.003027	0.003181	6239.009640	43017.587375	3908.229414	22638.046461
35.037500	-0.000313	0.000695	0.007104	0.002200	6271.989288	43221.803626	3933.757521	22682.567082
35.535000	-0.000702	0.000445	0.000425	0.001901	6271.296828	43226.334346	3919.019057	22696.142109
36.036000	-0.001636	0.000395	0.001574	0.001375	6268.182910	43270.432338	3922.869605	22720.098412
36.535500	-0.002203	0.000544	0.005733	0.003511	6247.598904	43086.627917	3927.536465	22623.102915
37.036500	-0.000100	0.000089	-0.000466	0.001430	6279.508118	43236.986327	3918.058718	22717.577536
37.536500	0.000695	-0.000431	-0.002161	0.001456	6285.413267	43186.491518	3914.123272	22716.412033
38.036500	0.000480	0.000333	-0.000707	0.001854	6280.706272	43220.272999	3916.536608	22698.288994
38.537000	-0.000395	-0.000816	0.002101	0.002977	6265.423942	43010.488362	3920.396693	22647.294090
39.037500	0.000925	0.000226	-0.001586	0.002266	6280.961665	43172.304332	3913.586374	22679.556434
39.535000	-0.000542	0.000448	0.004643	0.001480	6275.746504	43265.612820	3929.713508	22715.318660
40.035000	-0.000548	-0.000069	0.001418	0.001583	6274.910513	43208.209137	3922.030675	22710.622593
40.535000	-0.001869	0.000183	0.000990	0.002975	6254.205654	43102.753124	3917.852773	22647.377379
41.035500	-0.000289	0.000096	0.000060	0.001777	6275.404499	43205.511296	3918.467132	22701.791673
41.536000	0.000141	-0.000261	0.003909	0.001161	6283.425417	43229.505188	3928.752480	22729.824173
42.036000	-0.001288	-0.000487	0.003500	0.001250	6271.797929	43200.316465	3927.601757	22725.794871
42.536500	-0.001030	-0.000194	-0.002490	0.003217	6258.754493	43045.702141	3909.366401	22636.412902
43.037000	0.000721	-0.000436	0.006998	0.001408	6285.986998	43190.433405	3935.354460	22718.606836
43.536500	-0.001878	-0.000531	-0.001717	0.001641	6264.305680	43160.112020	3914.715012	22707.999258
44.037000	0.001140	0.000811	0.002011	-0.000443	6303.456542	43478.085282	3928.072468	22803.016594
44.537500	-0.002439	-0.000197	0.002422	0.004252	6240.188130	42950.152223	3918.209356	22589.579889
45.035000	-0.001149	-0.000216	-0.001769	0.000175	6281.095710	43325.119596	3917.949549	22774.813690
45.535500	-0.000793	0.000216	0.003748	0.000559	6280.883105	43329.603973	3929.775116	22757.288838
46.036000	0.000635	-0.000077	0.000514	0.000074	6295.574412	43347.350664	3923.421599	22779.386035
46.536000	-0.003202	-0.000395	-0.001649	0.003968	6236.562933	42958.045682	3909.571813	22602.419085
47.036000	-0.001663	0.000563	0.008292	0.000475	6274.854336	43369.557928	3940.556943	22761.094067
47.536500	0.000985	0.000350	0.003738	0.003060	6275.334932	43110.330156	3923.971269	22643.532205
48.037000	-0.001301	-0.000163	0.002471	0.002487	6262.253895	43116.007784	3922.374486	22669.556429
48.534500	-0.004057	0.000540	0.000193	0.004773	6224.027465	42970.087480	3911.929394	22566.035483
49.037500	0.001962	-0.000496	0.004136	-0.000167	6307.683139	43330.889748	3932.360951	22790.425086
49.535000	-0.000411	-0.000475	0.001480	0.000627	6283.284356	43259.069390	3924.374433	22754.147816
50.035000	0.003416	0.001161	0.002263	-0.001747	6331.219003	43632.500039	3931.678976	22862.739515
50.535500	-0.001287	-0.000305	0.000177	0.009015	6212.950189	42504.699798	3902.283280	22375.356310
51.039000	0.015138	-0.005358	0.019894	0.145749	5423.610147	31503.783493	3671.043912	17128.886955
51.536000	0.023264	-0.012827	0.002170	0.373405	4442.389763	19591.391061	3348.267450	11344.707273
52.036500	0.006411	-0.020852	-0.024321	-0.027343	6561.249686	43969.022769	3929.386377	24071.518083
52.536500	-0.012796	-0.087878	-0.027672	-0.273566	9040.311751	64889.758719	4683.310758	40184.098028
53.037000	-0.004644	-0.090843	-0.011112	-0.278568	9227.581049	65180.681158	4772.899667	40615.396414
53.537000	-0.000040	-0.071543	-0.008473	-0.253090	8933.005536	64302.399177	4678.142082	38469.320673
54.035000	-0.007299	-0.074042	-0.012963	-0.258628	8909.356131	64732.797972	4682.380835	38925.146084
54.535000	-0.009438	-0.064019	-0.016954	-0.245842	8708.061601	64341.401527	4615.723525	37881.492479
55.038000	-0.010650	-0.054987	-0.015331	-0.233708	8533.834504	63905.003824	4575.251112	36919.076058
55.536000	-0.012132	-0.044624	-0.018056	-0.218154	8319.053739	63181.351402	4507.161685	35724.007514
56.036000	-0.009145	-0.038108	-0.011327	-0.204811	8192.567509	62242.987398	4483.227522	34732.467091
56.536500	-0.009175	-0.028070	-0.011530	-0.181172	7914.519568	60416.514896	4399.892495	33048.751596
57.036500	-0.007915	-0.019787	-0.013652	-0.155057	7638.416689	58107.200130	4306.939379	31292.246092
57.536500	-0.008533	-0.014317	-0.012716	-0.126261	7331.432886	55225.910364	4220.963072	29474.028834
58.037000	-0.004812	-0.008409	-0.012806	-0.084454	6963.630242	51083.380958	4101.621504	27039.851182
58.540000	-0.004418	-0.006316	-0.009779	-0.054351	6698.299740	48080.724555	4030.400926	25426.709147
59.035000	-0.005915	-0.005983	-0.015856	-0.044590	6602.396946	47112.735374	3990.753621	24927.160218
59.535000	-0.001501	-0.003856	-0.010972	-0.057840	6753.984597	48702.291978	4036.269754	25607.988725
60.035000	-0.004560	-0.001389	-0.005501	-0.022886	6435.239013	45408.979134	3963.217597	23855.880021
60.536000	-0.004711	-0.000183	-0.007743	-0.009888	6331.321822	44273.285965	3927.357356	23239.496158
61.036000	-0.005455	-0.000468	-0.012555	-0.018440	6392.648285	45066.326978	3936.042821	23642.974179
61.536500	-0.000947	0.001681	-0.004709	0.003662	6256.002590	43177.786952	3903.337760	22616.276781
62.036500	-0.001794	0.002495	-0.005499	0.007730	6218.799211	42877.933937	3892.433096	22432.908762
62.537500	-0.004762	0.003077	-0.009431	0.021183	6097.543805	41713.750360	3854.405193	21838.700580
63.034500	0.000060	0.004616	-0.004415	0.016231	6169.167680	42296.511614	3876.024294	22055.298790
63.537500	-0.001926	0.004849	-0.002032	0.022503	6108.543114	41753.976192	3867.530176	21781.355352
64.035500	-0.001001	0.005199	0.002137	0.042437	5973.307438	40045.668631	3833.866877	20936.578642
64.538000	-0.000701	0.004238	0.000009	0.039168	5998.251196	40243.006090	3836.262775	21072.480482
65.035500	-0.000406	0.002935	-0.001038	0.039014	6001.395995	40144.616352	3834.386423	21078.891838
65.536000	0.000058	0.004128	-0.002716	0.030804	6062.944153	40957.440093	3848.195412	21424.859124
66.036500	-0.001031	0.003615	-0.003264	0.029435	6064.950679	41032.261242	3849.943901	21483.180227
66.539500	0.000740	0.008706	0.005318	0.036673	6025.992560	40844.779194	3852.815760	21176.862517
67.037000	-0.000977	0.008600	-0.000985	0.029808	6062.664995	41438.261332	3854.021722	21467.275760
67.542000	0.000552	0.010391	0.001436	0.021040	6137.323142	42383.911266	3878.310196	21844.879446
68.040500	-0.002432	0.012426	-0.000002	0.014751	6161.669651	43145.974089	3889.040107	22120.502162
68.535000	-0.002732	0.012964	-0.002391	0.015089	6156.964089	43164.508029	3882.995009	22105.597240
69.037500	0.001844	0.014379	0.001540	0.006549	6255.264477	44095.482119	3910.952977	22485.954056
69.535500	0.003931	0.015422	0.007857	0.002551	6301.891925	44575.222552	3934.693899	22666.636684
70.038500	0.006223	0.014382	0.006655	-0.002405	6358.286782	44951.594519	3943.472767	22892.887074
70.535500	0.005542	0.015297	0.002937	-0.007282	6391.373102	45514.723320	3946.199169	23118.106056
71.036500	0.006905	0.015167	0.003976	-0.008561	6412.373028	45627.401577	3951.674232	23177.603675
71.536500	0.008538	0.015441	0.006236	-0.013718	6466.911066	46163.602933	3969.387339	23419.191545
72.037500	0.009914	0.016399	0.008742	-0.014304	6482.840054	46317.407523	3976.863039	23446.862984
72.535000	0.007798	0.014690	0.007219	-0.011997	6447.050004	45918.786635	3967.613684	23338.265931
73.042500	0.005532	0.015621	0.011386	-0.014820	6451.535550	46291.286809	3984.558936	23471.229887
73.535000	0.008420	0.015304	0.008698	-0.018142	6501.947093	46591.758176	3986.107642	23628.754916
74.038500	0.007768	0.015681	0.011917	-0.018023	6495.655668	46617.649493	3993.721654	23623.109805
74.536000	0.003661	0.015810	0.003278	-0.012448	6417.494708	46074.240652	3959.252405	23359.429367
75.036000	0.003498	0.015325	0.003187	-0.014954	6436.253220	46275.173339	3965.031825	23477.554190
75.536500	0.008019	0.016743	0.009181	-0.017321	6491.969748	46653.810684	3985.280434	23589.713931
76.036500	0.008240	0.016317	0.009698	-0.017975	6499.117224	46676.729776	3988.148093	23620.825634
76.539500	0.009827	0.016217	0.009609	-0.017589	6508.938982	46627.951612	3986.984821	23602.461467
77.042500	0.006940	0.016908	0.006839	-0.013193	6449.766283	46257.384625	3969.574418	23394.464636
77.540500	0.010078	0.017428	0.015143	-0.016415	6501.385912	46631.615597	3997.717503	23546.724412
78.037500	0.012064	0.017600	0.011294	-0.015954	6513.875726	46602.627230	3987.106609	23524.870924
78.535500	0.009585	0.017379	0.007574	-0.015681	6491.371411	46553.015673	3977.369192	23511.933188
79.038500	0.006461	0.017918	0.009374	-0.009977	6420.123534	46038.249127	3967.937802	23243.660913
79.536000	0.011198	0.018607	0.010158	-0.013501	6486.747472	46457.633774	3978.351255	23408.959921
80.035500	0.009219	0.019158	0.010072	-0.012991	6466.544900	46461.823770	3976.903680	23384.979674
80.536500	0.006297	0.020250	0.011341	-0.011879	6434.042093	46459.861854	3977.286704	23332.729412
81.036000	0.006447	0.020940	0.006636	-0.005744	6386.356859	45918.427050	3951.301571	23046.804591
81.537000	0.006129	0.020889	0.013429	-0.010810	6424.123791	46416.810575	3979.760288	23282.590328
82.045500	0.004730	0.019785	0.008178	-0.010779	6412.715083	46303.527315	3966.990528	23281.179428
82.535000	0.004238	0.020764	0.010595	-0.002755	6345.486781	45606.912276	3953.601004	22908.985866
83.034500	0.003476	0.020604	0.004767	-0.002583	6338.194884	45574.388098	3939.464592	22901.089700
83.535500	0.005511	0.021155	0.006122	-0.007337	6391.564757	46097.457347	3953.860743	23120.676807
84.035500	0.008525	0.022344	0.011589	-0.006611	6409.734815	46143.393529	3965.170224	23086.960816
84.535500	0.003642	0.022929	0.006913	-0.001049	6327.535900	45651.853547	3940.895555	22830.728465
85.036500	0.009336	0.022295	0.012931	-0.006850	6418.113253	46162.298389	3968.971558	23098.057318
85.536500	0.008521	0.023077	0.013126	-0.006284	6407.104457	46183.762807	3968.078903	23071.827161
86.042000	0.010439	0.023153	0.011787	-0.005973	6419.915772	46160.370805	3964.116259	23057.415981
86.537000	0.008142	0.022722	0.006653	0.000141	6353.374494	45514.975330	3937.505131	22776.340254
87.039500	0.012484	0.023439	0.009624	-0.005192	6430.034129	46111.274219	3957.085570	23021.311802
87.534500	0.011985	0.025075	0.015992	-0.003724	6414.308357	46127.932468	3968.815876	22953.589446
88.035000	0.011030	0.024122	0.019889	-0.004668	6414.215469	46126.998038	3980.533858	22997.072081
88.535500	0.007797	0.023626	0.007034	0.001446	6340.475282	45475.759863	3935.349726	22716.874461
89.036000	0.012159	0.024464	0.010252	-0.004233	6419.757961	46117.805161	3956.299090	22977.042743
89.536500	0.013444	0.024988	0.014910	-0.003396	6423.343730	46086.797163	3965.426726	22938.483378
90.037000	0.012277	0.025008	0.013687	-0.002795	6409.229366	46029.181240	3961.058216	22910.830164
90.537000	0.016060	0.025842	0.014358	-0.001289	6427.413159	45962.671637	3959.065773	22841.751478
91.037000	0.017034	0.026050	0.014585	-0.000374	6427.881501	45892.768389	3957.426541	22799.871065
91.540000	0.017042	0.026478	0.014279	0.000803	6418.538660	45818.851988	3953.899284	22746.145709
92.037500	0.016546	0.025360	0.012993	0.001262	6410.917307	45663.684626	3949.766844	22725.239493
92.535000	0.015227	0.025990	0.017914	0.003074	6386.062929	45547.783397	3957.141928	22642.905897
93.035500	0.013573	0.026775	0.015384	0.010740	6313.118365	44879.048472	3933.152027	22298.345150
93.536000	0.015761	0.027277	0.018131	0.006351	6364.434428	45353.329540	3949.881952	22494.868418
94.036000	0.019284	0.027124	0.016523	0.007354	6384.299393	45240.835086	3943.731369	22449.808658
94.536500	0.017180	0.026640	0.015672	0.007828	6363.973003	45147.682878	3940.620204	22428.521110
95.036500	0.019159	0.027625	0.019825	0.015390	6320.381358	44514.401052	3932.667717	22092.324104
95.536500	0.021613	0.027425	0.018539	0.009916	6382.453345	45021.448018	3942.446826	22335.085895
96.037500	0.021740	0.028558	0.024670	0.010915	6375.572872	45034.430801	3954.563305	22290.564672
96.537000	0.022811	0.027556	0.021215	0.010687	6385.828041	44959.529488	3946.926898	22300.701397
97.035000	0.020119	0.027910	0.024383	0.016983	6315.466650	44389.552749	3939.581938	22022.226132
97.535000	0.024226	0.027791	0.020172	0.011771	6388.446886	44877.574297	3941.924732	22252.460013
98.035000	0.022895	0.028120	0.017034	0.012750	6370.210968	44814.997975	3932.315868	22209.018499
98.536000	0.024729	0.029214	0.014723	0.014189	6373.324244	44781.896443	3923.641144	22145.327370
99.036000	0.019693	0.026976	0.021243	0.018690	6298.985176	44138.682136	3928.302064	21947.426020
99.538500	0.026413	0.028459	0.025458	0.014576	6383.562120	44672.225349	3947.763505	22128.231347
100.036500	0.024669	0.027776	0.018508	0.014783	6368.171288	44586.864903	3931.016005	22119.063798
100.537000	0.024170	0.027522	0.023120	0.015059	6362.078386	44536.092541	3941.128922	22106.892513
101.040000	0.020702	0.027700	0.017955	0.021635	6284.092382	43928.792817	3913.978418	21819.015820
101.537500	0.024463	0.028357	0.028419	0.017345	6346.464624	44397.641876	3948.215952	22006.353338
102.035000	0.027124	0.029016	0.025483	0.018559	6357.795958	44344.803703	3938.468104	21953.146332
102.535000	0.025025	0.028717	0.021439	0.024686	6293.871204	43737.691682	3914.967538	21686.933705
103.035000	0.023670	0.028284	0.024128	0.024885	6281.934270	43678.478445	3920.672578	21678.380459
103.535500	0.027504	0.029034	0.030627	0.020203	6347.894356	44190.369354	3946.683926	21881.364086
104.036000	0.027891	0.028629	0.027761	0.020737	6346.740669	44101.382112	3938.700937	21858.075815
104.536500	0.024141	0.027951	0.022905	0.026921	6269.943432	43457.215339	3913.213713	21590.769610
105.036500	0.022971	0.027023	0.020422	0.026464	6264.497385	43413.373953	3908.606207	21610.387776
105.540000	0.029171	0.028144	0.028908	0.022518	6342.833201	43887.601115	3937.221276	21780.728294
106.037000	0.029001	0.028343	0.026064	0.022496	6341.675215	43908.343451	3930.653414	21781.667051
106.537500	0.025231	0.028273	0.025596	0.029090	6261.709118	43285.558716	3914.403512	21497.910233
107.035000	0.025474	0.029324	0.027035	0.029271	6262.176769	43366.285205	3917.278762	21490.164590
107.535000	0.032363	0.029473	0.024890	0.025342	6345.702943	43747.013300	3921.369735	21658.654609
108.035500	0.030191	0.029197	0.027579	0.025423	6328.137448	43713.558812	3927.382367	21655.168083
108.539000	0.025978	0.029423	0.025933	0.031973	6245.463273	43125.142030	3908.611096	21375.195949
109.039500	0.029258	0.028429	0.027322	0.031103	6277.098764	43113.712779	3913.749113	21412.131981
109.536500	0.031303	0.029522	0.031289	0.027265	6322.466691	43571.592534	3931.710013	21575.997345
110.037000	0.031341	0.029574	0.027646	0.027330	6322.250727	43570.344148	3923.136625	21573.203368
110.543000	0.028557	0.029485	0.029167	0.033801	6251.172074	42962.427665	3911.806333	21297.821925
