sample name	sample
index	299
start time	 02-25-2021  02:02:07 PM
880	-0.010056
Peak Time (s)	91.535
Peak Height 	-0.01006
calc peak height	90,93
Baseline Time (s)	11.036
Baseline Value 	-0.00329
subtract baseline	10,4
Abs	-0.005811
Peak Time (s)	92.536
Peak Height 	-0.005811
calc peak height	90,93
Baseline Time (s)	9.534
Baseline Value 	9.7918E-4
subtract baseline	10,3
PK_550	-0.003677
Peak Time (s)	92.536
Peak Height 	-0.003677
calc peak height	90,93
Baseline Time (s)	8.537
Baseline Value 	2.8251E-4
subtract baseline	10,2
PK_880	-0.011305
Peak Time (s)	90.037
Peak Height 	-0.01131
calc peak height	90,93
Baseline Time (s)	8.537
Baseline Value 	6.2866E-4
subtract baseline	10,1


Time (s)	A880-A510	A880-A775	A880-A975	A880	I510	I775	I975	I880	
0.035000	-0.002991	-0.000798	-0.004186	0.007239	6776.048682	45028.464285	3971.164678	23878.542434
0.535500	-0.001312	0.000336	-0.003695	0.004495	6815.333886	45405.904551	3979.053370	24011.370455
1.035500	-0.003933	0.000380	-0.000229	0.004830	6789.037325	45377.475191	3986.743191	23995.105889
1.536000	-0.000418	0.000362	0.001327	0.002726	6839.172773	45581.654581	3995.803573	24097.394555
2.036000	-0.002737	-0.001056	-0.008067	0.006651	6783.500021	45060.458222	3963.196785	23906.930573
2.536500	-0.000518	0.000900	-0.000106	0.002300	6842.107585	45676.415546	3993.303462	24118.198885
3.037000	0.001461	0.000219	0.002403	-0.001063	6890.407262	45940.998440	4007.964757	24282.885814
3.537000	0.000262	0.000906	0.001352	0.001634	6855.126663	45742.565747	3998.584389	24150.720587
4.037000	-0.000894	-0.000191	0.000671	0.003327	6829.504922	45468.483748	3992.681666	24068.104626
4.534500	0.000262	0.000329	-0.002296	0.001286	6858.263803	45720.038742	3990.390875	24167.737230
5.035000	-0.000938	-0.000144	0.000470	0.000559	6853.991751	45744.930626	3999.064033	24203.287506
5.535500	-0.000125	0.000467	-0.002310	0.001316	6854.499966	45730.604955	3990.281705	24166.263580
6.036000	-0.002056	-0.000469	0.000062	0.000376	6845.568301	45730.975179	3998.501814	24212.247953
6.535500	0.002507	0.001705	0.002804	0.001317	6878.294434	45852.669944	4003.001580	24166.215692
7.036500	-0.000623	-0.000462	0.001982	-0.000148	6863.217198	45783.254784	4004.611067	24237.943879
7.536500	-0.000553	0.000252	0.001085	0.000669	6856.468843	45773.115960	4000.324236	24197.901661
8.036500	-0.000753	-0.000096	-0.000025	0.000456	6856.583965	45759.840462	3998.087685	24208.325562
8.537000	0.000000	0.000000	-0.003205	-0.000049	6867.957000	45819.175300	3991.446114	24233.119370
9.037000	-0.002308	-0.000908	0.000661	0.002464	6824.582555	45482.833955	3994.798598	24110.189261
9.534500	0.001468	-0.001014	0.000000	-0.000331	6883.819930	45746.980250	4000.112507	24246.950686
10.035000	0.000807	0.000334	0.001597	0.000502	6870.267043	45797.674645	4002.021324	24206.081068
10.535500	-0.000630	-0.000393	-0.004352	-0.000252	6864.094989	45800.443659	3989.109345	24243.068898
11.035500	-0.000097	0.000058	-0.001678	0.000000	6866.638239	45820.040351	3995.110099	24230.703266
11.536000	0.000251	0.000298	0.004243	0.000370	6866.430032	45807.213867	4008.986411	24212.540550
12.036500	0.000778	0.000983	0.001915	0.000640	6868.760876	45848.238026	4002.470845	24199.342615
12.539500	-0.001548	0.000022	0.000279	-0.000359	6856.772409	45851.949748	4000.879001	24248.336497
13.037000	-0.001913	0.000219	0.000033	-0.001165	6860.755422	45951.112142	4002.278429	24287.945974
13.536500	0.000954	0.000321	-0.004252	0.001475	6862.799944	45700.554733	3985.097107	24158.481062
14.034500	-0.003289	0.000376	-0.005323	0.001601	6823.528525	45693.643807	3982.156117	24152.336129
14.535000	-0.002840	-0.000710	-0.000750	0.002759	6817.195152	45473.382514	3990.571568	24095.812222
15.035000	-0.005302	-0.000218	-0.001876	0.006145	6765.321762	45191.006181	3979.466449	23931.410100
15.563000	-0.002585	0.000339	-0.005286	0.001342	6832.144322	45715.457337	3982.882660	24164.977547
16.036000	-0.001220	0.000659	0.000225	0.001695	6841.233253	45712.215468	3995.626787	24147.736319
16.536000	-0.001265	0.000867	-0.000907	0.001879	6839.174502	45714.542810	3992.360475	24138.736225
17.039000	-0.003899	0.000754	-0.001746	0.006539	6774.217951	45247.272204	3978.822034	23912.370117
17.536500	-0.000698	0.000646	-0.001259	-0.001504	6874.810644	46027.012578	3999.897180	24304.618917
18.034000	-0.002373	0.000891	-0.002712	0.003295	6816.570728	45577.798004	3984.409193	24069.696041
18.537500	-0.001635	0.000395	0.000216	0.002698	6828.505537	45587.616465	3993.113078	24098.750587
19.034500	-0.002888	-0.000028	-0.004022	0.004841	6798.213610	45336.558149	3977.408267	23994.559745
19.535500	-0.003169	0.000193	-0.003880	0.002594	6815.718580	45578.001674	3983.260191	24103.823807
20.035500	-0.002406	0.000351	0.002617	0.002955	6819.313984	45558.185711	3998.445387	24086.262493
20.535500	-0.003140	0.000173	-0.002423	0.002292	6818.684916	45605.766558	3987.591142	24118.574236
21.036000	-0.000163	0.000541	0.000621	0.003633	6833.321181	45510.288767	3991.800132	24053.225030
21.536500	-0.000699	0.000252	0.000677	0.002408	6839.514136	45602.092081	3994.978173	24112.931019
22.036500	-0.000234	0.000809	0.001042	0.002456	6843.254751	45652.101730	3995.766460	24110.565659
22.536500	-0.001270	0.000391	0.002290	0.002522	6833.356953	45604.459945	3998.707071	24107.335720
23.037000	-0.002248	0.000226	0.004161	0.002900	6821.218877	45551.215696	4002.433956	24088.910765
23.534500	-0.001058	0.000466	0.001703	0.002399	6836.367657	45623.960122	3997.552217	24113.359307
24.035000	-0.000747	0.000826	0.002422	0.002700	6836.450663	45629.836714	3998.592720	24098.676861
24.535500	0.000154	0.000227	0.002149	0.002290	6848.235518	45611.145339	3998.933449	24118.650216
25.035000	-0.000882	-0.000242	0.000548	0.002375	6838.151846	45556.760042	3994.739177	24114.504356
25.536000	-0.000011	0.000773	0.005660	0.002823	6841.962127	45612.480681	4006.385101	24092.686964
26.036000	-0.001876	-0.000130	0.000994	0.001684	6835.434084	45635.608386	3997.565282	24148.236981
26.536000	-0.000779	0.000376	-0.004989	0.002203	6840.621873	45634.326676	3981.496314	24122.889933
27.036500	-0.000583	0.000577	0.001419	0.003607	6829.786748	45516.349803	3993.843596	24054.500897
27.534500	-0.000953	0.000236	0.003792	0.001787	6842.804047	45661.553372	4004.299722	24143.247988
28.034500	0.002487	0.000489	0.003406	-0.001640	6905.028903	46024.946639	4011.945734	24311.322085
28.537500	-0.000544	-0.000043	0.002793	0.000440	6858.618655	45766.635665	4005.170721	24209.123542
29.062000	-0.003435	-0.000563	-0.002926	0.003341	6806.692348	45430.797607	3983.768462	24067.447752
29.535500	-0.000563	0.000291	-0.002000	0.001048	6852.969144	45739.727115	3991.713512	24179.373109
30.035500	0.000224	0.000163	0.002565	0.001797	6853.305369	45653.376922	4001.202000	24142.721397
30.535500	0.001640	0.000004	0.004031	0.001231	6871.212869	45693.423456	4006.292301	24170.411395
31.065000	-0.000162	0.000529	0.003118	0.000938	6857.580682	45773.971344	4004.738793	24184.762352
31.536500	-0.001955	0.000459	0.001660	0.002816	6824.588188	45582.370199	3996.407793	24093.020743
32.036500	-0.000158	-0.000169	0.005292	0.002387	6844.560764	45562.887783	4006.556103	24113.953881
32.564500	0.002137	0.001131	0.005390	0.001469	6873.558140	45781.036226	4009.108956	24158.778227
33.034500	-0.002089	0.000565	0.001236	0.001336	6836.655906	45738.352368	3999.037506	24165.288277
33.535500	0.000411	-0.000205	0.002599	0.000739	6864.543864	45721.200151	4003.934652	24194.478696
34.035000	-0.000773	-0.000188	0.002331	0.001331	6848.524656	45664.705135	4001.782776	24165.505728
34.535500	0.000099	0.001483	0.000733	0.000583	6863.134834	45903.266504	3999.661110	24202.126066
35.036000	-0.002166	-0.000079	-0.004689	0.002206	6828.160468	45589.452550	3982.226677	24122.775506
35.539000	-0.000814	0.001367	0.001433	0.003236	6831.049430	45630.279302	3994.799580	24072.579538
36.035500	0.000698	0.000958	0.001389	0.003308	6843.973742	45583.077156	3994.512127	24069.051472
36.536500	0.000047	0.000472	-0.001197	0.002467	6845.681397	45617.945943	3990.187495	24110.051128
37.036500	0.000697	0.000456	0.000388	0.002431	6851.854341	45619.853036	3994.204156	24111.788948
37.534000	0.000923	0.000096	-0.004825	0.002473	6853.510611	45580.417090	3981.237625	24109.733959
38.037500	-0.000714	0.000011	0.004991	0.002417	6839.291501	45577.568974	4005.725503	24112.495452
38.535000	-0.002458	-0.000201	-0.002732	0.002240	6825.242652	45574.166026	3986.958450	24121.116437
39.035500	-0.002527	0.000056	0.005934	0.003032	6817.548916	45521.710034	4006.548287	24082.507138
39.535500	0.000402	0.000639	-0.000031	0.002618	6847.522455	45619.537342	3992.700223	24102.684112
40.041500	-0.002535	0.000565	0.001114	0.002558	6821.709800	45618.040938	3995.690650	24105.581478
40.536000	-0.000595	0.000313	0.003402	0.002823	6836.713368	45567.356614	4000.731221	24092.670542
41.039500	-0.000882	0.000211	0.005834	0.003103	6831.636748	45529.899741	4006.119578	24079.056081
41.537000	0.000114	-0.000459	-0.001143	0.002373	6847.129213	45535.726529	3990.552633	24114.611023
42.037000	0.000233	0.000617	0.001247	0.002863	6843.789251	45593.192927	3995.262544	24090.714308
42.537500	-0.000819	0.000517	0.001541	0.002884	6834.151985	45581.383784	3995.941145	24089.696380
43.037500	0.000235	-0.000204	0.000958	0.002750	6844.829398	45523.756747	3994.827604	24096.231665
43.535500	-0.001547	0.000163	0.003840	0.002881	6827.657095	45546.880662	4001.680371	24089.849339
44.035500	-0.001907	0.000219	0.002165	0.002703	6826.027802	45569.881804	3997.944708	24098.516891
44.535500	0.002443	0.000717	0.003731	0.000324	6886.725097	45853.062744	4007.817269	24214.811790
45.038500	0.000977	0.000010	0.002864	0.003110	6848.267337	45509.505106	3998.673108	24078.703627
45.536000	0.000419	0.000959	0.008338	0.001855	6854.543495	45725.960305	4015.575016	24139.913070
46.039000	0.000964	0.001083	0.004181	0.002329	6855.181605	45691.587408	4003.915785	24116.775864
46.536500	0.001753	0.000690	0.001632	0.001678	6868.186008	45716.857646	3999.171172	24148.535742
47.037000	-0.003017	0.000548	-0.004424	0.007232	6775.879261	45159.759082	3970.603509	23878.872357
47.534500	-0.000247	0.000020	0.005453	0.001253	6853.959042	45692.798696	4009.810537	24169.313126
48.064500	0.000670	0.000286	0.005634	0.001370	6861.185819	45707.452219	4009.971556	24163.594197
48.535500	0.000860	0.000404	0.002343	0.002912	6848.994728	45567.526684	3997.869569	24088.349881
49.038500	-0.002259	0.000574	-0.001618	0.004863	6803.612275	45393.196245	3983.243735	23993.499855
49.568500	-0.000649	-0.000043	0.000935	0.003478	6830.359145	45468.287202	3992.962061	24060.776532
50.038500	-0.000321	-0.000113	0.007581	0.001221	6853.584625	45682.840763	4015.264497	24170.893680
50.536500	-0.000407	0.000587	0.002471	0.001285	6852.236219	45745.495730	4002.247995	24167.770408
51.037000	-0.001379	0.000269	0.002054	0.005091	6809.425920	45341.121536	3991.739213	23982.454609
51.537000	0.001427	0.001046	0.001645	0.001806	6864.088269	45739.461666	3998.885819	24142.322017
52.037500	0.001430	0.000650	0.005074	0.002828	6854.886587	45599.909430	4004.900103	24092.413865
52.535000	-0.022821	-0.020837	0.004453	0.103457	5876.293646	35147.566018	3778.502660	19715.034758
53.035500	-0.039129	-0.028254	0.005342	-0.009703	6610.141425	44022.157684	4037.464665	24712.005854
53.535500	-0.025371	-0.022518	-0.000293	-0.098553	7588.550468	54014.646132	4274.269554	29657.467089
54.041000	-0.027087	-0.022848	0.002426	-0.113189	7728.956393	55724.517553	4329.638505	30573.638634
54.536000	-0.026887	-0.019112	-0.006859	-0.106833	7661.536782	55407.193167	4279.642505	30172.006216
55.036000	-0.018921	-0.012742	-0.008596	-0.100519	7679.539690	55413.927504	4254.599689	29778.771520
55.536500	-0.010743	-0.013213	-0.009420	-0.116940	7955.798502	57376.271063	4303.538351	30813.441277
56.039500	-0.007478	-0.011051	-0.003197	-0.112426	7941.395098	57082.453267	4309.007854	30525.128359
56.537000	-0.007306	-0.010457	-0.002656	-0.087257	7661.591526	54104.625209	4232.222805	28971.190048
57.037500	-0.008530	-0.007575	-0.005363	-0.074335	7510.248497	52935.780392	4185.707326	28207.718146
57.538000	-0.005097	-0.006765	-0.006946	-0.061217	7409.425610	51539.242125	4143.450809	27455.511438
58.037500	-0.007104	-0.007034	-0.005087	-0.074518	7527.211061	53019.130930	4187.047091	28218.350264
58.538500	-0.005840	-0.006563	-0.003255	-0.041126	7200.027353	49364.492389	4097.972684	26346.661075
59.036000	-0.007531	-0.006594	-0.000566	-0.021179	6992.935927	47278.096456	4051.933321	25295.362865
59.536000	-0.009796	-0.007449	0.001748	-0.015878	6922.920395	46654.225458	4044.149065	25023.981760
60.036500	-0.007430	-0.006509	-0.001660	-0.005933	6853.987452	45757.423837	4009.993796	24523.706354
60.536500	-0.009873	-0.006870	-0.005457	-0.002290	6799.510187	45364.642646	3991.416953	24343.315385
61.040000	-0.014086	-0.007842	-0.007794	-0.005304	6788.867755	45564.597158	3993.094074	24492.471380
61.537000	-0.013129	-0.005898	-0.006787	-0.012043	6857.703264	46425.016047	4012.473542	24829.715260
62.037500	-0.012333	-0.008302	-0.006906	-0.022481	6960.388010	47236.688230	4038.833659	25362.498467
62.535000	-0.011217	-0.008288	-0.006799	-0.025155	6995.631998	47511.483466	4046.043750	25501.048182
63.035500	-0.012046	-0.008476	-0.014636	-0.032225	7054.357253	48223.233434	4044.052891	25871.579131
63.535500	-0.008386	-0.006965	-0.009145	-0.029162	7060.017090	48061.690146	4050.373495	25710.277811
64.036000	-0.011050	-0.006259	-0.012383	-0.025389	6999.390400	47744.431587	4032.214104	25513.255142
64.539500	-0.012467	-0.005295	-0.008751	-0.023150	6965.345654	47613.021396	4035.795980	25397.073799
65.061500	-0.013148	-0.004617	-0.013933	-0.019554	6925.889596	47314.078093	4013.397371	25211.822675
65.537000	-0.009950	-0.004072	-0.008542	-0.022418	6981.924809	47663.570587	4034.450879	25359.236732
66.045500	-0.010871	-0.003829	-0.007597	-0.022476	6973.906360	47694.483901	4037.034838	25362.230173
66.537500	-0.012005	-0.005150	-0.009161	-0.024049	6977.983348	47720.512549	4037.056768	25443.625982
67.034500	-0.014111	-0.004742	-0.009279	-0.024391	6961.610474	47797.901752	4037.636046	25461.378031
67.535000	-0.011939	-0.004440	-0.012385	-0.024877	6986.306498	47879.355835	4030.891846	25486.620069
68.040500	-0.011913	-0.004330	-0.011417	-0.025818	6995.330409	47988.120551	4035.801764	25535.550543
68.535500	-0.012939	-0.004206	-0.008128	-0.026947	6996.295356	48118.327693	4047.249334	25594.400163
69.041500	-0.016155	-0.005417	-0.011531	-0.024394	6942.748995	47728.586075	4031.845351	25461.537429
69.536000	-0.013776	-0.005012	-0.014646	-0.025655	6976.454453	47900.660877	4027.091562	25527.068678
70.036500	-0.014177	-0.004549	-0.008525	-0.028907	7003.041388	48286.764255	4051.326397	25696.913949
70.537000	-0.013415	-0.004716	-0.009367	-0.029402	7014.827478	48321.026153	4050.423536	25722.911975
71.040000	-0.013020	-0.005434	-0.011346	-0.025521	6982.238404	47843.173184	4035.220231	25520.099476
71.537500	-0.013223	-0.004671	-0.011468	-0.026208	6986.753398	47993.341786	4036.678478	25555.883454
72.035000	-0.008294	-0.004783	-0.008568	-0.029002	7059.367172	48272.244564	4051.463368	25701.895273
72.538000	-0.010047	-0.005210	-0.010232	-0.029445	7046.965205	48273.874709	4048.278648	25725.159898
73.036000	-0.012935	-0.006004	-0.010997	-0.025315	6981.112929	47763.006324	4035.587555	25509.365594
73.536000	-0.013201	-0.005533	-0.009669	-0.024896	6974.744328	47768.419125	4037.934997	25487.629787
74.036000	-0.010962	-0.006515	-0.010501	-0.028781	7032.048843	48068.818421	4045.845327	25690.300936
74.536500	-0.011939	-0.006408	-0.006566	-0.028602	7021.166730	48061.383406	4055.659827	25680.934610
75.037000	-0.010914	-0.006227	-0.008157	-0.027995	7025.099248	48017.251595	4049.908052	25649.158036
75.540000	-0.014442	-0.006750	-0.008417	-0.023984	6954.789489	47549.304685	4038.813743	25440.295570
76.040000	-0.012000	-0.006269	-0.007410	-0.026993	7005.508747	47909.091773	4049.244255	25596.824179
76.535000	-0.012883	-0.005947	-0.006580	-0.026244	6990.250034	47864.872803	4049.455071	25557.750436
77.037000	-0.010624	-0.006161	-0.000800	-0.025794	7007.166401	47796.278108	4063.447611	25534.300362
77.535500	-0.015181	-0.007073	-0.008509	-0.021036	6920.836940	47214.617893	4030.983733	25287.991190
78.038500	-0.010013	-0.006614	-0.005063	-0.025369	7008.905480	47705.627560	4051.128422	25512.169384
78.535500	-0.010681	-0.006916	-0.008593	-0.024707	6996.464333	47606.501055	4040.227286	25477.804462
79.036000	-0.012746	-0.006685	-0.010874	-0.024425	6974.591656	47601.213846	4033.614204	25463.143706
79.535500	-0.013610	-0.006750	-0.012820	-0.023577	6958.709210	47507.419337	4026.446097	25419.167268
80.039500	-0.011910	-0.006137	-0.006277	-0.022846	6967.701746	47495.407825	4041.407014	25381.389249
80.537000	-0.011171	-0.006046	-0.007344	-0.022321	6969.676898	47450.885758	4037.288930	25354.222620
81.034500	-0.012843	-0.006303	-0.007718	-0.022202	6953.086528	47412.320851	4036.017159	25348.074081
81.537500	-0.011117	-0.006181	-0.005986	-0.021581	6963.313287	47361.324751	4038.884595	25316.041944
82.035500	-0.011423	-0.006642	-0.005855	-0.021233	6957.259912	47278.614245	4038.322978	25298.100596
82.535500	-0.009514	-0.006372	-0.008898	-0.020818	6971.108557	47263.819363	4029.424578	25276.746504
83.035500	-0.013545	-0.006460	-0.010414	-0.017808	6906.264806	46949.013720	4017.884140	25122.410268
83.536000	-0.011010	-0.006203	-0.009874	-0.020544	6954.705890	47253.179651	4026.225812	25262.646243
84.042000	-0.012093	-0.005835	-0.006772	-0.019926	6939.014062	47227.656323	4032.592170	25230.900349
84.537000	-0.011489	-0.005821	-0.010308	-0.019780	6943.236953	47214.267536	4023.168061	25223.411116
85.037000	-0.013416	-0.005865	-0.004596	-0.020062	6928.097512	47238.532170	4038.553867	25237.905196
85.537000	-0.011122	-0.005487	-0.003553	-0.019270	6941.916117	47196.333234	4039.202258	25197.261216
86.037500	-0.009695	-0.005337	-0.005301	-0.018770	6950.473661	47160.660572	4033.404195	25171.629812
86.535500	-0.011085	-0.005014	-0.006719	-0.018442	6934.631137	47160.138278	4028.920886	25154.836041
87.035500	-0.010786	-0.005251	-0.009008	-0.018560	6938.468642	47147.992366	4023.371373	25160.840702
87.535500	-0.014432	-0.005434	-0.012690	-0.012934	6853.976484	46560.872858	3999.895372	24874.675991
88.035500	-0.012372	-0.005784	-0.007902	-0.018940	6927.373628	47132.452514	4027.165650	25180.316197
88.536500	-0.012386	-0.004758	-0.008573	-0.017656	6915.472368	47106.223273	4022.177667	25114.637374
89.036500	-0.013717	-0.005359	-0.013826	-0.014997	6879.109773	46776.045321	4002.211932	24979.200033
89.536500	-0.015535	-0.005472	-0.015997	-0.012204	6837.489229	46483.737734	3989.866527	24837.810829
90.037000	-0.011305	-0.004062	-0.008347	-0.016156	6911.635851	47024.561254	4018.937950	25038.132138
90.537500	-0.012466	-0.004428	-0.006019	-0.016879	6907.630307	47060.758792	4026.711396	25074.949924
91.038500	-0.013736	-0.004707	-0.010628	-0.014761	6876.796222	46818.124432	4009.642928	24967.240463
91.535500	-0.014695	-0.004327	-0.011149	-0.010056	6825.776906	46383.411330	3996.564817	24729.754085
92.035500	-0.011907	-0.004525	-0.006769	-0.015803	6902.910219	46941.804385	4022.050923	25020.138687
92.536000	-0.011967	-0.003677	-0.005811	-0.015208	6896.936391	46967.421757	4022.975646	24989.901157
93.042000	-0.015368	-0.004352	-0.011711	-0.011009	6828.279098	46476.382573	3997.538084	24777.645299
93.536500	-0.015442	-0.003687	-0.013943	-0.010295	6821.231823	46471.455517	3990.228136	24741.747955
94.042500	-0.010991	-0.003638	-0.006554	-0.014878	6902.834278	46937.986554	4020.247883	24973.173895
94.537000	-0.012262	-0.004099	-0.007082	-0.014773	6890.290905	46880.688632	4018.636812	24967.802486
95.037500	-0.013566	-0.003886	-0.007747	-0.010917	6843.628180	46513.877843	4007.221466	24773.018719
95.534500	-0.015454	-0.003584	-0.010744	-0.008299	6803.319529	46282.140405	3993.206773	24641.717920
96.059500	-0.009344	-0.002784	-0.008832	-0.013204	6902.586446	46855.008107	4010.244583	24888.350583
96.535500	-0.010611	-0.002866	-0.012407	-0.013150	6890.543234	46841.352608	4001.142579	24885.620435
97.036000	-0.012577	-0.003039	-0.007461	-0.013056	6871.848064	46814.387662	4013.331029	24880.873922
97.536000	-0.011375	-0.004206	-0.008878	-0.013563	6887.356488	46747.708887	4011.032802	24906.507220
98.065000	-0.010889	-0.002662	-0.007377	-0.012329	6880.553241	46778.990447	4011.706514	24844.131069
98.536500	-0.010999	-0.003180	-0.006675	-0.012464	6880.782940	46740.360391	4013.820520	24850.963373
